Bruker Nano GmbH Berlin, Germany
Esprit 1.9

Date: 6/2/2021 1:31:03 PM
Real time: 5000
Life time: 4672
Pulse density: 95274


Detector type: XFlash 430
Window type: Custom type
Detector thickness: 0.45
Si dead layer:0.029

Calibration, lin.: 10
Calibration, abs.: -955.9
Mn FWHM: 137.05
Fano factor: 0.121
Channels: 4096

Energy Counts
-0.9559     0
-0.9459     0
-0.9359     0
-0.9259     0
-0.9159     0
-0.9059     0
-0.8959     0
-0.8859     0
-0.8759     0
-0.8659     0
-0.8559     0
-0.8459     0
-0.8359     0
-0.8259     0
-0.8159     0
-0.8059     0
-0.7959     0
-0.7859     0
-0.7759     0
-0.7659     0
-0.7559     0
-0.7459     0
-0.7359     0
-0.7259     0
-0.7159     0
-0.7059     0
-0.6959     0
-0.6859     0
-0.6759     0
-0.6659     0
-0.6559     0
-0.6459     0
-0.6359     0
-0.6259     0
-0.6159     0
-0.6059     0
-0.5959     0
-0.5859     0
-0.5759     0
-0.5659     0
-0.5559     0
-0.5459     0
-0.5359     0
-0.5259     0
-0.5159     0
-0.5059     0
-0.4959     0
-0.4859     0
-0.4759     0
-0.4659     0
-0.4559     0
-0.4459     0
-0.4359     0
-0.4259     0
-0.4159     0
-0.4059     0
-0.3959     0
-0.3859     0
-0.3759     0
-0.3659     0
-0.3559     0
-0.3459     0
-0.3359     0
-0.3259     0
-0.3159     0
-0.3059     0
-0.2959     0
-0.2859     0
-0.2759     0
-0.2659     0
-0.2559     0
-0.2459     0
-0.2359     0
-0.2259     0
-0.2159     0
-0.2059     0
-0.1959     0
-0.1859     0
-0.1759     0
-0.1659     0
-0.1559     0
-0.1459     0
-0.1359     0
-0.1259     0
-0.1159     0
-0.1059     4
-0.0959    22
-0.0859    55
-0.0759   177
-0.0659   526
-0.0559  1337
-0.0459  2973
-0.0359  5548
-0.0259  8992
-0.0159 12169
-0.0059 14245
 0.0041 14596
 0.0141 12331
 0.0241  9199
 0.0341  5783
 0.0441  3101
 0.0541  1370
 0.0641   578
 0.0741   208
 0.0841    53
 0.0941    20
 0.1041     5
 0.1141     2
 0.1241     1
 0.1341     1
 0.1441     1
 0.1541     0
 0.1641     0
 0.1741     8
 0.1841    43
 0.1941    94
 0.2041    75
 0.2141    79
 0.2241    77
 0.2341    92
 0.2441    88
 0.2541    94
 0.2641    85
 0.2741    91
 0.2841    93
 0.2941    93
 0.3041    83
 0.3141    71
 0.3241    65
 0.3341    75
 0.3441    83
 0.3541    85
 0.3641    82
 0.3741    87
 0.3841    87
 0.3941    89
 0.4041    80
 0.4141    76
 0.4241    70
 0.4341    70
 0.4441    69
 0.4541    69
 0.4641    71
 0.4741    68
 0.4841    72
 0.4941    79
 0.5041    71
 0.5141    82
 0.5241    79
 0.5341    75
 0.5441    76
 0.5541    84
 0.5641    83
 0.5741    80
 0.5841    83
 0.5941    78
 0.6041    67
 0.6141    65
 0.6241    67
 0.6341    73
 0.6441    65
 0.6541    72
 0.6641    71
 0.6741    64
 0.6841    64
 0.6941    61
 0.7041    59
 0.7141    66
 0.7241    67
 0.7341    57
 0.7441    56
 0.7541    60
 0.7641    63
 0.7741    61
 0.7841    63
 0.7941    63
 0.8041    60
 0.8141    54
 0.8241    54
 0.8341    64
 0.8441    70
 0.8541    64
 0.8641    61
 0.8741    54
 0.8841    61
 0.8941    72
 0.9041    62
 0.9141    70
 0.9241    66
 0.9341    54
 0.9441    52
 0.9541    69
 0.9641    71
 0.9741    64
 0.9841    56
 0.9941    54
 1.0041    58
 1.0141    64
 1.0241    59
 1.0341    53
 1.0441    51
 1.0541    53
 1.0641    54
 1.0741    46
 1.0841    48
 1.0941    52
 1.1041    55
 1.1141    48
 1.1241    52
 1.1341    47
 1.1441    46
 1.1541    47
 1.1641    48
 1.1741    44
 1.1841    65
 1.1941    61
 1.2041    58
 1.2141    52
 1.2241    52
 1.2341    43
 1.2441    54
 1.2541    53
 1.2641    54
 1.2741    62
 1.2841    56
 1.2941    51
 1.3041    56
 1.3141    55
 1.3241    64
 1.3341    52
 1.3441    55
 1.3541    57
 1.3641    49
 1.3741    51
 1.3841    44
 1.3941    49
 1.4041    52
 1.4141    51
 1.4241    51
 1.4341    46
 1.4441    63
 1.4541    48
 1.4641    54
 1.4741    52
 1.4841    50
 1.4941    62
 1.5041    50
 1.5141    48
 1.5241    51
 1.5341    62
 1.5441    43
 1.5541    35
 1.5641    51
 1.5741    53
 1.5841    52
 1.5941    47
 1.6041    49
 1.6141    42
 1.6241    44
 1.6341    55
 1.6441    58
 1.6541    54
 1.6641    53
 1.6741    68
 1.6841    91
 1.6941   106
 1.7041   149
 1.7141   157
 1.7241   188
 1.7341   178
 1.7441   189
 1.7541   166
 1.7641   148
 1.7741   144
 1.7841   117
 1.7941    89
 1.8041    77
 1.8141    65
 1.8241    56
 1.8341    62
 1.8441    61
 1.8541    55
 1.8641    56
 1.8741    46
 1.8841    51
 1.8941    56
 1.9041    38
 1.9141    43
 1.9241    46
 1.9341    45
 1.9441    63
 1.9541    54
 1.9641    54
 1.9741    51
 1.9841    49
 1.9941    63
 2.0041    65
 2.0141    52
 2.0241    58
 2.0341    42
 2.0441    60
 2.0541    55
 2.0641    55
 2.0741    38
 2.0841    45
 2.0941    52
 2.1041    46
 2.1141    42
 2.1241    42
 2.1341    40
 2.1441    50
 2.1541    35
 2.1641    55
 2.1741    42
 2.1841    43
 2.1941    40
 2.2041    38
 2.2141    40
 2.2241    40
 2.2341    41
 2.2441    49
 2.2541    36
 2.2641    42
 2.2741    48
 2.2841    43
 2.2941    48
 2.3041    45
 2.3141    29
 2.3241    43
 2.3341    37
 2.3441    46
 2.3541    42
 2.3641    38
 2.3741    34
 2.3841    43
 2.3941    48
 2.4041    43
 2.4141    42
 2.4241    29
 2.4341    45
 2.4441    29
 2.4541    27
 2.4641    39
 2.4741    43
 2.4841    37
 2.4941    39
 2.5041    49
 2.5141    34
 2.5241    42
 2.5341    32
 2.5441    29
 2.5541    44
 2.5641    45
 2.5741    47
 2.5841    50
 2.5941    39
 2.6041    46
 2.6141    43
 2.6241    36
 2.6341    41
 2.6441    54
 2.6541    38
 2.6641    40
 2.6741    34
 2.6841    40
 2.6941    38
 2.7041    26
 2.7141    31
 2.7241    35
 2.7341    29
 2.7441    30
 2.7541    34
 2.7641    42
 2.7741    35
 2.7841    44
 2.7941    35
 2.8041    46
 2.8141    33
 2.8241    42
 2.8341    44
 2.8441    30
 2.8541    48
 2.8641    39
 2.8741    47
 2.8841    47
 2.8941    34
 2.9041    46
 2.9141    40
 2.9241    42
 2.9341    51
 2.9441    25
 2.9541    34
 2.9641    35
 2.9741    32
 2.9841    28
 2.9941    27
 3.0041    44
 3.0141    24
 3.0241    45
 3.0341    34
 3.0441    37
 3.0541    32
 3.0641    29
 3.0741    33
 3.0841    36
 3.0941    28
 3.1041    31
 3.1141    34
 3.1241    31
 3.1341    33
 3.1441    30
 3.1541    27
 3.1641    33
 3.1741    28
 3.1841    35
 3.1941    31
 3.2041    41
 3.2141    31
 3.2241    34
 3.2341    51
 3.2441    37
 3.2541    54
 3.2641    42
 3.2741    46
 3.2841    63
 3.2941    51
 3.3041    63
 3.3141    62
 3.3241    61
 3.3341    55
 3.3441    60
 3.3541    63
 3.3641    45
 3.3741    38
 3.3841    34
 3.3941    39
 3.4041    30
 3.4141    34
 3.4241    24
 3.4341    31
 3.4441    33
 3.4541    26
 3.4641    26
 3.4741    33
 3.4841    26
 3.4941    33
 3.5041    33
 3.5141    31
 3.5241    42
 3.5341    35
 3.5441    37
 3.5541    45
 3.5641    54
 3.5741    55
 3.5841    62
 3.5941    77
 3.6041    95
 3.6141   124
 3.6241   149
 3.6341   173
 3.6441   182
 3.6541   208
 3.6641   231
 3.6741   279
 3.6841   278
 3.6941   265
 3.7041   259
 3.7141   249
 3.7241   238
 3.7341   176
 3.7441   149
 3.7541   131
 3.7641    96
 3.7741    73
 3.7841    54
 3.7941    41
 3.8041    44
 3.8141    26
 3.8241    35
 3.8341    22
 3.8441    26
 3.8541    25
 3.8641    22
 3.8741    21
 3.8841    26
 3.8941    29
 3.9041    31
 3.9141    30
 3.9241    28
 3.9341    42
 3.9441    40
 3.9541    36
 3.9641    31
 3.9741    51
 3.9841    68
 3.9941    57
 4.0041    63
 4.0141    59
 4.0241    60
 4.0341    64
 4.0441    46
 4.0541    48
 4.0641    43
 4.0741    40
 4.0841    39
 4.0941    41
 4.1041    26
 4.1141    29
 4.1241    28
 4.1341    19
 4.1441    21
 4.1541    18
 4.1641    15
 4.1741    17
 4.1841    36
 4.1941    24
 4.2041    24
 4.2141    17
 4.2241    20
 4.2341    24
 4.2441    19
 4.2541    10
 4.2641    17
 4.2741    27
 4.2841    25
 4.2941    19
 4.3041    21
 4.3141    16
 4.3241    23
 4.3341    24
 4.3441    32
 4.3541    24
 4.3641    25
 4.3741    23
 4.3841    34
 4.3941    40
 4.4041    49
 4.4141    68
 4.4241    66
 4.4341    93
 4.4441   120
 4.4541   131
 4.4641   118
 4.4741   152
 4.4841   161
 4.4941   189
 4.5041   201
 4.5141   182
 4.5241   192
 4.5341   182
 4.5441   129
 4.5541   122
 4.5641   110
 4.5741   107
 4.5841    69
 4.5941    57
 4.6041    52
 4.6141    40
 4.6241    35
 4.6341    34
 4.6441    38
 4.6541    25
 4.6641    23
 4.6741    31
 4.6841    33
 4.6941    26
 4.7041    24
 4.7141    24
 4.7241    25
 4.7341    17
 4.7441    30
 4.7541    33
 4.7641    27
 4.7741    31
 4.7841    20
 4.7941    19
 4.8041    21
 4.8141    32
 4.8241    33
 4.8341    45
 4.8441    40
 4.8541    54
 4.8641    50
 4.8741    50
 4.8841    55
 4.8941    57
 4.9041    47
 4.9141    44
 4.9241    63
 4.9341    58
 4.9441    52
 4.9541    55
 4.9641    52
 4.9741    46
 4.9841    40
 4.9941    46
 5.0041    34
 5.0141    39
 5.0241    31
 5.0341    37
 5.0441    36
 5.0541    26
 5.0641    21
 5.0741    27
 5.0841    22
 5.0941    27
 5.1041    25
 5.1141    22
 5.1241    22
 5.1341    26
 5.1441    27
 5.1541    23
 5.1641    25
 5.1741     9
 5.1841    25
 5.1941    27
 5.2041    28
 5.2141    28
 5.2241    24
 5.2341    24
 5.2441    21
 5.2541    13
 5.2641    28
 5.2741    29
 5.2841    26
 5.2941    25
 5.3041    20
 5.3141    25
 5.3241    23
 5.3341    26
 5.3441    25
 5.3541    23
 5.3641    33
 5.3741    25
 5.3841    32
 5.3941    20
 5.4041    35
 5.4141    35
 5.4241    28
 5.4341    31
 5.4441    29
 5.4541    24
 5.4641    30
 5.4741    24
 5.4841    22
 5.4941    31
 5.5041    26
 5.5141    30
 5.5241    43
 5.5341    30
 5.5441    27
 5.5541    24
 5.5641    26
 5.5741    19
 5.5841    18
 5.5941    30
 5.6041    23
 5.6141    26
 5.6241    28
 5.6341    25
 5.6441    27
 5.6541    21
 5.6641    35
 5.6741    23
 5.6841    26
 5.6941    22
 5.7041    32
 5.7141    24
 5.7241    32
 5.7341    37
 5.7441    36
 5.7541    51
 5.7641    62
 5.7741    52
 5.7841    84
 5.7941    87
 5.8041   108
 5.8141   132
 5.8241   166
 5.8341   205
 5.8441   247
 5.8541   231
 5.8641   282
 5.8741   296
 5.8841   290
 5.8941   319
 5.9041   339
 5.9141   317
 5.9241   269
 5.9341   272
 5.9441   239
 5.9541   200
 5.9641   150
 5.9741   139
 5.9841   106
 5.9941    88
 6.0041    71
 6.0141    77
 6.0241    43
 6.0341    41
 6.0441    46
 6.0541    39
 6.0641    38
 6.0741    42
 6.0841    44
 6.0941    32
 6.1041    43
 6.1141    37
 6.1241    29
 6.1341    45
 6.1441    44
 6.1541    50
 6.1641    37
 6.1741    65
 6.1841    46
 6.1941    71
 6.2041    71
 6.2141    87
 6.2241   133
 6.2341   162
 6.2441   206
 6.2541   304
 6.2641   431
 6.2741   529
 6.2841   713
 6.2941   953
 6.3041  1210
 6.3141  1571
 6.3241  1945
 6.3341  2367
 6.3441  2615
 6.3541  2987
 6.3641  3365
 6.3741  3668
 6.3841  3815
 6.3941  3817
 6.4041  3928
 6.4141  3732
 6.4241  3483
 6.4341  3095
 6.4441  2912
 6.4541  2451
 6.4641  2088
 6.4741  1747
 6.4841  1319
 6.4941  1105
 6.5041   806
 6.5141   642
 6.5241   404
 6.5341   324
 6.5441   263
 6.5541   166
 6.5641   135
 6.5741    95
 6.5841    71
 6.5941    77
 6.6041    45
 6.6141    44
 6.6241    39
 6.6341    41
 6.6441    28
 6.6541    36
 6.6641    32
 6.6741    38
 6.6841    46
 6.6941    42
 6.7041    29
 6.7141    35
 6.7241    37
 6.7341    39
 6.7441    33
 6.7541    36
 6.7641    30
 6.7741    51
 6.7841    45
 6.7941    35
 6.8041    35
 6.8141    35
 6.8241    48
 6.8341    50
 6.8441    52
 6.8541    57
 6.8641    72
 6.8741    81
 6.8841    85
 6.8941   102
 6.9041   105
 6.9141   120
 6.9241   133
 6.9341   144
 6.9441   217
 6.9541   255
 6.9641   284
 6.9741   321
 6.9841   393
 6.9941   444
 7.0041   500
 7.0141   522
 7.0241   551
 7.0341   604
 7.0441   587
 7.0541   627
 7.0641   604
 7.0741   595
 7.0841   563
 7.0941   527
 7.1041   441
 7.1141   417
 7.1241   370
 7.1341   308
 7.1441   216
 7.1541   226
 7.1641   185
 7.1741   153
 7.1841   120
 7.1941    80
 7.2041    78
 7.2141    78
 7.2241    69
 7.2341    54
 7.2441    60
 7.2541    58
 7.2641    51
 7.2741    58
 7.2841    66
 7.2941    53
 7.3041    70
 7.3141    54
 7.3241    61
 7.3341    48
 7.3441    77
 7.3541    85
 7.3641    68
 7.3741    73
 7.3841    79
 7.3941    77
 7.4041    64
 7.4141    66
 7.4241    77
 7.4341    74
 7.4441    62
 7.4541    65
 7.4641    66
 7.4741    55
 7.4841    70
 7.4941    56
 7.5041    56
 7.5141    42
 7.5241    58
 7.5341    54
 7.5441    46
 7.5541    35
 7.5641    39
 7.5741    49
 7.5841    56
 7.5941    47
 7.6041    52
 7.6141    52
 7.6241    50
 7.6341    63
 7.6441    57
 7.6541    58
 7.6641    56
 7.6741    56
 7.6841    64
 7.6941    54
 7.7041    50
 7.7141    64
 7.7241    74
 7.7341    52
 7.7441    63
 7.7541    56
 7.7641    72
 7.7741    70
 7.7841    55
 7.7941    66
 7.8041    67
 7.8141    66
 7.8241    63
 7.8341    73
 7.8441    60
 7.8541    70
 7.8641    82
 7.8741    75
 7.8841    74
 7.8941    75
 7.9041    77
 7.9141    88
 7.9241   110
 7.9341   107
 7.9441   114
 7.9541   124
 7.9641   118
 7.9741   132
 7.9841   158
 7.9941   144
 8.0041   156
 8.0141   170
 8.0241   168
 8.0341   214
 8.0441   235
 8.0541   230
 8.0641   245
 8.0741   238
 8.0841   259
 8.0941   280
 8.1041   295
 8.1141   312
 8.1241   304
 8.1341   345
 8.1441   323
 8.1541   343
 8.1641   351
 8.1741   370
 8.1841   346
 8.1941   394
 8.2041   374
 8.2141   387
 8.2241   376
 8.2341   390
 8.2441   396
 8.2541   403
 8.2641   418
 8.2741   444
 8.2841   469
 8.2941   523
 8.3041   562
 8.3141   604
 8.3241   636
 8.3341   672
 8.3441   756
 8.3541   757
 8.3641   789
 8.3741   777
 8.3841   734
 8.3941   783
 8.4041   777
 8.4141   743
 8.4241   716
 8.4341   672
 8.4441   599
 8.4541   498
 8.4641   452
 8.4741   387
 8.4841   316
 8.4941   287
 8.5041   232
 8.5141   229
 8.5241   187
 8.5341   152
 8.5441   140
 8.5541   133
 8.5641   132
 8.5741   127
 8.5841   100
 8.5941   123
 8.6041   101
 8.6141    99
 8.6241   116
 8.6341   102
 8.6441   112
 8.6541   113
 8.6641   111
 8.6741   112
 8.6841   109
 8.6941   105
 8.7041    97
 8.7141   113
 8.7241    99
 8.7341    89
 8.7441   103
 8.7541   101
 8.7641    83
 8.7741    98
 8.7841    98
 8.7941    90
 8.8041    86
 8.8141    97
 8.8241    79
 8.8341    98
 8.8441    92
 8.8541    82
 8.8641    84
 8.8741    81
 8.8841    81
 8.8941    83
 8.9041    86
 8.9141    83
 8.9241    93
 8.9341    94
 8.9441    90
 8.9541    80
 8.9641    95
 8.9741    89
 8.9841    95
 8.9941   109
 9.0041   103
 9.0141   108
 9.0241   103
 9.0341    94
 9.0441   103
 9.0541   101
 9.0641   100
 9.0741   114
 9.0841   117
 9.0941   131
 9.1041   129
 9.1141   129
 9.1241   140
 9.1341   127
 9.1441   129
 9.1541   127
 9.1641   155
 9.1741   162
 9.1841   160
 9.1941   194
 9.2041   188
 9.2141   211
 9.2241   223
 9.2341   206
 9.2441   224
 9.2541   253
 9.2641   251
 9.2741   271
 9.2841   267
 9.2941   278
 9.3041   279
 9.3141   306
 9.3241   318
 9.3341   335
 9.3441   346
 9.3541   334
 9.3641   347
 9.3741   352
 9.3841   350
 9.3941   342
 9.4041   368
 9.4141   372
 9.4241   379
 9.4341   342
 9.4441   333
 9.4541   403
 9.4641   393
 9.4741   380
 9.4841   375
 9.4941   359
 9.5041   393
 9.5141   426
 9.5241   426
 9.5341   438
 9.5441   483
 9.5541   511
 9.5641   538
 9.5741   546
 9.5841   542
 9.5941   584
 9.6041   655
 9.6141   640
 9.6241   704
 9.6341   780
 9.6441   745
 9.6541   777
 9.6641   736
 9.6741   771
 9.6841   767
 9.6941   748
 9.7041   667
 9.7141   633
 9.7241   609
 9.7341   603
 9.7441   571
 9.7541   516
 9.7641   465
 9.7741   423
 9.7841   407
 9.7941   397
 9.8041   354
 9.8141   334
 9.8241   342
 9.8341   304
 9.8441   281
 9.8541   332
 9.8641   307
 9.8741   323
 9.8841   334
 9.8941   325
 9.9041   340
 9.9141   345
 9.9241   352
 9.9341   332
 9.9441   331
 9.9541   332
 9.9641   307
 9.9741   307
 9.9841   301
 9.9941   297
10.0041   265
10.0141   258
10.0241   246
10.0341   220
10.0441   185
10.0541   161
10.0641   151
10.0741   136
10.0841   117
10.0941   108
10.1041   116
10.1141    99
10.1241    76
10.1341    73
10.1441    71
10.1541    85
10.1641    79
10.1741    74
10.1841    69
10.1941    81
10.2041    76
10.2141    64
10.2241    64
10.2341    70
10.2441    64
10.2541    70
10.2641    61
10.2741    43
10.2841    53
10.2941    59
10.3041    49
10.3141    60
10.3241    60
10.3341    54
10.3441    46
10.3541    52
10.3641    54
10.3741    61
10.3841    55
10.3941    53
10.4041    56
10.4141    57
10.4241    58
10.4341    55
10.4441    46
10.4541    52
10.4641    49
10.4741    51
10.4841    56
10.4941    59
10.5041    57
10.5141    54
10.5241    53
10.5341    53
10.5441    54
10.5541    53
10.5641    48
10.5741    46
10.5841    44
10.5941    49
10.6041    48
10.6141    54
10.6241    64
10.6341    59
10.6441    47
10.6541    53
10.6641    59
10.6741    70
10.6841    69
10.6941    50
10.7041    52
10.7141    66
10.7241    59
10.7341    65
10.7441    64
10.7541    73
10.7641    65
10.7741    59
10.7841    60
10.7941    73
10.8041    64
10.8141    77
10.8241    84
10.8341    81
10.8441    68
10.8541    75
10.8641    78
10.8741    84
10.8841    96
10.8941    83
10.9041    92
10.9141    78
10.9241    89
10.9341    86
10.9441    97
10.9541    86
10.9641    79
10.9741    95
10.9841    87
10.9941    76
11.0041    69
11.0141    67
11.0241    69
11.0341    82
11.0441    69
11.0541    73
11.0641    78
11.0741    65
11.0841    73
11.0941    73
11.1041    72
11.1141    76
11.1241    75
11.1341    73
11.1441    72
11.1541    70
11.1641    79
11.1741    91
11.1841    90
11.1941    94
11.2041    91
11.2141    89
11.2241   108
11.2341   106
11.2441   112
11.2541   115
11.2641   113
11.2741   112
11.2841   110
11.2941   104
11.3041   112
11.3141   114
11.3241    96
11.3341    94
11.3441    97
11.3541    97
11.3641    82
11.3741    80
11.3841    81
11.3941    86
11.4041    58
11.4141    58
11.4241    69
11.4341    62
11.4441    58
11.4541    59
11.4641    77
11.4741    60
11.4841    50
11.4941    62
11.5041    57
11.5141    59
11.5241    59
11.5341    74
11.5441    67
11.5541    68
11.5641    60
11.5741    60
11.5841    63
11.5941    62
11.6041    64
11.6141    70
11.6241    65
11.6341    61
11.6441    65
11.6541    61
11.6641    60
11.6741    65
11.6841    55
11.6941    54
11.7041    50
11.7141    56
11.7241    61
11.7341    53
11.7441    50
11.7541    47
11.7641    49
11.7741    51
11.7841    56
11.7941    52
11.8041    48
11.8141    45
11.8241    51
11.8341    45
11.8441    41
11.8541    43
11.8641    41
11.8741    40
11.8841    44
11.8941    52
11.9041    47
11.9141    39
11.9241    36
11.9341    35
11.9441    36
11.9541    37
11.9641    37
11.9741    42
11.9841    40
11.9941    43
12.0041    40
12.0141    40
12.0241    37
12.0341    37
12.0441    42
12.0541    45
12.0641    48
12.0741    39
12.0841    40
12.0941    45
12.1041    47
12.1141    40
12.1241    37
12.1341    43
12.1441    47
12.1541    36
12.1641    34
12.1741    41
12.1841    50
12.1941    40
12.2041    39
12.2141    45
12.2241    46
12.2341    43
12.2441    40
12.2541    43
12.2641    47
12.2741    45
12.2841    47
12.2941    41
12.3041    37
12.3141    35
12.3241    41
12.3341    38
12.3441    37
12.3541    37
12.3641    45
12.3741    46
12.3841    45
12.3941    41
12.4041    36
12.4141    37
12.4241    45
12.4341    43
12.4441    37
12.4541    44
12.4641    43
12.4741    38
12.4841    36
12.4941    48
12.5041    50
12.5141    51
12.5241    47
12.5341    38
12.5441    40
12.5541    52
12.5641    51
12.5741    44
12.5841    46
12.5941    50
12.6041    47
12.6141    48
12.6241    51
12.6341    48
12.6441    46
12.6541    49
12.6641    43
12.6741    47
12.6841    51
12.6941    53
12.7041    49
12.7141    50
12.7241    55
12.7341    58
12.7441    45
12.7541    48
12.7641    51
12.7741    54
12.7841    50
12.7941    45
12.8041    45
12.8141    50
12.8241    49
12.8341    43
12.8441    42
12.8541    38
12.8641    44
12.8741    46
12.8841    49
12.8941    59
12.9041    56
12.9141    50
12.9241    50
12.9341    55
12.9441    53
12.9541    50
12.9641    46
12.9741    49
12.9841    54
12.9941    52
13.0041    48
13.0141    46
13.0241    50
13.0341    55
13.0441    57
13.0541    50
13.0641    45
13.0741    58
13.0841    68
13.0941    58
13.1041    48
13.1141    45
13.1241    53
13.1341    57
13.1441    47
13.1541    47
13.1641    63
13.1741    64
13.1841    56
13.1941    57
13.2041    54
13.2141    52
13.2241    52
13.2341    57
13.2441    57
13.2541    58
13.2641    66
13.2741    66
13.2841    72
13.2941    73
13.3041    71
13.3141    74
13.3241    69
13.3341    64
13.3441    66
13.3541    74
13.3641    75
13.3741    77
13.3841    66
13.3941    65
13.4041    77
13.4141    79
13.4241    64
13.4341    67
13.4441    73
13.4541    58
13.4641    53
13.4741    61
13.4841    67
13.4941    69
13.5041    63
13.5141    56
13.5241    60
13.5341    62
13.5441    56
13.5541    52
13.5641    62
13.5741    64
13.5841    58
13.5941    59
13.6041    59
13.6141    59
13.6241    54
13.6341    58
13.6441    64
13.6541    57
13.6641    52
13.6741    51
13.6841    58
13.6941    62
13.7041    60
13.7141    57
13.7241    55
13.7341    61
13.7441    64
13.7541    64
13.7641    59
13.7741    58
13.7841    59
13.7941    56
13.8041    60
13.8141    61
13.8241    66
13.8341    64
13.8441    60
13.8541    69
13.8641    74
13.8741    63
13.8841    46
13.8941    43
13.9041    56
13.9141    61
13.9241    60
13.9341    64
13.9441    59
13.9541    62
13.9641    69
13.9741    67
13.9841    67
13.9941    70
14.0041    67
14.0141    81
14.0241    89
14.0341    75
14.0441    76
14.0541    86
14.0641    77
14.0741    70
14.0841    79
14.0941    85
14.1041    95
14.1141    94
14.1241    87
14.1341    83
14.1441    84
14.1541    98
14.1641    99
14.1741    87
14.1841    78
14.1941    84
14.2041    85
14.2141    75
14.2241    84
14.2341    87
14.2441    75
14.2541    79
14.2641    79
14.2741    69
14.2841    67
14.2941    64
14.3041    67
14.3141    59
14.3241    54
14.3341    62
14.3441    65
14.3541    78
14.3641    83
14.3741    72
14.3841    66
14.3941    64
14.4041    65
14.4141    77
14.4241    75
14.4341    62
14.4441    68
14.4541    70
14.4641    68
14.4741    65
14.4841    59
14.4941    60
14.5041    67
14.5141    78
14.5241    79
14.5341    67
14.5441    64
14.5541    74
14.5641    74
14.5741    79
14.5841    76
14.5941    67
14.6041    64
14.6141    65
14.6241    69
14.6341    75
14.6441    80
14.6541    69
14.6641    71
14.6741    80
14.6841    77
14.6941    61
14.7041    61
14.7141    73
14.7241    75
14.7341    73
14.7441    67
14.7541    66
14.7641    74
14.7741    77
14.7841    71
14.7941    78
14.8041    83
14.8141    87
14.8241    87
14.8341    77
14.8441    80
14.8541    74
14.8641    76
14.8741    80
14.8841    80
14.8941    80
14.9041    94
14.9141    84
14.9241    79
14.9341    84
14.9441    80
14.9541    82
14.9641    83
14.9741    80
14.9841    76
14.9941    73
15.0041    75
15.0141    91
15.0241    93
15.0341    83
15.0441    79
15.0541    77
15.0641    73
15.0741    75
15.0841    83
15.0941    77
15.1041    65
15.1141    75
15.1241    81
15.1341    83
15.1441    79
15.1541    74
15.1641    89
15.1741    85
15.1841    67
15.1941    73
15.2041    75
15.2141    69
15.2241    75
15.2341    75
15.2441    71
15.2541    76
15.2641    75
15.2741    86
15.2841    88
15.2941    80
15.3041    71
15.3141    75
15.3241    80
15.3341    81
15.3441    73
15.3541    75
15.3641    78
15.3741    80
15.3841    87
15.3941    75
15.4041    86
15.4141    94
15.4241    81
15.4341    86
15.4441    84
15.4541    80
15.4641    78
15.4741    81
15.4841    89
15.4941    81
15.5041    78
15.5141   102
15.5241   106
15.5341   104
15.5441   106
15.5541   113
15.5641   112
15.5741   102
15.5841   112
15.5941   131
15.6041   134
15.6141   141
15.6241   155
15.6341   155
15.6441   154
15.6541   163
15.6641   169
15.6741   176
15.6841   175
15.6941   168
15.7041   183
15.7141   214
15.7241   210
15.7341   196
15.7441   201
15.7541   209
15.7641   211
15.7741   199
15.7841   188
15.7941   171
15.8041   187
15.8141   195
15.8241   158
15.8341   157
15.8441   173
15.8541   166
15.8641   135
15.8741   130
15.8841   122
15.8941   126
15.9041   131
15.9141   121
15.9241   114
15.9341   112
15.9441   114
15.9541   123
15.9641   110
15.9741    98
15.9841   102
15.9941    88
16.0041    94
16.0141    96
16.0241   105
16.0341   104
16.0441    92
16.0541    93
16.0641    96
16.0741    96
16.0841    97
16.0941    90
16.1041    95
16.1141    91
16.1241    81
16.1341    85
16.1441    86
16.1541    91
16.1641    94
16.1741   106
16.1841   108
16.1941   102
16.2041    88
16.2141   102
16.2241   106
16.2341   102
16.2441    92
16.2541    95
16.2641   103
16.2741    97
16.2841    99
16.2941    94
16.3041    98
16.3141    85
16.3241    84
16.3341    88
16.3441   100
16.3541   100
16.3641   113
16.3741   100
16.3841   102
16.3941    89
16.4041   100
16.4141    99
16.4241   101
16.4341   112
16.4441   107
16.4541    92
16.4641    96
16.4741    94
16.4841   102
16.4941   101
16.5041   102
16.5141    91
16.5241    87
16.5341    89
16.5441    94
16.5541   106
16.5641   101
16.5741    95
16.5841    97
16.5941   106
16.6041   102
16.6141    99
16.6241    98
16.6341   101
16.6441    96
16.6541   106
16.6641   113
16.6741    95
16.6841    98
16.6941   105
16.7041   115
16.7141   119
16.7241   111
16.7341   110
16.7441   105
16.7541   115
16.7641   114
16.7741   109
16.7841   115
16.7941   109
16.8041   109
16.8141   102
16.8241   112
16.8341   110
16.8441    98
16.8541   118
16.8641   113
16.8741   106
16.8841   107
16.8941   112
16.9041   113
16.9141   111
16.9241    97
16.9341   114
16.9441   106
16.9541    97
16.9641    96
16.9741   105
16.9841    96
16.9941   107
17.0041   108
17.0141   110
17.0241   117
17.0341   121
17.0441   128
17.0541   113
17.0641   117
17.0741   102
17.0841   106
17.0941   109
17.1041   102
17.1141    99
17.1241   108
17.1341   114
17.1441   105
17.1541   113
17.1641   118
17.1741   107
17.1841   109
17.1941   120
17.2041   118
17.2141   122
17.2241   126
17.2341   102
17.2441   115
17.2541   114
17.2641   126
17.2741   108
17.2841   110
17.2941   112
17.3041   109
17.3141   110
17.3241   112
17.3341   115
17.3441   107
17.3541   115
17.3641   112
17.3741   111
17.3841   108
17.3941   112
17.4041   111
17.4141   116
17.4241   115
17.4341   117
17.4441   118
17.4541   123
17.4641   121
17.4741   120
17.4841   117
17.4941   124
17.5041   123
17.5141   115
17.5241   111
17.5341   120
17.5441   134
17.5541   146
17.5641   125
17.5741   125
17.5841   134
17.5941   131
17.6041   133
17.6141   122
17.6241   136
17.6341   130
17.6441   123
17.6541   138
17.6641   143
17.6741   158
17.6841   144
17.6941   123
17.7041   143
17.7141   146
17.7241   127
17.7341   135
17.7441   130
17.7541   126
17.7641   139
17.7741   126
17.7841   144
17.7941   128
17.8041   128
17.8141   131
17.8241   129
17.8341   135
17.8441   114
17.8541   130
17.8641   137
17.8741   125
17.8841   131
17.8941   133
17.9041   133
17.9141   126
17.9241   123
17.9341   120
17.9441   128
17.9541   116
17.9641   122
17.9741   126
17.9841   141
17.9941   139
18.0041   137
18.0141   131
18.0241   124
18.0341   134
18.0441   119
18.0541   125
18.0641   138
18.0741   129
18.0841   130
18.0941   126
18.1041   126
18.1141   131
18.1241   122
18.1341   117
18.1441   117
18.1541   134
18.1641   126
18.1741   132
18.1841   131
18.1941   121
18.2041   124
18.2141   127
18.2241   147
18.2341   131
18.2441   131
18.2541   136
18.2641   116
18.2741   116
18.2841   125
18.2941   129
18.3041   126
18.3141   129
18.3241   133
18.3341   131
18.3441   125
18.3541   147
18.3641   140
18.3741   150
18.3841   143
18.3941   136
18.4041   132
18.4141   126
18.4241   118
18.4341   108
18.4441   118
18.4541   139
18.4641   136
18.4741   157
18.4841   136
18.4941   127
18.5041   131
18.5141   121
18.5241   124
18.5341   127
18.5441   116
18.5541   136
18.5641   148
18.5741   128
18.5841   131
18.5941   119
18.6041   110
18.6141   130
18.6241   127
18.6341   137
18.6441   135
18.6541   155
18.6641   142
18.6741   147
18.6841   146
18.6941   137
18.7041   139
18.7141   118
18.7241   122
18.7341   122
18.7441   129
18.7541   131
18.7641   143
18.7741   131
18.7841   142
18.7941   149
18.8041   152
18.8141   156
18.8241   150
18.8341   129
18.8441   143
18.8541   144
18.8641   139
18.8741   139
18.8841   134
18.8941   141
18.9041   145
18.9141   142
18.9241   130
18.9341   132
18.9441   139
18.9541   149
18.9641   155
18.9741   146
18.9841   135
18.9941   144
19.0041   142
19.0141   152
19.0241   140
19.0341   139
19.0441   122
19.0541   133
19.0641   136
19.0741   147
19.0841   143
19.0941   141
19.1041   134
19.1141   141
19.1241   144
19.1341   132
19.1441   140
19.1541   144
19.1641   132
19.1741   156
19.1841   138
19.1941   152
19.2041   138
19.2141   138
19.2241   128
19.2341   138
19.2441   123
19.2541   132
19.2641   139
19.2741   133
19.2841   127
19.2941   150
19.3041   141
19.3141   138
19.3241   137
19.3341   136
19.3441   132
19.3541   143
19.3641   148
19.3741   144
19.3841   129
19.3941   145
19.4041   151
19.4141   121
19.4241   150
19.4341   140
19.4441   167
19.4541   153
19.4641   131
19.4741   153
19.4841   141
19.4941   140
19.5041   133
19.5141   161
19.5241   124
19.5341   137
19.5441   151
19.5541   139
19.5641   137
19.5741   151
19.5841   133
19.5941   150
19.6041   144
19.6141   162
19.6241   154
19.6341   136
19.6441   144
19.6541   147
19.6641   145
19.6741   130
19.6841   142
19.6941   150
19.7041   147
19.7141   139
19.7241   138
19.7341   146
19.7441   137
19.7541   135
19.7641   143
19.7741   160
19.7841   134
19.7941   149
19.8041   157
19.8141   158
19.8241   164
19.8341   149
19.8441   150
19.8541   133
19.8641   147
19.8741   148
19.8841   134
19.8941   168
19.9041   141
19.9141   146
19.9241   137
19.9341   150
19.9441   161
19.9541   150
19.9641   129
19.9741   150
19.9841   148
19.9941   156
20.0041   154
20.0141   136
20.0241   164
20.0341   149
20.0441   143
20.0541   126
20.0641   153
20.0741   168
20.0841   146
20.0941   171
20.1041   164
20.1141   141
20.1241   141
20.1341   160
20.1441   159
20.1541   140
20.1641   169
20.1741   162
20.1841   130
20.1941   146
20.2041   150
20.2141   142
20.2241   171
20.2341   139
20.2441   149
20.2541   131
20.2641   173
20.2741   177
20.2841   136
20.2941   137
20.3041   150
20.3141   158
20.3241   159
20.3341   153
20.3441   139
20.3541   156
20.3641   170
20.3741   148
20.3841   147
20.3941   156
20.4041   148
20.4141   153
20.4241   159
20.4341   143
20.4441   144
20.4541   144
20.4641   163
20.4741   168
20.4841   159
20.4941   156
20.5041   181
20.5141   160
20.5241   156
20.5341   178
20.5441   149
20.5541   159
20.5641   136
20.5741   150
20.5841   126
20.5941   151
20.6041   150
20.6141   162
20.6241   159
20.6341   153
20.6441   144
20.6541   146
20.6641   167
20.6741   150
20.6841   151
20.6941   149
20.7041   156
20.7141   155
20.7241   161
20.7341   153
20.7441   164
20.7541   165
20.7641   150
20.7741   154
20.7841   158
20.7941   171
20.8041   182
20.8141   159
20.8241   161
20.8341   172
20.8441   176
20.8541   174
20.8641   177
20.8741   170
20.8841   199
20.8941   161
20.9041   183
20.9141   184
20.9241   171
20.9341   197
20.9441   190
20.9541   199
20.9641   210
20.9741   186
20.9841   191
20.9941   204
21.0041   213
21.0141   213
21.0241   226
21.0341   221
21.0441   245
21.0541   216
21.0641   232
21.0741   225
21.0841   213
21.0941   219
21.1041   239
21.1141   234
21.1241   229
21.1341   262
21.1441   248
21.1541   229
21.1641   234
21.1741   234
21.1841   218
21.1941   224
21.2041   237
21.2141   223
21.2241   203
21.2341   209
21.2441   217
21.2541   204
21.2641   187
21.2741   193
21.2841   226
21.2941   179
21.3041   178
21.3141   174
21.3241   178
21.3341   172
21.3441   187
21.3541   160
21.3641   152
21.3741   169
21.3841   155
21.3941   153
21.4041   143
21.4141   178
21.4241   181
21.4341   146
21.4441   152
21.4541   160
21.4641   169
21.4741   144
21.4841   187
21.4941   147
21.5041   152
21.5141   149
21.5241   151
21.5341   165
21.5441   175
21.5541   168
21.5641   158
21.5741   159
21.5841   148
21.5941   153
21.6041   170
21.6141   152
21.6241   137
21.6341   150
21.6441   151
21.6541   140
21.6641   142
21.6741   149
21.6841   146
21.6941   179
21.7041   139
21.7141   153
21.7241   165
21.7341   139
21.7441   152
21.7541   152
21.7641   158
21.7741   164
21.7841   157
21.7941   140
21.8041   151
21.8141   134
21.8241   154
21.8341   150
21.8441   139
21.8541   164
21.8641   150
21.8741   152
21.8841   176
21.8941   160
21.9041   157
21.9141   173
21.9241   168
21.9341   176
21.9441   178
21.9541   154
21.9641   155
21.9741   169
21.9841   161
21.9941   182
22.0041   185
22.0141   137
22.0241   148
22.0341   141
22.0441   164
22.0541   164
22.0641   140
22.0741   168
22.0841   163
22.0941   168
22.1041   159
22.1141   145
22.1241   136
22.1341   152
22.1441   153
22.1541   143
22.1641   153
22.1741   166
22.1841   161
22.1941   151
22.2041   187
22.2141   161
22.2241   168
22.2341   162
22.2441   156
22.2541   159
22.2641   162
22.2741   147
22.2841   187
22.2941   142
22.3041   164
22.3141   174
22.3241   165
22.3341   163
22.3441   166
22.3541   152
22.3641   150
22.3741   163
22.3841   167
22.3941   170
22.4041   156
22.4141   160
22.4241   138
22.4341   176
22.4441   168
22.4541   147
22.4641   174
22.4741   173
22.4841   136
22.4941   148
22.5041   161
22.5141   132
22.5241   148
22.5341   148
22.5441   136
22.5541   144
22.5641   170
22.5741   150
22.5841   151
22.5941   156
22.6041   159
22.6141   178
22.6241   167
22.6341   148
22.6441   150
22.6541   155
22.6641   144
22.6741   162
22.6841   154
22.6941   147
22.7041   160
22.7141   152
22.7241   148
22.7341   148
22.7441   168
22.7541   169
22.7641   168
22.7741   158
22.7841   149
22.7941   169
22.8041   176
22.8141   148
22.8241   140
22.8341   146
22.8441   156
22.8541   178
22.8641   144
22.8741   137
22.8841   149
22.8941   128
22.9041   148
22.9141   149
22.9241   178
22.9341   167
22.9441   167
22.9541   168
22.9641   145
22.9741   152
22.9841   152
22.9941   155
23.0041   170
23.0141   157
23.0241   156
23.0341   157
23.0441   171
23.0541   163
23.0641   166
23.0741   172
23.0841   184
23.0941   155
23.1041   144
23.1141   159
23.1241   153
23.1341   169
23.1441   146
23.1541   166
23.1641   179
23.1741   169
23.1841   161
23.1941   154
23.2041   132
23.2141   148
23.2241   163
23.2341   163
23.2441   147
23.2541   145
23.2641   162
23.2741   146
23.2841   154
23.2941   138
23.3041   152
23.3141   173
23.3241   166
23.3341   170
23.3441   147
23.3541   126
23.3641   163
23.3741   152
23.3841   175
23.3941   127
23.4041   158
23.4141   133
23.4241   148
23.4341   142
23.4441   143
23.4541   127
23.4641   146
23.4741   152
23.4841   148
23.4941   151
23.5041   163
23.5141   159
23.5241   162
23.5341   155
23.5441   142
23.5541   153
23.5641   141
23.5741   152
23.5841   125
23.5941   142
23.6041   135
23.6141   138
23.6241   163
23.6341   171
23.6441   162
23.6541   153
23.6641   164
23.6741   142
23.6841   158
23.6941   150
23.7041   164
23.7141   130
23.7241   154
23.7341   168
23.7441   157
23.7541   176
23.7641   154
23.7741   171
23.7841   164
23.7941   160
23.8041   165
23.8141   155
23.8241   188
23.8341   178
23.8441   152
23.8541   177
23.8641   159
23.8741   153
23.8841   181
23.8941   156
23.9041   133
23.9141   149
23.9241   146
23.9341   134
23.9441   153
23.9541   160
23.9641   142
23.9741   154
23.9841   172
23.9941   132
24.0041   153
24.0141   171
24.0241   137
24.0341   141
24.0441   139
24.0541   170
24.0641   170
24.0741   157
24.0841   146
24.0941   153
24.1041   148
24.1141   137
24.1241   173
24.1341   140
24.1441   171
24.1541   189
24.1641   163
24.1741   170
24.1841   159
24.1941   159
24.2041   125
24.2141   144
24.2241   142
24.2341   149
24.2441   133
24.2541   159
24.2641   130
24.2741   162
24.2841   142
24.2941   153
24.3041   163
24.3141   151
24.3241   153
24.3341   162
24.3441   146
24.3541   129
24.3641   150
24.3741   130
24.3841   153
24.3941   155
24.4041   158
24.4141   162
24.4241   141
24.4341   162
24.4441   142
24.4541   116
24.4641   144
24.4741   149
24.4841   144
24.4941   120
24.5041   150
24.5141   122
24.5241   139
24.5341   124
24.5441   152
24.5541   166
24.5641   140
24.5741   142
24.5841   132
24.5941   137
24.6041   134
24.6141   136
24.6241   145
24.6341   156
24.6441   130
24.6541   134
24.6641   147
24.6741   145
24.6841   154
24.6941   117
24.7041   129
24.7141   153
24.7241   148
24.7341   154
24.7441   144
24.7541   135
24.7641   140
24.7741   143
24.7841   117
24.7941   126
24.8041   141
24.8141   151
24.8241   118
24.8341   137
24.8441   134
24.8541   142
24.8641   124
24.8741   134
24.8841   145
24.8941   147
24.9041   143
24.9141   140
24.9241   142
24.9341   146
24.9441   133
24.9541   135
24.9641   155
24.9741   128
24.9841   151
24.9941   123
25.0041   135
25.0141   148
25.0241   150
25.0341   142
25.0441   128
25.0541   147
25.0641   152
25.0741   154
25.0841   150
25.0941   152
25.1041   144
25.1141   143
25.1241   155
25.1341   142
25.1441   137
25.1541   124
25.1641   135
25.1741   135
25.1841   142
25.1941   149
25.2041   136
25.2141   138
25.2241   141
25.2341   153
25.2441   142
25.2541   137
25.2641   138
25.2741   136
25.2841   131
25.2941   141
25.3041   138
25.3141   140
25.3241   138
25.3341   161
25.3441   160
25.3541   143
25.3641   158
25.3741   133
25.3841   157
25.3941   137
25.4041   147
25.4141   143
25.4241   124
25.4341   140
25.4441   145
25.4541   140
25.4641   141
25.4741   128
25.4841   128
25.4941   129
25.5041   143
25.5141   133
25.5241   124
25.5341   130
25.5441   125
25.5541   133
25.5641   131
25.5741   138
25.5841   150
25.5941   147
25.6041   159
25.6141   136
25.6241   136
25.6341   138
25.6441   141
25.6541   122
25.6641   129
25.6741   147
25.6841   168
25.6941   144
25.7041   145
25.7141   127
25.7241   139
25.7341   128
25.7441   147
25.7541   115
25.7641   153
25.7741   126
25.7841   137
25.7941   129
25.8041   114
25.8141   128
25.8241   134
25.8341   124
25.8441   127
25.8541   122
25.8641   124
25.8741   148
25.8841   133
25.8941   137
25.9041   132
25.9141   135
25.9241   123
25.9341   124
25.9441   133
25.9541   130
25.9641   120
25.9741   131
25.9841   136
25.9941   132
26.0041   128
26.0141   124
26.0241   143
26.0341   110
26.0441   120
26.0541   141
26.0641   148
26.0741   116
26.0841   144
26.0941   115
26.1041   127
26.1141   121
26.1241   138
26.1341   116
26.1441   128
26.1541   120
26.1641   132
26.1741   138
26.1841   113
26.1941   138
26.2041   116
26.2141   111
26.2241   139
26.2341   109
26.2441   129
26.2541   136
26.2641   129
26.2741   124
26.2841   131
26.2941   118
26.3041   128
26.3141   131
26.3241   114
26.3341   123
26.3441   119
26.3541   130
26.3641   131
26.3741   136
26.3841   139
26.3941   117
26.4041   118
26.4141   127
26.4241   134
26.4341   117
26.4441   129
26.4541   132
26.4641   120
26.4741   109
26.4841   114
26.4941   148
26.5041   122
26.5141   117
26.5241   127
26.5341   132
26.5441   130
26.5541   122
26.5641   117
26.5741   122
26.5841   127
26.5941   114
26.6041   115
26.6141   133
26.6241   112
26.6341   141
26.6441   133
26.6541   136
26.6641   121
26.6741   115
26.6841   122
26.6941   105
26.7041   116
26.7141   110
26.7241   130
26.7341   118
26.7441   122
26.7541   110
26.7641   115
26.7741   133
26.7841   129
26.7941   128
26.8041   129
26.8141   129
26.8241   111
26.8341   118
26.8441   138
26.8541   126
26.8641   140
26.8741   124
26.8841   121
26.8941   111
26.9041   116
26.9141   110
26.9241   127
26.9341   133
26.9441   117
26.9541   123
26.9641   117
26.9741   122
26.9841   123
26.9941   122
27.0041   126
27.0141   112
27.0241    96
27.0341   110
27.0441   113
27.0541   111
27.0641   133
27.0741   102
27.0841   110
27.0941   122
27.1041   118
27.1141   116
27.1241   131
27.1341   117
27.1441   103
27.1541    97
27.1641   109
27.1741   132
27.1841   135
27.1941   119
27.2041   119
27.2141   104
27.2241   130
27.2341   117
27.2441   115
27.2541   120
27.2641   107
27.2741   123
27.2841   122
27.2941   131
27.3041   115
27.3141   113
27.3241   103
27.3341   104
27.3441   113
27.3541   111
27.3641   130
27.3741   121
27.3841   108
27.3941   126
27.4041   104
27.4141    93
27.4241   114
27.4341   111
27.4441   113
27.4541   116
27.4641   115
27.4741   110
27.4841   111
27.4941   116
27.5041   145
27.5141   112
27.5241   115
27.5341   106
27.5441   110
27.5541   113
27.5641   114
27.5741   105
27.5841    95
27.5941   120
27.6041   123
27.6141   107
27.6241    89
27.6341   107
27.6441   100
27.6541   128
27.6641   130
27.6741   102
27.6841   110
27.6941   113
27.7041   121
27.7141   111
27.7241   108
27.7341   106
27.7441   110
27.7541   103
27.7641   113
27.7741   101
27.7841   102
27.7941   118
27.8041   100
27.8141   105
27.8241   101
27.8341   114
27.8441   100
27.8541    96
27.8641    94
27.8741   101
27.8841   108
27.8941   118
27.9041   116
27.9141   111
27.9241    96
27.9341   105
27.9441    91
27.9541   100
27.9641   106
27.9741   100
27.9841   101
27.9941   101
28.0041   119
28.0141   116
28.0241    99
28.0341   105
28.0441    84
28.0541   101
28.0641   112
28.0741   100
28.0841   112
28.0941   103
28.1041   105
28.1141   105
28.1241   100
28.1341    91
28.1441    99
28.1541    91
28.1641   109
28.1741    88
28.1841   102
28.1941   103
28.2041    91
28.2141   114
28.2241   107
28.2341    95
28.2441    99
28.2541    92
28.2641   103
28.2741   101
28.2841    95
28.2941   110
28.3041   108
28.3141   114
28.3241   122
28.3341   107
28.3441   105
28.3541   106
28.3641   100
28.3741    88
28.3841    96
28.3941    99
28.4041   100
28.4141   112
28.4241    94
28.4341   103
28.4441   100
28.4541    88
28.4641    93
28.4741   111
28.4841   104
28.4941   116
28.5041    95
28.5141   104
28.5241   102
28.5341    86
28.5441    89
28.5541   112
28.5641    95
28.5741   101
28.5841    97
28.5941    99
28.6041   103
28.6141   100
28.6241    78
28.6341    93
28.6441    87
28.6541   101
28.6641    88
28.6741   104
28.6841    92
28.6941    98
28.7041    99
28.7141   101
28.7241    92
28.7341    98
28.7441   101
28.7541   109
28.7641   103
28.7741   103
28.7841    86
28.7941   108
28.8041   107
28.8141   104
28.8241    82
28.8341    92
28.8441   102
28.8541    87
28.8641   108
28.8741    79
28.8841   101
28.8941   103
28.9041    91
28.9141   108
28.9241    94
28.9341    94
28.9441    73
28.9541    88
28.9641    95
28.9741    86
28.9841    83
28.9941    96
29.0041    95
29.0141   105
29.0241    87
29.0341   101
29.0441    85
29.0541   116
29.0641    88
29.0741    77
29.0841   104
29.0941    98
29.1041   104
29.1141    92
29.1241   100
29.1341    94
29.1441   101
29.1541    95
29.1641   108
29.1741   107
29.1841   103
29.1941    90
29.2041    93
29.2141    86
29.2241    75
29.2341    81
29.2441    98
29.2541    85
29.2641    88
29.2741    84
29.2841    79
29.2941   100
29.3041    81
29.3141    93
29.3241    83
29.3341    99
29.3441    85
29.3541    87
29.3641    76
29.3741    77
29.3841    78
29.3941    86
29.4041    72
29.4141    89
29.4241    77
29.4341    87
29.4441    85
29.4541   105
29.4641    82
29.4741    80
29.4841    79
29.4941    95
29.5041    93
29.5141   103
29.5241    98
29.5341   108
29.5441    76
29.5541    88
29.5641    97
29.5741   112
29.5841    91
29.5941    78
29.6041    81
29.6141   102
29.6241    76
29.6341    85
29.6441    75
29.6541    74
29.6641    90
29.6741    97
29.6841    85
29.6941    79
29.7041    98
29.7141    96
29.7241    97
29.7341    99
29.7441    90
29.7541    83
29.7641    81
29.7741    79
29.7841    81
29.7941   101
29.8041    96
29.8141    76
29.8241    80
29.8341    89
29.8441    86
29.8541    98
29.8641    75
29.8741    71
29.8841    83
29.8941    96
29.9041    81
29.9141    77
29.9241    73
29.9341    80
29.9441    74
29.9541    77
29.9641    67
29.9741    88
29.9841    92
29.9941    82
30.0041    89
30.0141    88
30.0241    92
30.0341    69
30.0441    81
30.0541    66
30.0641    85
30.0741    76
30.0841    82
30.0941    82
30.1041    85
30.1141    87
30.1241    81
30.1341    93
30.1441    69
30.1541    91
30.1641    91
30.1741    91
30.1841    78
30.1941    87
30.2041    74
30.2141    77
30.2241    85
30.2341    70
30.2441    80
30.2541    64
30.2641    81
30.2741    78
30.2841    78
30.2941    99
30.3041    70
30.3141    71
30.3241    69
30.3341    82
30.3441    80
30.3541    76
30.3641    84
30.3741    78
30.3841    78
30.3941    73
30.4041    78
30.4141    74
30.4241    79
30.4341    70
30.4441    66
30.4541    73
30.4641    83
30.4741    77
30.4841    75
30.4941    73
30.5041    78
30.5141    85
30.5241    54
30.5341    81
30.5441    90
30.5541    72
30.5641    77
30.5741    75
30.5841    80
30.5941    77
30.6041    83
30.6141    68
30.6241    67
30.6341    62
30.6441    72
30.6541    85
30.6641    69
30.6741    78
30.6841    63
30.6941    77
30.7041    57
30.7141    63
30.7241    81
30.7341    68
30.7441    81
30.7541    77
30.7641    69
30.7741    51
30.7841    59
30.7941    65
30.8041    64
30.8141    75
30.8241    76
30.8341    66
30.8441    73
30.8541    79
30.8641    79
30.8741    72
30.8841    76
30.8941    77
30.9041    82
30.9141    72
30.9241    75
30.9341    85
30.9441    68
30.9541    75
30.9641    72
30.9741    63
30.9841    79
30.9941    68
31.0041    72
31.0141    58
31.0241    71
31.0341    68
31.0441    73
31.0541    76
31.0641    74
31.0741    80
31.0841    90
31.0941    73
31.1041    64
31.1141    70
31.1241    56
31.1341    71
31.1441    71
31.1541    78
31.1641    58
31.1741    65
31.1841    67
31.1941    67
31.2041    76
31.2141    76
31.2241    73
31.2341    70
31.2441    63
31.2541    75
31.2641    59
31.2741    62
31.2841    69
31.2941    78
31.3041    73
31.3141    66
31.3241    76
31.3341    81
31.3441    74
31.3541    66
31.3641    60
31.3741    64
31.3841    68
31.3941    78
31.4041    57
31.4141    73
31.4241    59
31.4341    60
31.4441    59
31.4541    66
31.4641    72
31.4741    73
31.4841    60
31.4941    67
31.5041    69
31.5141    76
31.5241    62
31.5341    80
31.5441    51
31.5541    64
31.5641    60
31.5741    74
31.5841    70
31.5941    57
31.6041    67
31.6141    59
31.6241    68
31.6341    66
31.6441    73
31.6541    66
31.6641    68
31.6741    60
31.6841    63
31.6941    66
31.7041    69
31.7141    61
31.7241    62
31.7341    68
31.7441    60
31.7541    66
31.7641    59
31.7741    65
31.7841    60
31.7941    75
31.8041    57
31.8141    67
31.8241    65
31.8341    64
31.8441    47
31.8541    67
31.8641    58
31.8741    59
31.8841    80
31.8941    53
31.9041    65
31.9141    57
31.9241    58
31.9341    57
31.9441    52
31.9541    54
31.9641    58
31.9741    67
31.9841    70
31.9941    54
32.0041    61
32.0141    65
32.0241    59
32.0341    52
32.0441    77
32.0541    73
32.0641    70
32.0741    71
32.0841    54
32.0941    57
32.1041    65
32.1141    52
32.1241    58
32.1341    52
32.1441    61
32.1541    45
32.1641    60
32.1741    72
32.1841    55
32.1941    66
32.2041    60
32.2141    70
32.2241    61
32.2341    69
32.2441    54
32.2541    58
32.2641    51
32.2741    62
32.2841    57
32.2941    63
32.3041    57
32.3141    59
32.3241    60
32.3341    60
32.3441    42
32.3541    68
32.3641    59
32.3741    58
32.3841    63
32.3941    57
32.4041    57
32.4141    59
32.4241    53
32.4341    54
32.4441    52
32.4541    55
32.4641    61
32.4741    58
32.4841    46
32.4941    53
32.5041    49
32.5141    48
32.5241    50
32.5341    69
32.5441    63
32.5541    72
32.5641    60
32.5741    54
32.5841    40
32.5941    57
32.6041    69
32.6141    68
32.6241    56
32.6341    52
32.6441    62
32.6541    61
32.6641    57
32.6741    62
32.6841    56
32.6941    60
32.7041    67
32.7141    50
32.7241    44
32.7341    54
32.7441    59
32.7541    58
32.7641    64
32.7741    62
32.7841    47
32.7941    38
32.8041    71
32.8141    59
32.8241    70
32.8341    50
32.8441    54
32.8541    66
32.8641    54
32.8741    51
32.8841    51
32.8941    54
32.9041    62
32.9141    52
32.9241    56
32.9341    56
32.9441    41
32.9541    47
32.9641    43
32.9741    42
32.9841    52
32.9941    36
33.0041    44
33.0141    46
33.0241    41
33.0341    53
33.0441    51
33.0541    56
33.0641    46
33.0741    51
33.0841    44
33.0941    56
33.1041    51
33.1141    46
33.1241    50
33.1341    47
33.1441    48
33.1541    39
33.1641    39
33.1741    35
33.1841    42
33.1941    53
33.2041    54
33.2141    55
33.2241    47
33.2341    45
33.2441    44
33.2541    51
33.2641    45
33.2741    60
33.2841    44
33.2941    55
33.3041    59
33.3141    57
33.3241    49
33.3341    60
33.3441    38
33.3541    56
33.3641    50
33.3741    44
33.3841    51
33.3941    51
33.4041    37
33.4141    45
33.4241    53
33.4341    56
33.4441    55
33.4541    53
33.4641    41
33.4741    42
33.4841    61
33.4941    41
33.5041    36
33.5141    42
33.5241    46
33.5341    44
33.5441    46
33.5541    54
33.5641    51
33.5741    45
33.5841    48
33.5941    55
33.6041    42
33.6141    53
33.6241    49
33.6341    44
33.6441    38
33.6541    53
33.6641    45
33.6741    37
33.6841    40
33.6941    48
33.7041    52
33.7141    61
33.7241    53
33.7341    55
33.7441    45
33.7541    51
33.7641    49
33.7741    39
33.7841    53
33.7941    44
33.8041    41
33.8141    48
33.8241    43
33.8341    39
33.8441    44
33.8541    45
33.8641    47
33.8741    51
33.8841    37
33.8941    47
33.9041    43
33.9141    33
33.9241    47
33.9341    47
33.9441    40
33.9541    44
33.9641    54
33.9741    37
33.9841    48
33.9941    45
34.0041    58
34.0141    45
34.0241    37
34.0341    37
34.0441    32
34.0541    51
34.0641    52
34.0741    27
34.0841    36
34.0941    38
34.1041    42
34.1141    44
34.1241    42
34.1341    59
34.1441    49
34.1541    35
34.1641    40
34.1741    42
34.1841    45
34.1941    41
34.2041    40
34.2141    49
34.2241    49
34.2341    33
34.2441    42
34.2541    36
34.2641    31
34.2741    49
34.2841    40
34.2941    36
34.3041    44
34.3141    38
34.3241    48
34.3341    40
34.3441    42
34.3541    46
34.3641    38
34.3741    37
34.3841    40
34.3941    39
34.4041    38
34.4141    31
34.4241    42
34.4341    40
34.4441    39
34.4541    32
34.4641    46
34.4741    28
34.4841    38
34.4941    41
34.5041    48
34.5141    43
34.5241    33
34.5341    39
34.5441    46
34.5541    41
34.5641    35
34.5741    30
34.5841    45
34.5941    38
34.6041    35
34.6141    40
34.6241    31
34.6341    39
34.6441    34
34.6541    42
34.6641    51
34.6741    39
34.6841    36
34.6941    39
34.7041    37
34.7141    31
34.7241    43
34.7341    40
34.7441    39
34.7541    36
34.7641    29
34.7741    36
34.7841    35
34.7941    41
34.8041    42
34.8141    30
34.8241    32
34.8341    40
34.8441    33
34.8541    41
34.8641    28
34.8741    27
34.8841    31
34.8941    40
34.9041    40
34.9141    35
34.9241    28
34.9341    41
34.9441    38
34.9541    31
34.9641    38
34.9741    40
34.9841    28
34.9941    36
35.0041    31
35.0141    38
35.0241    36
35.0341    40
35.0441    32
35.0541    32
35.0641    39
35.0741    32
35.0841    37
35.0941    48
35.1041    32
35.1141    36
35.1241    40
35.1341    32
35.1441    31
35.1541    39
35.1641    39
35.1741    39
35.1841    38
35.1941    38
35.2041    33
35.2141    34
35.2241    42
35.2341    36
35.2441    34
35.2541    38
35.2641    35
35.2741    30
35.2841    29
35.2941    38
35.3041    29
35.3141    37
35.3241    32
35.3341    37
35.3441    41
35.3541    34
35.3641    29
35.3741    31
35.3841    33
35.3941    26
35.4041    31
35.4141    32
35.4241    27
35.4341    27
35.4441    24
35.4541    29
35.4641    53
35.4741    44
35.4841    28
35.4941    41
35.5041    29
35.5141    24
35.5241    35
35.5341    37
35.5441    40
35.5541    44
35.5641    20
35.5741    31
35.5841    31
35.5941    29
35.6041    44
35.6141    23
35.6241    37
35.6341    27
35.6441    35
35.6541    46
35.6641    39
35.6741    32
35.6841    30
35.6941    30
35.7041    34
35.7141    26
35.7241    34
35.7341    32
35.7441    26
35.7541    23
35.7641    26
35.7741    35
35.7841    30
35.7941    26
35.8041    35
35.8141    27
35.8241    25
35.8341    34
35.8441    43
35.8541    28
35.8641    32
35.8741    30
35.8841    40
35.8941    24
35.9041    32
35.9141    35
35.9241    27
35.9341    33
35.9441    33
35.9541    25
35.9641    30
35.9741    22
35.9841    29
35.9941    26
36.0041    34
36.0141    31
36.0241    24
36.0341    28
36.0441    40
36.0541    33
36.0641    29
36.0741    34
36.0841    36
36.0941    30
36.1041    29
36.1141    34
36.1241    27
36.1341    20
36.1441    26
36.1541    25
36.1641    28
36.1741    25
36.1841    25
36.1941    28
36.2041    26
36.2141    35
36.2241    37
36.2341    27
36.2441    18
36.2541    17
36.2641    38
36.2741    26
36.2841    24
36.2941    37
36.3041    32
36.3141    27
36.3241    26
36.3341    20
36.3441    29
36.3541    26
36.3641    27
36.3741    21
36.3841    34
36.3941    26
36.4041    24
36.4141    22
36.4241    26
36.4341    27
36.4441    30
36.4541    22
36.4641    23
36.4741    32
36.4841    24
36.4941    35
36.5041    39
36.5141    28
36.5241    26
36.5341    36
36.5441    30
36.5541    24
36.5641    29
36.5741    23
36.5841    29
36.5941    28
36.6041    31
36.6141    26
36.6241    27
36.6341    34
36.6441    26
36.6541    27
36.6641    23
36.6741    25
36.6841    30
36.6941    25
36.7041    18
36.7141    27
36.7241    26
36.7341    25
36.7441    26
36.7541    29
36.7641    22
36.7741    29
36.7841    22
36.7941    27
36.8041    21
36.8141    30
36.8241    29
36.8341    24
36.8441    23
36.8541    28
36.8641    21
36.8741    22
36.8841    23
36.8941    14
36.9041    28
36.9141    38
36.9241    17
36.9341    14
36.9441    22
36.9541    18
36.9641    22
36.9741    21
36.9841    18
36.9941    30
37.0041    19
37.0141    27
37.0241    23
37.0341    25
37.0441    23
37.0541    19
37.0641    16
37.0741    24
37.0841    21
37.0941    14
37.1041    21
37.1141    12
37.1241    16
37.1341    17
37.1441    18
37.1541    27
37.1641    24
37.1741    22
37.1841    25
37.1941    12
37.2041    19
37.2141    26
37.2241    23
37.2341    14
37.2441    18
37.2541    15
37.2641    22
37.2741    28
37.2841    22
37.2941    16
37.3041    22
37.3141    29
37.3241    18
37.3341    29
37.3441    21
37.3541    23
37.3641    26
37.3741    27
37.3841    28
37.3941    26
37.4041    23
37.4141    14
37.4241    19
37.4341    24
37.4441    25
37.4541    19
37.4641    18
37.4741    17
37.4841    23
37.4941    23
37.5041    12
37.5141    21
37.5241    19
37.5341    22
37.5441    17
37.5541    22
37.5641    21
37.5741    17
37.5841    18
37.5941    27
37.6041    22
37.6141    21
37.6241    22
37.6341    23
37.6441    20
37.6541    23
37.6641    16
37.6741    24
37.6841    15
37.6941    20
37.7041    20
37.7141    11
37.7241    23
37.7341    18
37.7441    22
37.7541    20
37.7641    30
37.7741    15
37.7841    16
37.7941    14
37.8041    23
37.8141    16
37.8241    21
37.8341    22
37.8441    21
37.8541    22
37.8641    23
37.8741    21
37.8841    27
37.8941    22
37.9041    23
37.9141    18
37.9241    15
37.9341    17
37.9441    20
37.9541    17
37.9641    16
37.9741    14
37.9841    18
37.9941    18
38.0041    13
38.0141    16
38.0241    18
38.0341    20
38.0441    14
38.0541    22
38.0641    17
38.0741    21
38.0841    21
38.0941    11
38.1041    12
38.1141    19
38.1241    26
38.1341    15
38.1441    18
38.1541    17
38.1641    18
38.1741    20
38.1841    27
38.1941    19
38.2041    23
38.2141    17
38.2241    26
38.2341    17
38.2441    15
38.2541    17
38.2641    10
38.2741    20
38.2841    17
38.2941    16
38.3041    14
38.3141    20
38.3241    12
38.3341    18
38.3441    15
38.3541    24
38.3641    14
38.3741    16
38.3841    18
38.3941    18
38.4041    18
38.4141    15
38.4241    22
38.4341    16
38.4441     8
38.4541    19
38.4641     8
38.4741    14
38.4841    14
38.4941    18
38.5041    14
38.5141    18
38.5241    13
38.5341    18
38.5441    15
38.5541    18
38.5641    15
38.5741    17
38.5841    13
38.5941    15
38.6041    16
38.6141    14
38.6241    17
38.6341     7
38.6441    11
38.6541    17
38.6641    26
38.6741    11
38.6841     8
38.6941    15
38.7041    17
38.7141    22
38.7241    23
38.7341    13
38.7441    14
38.7541    14
38.7641    13
38.7741    14
38.7841    15
38.7941    19
38.8041    19
38.8141    13
38.8241    13
38.8341    10
38.8441    10
38.8541    18
38.8641    12
38.8741    11
38.8841    12
38.8941     7
38.9041    16
38.9141    16
38.9241    15
38.9341    16
38.9441    16
38.9541    13
38.9641    13
38.9741     8
38.9841    14
38.9941    13
39.0041     9
39.0141    13
39.0241    13
39.0341    15
39.0441    13
39.0541     7
39.0641    13
39.0741    13
39.0841    15
39.0941    11
39.1041    16
39.1141    10
39.1241    18
39.1341    16
39.1441    12
39.1541    13
39.1641    13
39.1741    14
39.1841    14
39.1941    16
39.2041    14
39.2141    10
39.2241    10
39.2341    11
39.2441     8
39.2541    16
39.2641    14
39.2741    13
39.2841    11
39.2941    14
39.3041     8
39.3141    18
39.3241     7
39.3341    13
39.3441     9
39.3541    13
39.3641     8
39.3741    13
39.3841    17
39.3941    19
39.4041     8
39.4141    17
39.4241     6
39.4341    14
39.4441    11
39.4541     8
39.4641    10
39.4741    11
39.4841     9
39.4941    12
39.5041     6
39.5141    11
39.5241    11
39.5341     8
39.5441    10
39.5541    11
39.5641     5
39.5741    13
39.5841     8
39.5941     6
39.6041    10
39.6141     6
39.6241    15
39.6341    13
39.6441     8
39.6541    16
39.6641    14
39.6741    15
39.6841    10
39.6941     9
39.7041     7
39.7141    10
39.7241    15
39.7341     8
39.7441     6
39.7541    10
39.7641    11
39.7741     7
39.7841    14
39.7941     3
39.8041    14
39.8141    10
39.8241    13
39.8341    12
39.8441     9
39.8541    15
39.8641     5
39.8741    13
39.8841    13
39.8941    14
39.9041    12
39.9141     4
39.9241    10
39.9341    15
39.9441     8
39.9541    12
39.9641     8
39.9741    10
39.9841    12
39.9941     8
