Bruker Nano GmbH Berlin, Germany
Esprit 1.9

Date: 5/14/2021 3:51:23 PM
Real time: 17690
Life time: 16580
Pulse density: 92271


Detector type: XFlash 430
Window type: Custom type
Detector thickness: 0.45
Si dead layer:0.029

Calibration, lin.: 10
Calibration, abs.: -955.9
Mn FWHM: 137.05
Fano factor: 0.121
Channels: 4095

Energy Counts
-0.9559     0
-0.9459     0
-0.9359     0
-0.9259     0
-0.9159     0
-0.9059     0
-0.8959     0
-0.8859     0
-0.8759     0
-0.8659     0
-0.8559     0
-0.8459     0
-0.8359     0
-0.8259     0
-0.8159     0
-0.8059     0
-0.7959     0
-0.7859     0
-0.7759     0
-0.7659     0
-0.7559     0
-0.7459     0
-0.7359     0
-0.7259     0
-0.7159     0
-0.7059     0
-0.6959     0
-0.6859     0
-0.6759     0
-0.6659     0
-0.6559     0
-0.6459     0
-0.6359     0
-0.6259     0
-0.6159     0
-0.6059     0
-0.5959     0
-0.5859     0
-0.5759     0
-0.5659     0
-0.5559     0
-0.5459     0
-0.5359     0
-0.5259     0
-0.5159     0
-0.5059     0
-0.4959     0
-0.4859     0
-0.4759     0
-0.4659     0
-0.4559     0
-0.4459     0
-0.4359     0
-0.4259     0
-0.4159     0
-0.4059     0
-0.3959     0
-0.3859     0
-0.3759     0
-0.3659     0
-0.3559     0
-0.3459     0
-0.3359     0
-0.3259     0
-0.3159     0
-0.3059     0
-0.2959     0
-0.2859     0
-0.2759     0
-0.2659     0
-0.2559     0
-0.2459     0
-0.2359     0
-0.2259     0
-0.2159     0
-0.2059     0
-0.1959     0
-0.1859     0
-0.1759     0
-0.1659     0
-0.1559     0
-0.1459     2
-0.1359     0
-0.1259     1
-0.1159     5
-0.1059    11
-0.0959    42
-0.0859   180
-0.0759   622
-0.0659  1871
-0.0559  4846
-0.0459 10423
-0.0359 19598
-0.0259 31649
-0.0159 43379
-0.0059 50832
 0.0041 50892
 0.0141 44213
 0.0241 32424
 0.0341 20496
 0.0441 11149
 0.0541  5398
 0.0641  2172
 0.0741   722
 0.0841   247
 0.0941    62
 0.1041    16
 0.1141    18
 0.1241     4
 0.1341     3
 0.1441     7
 0.1541     4
 0.1641     2
 0.1741     1
 0.1841   140
 0.1941   296
 0.2041   251
 0.2141   259
 0.2241   257
 0.2341   248
 0.2441   259
 0.2541   281
 0.2641   248
 0.2741   247
 0.2841   247
 0.2941   245
 0.3041   234
 0.3141   240
 0.3241   235
 0.3341   247
 0.3441   259
 0.3541   260
 0.3641   241
 0.3741   229
 0.3841   226
 0.3941   243
 0.4041   225
 0.4141   224
 0.4241   220
 0.4341   228
 0.4441   219
 0.4541   217
 0.4641   198
 0.4741   205
 0.4841   198
 0.4941   208
 0.5041   219
 0.5141   249
 0.5241   232
 0.5341   204
 0.5441   181
 0.5541   201
 0.5641   219
 0.5741   241
 0.5841   227
 0.5941   215
 0.6041   215
 0.6141   211
 0.6241   207
 0.6341   210
 0.6441   198
 0.6541   171
 0.6641   168
 0.6741   195
 0.6841   217
 0.6941   194
 0.7041   184
 0.7141   189
 0.7241   206
 0.7341   209
 0.7441   185
 0.7541   168
 0.7641   175
 0.7741   195
 0.7841   195
 0.7941   183
 0.8041   187
 0.8141   183
 0.8241   173
 0.8341   170
 0.8441   170
 0.8541   165
 0.8641   181
 0.8741   176
 0.8841   173
 0.8941   174
 0.9041   182
 0.9141   171
 0.9241   175
 0.9341   173
 0.9441   169
 0.9541   163
 0.9641   161
 0.9741   181
 0.9841   164
 0.9941   176
 1.0041   162
 1.0141   157
 1.0241   166
 1.0341   168
 1.0441   160
 1.0541   160
 1.0641   169
 1.0741   165
 1.0841   160
 1.0941   150
 1.1041   151
 1.1141   158
 1.1241   150
 1.1341   160
 1.1441   161
 1.1541   160
 1.1641   146
 1.1741   176
 1.1841   174
 1.1941   174
 1.2041   161
 1.2141   147
 1.2241   162
 1.2341   146
 1.2441   153
 1.2541   172
 1.2641   170
 1.2741   170
 1.2841   143
 1.2941   163
 1.3041   167
 1.3141   162
 1.3241   153
 1.3341   143
 1.3441   154
 1.3541   153
 1.3641   158
 1.3741   141
 1.3841   135
 1.3941   140
 1.4041   138
 1.4141   138
 1.4241   151
 1.4341   145
 1.4441   164
 1.4541   170
 1.4641   156
 1.4741   160
 1.4841   155
 1.4941   157
 1.5041   161
 1.5141   153
 1.5241   169
 1.5341   155
 1.5441   155
 1.5541   150
 1.5641   164
 1.5741   157
 1.5841   139
 1.5941   145
 1.6041   152
 1.6141   163
 1.6241   141
 1.6341   131
 1.6441   177
 1.6541   194
 1.6641   224
 1.6741   269
 1.6841   343
 1.6941   393
 1.7041   500
 1.7141   523
 1.7241   634
 1.7341   682
 1.7441   642
 1.7541   605
 1.7641   571
 1.7741   469
 1.7841   410
 1.7941   330
 1.8041   298
 1.8141   241
 1.8241   217
 1.8341   189
 1.8441   183
 1.8541   160
 1.8641   172
 1.8741   156
 1.8841   168
 1.8941   148
 1.9041   146
 1.9141   141
 1.9241   146
 1.9341   140
 1.9441   168
 1.9541   181
 1.9641   163
 1.9741   177
 1.9841   154
 1.9941   177
 2.0041   193
 2.0141   202
 2.0241   171
 2.0341   175
 2.0441   182
 2.0541   170
 2.0641   140
 2.0741   159
 2.0841   139
 2.0941   147
 2.1041   149
 2.1141   124
 2.1241   148
 2.1341   147
 2.1441   140
 2.1541   128
 2.1641   142
 2.1741   142
 2.1841   130
 2.1941   119
 2.2041   135
 2.2141   142
 2.2241   118
 2.2341   137
 2.2441   130
 2.2541   136
 2.2641   135
 2.2741   126
 2.2841   136
 2.2941   135
 2.3041   119
 2.3141   111
 2.3241   125
 2.3341   133
 2.3441   133
 2.3541    98
 2.3641   138
 2.3741   132
 2.3841   129
 2.3941   123
 2.4041   119
 2.4141   123
 2.4241   126
 2.4341    95
 2.4441   110
 2.4541   117
 2.4641    97
 2.4741   106
 2.4841   127
 2.4941   111
 2.5041   120
 2.5141   125
 2.5241   110
 2.5341   126
 2.5441   111
 2.5541   123
 2.5641   118
 2.5741   128
 2.5841   122
 2.5941   113
 2.6041   129
 2.6141   133
 2.6241   131
 2.6341   132
 2.6441   142
 2.6541   136
 2.6641   112
 2.6741   122
 2.6841   109
 2.6941   128
 2.7041   110
 2.7141   100
 2.7241   103
 2.7341   103
 2.7441   117
 2.7541   126
 2.7641    86
 2.7741   103
 2.7841   114
 2.7941    97
 2.8041    93
 2.8141   122
 2.8241   101
 2.8341   133
 2.8441   116
 2.8541   115
 2.8641   133
 2.8741   103
 2.8841    94
 2.8941   104
 2.9041   130
 2.9141   115
 2.9241   105
 2.9341   101
 2.9441   105
 2.9541   111
 2.9641   133
 2.9741    96
 2.9841    98
 2.9941   107
 3.0041   108
 3.0141   114
 3.0241   109
 3.0341   108
 3.0441    95
 3.0541    99
 3.0641    94
 3.0741    94
 3.0841   119
 3.0941   113
 3.1041    89
 3.1141   111
 3.1241    79
 3.1341    84
 3.1441   105
 3.1541    92
 3.1641    91
 3.1741    95
 3.1841    95
 3.1941   104
 3.2041   109
 3.2141   102
 3.2241   111
 3.2341   146
 3.2441   133
 3.2541   145
 3.2641   166
 3.2741   226
 3.2841   220
 3.2941   228
 3.3041   235
 3.3141   253
 3.3241   235
 3.3341   243
 3.3441   190
 3.3541   186
 3.3641   145
 3.3741   135
 3.3841   121
 3.3941   141
 3.4041   131
 3.4141   111
 3.4241    92
 3.4341    96
 3.4441    73
 3.4541    91
 3.4641    95
 3.4741    87
 3.4841    90
 3.4941   102
 3.5041    93
 3.5141    93
 3.5241   112
 3.5341   131
 3.5441   130
 3.5541   131
 3.5641   147
 3.5741   162
 3.5841   215
 3.5941   265
 3.6041   352
 3.6141   395
 3.6241   489
 3.6341   627
 3.6441   728
 3.6541   840
 3.6641   959
 3.6741  1034
 3.6841  1069
 3.6941  1049
 3.7041  1036
 3.7141   955
 3.7241   897
 3.7341   746
 3.7441   612
 3.7541   493
 3.7641   372
 3.7741   289
 3.7841   225
 3.7941   192
 3.8041   119
 3.8141   111
 3.8241    93
 3.8341    84
 3.8441    89
 3.8541    75
 3.8641    86
 3.8741    84
 3.8841   105
 3.8941    89
 3.9041    87
 3.9141    90
 3.9241    90
 3.9341   126
 3.9441   135
 3.9541   155
 3.9641   160
 3.9741   170
 3.9841   161
 3.9941   206
 4.0041   201
 4.0141   249
 4.0241   214
 4.0341   214
 4.0441   178
 4.0541   158
 4.0641   148
 4.0741   127
 4.0841   126
 4.0941   117
 4.1041    99
 4.1141    92
 4.1241    78
 4.1341    79
 4.1441    84
 4.1541    64
 4.1641    65
 4.1741    55
 4.1841    54
 4.1941    67
 4.2041    67
 4.2141    77
 4.2241    71
 4.2341    70
 4.2441    60
 4.2541    68
 4.2641    59
 4.2741    67
 4.2841    67
 4.2941    73
 4.3041    58
 4.3141    76
 4.3241    67
 4.3341    64
 4.3441    71
 4.3541    80
 4.3641    89
 4.3741    77
 4.3841    87
 4.3941    94
 4.4041   120
 4.4141   148
 4.4241   172
 4.4341   192
 4.4441   251
 4.4541   268
 4.4641   299
 4.4741   332
 4.4841   333
 4.4941   364
 4.5041   387
 4.5141   395
 4.5241   384
 4.5341   358
 4.5441   321
 4.5541   292
 4.5641   230
 4.5741   227
 4.5841   179
 4.5941   140
 4.6041   119
 4.6141   132
 4.6241   101
 4.6341    99
 4.6441    87
 4.6541    89
 4.6641    98
 4.6741    85
 4.6841    77
 4.6941    74
 4.7041    71
 4.7141    76
 4.7241    70
 4.7341    83
 4.7441    82
 4.7541    65
 4.7641    70
 4.7741    72
 4.7841    81
 4.7941    89
 4.8041    99
 4.8141   103
 4.8241   107
 4.8341    97
 4.8441    87
 4.8541    98
 4.8641   119
 4.8741   114
 4.8841   125
 4.8941   129
 4.9041   146
 4.9141   131
 4.9241   142
 4.9341   140
 4.9441   140
 4.9541   137
 4.9641   127
 4.9741   135
 4.9841   131
 4.9941   112
 5.0041    97
 5.0141   116
 5.0241    99
 5.0341    94
 5.0441    96
 5.0541    69
 5.0641    81
 5.0741    90
 5.0841    78
 5.0941    91
 5.1041    75
 5.1141   103
 5.1241    86
 5.1341    99
 5.1441    88
 5.1541    69
 5.1641    89
 5.1741    82
 5.1841    62
 5.1941    78
 5.2041    91
 5.2141    95
 5.2241    75
 5.2341    72
 5.2441    82
 5.2541    88
 5.2641    80
 5.2741    85
 5.2841    89
 5.2941   110
 5.3041    88
 5.3141   109
 5.3241    98
 5.3341   119
 5.3441   135
 5.3541   151
 5.3641   161
 5.3741   164
 5.3841   172
 5.3941   159
 5.4041   173
 5.4141   168
 5.4241   169
 5.4341   164
 5.4441   141
 5.4541   153
 5.4641   140
 5.4741   150
 5.4841   122
 5.4941   108
 5.5041   113
 5.5141   102
 5.5241   104
 5.5341    92
 5.5441    98
 5.5541   104
 5.5641    92
 5.5741    84
 5.5841    76
 5.5941    82
 5.6041    93
 5.6141    98
 5.6241    96
 5.6341    74
 5.6441    89
 5.6541    83
 5.6641    96
 5.6741   105
 5.6841    81
 5.6941    86
 5.7041   105
 5.7141    99
 5.7241   100
 5.7341   100
 5.7441   119
 5.7541   107
 5.7641   117
 5.7741   148
 5.7841   143
 5.7941   170
 5.8041   178
 5.8141   212
 5.8241   244
 5.8341   272
 5.8441   316
 5.8541   319
 5.8641   369
 5.8741   393
 5.8841   404
 5.8941   424
 5.9041   395
 5.9141   419
 5.9241   407
 5.9341   333
 5.9441   381
 5.9541   308
 5.9641   277
 5.9741   248
 5.9841   199
 5.9941   175
 6.0041   174
 6.0141   153
 6.0241   137
 6.0341   133
 6.0441   126
 6.0541   139
 6.0641   120
 6.0741    95
 6.0841   120
 6.0941   117
 6.1041   128
 6.1141   125
 6.1241   146
 6.1341   137
 6.1441   163
 6.1541   152
 6.1641   175
 6.1741   174
 6.1841   181
 6.1941   230
 6.2041   299
 6.2141   368
 6.2241   492
 6.2341   613
 6.2441   903
 6.2541  1238
 6.2641  1687
 6.2741  2363
 6.2841  3218
 6.2941  4263
 6.3041  5448
 6.3141  6834
 6.3241  8491
 6.3341 10261
 6.3441 12154
 6.3541 13763
 6.3641 15512
 6.3741 16657
 6.3841 17606
 6.3941 17813
 6.4041 17677
 6.4141 17200
 6.4241 16159
 6.4341 14929
 6.4441 13270
 6.4541 11711
 6.4641  9883
 6.4741  8027
 6.4841  6533
 6.4941  5052
 6.5041  3841
 6.5141  2911
 6.5241  2127
 6.5341  1583
 6.5441  1065
 6.5541   755
 6.5641   550
 6.5741   393
 6.5841   310
 6.5941   227
 6.6041   209
 6.6141   168
 6.6241   179
 6.6341   152
 6.6441   134
 6.6541   154
 6.6641   114
 6.6741   134
 6.6841   135
 6.6941   139
 6.7041   136
 6.7141   157
 6.7241   144
 6.7341   138
 6.7441   163
 6.7541   144
 6.7641   172
 6.7741   157
 6.7841   151
 6.7941   193
 6.8041   177
 6.8141   162
 6.8241   173
 6.8341   189
 6.8441   212
 6.8541   222
 6.8641   244
 6.8741   290
 6.8841   284
 6.8941   321
 6.9041   419
 6.9141   505
 6.9241   583
 6.9341   689
 6.9441   843
 6.9541  1032
 6.9641  1225
 6.9741  1485
 6.9841  1744
 6.9941  1956
 7.0041  2186
 7.0141  2595
 7.0241  2667
 7.0341  2774
 7.0441  2907
 7.0541  2874
 7.0641  2921
 7.0741  2752
 7.0841  2579
 7.0941  2499
 7.1041  2197
 7.1141  1946
 7.1241  1598
 7.1341  1445
 7.1441  1157
 7.1541   945
 7.1641   774
 7.1741   609
 7.1841   504
 7.1941   427
 7.2041   343
 7.2141   302
 7.2241   220
 7.2341   212
 7.2441   212
 7.2541   192
 7.2641   178
 7.2741   202
 7.2841   177
 7.2941   195
 7.3041   195
 7.3141   177
 7.3241   203
 7.3341   228
 7.3441   253
 7.3541   243
 7.3641   252
 7.3741   291
 7.3841   299
 7.3941   298
 7.4041   314
 7.4141   308
 7.4241   353
 7.4341   340
 7.4441   337
 7.4541   355
 7.4641   337
 7.4741   326
 7.4841   325
 7.4941   319
 7.5041   298
 7.5141   294
 7.5241   279
 7.5341   250
 7.5441   235
 7.5541   221
 7.5641   207
 7.5741   217
 7.5841   198
 7.5941   201
 7.6041   211
 7.6141   201
 7.6241   191
 7.6341   189
 7.6441   214
 7.6541   166
 7.6641   199
 7.6741   199
 7.6841   216
 7.6941   189
 7.7041   224
 7.7141   218
 7.7241   213
 7.7341   200
 7.7441   222
 7.7541   223
 7.7641   239
 7.7741   234
 7.7841   250
 7.7941   243
 7.8041   252
 7.8141   267
 7.8241   235
 7.8341   267
 7.8441   259
 7.8541   261
 7.8641   276
 7.8741   270
 7.8841   305
 7.8941   310
 7.9041   297
 7.9141   312
 7.9241   326
 7.9341   357
 7.9441   369
 7.9541   402
 7.9641   420
 7.9741   468
 7.9841   536
 7.9941   497
 8.0041   540
 8.0141   621
 8.0241   700
 8.0341   717
 8.0441   720
 8.0541   786
 8.0641   836
 8.0741   885
 8.0841   959
 8.0941   957
 8.1041  1002
 8.1141  1066
 8.1241  1105
 8.1341  1152
 8.1441  1194
 8.1541  1227
 8.1641  1223
 8.1741  1238
 8.1841  1283
 8.1941  1281
 8.2041  1307
 8.2141  1323
 8.2241  1380
 8.2341  1382
 8.2441  1415
 8.2541  1458
 8.2641  1564
 8.2741  1652
 8.2841  1736
 8.2941  1956
 8.3041  2102
 8.3141  2339
 8.3241  2539
 8.3341  2712
 8.3441  2844
 8.3541  2998
 8.3641  3162
 8.3741  3322
 8.3841  3301
 8.3941  3421
 8.4041  3398
 8.4141  3195
 8.4241  2987
 8.4341  2812
 8.4441  2480
 8.4541  2268
 8.4641  2049
 8.4741  1751
 8.4841  1515
 8.4941  1225
 8.5041  1022
 8.5141   868
 8.5241   766
 8.5341   654
 8.5441   548
 8.5541   472
 8.5641   462
 8.5741   363
 8.5841   362
 8.5941   335
 8.6041   346
 8.6141   382
 8.6241   342
 8.6341   318
 8.6441   359
 8.6541   342
 8.6641   336
 8.6741   329
 8.6841   349
 8.6941   318
 8.7041   323
 8.7141   344
 8.7241   334
 8.7341   326
 8.7441   299
 8.7541   330
 8.7641   302
 8.7741   286
 8.7841   300
 8.7941   303
 8.8041   263
 8.8141   281
 8.8241   315
 8.8341   292
 8.8441   280
 8.8541   313
 8.8641   325
 8.8741   311
 8.8841   334
 8.8941   314
 8.9041   324
 8.9141   328
 8.9241   308
 8.9341   339
 8.9441   358
 8.9541   323
 8.9641   326
 8.9741   306
 8.9841   352
 8.9941   351
 9.0041   327
 9.0141   370
 9.0241   339
 9.0341   374
 9.0441   378
 9.0541   407
 9.0641   422
 9.0741   412
 9.0841   416
 9.0941   429
 9.1041   457
 9.1141   472
 9.1241   479
 9.1341   496
 9.1441   523
 9.1541   534
 9.1641   583
 9.1741   602
 9.1841   610
 9.1941   623
 9.2041   666
 9.2141   744
 9.2241   742
 9.2341   761
 9.2441   844
 9.2541   831
 9.2641   883
 9.2741   949
 9.2841   962
 9.2941   974
 9.3041  1016
 9.3141  1050
 9.3241  1077
 9.3341  1102
 9.3441  1143
 9.3541  1226
 9.3641  1233
 9.3741  1283
 9.3841  1253
 9.3941  1236
 9.4041  1282
 9.4141  1287
 9.4241  1328
 9.4341  1329
 9.4441  1281
 9.4541  1328
 9.4641  1340
 9.4741  1402
 9.4841  1454
 9.4941  1404
 9.5041  1451
 9.5141  1563
 9.5241  1581
 9.5341  1621
 9.5441  1680
 9.5541  1811
 9.5641  1949
 9.5741  2081
 9.5841  2115
 9.5941  2250
 9.6041  2372
 9.6141  2542
 9.6241  2620
 9.6341  2708
 9.6441  2751
 9.6541  2804
 9.6641  2920
 9.6741  2908
 9.6841  2882
 9.6941  2693
 9.7041  2489
 9.7141  2337
 9.7241  2302
 9.7341  2185
 9.7441  2106
 9.7541  1852
 9.7641  1664
 9.7741  1589
 9.7841  1506
 9.7941  1305
 9.8041  1273
 9.8141  1189
 9.8241  1139
 9.8341  1130
 9.8441  1160
 9.8541  1119
 9.8641  1130
 9.8741  1132
 9.8841  1098
 9.8941  1158
 9.9041  1237
 9.9141  1263
 9.9241  1286
 9.9341  1253
 9.9441  1328
 9.9541  1249
 9.9641  1247
 9.9741  1217
 9.9841  1186
 9.9941  1110
10.0041  1068
10.0141   990
10.0241   921
10.0341   862
10.0441   805
10.0541   687
10.0641   582
10.0741   522
10.0841   502
10.0941   443
10.1041   386
10.1141   349
10.1241   320
10.1341   319
10.1441   285
10.1541   271
10.1641   253
10.1741   246
10.1841   232
10.1941   225
10.2041   209
10.2141   191
10.2241   198
10.2341   212
10.2441   196
10.2541   184
10.2641   202
10.2741   184
10.2841   163
10.2941   167
10.3041   174
10.3141   169
10.3241   168
10.3341   168
10.3441   166
10.3541   151
10.3641   148
10.3741   154
10.3841   148
10.3941   180
10.4041   152
10.4141   140
10.4241   136
10.4341   140
10.4441   183
10.4541   152
10.4641   165
10.4741   184
10.4841   176
10.4941   171
10.5041   160
10.5141   166
10.5241   174
10.5341   161
10.5441   164
10.5541   176
10.5641   181
10.5741   179
10.5841   192
10.5941   181
10.6041   190
10.6141   203
10.6241   199
10.6341   193
10.6441   213
10.6541   204
10.6641   197
10.6741   195
10.6841   196
10.6941   206
10.7041   208
10.7141   216
10.7241   206
10.7341   218
10.7441   230
10.7541   224
10.7641   235
10.7741   260
10.7841   262
10.7941   252
10.8041   281
10.8141   272
10.8241   286
10.8341   295
10.8441   307
10.8541   288
10.8641   286
10.8741   273
10.8841   289
10.8941   272
10.9041   260
10.9141   263
10.9241   283
10.9341   290
10.9441   290
10.9541   277
10.9641   284
10.9741   274
10.9841   290
10.9941   273
11.0041   270
11.0141   271
11.0241   259
11.0341   251
11.0441   251
11.0541   258
11.0641   241
11.0741   241
11.0841   231
11.0941   237
11.1041   253
11.1141   232
11.1241   247
11.1341   257
11.1441   262
11.1541   268
11.1641   282
11.1741   301
11.1841   287
11.1941   308
11.2041   325
11.2141   340
11.2241   329
11.2341   372
11.2441   388
11.2541   375
11.2641   390
11.2741   392
11.2841   371
11.2941   396
11.3041   408
11.3141   384
11.3241   379
11.3341   388
11.3441   358
11.3541   329
11.3641   314
11.3741   283
11.3841   284
11.3941   264
11.4041   254
11.4141   263
11.4241   243
11.4341   206
11.4441   203
11.4541   210
11.4641   209
11.4741   198
11.4841   186
11.4941   200
11.5041   193
11.5141   179
11.5241   214
11.5341   223
11.5441   227
11.5541   219
11.5641   198
11.5741   200
11.5841   188
11.5941   194
11.6041   203
11.6141   210
11.6241   207
11.6341   220
11.6441   193
11.6541   187
11.6641   205
11.6741   203
11.6841   197
11.6941   181
11.7041   187
11.7141   196
11.7241   182
11.7341   181
11.7441   172
11.7541   171
11.7641   161
11.7741   164
11.7841   170
11.7941   168
11.8041   167
11.8141   160
11.8241   162
11.8341   152
11.8441   150
11.8541   152
11.8641   145
11.8741   146
11.8841   148
11.8941   153
11.9041   137
11.9141   141
11.9241   169
11.9341   158
11.9441   137
11.9541   141
11.9641   142
11.9741   155
11.9841   155
11.9941   151
12.0041   150
12.0141   148
12.0241   151
12.0341   146
12.0441   145
12.0541   137
12.0641   142
12.0741   157
12.0841   151
12.0941   147
12.1041   151
12.1141   160
12.1241   150
12.1341   151
12.1441   159
12.1541   149
12.1641   157
12.1741   157
12.1841   146
12.1941   163
12.2041   169
12.2141   157
12.2241   141
12.2341   147
12.2441   147
12.2541   145
12.2641   153
12.2741   141
12.2841   133
12.2941   156
12.3041   162
12.3141   145
12.3241   140
12.3341   143
12.3441   145
12.3541   139
12.3641   138
12.3741   139
12.3841   148
12.3941   149
12.4041   128
12.4141   135
12.4241   145
12.4341   147
12.4441   151
12.4541   173
12.4641   167
12.4741   159
12.4841   157
12.4941   155
12.5041   153
12.5141   145
12.5241   153
12.5341   165
12.5441   162
12.5541   151
12.5641   156
12.5741   152
12.5841   131
12.5941   151
12.6041   160
12.6141   160
12.6241   158
12.6341   154
12.6441   165
12.6541   169
12.6641   164
12.6741   155
12.6841   150
12.6941   139
12.7041   147
12.7141   150
12.7241   139
12.7341   148
12.7441   160
12.7541   161
12.7641   160
12.7741   159
12.7841   156
12.7941   154
12.8041   156
12.8141   161
12.8241   164
12.8341   164
12.8441   170
12.8541   177
12.8641   170
12.8741   159
12.8841   160
12.8941   168
12.9041   169
12.9141   162
12.9241   158
12.9341   160
12.9441   163
12.9541   168
12.9641   175
12.9741   180
12.9841   177
12.9941   172
13.0041   174
13.0141   177
13.0241   176
13.0341   174
13.0441   172
13.0541   170
13.0641   172
13.0741   174
13.0841   173
13.0941   174
13.1041   178
13.1141   180
13.1241   181
13.1341   180
13.1441   178
13.1541   179
13.1641   182
13.1741   183
13.1841   186
13.1941   192
13.2041   194
13.2141   195
13.2241   195
13.2341   197
13.2441   199
13.2541   211
13.2641   208
13.2741   195
13.2841   212
13.2941   216
13.3041   210
13.3141   221
13.3241   224
13.3341   237
13.3441   235
13.3541   220
13.3641   226
13.3741   238
13.3841   247
13.3941   243
13.4041   225
13.4141   236
13.4241   251
13.4341   242
13.4441   230
13.4541   240
13.4641   246
13.4741   239
13.4841   217
13.4941   195
13.5041   205
13.5141   222
13.5241   206
13.5341   199
13.5441   208
13.5541   215
13.5641   213
13.5741   220
13.5841   216
13.5941   217
13.6041   230
13.6141   215
13.6241   205
13.6341   223
13.6441   230
13.6541   219
13.6641   219
13.6741   203
13.6841   192
13.6941   202
13.7041   209
13.7141   210
13.7241   201
13.7341   197
13.7441   195
13.7541   206
13.7641   212
13.7741   213
13.7841   220
13.7941   221
13.8041   200
13.8141   193
13.8241   203
13.8341   209
13.8441   212
13.8541   214
13.8641   211
13.8741   206
13.8841   203
13.8941   199
13.9041   213
13.9141   230
13.9241   238
13.9341   226
13.9441   214
13.9541   221
13.9641   238
13.9741   246
13.9841   255
13.9941   264
14.0041   275
14.0141   297
14.0241   299
14.0341   305
14.0441   317
14.0541   322
14.0641   320
14.0741   322
14.0841   329
14.0941   351
14.1041   374
14.1141   376
14.1241   380
14.1341   370
14.1441   364
14.1541   384
14.1641   394
14.1741   359
14.1841   347
14.1941   379
14.2041   369
14.2141   339
14.2241   339
14.2341   335
14.2441   315
14.2541   302
14.2641   291
14.2741   290
14.2841   278
14.2941   258
14.3041   242
14.3141   245
14.3241   247
14.3341   237
14.3441   245
14.3541   241
14.3641   237
14.3741   234
14.3841   221
14.3941   220
14.4041   209
14.4141   196
14.4241   223
14.4341   232
14.4441   222
14.4541   235
14.4641   224
14.4741   225
14.4841   237
14.4941   236
14.5041   241
14.5141   245
14.5241   233
14.5341   231
14.5441   256
14.5541   254
14.5641   244
14.5741   251
14.5841   245
14.5941   244
14.6041   236
14.6141   244
14.6241   253
14.6341   248
14.6441   256
14.6541   246
14.6641   230
14.6741   241
14.6841   262
14.6941   264
14.7041   271
14.7141   261
14.7241   249
14.7341   256
14.7441   249
14.7541   245
14.7641   242
14.7741   247
14.7841   259
14.7941   257
14.8041   262
14.8141   253
14.8241   253
14.8341   271
14.8441   275
14.8541   274
14.8641   277
14.8741   260
14.8841   263
14.8941   282
14.9041   274
14.9141   264
14.9241   259
14.9341   268
14.9441   278
14.9541   274
14.9641   286
14.9741   285
14.9841   273
14.9941   276
15.0041   268
15.0141   265
15.0241   267
15.0341   265
15.0441   267
15.0541   279
15.0641   261
15.0741   262
15.0841   275
15.0941   265
15.1041   279
15.1141   272
15.1241   258
15.1341   250
15.1441   248
15.1541   267
15.1641   275
15.1741   257
15.1841   268
15.1941   273
15.2041   254
15.2141   262
15.2241   264
15.2341   270
15.2441   263
15.2541   257
15.2641   259
15.2741   270
15.2841   271
15.2941   259
15.3041   244
15.3141   250
15.3241   273
15.3341   275
15.3441   258
15.3541   264
15.3641   282
15.3741   288
15.3841   280
15.3941   278
15.4041   248
15.4141   251
15.4241   287
15.4341   300
15.4441   294
15.4541   285
15.4641   287
15.4741   283
15.4841   272
15.4941   299
15.5041   281
15.5141   277
15.5241   291
15.5341   302
15.5441   299
15.5541   301
15.5641   315
15.5741   314
15.5841   321
15.5941   322
15.6041   326
15.6141   330
15.6241   321
15.6341   322
15.6441   324
15.6541   347
15.6641   393
15.6741   393
15.6841   386
15.6941   385
15.7041   385
15.7141   404
15.7241   403
15.7341   403
15.7441   405
15.7541   388
15.7641   402
15.7741   428
15.7841   429
15.7941   446
15.8041   445
15.8141   408
15.8241   384
15.8341   413
15.8441   397
15.8541   380
15.8641   388
15.8741   369
15.8841   367
15.8941   355
15.9041   335
15.9141   354
15.9241   353
15.9341   342
15.9441   321
15.9541   310
15.9641   315
15.9741   313
15.9841   314
15.9941   314
16.0041   297
16.0141   323
16.0241   317
16.0341   303
16.0441   310
16.0541   304
16.0641   319
16.0741   326
16.0841   312
16.0941   320
16.1041   324
16.1141   309
16.1241   305
16.1341   304
16.1441   314
16.1541   303
16.1641   294
16.1741   300
16.1841   316
16.1941   318
16.2041   311
16.2141   319
16.2241   319
16.2341   304
16.2441   312
16.2541   313
16.2641   324
16.2741   332
16.2841   306
16.2941   316
16.3041   322
16.3141   320
16.3241   332
16.3341   342
16.3441   341
16.3541   329
16.3641   338
16.3741   341
16.3841   321
16.3941   312
16.4041   321
16.4141   314
16.4241   317
16.4341   317
16.4441   308
16.4541   324
16.4641   310
16.4741   323
16.4841   343
16.4941   342
16.5041   320
16.5141   328
16.5241   337
16.5341   330
16.5441   342
16.5541   324
16.5641   327
16.5741   344
16.5841   335
16.5941   338
16.6041   329
16.6141   317
16.6241   336
16.6341   349
16.6441   325
16.6541   319
16.6641   316
16.6741   323
16.6841   367
16.6941   373
16.7041   355
16.7141   356
16.7241   358
16.7341   347
16.7441   341
16.7541   341
16.7641   341
16.7741   349
16.7841   340
16.7941   349
16.8041   357
16.8141   340
16.8241   354
16.8341   331
16.8441   329
16.8541   365
16.8641   351
16.8741   341
16.8841   374
16.8941   337
16.9041   335
16.9141   335
16.9241   327
16.9341   347
16.9441   340
16.9541   333
16.9641   328
16.9741   335
16.9841   337
16.9941   348
17.0041   346
17.0141   332
17.0241   352
17.0341   356
17.0441   367
17.0541   342
17.0641   356
17.0741   355
17.0841   335
17.0941   368
17.1041   367
17.1141   369
17.1241   365
17.1341   361
17.1441   362
17.1541   364
17.1641   377
17.1741   392
17.1841   369
17.1941   382
17.2041   389
17.2141   381
17.2241   371
17.2341   360
17.2441   351
17.2541   365
17.2641   367
17.2741   373
17.2841   368
17.2941   365
17.3041   345
17.3141   367
17.3241   385
17.3341   399
17.3441   374
17.3541   356
17.3641   379
17.3741   384
17.3841   384
17.3941   391
17.4041   396
17.4141   381
17.4241   389
17.4341   386
17.4441   369
17.4541   378
17.4641   382
17.4741   397
17.4841   413
17.4941   403
17.5041   392
17.5141   399
17.5241   426
17.5341   394
17.5441   394
17.5541   385
17.5641   397
17.5741   417
17.5841   413
17.5941   419
17.6041   406
17.6141   393
17.6241   420
17.6341   408
17.6441   392
17.6541   433
17.6641   439
17.6741   412
17.6841   426
17.6941   426
17.7041   428
17.7141   449
17.7241   408
17.7341   418
17.7441   425
17.7541   400
17.7641   405
17.7741   404
17.7841   404
17.7941   405
17.8041   405
17.8141   410
17.8241   417
17.8341   410
17.8441   406
17.8541   385
17.8641   410
17.8741   414
17.8841   412
17.8941   388
17.9041   396
17.9141   419
17.9241   432
17.9341   411
17.9441   418
17.9541   434
17.9641   414
17.9741   422
17.9841   449
17.9941   417
18.0041   397
18.0141   408
18.0241   412
18.0341   413
18.0441   395
18.0541   399
18.0641   425
18.0741   396
18.0841   406
18.0941   421
18.1041   427
18.1141   433
18.1241   443
18.1341   426
18.1441   418
18.1541   424
18.1641   441
18.1741   409
18.1841   435
18.1941   432
18.2041   427
18.2141   415
18.2241   418
18.2341   419
18.2441   427
18.2541   431
18.2641   424
18.2741   405
18.2841   410
18.2941   429
18.3041   445
18.3141   440
18.3241   423
18.3341   423
18.3441   404
18.3541   408
18.3641   437
18.3741   415
18.3841   427
18.3941   408
18.4041   423
18.4141   439
18.4241   461
18.4341   435
18.4441   425
18.4541   447
18.4641   454
18.4741   426
18.4841   453
18.4941   421
18.5041   416
18.5141   440
18.5241   449
18.5341   466
18.5441   464
18.5541   424
18.5641   400
18.5741   413
18.5841   402
18.5941   419
18.6041   435
18.6141   452
18.6241   440
18.6341   440
18.6441   423
18.6541   431
18.6641   436
18.6741   433
18.6841   460
18.6941   454
18.7041   426
18.7141   453
18.7241   445
18.7341   420
18.7441   438
18.7541   471
18.7641   423
18.7741   462
18.7841   418
18.7941   453
18.8041   481
18.8141   456
18.8241   432
18.8341   408
18.8441   398
18.8541   423
18.8641   445
18.8741   452
18.8841   419
18.8941   477
18.9041   476
18.9141   459
18.9241   473
18.9341   467
18.9441   438
18.9541   434
18.9641   464
18.9741   448
18.9841   411
18.9941   460
19.0041   467
19.0141   430
19.0241   457
19.0341   422
19.0441   449
19.0541   442
19.0641   453
19.0741   447
19.0841   466
19.0941   487
19.1041   458
19.1141   431
19.1241   434
19.1341   468
19.1441   469
19.1541   454
19.1641   479
19.1741   435
19.1841   494
19.1941   467
19.2041   444
19.2141   438
19.2241   460
19.2341   458
19.2441   467
19.2541   409
19.2641   420
19.2741   453
19.2841   462
19.2941   460
19.3041   467
19.3141   455
19.3241   453
19.3341   462
19.3441   441
19.3541   469
19.3641   473
19.3741   476
19.3841   471
19.3941   449
19.4041   473
19.4141   476
19.4241   468
19.4341   482
19.4441   427
19.4541   433
19.4641   457
19.4741   449
19.4841   475
19.4941   498
19.5041   451
19.5141   477
19.5241   480
19.5341   479
19.5441   476
19.5541   500
19.5641   497
19.5741   471
19.5841   500
19.5941   504
19.6041   480
19.6141   461
19.6241   450
19.6341   480
19.6441   494
19.6541   487
19.6641   462
19.6741   469
19.6841   494
19.6941   442
19.7041   491
19.7141   485
19.7241   462
19.7341   469
19.7441   451
19.7541   485
19.7641   433
19.7741   469
19.7841   494
19.7941   494
19.8041   475
19.8141   493
19.8241   485
19.8341   497
19.8441   456
19.8541   450
19.8641   443
19.8741   451
19.8841   488
19.8941   500
19.9041   499
19.9141   461
19.9241   473
19.9341   449
19.9441   444
19.9541   470
19.9641   448
19.9741   489
19.9841   451
19.9941   459
20.0041   470
20.0141   477
20.0241   468
20.0341   462
20.0441   475
20.0541   479
20.0641   493
20.0741   485
20.0841   475
20.0941   492
20.1041   502
20.1141   478
20.1241   479
20.1341   481
20.1441   478
20.1541   503
20.1641   459
20.1741   443
20.1841   475
20.1941   491
20.2041   453
20.2141   474
20.2241   476
20.2341   484
20.2441   488
20.2541   467
20.2641   456
20.2741   477
20.2841   454
20.2941   472
20.3041   512
20.3141   460
20.3241   514
20.3341   456
20.3441   501
20.3541   460
20.3641   449
20.3741   475
20.3841   460
20.3941   464
20.4041   452
20.4141   492
20.4241   490
20.4341   503
20.4441   470
20.4541   492
20.4641   459
20.4741   490
20.4841   468
20.4941   487
20.5041   462
20.5141   495
20.5241   516
20.5341   527
20.5441   484
20.5541   447
20.5641   498
20.5741   486
20.5841   461
20.5941   447
20.6041   514
20.6141   481
20.6241   493
20.6341   491
20.6441   470
20.6541   431
20.6641   472
20.6741   485
20.6841   522
20.6941   492
20.7041   520
20.7141   486
20.7241   495
20.7341   474
20.7441   513
20.7541   474
20.7641   544
20.7741   524
20.7841   494
20.7941   496
20.8041   499
20.8141   523
20.8241   484
20.8341   505
20.8441   489
20.8541   564
20.8641   519
20.8741   554
20.8841   505
20.8941   541
20.9041   545
20.9141   584
20.9241   575
20.9341   567
20.9441   580
20.9541   605
20.9641   619
20.9741   612
20.9841   668
20.9941   664
21.0041   654
21.0141   696
21.0241   687
21.0341   705
21.0441   721
21.0541   696
21.0641   715
21.0741   718
21.0841   689
21.0941   710
21.1041   713
21.1141   751
21.1241   732
21.1341   683
21.1441   710
21.1541   741
21.1641   727
21.1741   739
21.1841   743
21.1941   738
21.2041   697
21.2141   717
21.2241   705
21.2341   659
21.2441   667
21.2541   618
21.2641   603
21.2741   568
21.2841   599
21.2941   585
21.3041   619
21.3141   559
21.3241   513
21.3341   571
21.3441   517
21.3541   526
21.3641   561
21.3741   547
21.3841   513
21.3941   503
21.4041   530
21.4141   516
21.4241   504
21.4341   487
21.4441   493
21.4541   476
21.4641   520
21.4741   510
21.4841   464
21.4941   496
21.5041   499
21.5141   488
21.5241   476
21.5341   491
21.5441   537
21.5541   495
21.5641   463
21.5741   508
21.5841   508
21.5941   529
21.6041   483
21.6141   481
21.6241   489
21.6341   494
21.6441   457
21.6541   472
21.6641   493
21.6741   489
21.6841   479
21.6941   480
21.7041   512
21.7141   488
21.7241   467
21.7341   502
21.7441   479
21.7541   491
21.7641   516
21.7741   505
21.7841   495
21.7941   462
21.8041   503
21.8141   444
21.8241   486
21.8341   469
21.8441   433
21.8541   477
21.8641   514
21.8741   519
21.8841   517
21.8941   501
21.9041   502
21.9141   524
21.9241   538
21.9341   505
21.9441   463
21.9541   511
21.9641   476
21.9741   485
21.9841   478
21.9941   515
22.0041   488
22.0141   533
22.0241   486
22.0341   509
22.0441   509
22.0541   499
22.0641   511
22.0741   516
22.0841   481
22.0941   460
22.1041   462
22.1141   497
22.1241   501
22.1341   490
22.1441   473
22.1541   484
22.1641   479
22.1741   486
22.1841   460
22.1941   485
22.2041   489
22.2141   479
22.2241   490
22.2341   533
22.2441   448
22.2541   483
22.2641   480
22.2741   513
22.2841   494
22.2941   451
22.3041   501
22.3141   490
22.3241   513
22.3341   512
22.3441   466
22.3541   480
22.3641   469
22.3741   492
22.3841   518
22.3941   490
22.4041   517
22.4141   474
22.4241   454
22.4341   519
22.4441   492
22.4541   477
22.4641   472
22.4741   461
22.4841   453
22.4941   502
22.5041   484
22.5141   495
22.5241   455
22.5341   431
22.5441   464
22.5541   480
22.5641   520
22.5741   498
22.5841   496
22.5941   419
22.6041   459
22.6141   501
22.6241   491
22.6341   450
22.6441   512
22.6541   463
22.6641   449
22.6741   479
22.6841   430
22.6941   499
22.7041   469
22.7141   497
22.7241   487
22.7341   489
22.7441   464
22.7541   462
22.7641   469
22.7741   475
22.7841   488
22.7941   465
22.8041   480
22.8141   490
22.8241   482
22.8341   501
22.8441   473
22.8541   473
22.8641   512
22.8741   494
22.8841   473
22.8941   467
22.9041   504
22.9141   472
22.9241   528
22.9341   449
22.9441   485
22.9541   459
22.9641   485
22.9741   417
22.9841   467
22.9941   472
23.0041   509
23.0141   458
23.0241   502
23.0341   465
23.0441   466
23.0541   490
23.0641   493
23.0741   499
23.0841   461
23.0941   436
23.1041   447
23.1141   478
23.1241   498
23.1341   449
23.1441   458
23.1541   404
23.1641   456
23.1741   498
23.1841   487
23.1941   454
23.2041   495
23.2141   451
23.2241   483
23.2341   458
23.2441   436
23.2541   427
23.2641   467
23.2741   470
23.2841   490
23.2941   482
23.3041   489
23.3141   455
23.3241   486
23.3341   446
23.3441   457
23.3541   460
23.3641   467
23.3741   429
23.3841   466
23.3941   470
23.4041   491
23.4141   488
23.4241   494
23.4341   451
23.4441   492
23.4541   489
23.4641   497
23.4741   466
23.4841   467
23.4941   454
23.5041   499
23.5141   463
23.5241   453
23.5341   471
23.5441   476
23.5541   480
23.5641   508
23.5741   475
23.5841   457
23.5941   498
23.6041   486
23.6141   460
23.6241   461
23.6341   485
23.6441   496
23.6541   477
23.6641   483
23.6741   477
23.6841   508
23.6941   521
23.7041   439
23.7141   489
23.7241   473
23.7341   538
23.7441   519
23.7541   500
23.7641   471
23.7741   465
23.7841   485
23.7941   489
23.8041   444
23.8141   501
23.8241   512
23.8341   522
23.8441   518
23.8541   539
23.8641   508
23.8741   527
23.8841   512
23.8941   477
23.9041   508
23.9141   484
23.9241   489
23.9341   518
23.9441   454
23.9541   478
23.9641   450
23.9741   498
23.9841   501
23.9941   482
24.0041   473
24.0141   479
24.0241   458
24.0341   464
24.0441   492
24.0541   422
24.0641   434
24.0741   458
24.0841   437
24.0941   442
24.1041   442
24.1141   448
24.1241   488
24.1341   417
24.1441   460
24.1541   480
24.1641   476
24.1741   472
24.1841   444
24.1941   417
24.2041   448
24.2141   415
24.2241   490
24.2341   462
24.2441   436
24.2541   428
24.2641   469
24.2741   438
24.2841   486
24.2941   454
24.3041   435
24.3141   450
24.3241   432
24.3341   430
24.3441   487
24.3541   456
24.3641   442
24.3741   417
24.3841   444
24.3941   435
24.4041   423
24.4141   436
24.4241   430
24.4341   395
24.4441   436
24.4541   460
24.4641   487
24.4741   437
24.4841   409
24.4941   405
24.5041   480
24.5141   435
24.5241   410
24.5341   417
24.5441   441
24.5541   430
24.5641   448
24.5741   420
24.5841   436
24.5941   434
24.6041   417
24.6141   440
24.6241   425
24.6341   467
24.6441   445
24.6541   429
24.6641   468
24.6741   416
24.6841   441
24.6941   423
24.7041   422
24.7141   442
24.7241   419
24.7341   428
24.7441   417
24.7541   429
24.7641   386
24.7741   441
24.7841   410
24.7941   438
24.8041   457
24.8141   478
24.8241   421
24.8341   407
24.8441   443
24.8541   450
24.8641   438
24.8741   433
24.8841   419
24.8941   419
24.9041   413
24.9141   468
24.9241   388
24.9341   419
24.9441   410
24.9541   452
24.9641   451
24.9741   418
24.9841   432
24.9941   443
25.0041   452
25.0141   402
25.0241   427
25.0341   423
25.0441   421
25.0541   410
25.0641   450
25.0741   433
25.0841   426
25.0941   423
25.1041   413
25.1141   425
25.1241   442
25.1341   410
25.1441   436
25.1541   426
25.1641   417
25.1741   442
25.1841   409
25.1941   413
25.2041   442
25.2141   416
25.2241   452
25.2341   426
25.2441   421
25.2541   436
25.2641   417
25.2741   450
25.2841   463
25.2941   463
25.3041   424
25.3141   434
25.3241   454
25.3341   449
25.3441   466
25.3541   428
25.3641   445
25.3741   426
25.3841   434
25.3941   396
25.4041   393
25.4141   410
25.4241   437
25.4341   422
25.4441   385
25.4541   445
25.4641   439
25.4741   410
25.4841   401
25.4941   419
25.5041   412
25.5141   375
25.5241   394
25.5341   389
25.5441   396
25.5541   378
25.5641   391
25.5741   374
25.5841   400
25.5941   445
25.6041   419
25.6141   379
25.6241   376
25.6341   378
25.6441   396
25.6541   401
25.6641   417
25.6741   361
25.6841   398
25.6941   397
25.7041   387
25.7141   388
25.7241   414
25.7341   372
25.7441   423
25.7541   399
25.7641   391
25.7741   372
25.7841   392
25.7941   379
25.8041   389
25.8141   391
25.8241   373
25.8341   418
25.8441   422
25.8541   363
25.8641   393
25.8741   372
25.8841   382
25.8941   405
25.9041   394
25.9141   392
25.9241   407
25.9341   361
25.9441   403
25.9541   380
25.9641   392
25.9741   387
25.9841   386
25.9941   401
26.0041   411
26.0141   391
26.0241   397
26.0341   389
26.0441   420
26.0541   390
26.0641   381
26.0741   358
26.0841   385
26.0941   416
26.1041   408
26.1141   378
26.1241   394
26.1341   394
26.1441   383
26.1541   400
26.1641   379
26.1741   370
26.1841   385
26.1941   339
26.2041   353
26.2141   384
26.2241   368
26.2341   356
26.2441   381
26.2541   385
26.2641   392
26.2741   367
26.2841   358
26.2941   369
26.3041   380
26.3141   366
26.3241   386
26.3341   386
26.3441   393
26.3541   392
26.3641   349
26.3741   362
26.3841   405
26.3941   372
26.4041   393
26.4141   385
26.4241   398
26.4341   351
26.4441   380
26.4541   381
26.4641   394
26.4741   386
26.4841   364
26.4941   389
26.5041   360
26.5141   338
26.5241   368
26.5341   373
26.5441   363
26.5541   391
26.5641   351
26.5741   352
26.5841   359
26.5941   363
26.6041   363
26.6141   364
26.6241   371
26.6341   377
26.6441   412
26.6541   404
26.6641   389
26.6741   329
26.6841   356
26.6941   386
26.7041   374
26.7141   366
26.7241   361
26.7341   375
26.7441   356
26.7541   378
26.7641   393
26.7741   333
26.7841   343
26.7941   353
26.8041   360
26.8141   336
26.8241   369
26.8341   341
26.8441   337
26.8541   353
26.8641   353
26.8741   338
26.8841   364
26.8941   346
26.9041   346
26.9141   384
26.9241   383
26.9341   370
26.9441   393
26.9541   364
26.9641   349
26.9741   350
26.9841   332
26.9941   377
27.0041   363
27.0141   352
27.0241   357
27.0341   357
27.0441   340
27.0541   340
27.0641   322
27.0741   339
27.0841   316
27.0941   342
27.1041   366
27.1141   347
27.1241   337
27.1341   336
27.1441   335
27.1541   323
27.1641   340
27.1741   363
27.1841   332
27.1941   389
27.2041   337
27.2141   344
27.2241   350
27.2341   328
27.2441   340
27.2541   344
27.2641   350
27.2741   358
27.2841   309
27.2941   320
27.3041   315
27.3141   330
27.3241   340
27.3341   326
27.3441   305
27.3541   350
27.3641   348
27.3741   345
27.3841   341
27.3941   330
27.4041   314
27.4141   338
27.4241   341
27.4341   348
27.4441   349
27.4541   299
27.4641   313
27.4741   361
27.4841   343
27.4941   328
27.5041   314
27.5141   339
27.5241   347
27.5341   338
27.5441   344
27.5541   352
27.5641   284
27.5741   305
27.5841   350
27.5941   343
27.6041   333
27.6141   316
27.6241   334
27.6341   329
27.6441   307
27.6541   326
27.6641   311
27.6741   342
27.6841   329
27.6941   324
27.7041   307
27.7141   324
27.7241   340
27.7341   354
27.7441   302
27.7541   329
27.7641   340
27.7741   322
27.7841   348
27.7941   332
27.8041   316
27.8141   312
27.8241   309
27.8341   332
27.8441   313
27.8541   366
27.8641   288
27.8741   338
27.8841   336
27.8941   327
27.9041   301
27.9141   318
27.9241   313
27.9341   333
27.9441   327
27.9541   305
27.9641   316
27.9741   318
27.9841   321
27.9941   328
28.0041   306
28.0141   311
28.0241   278
28.0341   295
28.0441   299
28.0541   323
28.0641   299
28.0741   321
28.0841   339
28.0941   282
28.1041   321
28.1141   287
28.1241   300
28.1341   289
28.1441   303
28.1541   315
28.1641   287
28.1741   306
28.1841   287
28.1941   307
28.2041   310
28.2141   302
28.2241   322
28.2341   326
28.2441   309
28.2541   290
28.2641   326
28.2741   297
28.2841   304
28.2941   303
28.3041   316
28.3141   273
28.3241   289
28.3341   327
28.3441   300
28.3541   282
28.3641   313
28.3741   307
28.3841   299
28.3941   289
28.4041   270
28.4141   278
28.4241   301
28.4341   312
28.4441   300
28.4541   322
28.4641   312
28.4741   324
28.4841   301
28.4941   304
28.5041   283
28.5141   296
28.5241   309
28.5341   316
28.5441   289
28.5541   277
28.5641   299
28.5741   286
28.5841   293
28.5941   303
28.6041   274
28.6141   265
28.6241   281
28.6341   321
28.6441   295
28.6541   298
28.6641   295
28.6741   273
28.6841   298
28.6941   288
28.7041   250
28.7141   286
28.7241   307
28.7341   285
28.7441   311
28.7541   279
28.7641   284
28.7741   274
28.7841   288
28.7941   276
28.8041   251
28.8141   262
28.8241   274
28.8341   288
28.8441   295
28.8541   266
28.8641   276
28.8741   308
28.8841   258
28.8941   267
28.9041   291
28.9141   261
28.9241   279
28.9341   290
28.9441   262
28.9541   277
28.9641   245
28.9741   279
28.9841   292
28.9941   265
29.0041   252
29.0141   277
29.0241   298
29.0341   267
29.0441   295
29.0541   286
29.0641   302
29.0741   291
29.0841   271
29.0941   261
29.1041   268
29.1141   249
29.1241   242
29.1341   286
29.1441   262
29.1541   299
29.1641   276
29.1741   264
29.1841   266
29.1941   282
29.2041   290
29.2141   273
29.2241   276
29.2341   258
29.2441   265
29.2541   270
29.2641   262
29.2741   262
29.2841   243
29.2941   271
29.3041   227
29.3141   253
29.3241   269
29.3341   252
29.3441   258
29.3541   269
29.3641   266
29.3741   240
29.3841   239
29.3941   288
29.4041   246
29.4141   233
29.4241   288
29.4341   257
29.4441   275
29.4541   259
29.4641   243
29.4741   260
29.4841   243
29.4941   262
29.5041   270
29.5141   249
29.5241   267
29.5341   263
29.5441   280
29.5541   256
29.5641   273
29.5741   248
29.5841   259
29.5941   260
29.6041   254
29.6141   262
29.6241   289
29.6341   260
29.6441   247
29.6541   229
29.6641   261
29.6741   267
29.6841   237
29.6941   280
29.7041   227
29.7141   242
29.7241   258
29.7341   251
29.7441   241
29.7541   240
29.7641   252
29.7741   251
29.7841   255
29.7941   253
29.8041   247
29.8141   219
29.8241   250
29.8341   253
29.8441   244
29.8541   247
29.8641   263
29.8741   266
29.8841   226
29.8941   222
29.9041   249
29.9141   244
29.9241   265
29.9341   222
29.9441   233
29.9541   234
29.9641   230
29.9741   233
29.9841   229
29.9941   224
30.0041   241
30.0141   227
30.0241   229
30.0341   203
30.0441   245
30.0541   258
30.0641   212
30.0741   235
30.0841   223
30.0941   220
30.1041   248
30.1141   216
30.1241   257
30.1341   263
30.1441   240
30.1541   233
30.1641   235
30.1741   217
30.1841   241
30.1941   234
30.2041   233
30.2141   253
30.2241   230
30.2341   236
30.2441   245
30.2541   243
30.2641   226
30.2741   225
30.2841   223
30.2941   238
30.3041   222
30.3141   217
30.3241   230
30.3341   229
30.3441   224
30.3541   241
30.3641   221
30.3741   248
30.3841   236
30.3941   240
30.4041   224
30.4141   237
30.4241   232
30.4341   229
30.4441   214
30.4541   225
30.4641   239
30.4741   225
30.4841   207
30.4941   223
30.5041   237
30.5141   242
30.5241   239
30.5341   222
30.5441   255
30.5541   231
30.5641   214
30.5741   215
30.5841   194
30.5941   228
30.6041   233
30.6141   231
30.6241   227
30.6341   205
30.6441   231
30.6541   206
30.6641   223
30.6741   209
30.6841   215
30.6941   190
30.7041   214
30.7141   213
30.7241   205
30.7341   218
30.7441   206
30.7541   228
30.7641   202
30.7741   227
30.7841   238
30.7941   223
30.8041   225
30.8141   200
30.8241   224
30.8341   196
30.8441   205
30.8541   200
30.8641   194
30.8741   214
30.8841   209
30.8941   218
30.9041   197
30.9141   215
30.9241   213
30.9341   204
30.9441   204
30.9541   203
30.9641   222
30.9741   208
30.9841   235
30.9941   225
31.0041   219
31.0141   215
31.0241   215
31.0341   214
31.0441   199
31.0541   218
31.0641   202
31.0741   198
31.0841   192
31.0941   197
31.1041   202
31.1141   195
31.1241   221
31.1341   201
31.1441   203
31.1541   176
31.1641   202
31.1741   210
31.1841   183
31.1941   208
31.2041   204
31.2141   228
31.2241   184
31.2341   187
31.2441   186
31.2541   196
31.2641   197
31.2741   197
31.2841   205
31.2941   183
31.3041   204
31.3141   212
31.3241   198
31.3341   191
31.3441   194
31.3541   162
31.3641   194
31.3741   199
31.3841   223
31.3941   193
31.4041   192
31.4141   189
31.4241   202
31.4341   198
31.4441   187
31.4541   193
31.4641   189
31.4741   212
31.4841   178
31.4941   183
31.5041   182
31.5141   180
31.5241   193
31.5341   192
31.5441   193
31.5541   195
31.5641   207
31.5741   181
31.5841   187
31.5941   190
31.6041   190
31.6141   197
31.6241   201
31.6341   194
31.6441   189
31.6541   177
31.6641   181
31.6741   201
31.6841   196
31.6941   195
31.7041   167
31.7141   194
31.7241   183
31.7341   181
31.7441   194
31.7541   182
31.7641   179
31.7741   182
31.7841   203
31.7941   202
31.8041   174
31.8141   176
31.8241   187
31.8341   164
31.8441   195
31.8541   162
31.8641   188
31.8741   183
31.8841   195
31.8941   194
31.9041   191
31.9141   174
31.9241   165
31.9341   167
31.9441   189
31.9541   197
31.9641   191
31.9741   173
31.9841   165
31.9941   179
32.0041   166
32.0141   176
32.0241   176
32.0341   186
32.0441   181
32.0541   174
32.0641   184
32.0741   148
32.0841   192
32.0941   171
32.1041   182
32.1141   180
32.1241   186
32.1341   173
32.1441   164
32.1541   177
32.1641   153
32.1741   157
32.1841   189
32.1941   180
32.2041   167
32.2141   181
32.2241   179
32.2341   171
32.2441   142
32.2541   190
32.2641   174
32.2741   177
32.2841   185
32.2941   169
32.3041   165
32.3141   175
32.3241   182
32.3341   189
32.3441   177
32.3541   165
32.3641   181
32.3741   163
32.3841   170
32.3941   179
32.4041   157
32.4141   155
32.4241   187
32.4341   164
32.4441   153
32.4541   166
32.4641   158
32.4741   158
32.4841   162
32.4941   141
32.5041   178
32.5141   152
32.5241   157
32.5341   174
32.5441   157
32.5541   176
32.5641   154
32.5741   141
32.5841   140
32.5941   146
32.6041   168
32.6141   163
32.6241   165
32.6341   142
32.6441   152
32.6541   155
32.6641   160
32.6741   174
32.6841   146
32.6941   151
32.7041   151
32.7141   147
32.7241   158
32.7341   141
32.7441   163
32.7541   161
32.7641   152
32.7741   165
32.7841   151
32.7941   171
32.8041   159
32.8141   144
32.8241   156
32.8341   149
32.8441   159
32.8541   181
32.8641   177
32.8741   157
32.8841   145
32.8941   151
32.9041   143
32.9141   152
32.9241   163
32.9341   152
32.9441   158
32.9541   167
32.9641   152
32.9741   158
32.9841   162
32.9941   175
33.0041   153
33.0141   151
33.0241   147
33.0341   131
33.0441   157
33.0541   146
33.0641   138
33.0741   159
33.0841   151
33.0941   149
33.1041   167
33.1141   148
33.1241   150
33.1341   177
33.1441   123
33.1541   138
33.1641   166
33.1741   136
33.1841   168
33.1941   153
33.2041   146
33.2141   157
33.2241   145
33.2341   163
33.2441   139
33.2541   153
33.2641   130
33.2741   142
33.2841   146
33.2941   149
33.3041   159
33.3141   133
33.3241   128
33.3341   140
33.3441   157
33.3541   141
33.3641   127
33.3741   151
33.3841   149
33.3941   143
33.4041   139
33.4141   116
33.4241   120
33.4341   132
33.4441   139
33.4541   153
33.4641   138
33.4741   137
33.4841   136
33.4941   149
33.5041   138
33.5141   118
33.5241   136
33.5341   129
33.5441   125
33.5541   140
33.5641   129
33.5741   137
33.5841   132
33.5941   141
33.6041   131
33.6141   128
33.6241   139
33.6341   142
33.6441   136
33.6541   126
33.6641   135
33.6741   149
33.6841   137
33.6941   121
33.7041   128
33.7141   133
33.7241   118
33.7341   137
33.7441   122
33.7541   120
33.7641   131
33.7741   129
33.7841   132
33.7941   120
33.8041   134
33.8141   134
33.8241   139
33.8341   111
33.8441   140
33.8541   134
33.8641   121
33.8741   134
33.8841   123
33.8941   120
33.9041   119
33.9141   130
33.9241   147
33.9341   140
33.9441   147
33.9541   130
33.9641   132
33.9741   144
33.9841   115
33.9941   128
34.0041   120
34.0141   112
34.0241   110
34.0341   106
34.0441   107
34.0541   116
34.0641   124
34.0741   104
34.0841   123
34.0941   124
34.1041   133
34.1141   115
34.1241   118
34.1341   121
34.1441   117
34.1541   122
34.1641   158
34.1741   125
34.1841   118
34.1941   135
34.2041   126
34.2141   115
34.2241   135
34.2341   136
34.2441   101
34.2541   137
34.2641   125
34.2741   137
34.2841   117
34.2941   114
34.3041   110
34.3141   105
34.3241   114
34.3341   107
34.3441   118
34.3541   114
34.3641   120
34.3741   126
34.3841   101
34.3941   102
34.4041   123
34.4141   111
34.4241   127
34.4341    99
34.4441    88
34.4541   109
34.4641   122
34.4741   106
34.4841   117
34.4941   100
34.5041   103
34.5141   113
34.5241   115
34.5341   132
34.5441   115
34.5541   104
34.5641   135
34.5741   121
34.5841   126
34.5941   103
34.6041   113
34.6141   109
34.6241    97
34.6341   115
34.6441   109
34.6541   112
34.6641   110
34.6741   111
34.6841   116
34.6941   111
34.7041    98
34.7141   128
34.7241    98
34.7341    96
34.7441    92
34.7541   108
34.7641   100
34.7741   128
34.7841   115
34.7941   117
34.8041   120
34.8141   112
34.8241    94
34.8341    96
34.8441   107
34.8541    98
34.8641   127
34.8741   105
34.8841    87
34.8941   112
34.9041   109
34.9141   100
34.9241    87
34.9341   124
34.9441   105
34.9541    95
34.9641   110
34.9741   116
34.9841   106
34.9941   101
35.0041   116
35.0141   110
35.0241   105
35.0341   106
35.0441   100
35.0541    96
35.0641    90
35.0741   118
35.0841   117
35.0941   107
35.1041   111
35.1141   127
35.1241   110
35.1341   108
35.1441   103
35.1541    97
35.1641    99
35.1741    96
35.1841   115
35.1941   100
35.2041   106
35.2141   104
35.2241    96
35.2341   104
35.2441    90
35.2541    87
35.2641    93
35.2741    99
35.2841    89
35.2941    86
35.3041   111
35.3141    87
35.3241    99
35.3341    97
35.3441    89
35.3541    91
35.3641    77
35.3741    97
35.3841   101
35.3941    91
35.4041    97
35.4141    86
35.4241    97
35.4341    87
35.4441    88
35.4541    89
35.4641    90
35.4741    97
35.4841    88
35.4941    83
35.5041    94
35.5141   111
35.5241    71
35.5341    90
35.5441    93
35.5541    92
35.5641    93
35.5741    87
35.5841    88
35.5941    96
35.6041    82
35.6141    90
35.6241    91
35.6341    89
35.6441    78
35.6541    83
35.6641    83
35.6741    92
35.6841   106
35.6941    87
35.7041    99
35.7141    94
35.7241    76
35.7341   103
35.7441    86
35.7541    82
35.7641    88
35.7741    75
35.7841    91
35.7941    90
35.8041    88
35.8141    75
35.8241    93
35.8341    85
35.8441    86
35.8541    98
35.8641    72
35.8741    77
35.8841    85
35.8941    81
35.9041    83
35.9141    91
35.9241    91
35.9341    90
35.9441    76
35.9541    95
35.9641    91
35.9741   100
35.9841    85
35.9941    79
36.0041    66
36.0141    77
36.0241    94
36.0341    94
36.0441    75
36.0541    91
36.0641    85
36.0741    83
36.0841    77
36.0941    80
36.1041    66
36.1141    69
36.1241    81
36.1341    70
36.1441    78
36.1541    76
36.1641    78
36.1741    80
36.1841    91
36.1941    89
36.2041    77
36.2141    85
36.2241    98
36.2341    77
36.2441    74
36.2541    64
36.2641    67
36.2741    67
36.2841    67
36.2941    73
36.3041    77
36.3141    79
36.3241    79
36.3341    82
36.3441    77
36.3541    89
36.3641    81
36.3741    72
36.3841    94
36.3941    79
36.4041    81
36.4141    79
36.4241    87
36.4341    81
36.4441    69
36.4541    73
36.4641    79
36.4741    72
36.4841    81
36.4941    72
36.5041    71
36.5141    71
36.5241    78
36.5341    77
36.5441    82
36.5541    73
36.5641    65
36.5741    64
36.5841    67
36.5941    80
36.6041    80
36.6141    72
36.6241    84
36.6341    61
36.6441    65
36.6541    77
36.6641    75
36.6741    43
36.6841    51
36.6941    87
36.7041    71
36.7141    66
36.7241    67
36.7341    79
36.7441    61
36.7541    57
36.7641    70
36.7741    69
36.7841    66
36.7941    68
36.8041    60
36.8141    71
36.8241    62
36.8341    72
36.8441    72
36.8541    74
36.8641    72
36.8741    79
36.8841    62
36.8941    80
36.9041    63
36.9141    84
36.9241    80
36.9341    67
36.9441    56
36.9541    76
36.9641    59
36.9741    68
36.9841    72
36.9941    63
37.0041    67
37.0141    71
37.0241    73
37.0341    78
37.0441    73
37.0541    69
37.0641    70
37.0741    50
37.0841    71
37.0941    58
37.1041    63
37.1141    62
37.1241    55
37.1341    75
37.1441    49
37.1541    59
37.1641    66
37.1741    60
37.1841    65
37.1941    75
37.2041    67
37.2141    56
37.2241    72
37.2341    52
37.2441    65
37.2541    57
37.2641    53
37.2741    70
37.2841    64
37.2941    60
37.3041    69
37.3141    69
37.3241    59
37.3341    51
37.3441    55
37.3541    71
37.3641    65
37.3741    58
37.3841    64
37.3941    56
37.4041    61
37.4141    73
37.4241    64
37.4341    54
37.4441    58
37.4541    49
37.4641    53
37.4741    60
37.4841    58
37.4941    58
37.5041    61
37.5141    53
37.5241    58
37.5341    69
37.5441    56
37.5541    58
37.5641    52
37.5741    68
37.5841    49
37.5941    51
37.6041    50
37.6141    59
37.6241    60
37.6341    61
37.6441    40
37.6541    49
37.6641    67
37.6741    42
37.6841    69
37.6941    46
37.7041    55
37.7141    47
37.7241    55
37.7341    52
37.7441    52
37.7541    56
37.7641    70
37.7741    57
37.7841    53
37.7941    53
37.8041    65
37.8141    56
37.8241    50
37.8341    75
37.8441    61
37.8541    67
37.8641    47
37.8741    52
37.8841    64
37.8941    56
37.9041    50
37.9141    46
37.9241    55
37.9341    52
37.9441    51
37.9541    47
37.9641    50
37.9741    45
37.9841    49
37.9941    59
38.0041    43
38.0141    60
38.0241    46
38.0341    50
38.0441    61
38.0541    53
38.0641    48
38.0741    51
38.0841    46
38.0941    44
38.1041    47
38.1141    53
38.1241    43
38.1341    56
38.1441    52
38.1541    45
38.1641    55
38.1741    48
38.1841    47
38.1941    49
38.2041    40
38.2141    47
38.2241    54
38.2341    61
38.2441    39
38.2541    41
38.2641    45
38.2741    42
38.2841    48
38.2941    37
38.3041    48
38.3141    49
38.3241    48
38.3341    38
38.3441    45
38.3541    54
38.3641    42
38.3741    43
38.3841    44
38.3941    49
38.4041    44
38.4141    50
38.4241    43
38.4341    53
38.4441    57
38.4541    46
38.4641    48
38.4741    39
38.4841    51
38.4941    33
38.5041    43
38.5141    52
38.5241    42
38.5341    51
38.5441    40
38.5541    42
38.5641    44
38.5741    53
38.5841    49
38.5941    41
38.6041    46
38.6141    51
38.6241    51
38.6341    47
38.6441    35
38.6541    43
38.6641    53
38.6741    37
38.6841    40
38.6941    35
38.7041    33
38.7141    41
38.7241    41
38.7341    41
38.7441    44
38.7541    35
38.7641    49
38.7741    35
38.7841    38
38.7941    43
38.8041    37
38.8141    48
38.8241    37
38.8341    37
38.8441    48
38.8541    49
38.8641    31
38.8741    32
38.8841    42
38.8941    44
38.9041    35
38.9141    43
38.9241    48
38.9341    39
38.9441    31
38.9541    34
38.9641    44
38.9741    32
38.9841    40
38.9941    30
39.0041    38
39.0141    29
39.0241    33
39.0341    35
39.0441    36
39.0541    34
39.0641    35
39.0741    30
39.0841    39
39.0941    34
39.1041    40
39.1141    36
39.1241    40
39.1341    29
39.1441    40
39.1541    41
39.1641    22
39.1741    36
39.1841    31
39.1941    33
39.2041    34
39.2141    35
39.2241    37
39.2341    44
39.2441    41
39.2541    32
39.2641    30
39.2741    41
39.2841    33
39.2941    37
39.3041    32
39.3141    41
39.3241    26
39.3341    34
39.3441    32
39.3541    32
39.3641    30
39.3741    38
39.3841    28
39.3941    33
39.4041    42
39.4141    36
39.4241    34
39.4341    31
39.4441    34
39.4541    42
39.4641    34
39.4741    38
39.4841    40
39.4941    38
39.5041    29
39.5141    36
39.5241    25
39.5341    39
39.5441    33
39.5541    28
39.5641    31
39.5741    32
39.5841    45
39.5941    26
39.6041    34
39.6141    33
39.6241    31
39.6341    26
39.6441    35
39.6541    25
39.6641    33
39.6741    31
39.6841    25
39.6941    31
39.7041    27
39.7141    18
39.7241    36
39.7341    28
39.7441    34
39.7541    22
39.7641    32
39.7741    32
39.7841    27
39.7941    32
39.8041    41
39.8141    25
39.8241    25
39.8341    25
39.8441    28
39.8541    30
39.8641    25
39.8741    24
39.8841    27
39.8941    20
39.9041    29
39.9141    28
39.9241    28
39.9341    36
39.9441    23
39.9541    29
39.9641    30
39.9741    25
39.9841    39
