Bruker Nano GmbH Berlin, Germany
Esprit 1.9

Date: 4/1/2021 4:53:21 PM
Real time: 16805
Life time: 15507
Pulse density: 115660


Detector type: XFlash 430
Window type: Custom type
Detector thickness: 0.45
Si dead layer:0.029

Calibration, lin.: 10
Calibration, abs.: -955.9
Mn FWHM: 137.05
Fano factor: 0.121
Channels: 4095

Energy Counts
-0.9559     0
-0.9459     0
-0.9359     0
-0.9259     0
-0.9159     0
-0.9059     0
-0.8959     0
-0.8859     0
-0.8759     0
-0.8659     0
-0.8559     0
-0.8459     0
-0.8359     0
-0.8259     0
-0.8159     0
-0.8059     0
-0.7959     0
-0.7859     0
-0.7759     0
-0.7659     0
-0.7559     0
-0.7459     0
-0.7359     0
-0.7259     0
-0.7159     0
-0.7059     0
-0.6959     0
-0.6859     0
-0.6759     0
-0.6659     0
-0.6559     0
-0.6459     0
-0.6359     0
-0.6259     0
-0.6159     0
-0.6059     0
-0.5959     0
-0.5859     0
-0.5759     0
-0.5659     0
-0.5559     0
-0.5459     0
-0.5359     0
-0.5259     0
-0.5159     0
-0.5059     0
-0.4959     0
-0.4859     0
-0.4759     0
-0.4659     0
-0.4559     0
-0.4459     0
-0.4359     0
-0.4259     0
-0.4159     0
-0.4059     0
-0.3959     0
-0.3859     0
-0.3759     0
-0.3659     0
-0.3559     0
-0.3459     0
-0.3359     0
-0.3259     0
-0.3159     0
-0.3059     0
-0.2959     0
-0.2859     0
-0.2759     0
-0.2659     0
-0.2559     0
-0.2459     0
-0.2359     0
-0.2259     0
-0.2159     0
-0.2059     0
-0.1959     0
-0.1859     0
-0.1759     0
-0.1659     0
-0.1559     0
-0.1459     0
-0.1359     0
-0.1259     2
-0.1159     3
-0.1059    15
-0.0959    53
-0.0859   172
-0.0759   609
-0.0659  1766
-0.0559  4444
-0.0459  9939
-0.0359 18706
-0.0259 29480
-0.0159 40399
-0.0059 47677
 0.0041 47821
 0.0141 41124
 0.0241 30126
 0.0341 19185
 0.0441 10380
 0.0541  4910
 0.0641  1978
 0.0741   638
 0.0841   231
 0.0941    59
 0.1041    24
 0.1141     7
 0.1241     6
 0.1341     3
 0.1441     2
 0.1541     0
 0.1641     0
 0.1741    18
 0.1841   164
 0.1941   313
 0.2041   242
 0.2141   250
 0.2241   270
 0.2341   276
 0.2441   276
 0.2541   248
 0.2641   252
 0.2741   295
 0.2841   280
 0.2941   254
 0.3041   277
 0.3141   273
 0.3241   246
 0.3341   292
 0.3441   251
 0.3541   234
 0.3641   249
 0.3741   264
 0.3841   254
 0.3941   244
 0.4041   237
 0.4141   237
 0.4241   244
 0.4341   235
 0.4441   239
 0.4541   248
 0.4641   242
 0.4741   244
 0.4841   241
 0.4941   240
 0.5041   222
 0.5141   213
 0.5241   219
 0.5341   231
 0.5441   219
 0.5541   216
 0.5641   213
 0.5741   204
 0.5841   207
 0.5941   219
 0.6041   211
 0.6141   215
 0.6241   211
 0.6341   220
 0.6441   222
 0.6541   206
 0.6641   207
 0.6741   206
 0.6841   184
 0.6941   200
 0.7041   214
 0.7141   202
 0.7241   188
 0.7341   182
 0.7441   180
 0.7541   188
 0.7641   188
 0.7741   199
 0.7841   204
 0.7941   217
 0.8041   204
 0.8141   188
 0.8241   184
 0.8341   182
 0.8441   192
 0.8541   201
 0.8641   195
 0.8741   182
 0.8841   181
 0.8941   179
 0.9041   191
 0.9141   186
 0.9241   175
 0.9341   171
 0.9441   188
 0.9541   176
 0.9641   183
 0.9741   176
 0.9841   160
 0.9941   168
 1.0041   177
 1.0141   190
 1.0241   182
 1.0341   176
 1.0441   146
 1.0541   180
 1.0641   156
 1.0741   181
 1.0841   184
 1.0941   164
 1.1041   157
 1.1141   179
 1.1241   188
 1.1341   180
 1.1441   164
 1.1541   174
 1.1641   173
 1.1741   165
 1.1841   185
 1.1941   174
 1.2041   172
 1.2141   174
 1.2241   163
 1.2341   176
 1.2441   165
 1.2541   163
 1.2641   163
 1.2741   182
 1.2841   169
 1.2941   161
 1.3041   173
 1.3141   157
 1.3241   170
 1.3341   147
 1.3441   152
 1.3541   165
 1.3641   166
 1.3741   142
 1.3841   152
 1.3941   163
 1.4041   166
 1.4141   151
 1.4241   163
 1.4341   144
 1.4441   149
 1.4541   143
 1.4641   149
 1.4741   140
 1.4841   170
 1.4941   166
 1.5041   149
 1.5141   156
 1.5241   149
 1.5341   132
 1.5441   164
 1.5541   155
 1.5641   131
 1.5741   153
 1.5841   150
 1.5941   158
 1.6041   136
 1.6141   137
 1.6241   148
 1.6341   163
 1.6441   165
 1.6541   184
 1.6641   218
 1.6741   258
 1.6841   315
 1.6941   385
 1.7041   480
 1.7141   563
 1.7241   555
 1.7341   618
 1.7441   605
 1.7541   582
 1.7641   536
 1.7741   459
 1.7841   379
 1.7941   286
 1.8041   269
 1.8141   226
 1.8241   199
 1.8341   201
 1.8441   213
 1.8541   173
 1.8641   164
 1.8741   171
 1.8841   171
 1.8941   169
 1.9041   168
 1.9141   151
 1.9241   145
 1.9341   147
 1.9441   164
 1.9541   165
 1.9641   151
 1.9741   157
 1.9841   192
 1.9941   193
 2.0041   185
 2.0141   172
 2.0241   177
 2.0341   184
 2.0441   188
 2.0541   187
 2.0641   149
 2.0741   143
 2.0841   156
 2.0941   156
 2.1041   132
 2.1141   131
 2.1241   155
 2.1341   128
 2.1441   154
 2.1541   141
 2.1641   142
 2.1741   141
 2.1841   137
 2.1941   130
 2.2041   159
 2.2141   149
 2.2241   155
 2.2341   140
 2.2441   124
 2.2541   149
 2.2641   132
 2.2741   125
 2.2841   120
 2.2941   124
 2.3041   126
 2.3141   125
 2.3241   143
 2.3341   124
 2.3441   126
 2.3541   142
 2.3641   127
 2.3741   126
 2.3841   125
 2.3941   115
 2.4041   115
 2.4141   107
 2.4241   137
 2.4341   134
 2.4441   141
 2.4541   128
 2.4641   103
 2.4741   119
 2.4841   130
 2.4941   125
 2.5041   118
 2.5141   113
 2.5241   110
 2.5341   108
 2.5441   117
 2.5541   108
 2.5641   113
 2.5741   125
 2.5841   127
 2.5941   111
 2.6041   108
 2.6141   115
 2.6241   134
 2.6341   108
 2.6441   114
 2.6541   121
 2.6641   131
 2.6741   123
 2.6841   126
 2.6941   132
 2.7041   121
 2.7141   108
 2.7241   105
 2.7341    91
 2.7441   112
 2.7541   126
 2.7641   110
 2.7741   115
 2.7841   133
 2.7941   123
 2.8041   117
 2.8141   128
 2.8241   140
 2.8341   125
 2.8441   128
 2.8541   124
 2.8641   133
 2.8741   120
 2.8841   121
 2.8941   103
 2.9041   105
 2.9141   117
 2.9241   116
 2.9341   127
 2.9441   118
 2.9541   120
 2.9641   106
 2.9741   120
 2.9841   111
 2.9941   116
 3.0041   117
 3.0141   139
 3.0241    93
 3.0341    88
 3.0441    96
 3.0541   114
 3.0641   104
 3.0741    86
 3.0841   106
 3.0941   106
 3.1041    97
 3.1141   104
 3.1241   103
 3.1341    76
 3.1441    80
 3.1541    98
 3.1641    82
 3.1741   100
 3.1841    85
 3.1941    92
 3.2041   104
 3.2141   118
 3.2241   130
 3.2341   111
 3.2441   144
 3.2541   152
 3.2641   169
 3.2741   168
 3.2841   178
 3.2941   217
 3.3041   232
 3.3141   217
 3.3241   219
 3.3341   203
 3.3441   184
 3.3541   192
 3.3641   141
 3.3741   140
 3.3841   133
 3.3941   115
 3.4041    98
 3.4141    97
 3.4241    88
 3.4341    89
 3.4441    79
 3.4541    81
 3.4641    77
 3.4741   100
 3.4841    90
 3.4941    88
 3.5041   106
 3.5141    81
 3.5241   113
 3.5341   108
 3.5441    94
 3.5541   124
 3.5641   137
 3.5741   192
 3.5841   219
 3.5941   215
 3.6041   283
 3.6141   388
 3.6241   436
 3.6341   495
 3.6441   604
 3.6541   735
 3.6641   805
 3.6741   863
 3.6841   880
 3.6941   901
 3.7041   893
 3.7141   784
 3.7241   715
 3.7341   628
 3.7441   495
 3.7541   428
 3.7641   339
 3.7741   254
 3.7841   218
 3.7941   160
 3.8041   127
 3.8141   118
 3.8241   101
 3.8341    93
 3.8441    70
 3.8541    74
 3.8641    87
 3.8741    90
 3.8841    87
 3.8941    92
 3.9041    93
 3.9141    96
 3.9241    95
 3.9341   111
 3.9441   115
 3.9541   123
 3.9641   127
 3.9741   149
 3.9841   164
 3.9941   156
 4.0041   184
 4.0141   170
 4.0241   180
 4.0341   180
 4.0441   156
 4.0541   151
 4.0641   137
 4.0741   113
 4.0841   116
 4.0941   100
 4.1041    87
 4.1141    95
 4.1241    86
 4.1341    81
 4.1441    81
 4.1541    74
 4.1641    76
 4.1741    69
 4.1841    80
 4.1941    67
 4.2041    76
 4.2141    53
 4.2241    63
 4.2341    64
 4.2441    75
 4.2541    72
 4.2641    70
 4.2741    64
 4.2841    61
 4.2941    58
 4.3041    68
 4.3141    74
 4.3241    75
 4.3341    67
 4.3441    72
 4.3541    90
 4.3641    92
 4.3741   115
 4.3841   115
 4.3941   139
 4.4041   186
 4.4141   206
 4.4241   235
 4.4341   294
 4.4441   369
 4.4541   459
 4.4641   516
 4.4741   585
 4.4841   656
 4.4941   668
 4.5041   696
 4.5141   667
 4.5241   670
 4.5341   623
 4.5441   573
 4.5541   490
 4.5641   403
 4.5741   344
 4.5841   281
 4.5941   197
 4.6041   166
 4.6141   154
 4.6241   125
 4.6341   138
 4.6441   106
 4.6541   100
 4.6641    92
 4.6741    84
 4.6841    90
 4.6941    81
 4.7041    67
 4.7141    85
 4.7241    78
 4.7341    77
 4.7441    66
 4.7541    84
 4.7641    90
 4.7741    81
 4.7841    89
 4.7941    79
 4.8041    86
 4.8141   104
 4.8241   111
 4.8341   104
 4.8441   119
 4.8541   134
 4.8641   150
 4.8741   166
 4.8841   166
 4.8941   187
 4.9041   216
 4.9141   192
 4.9241   218
 4.9341   225
 4.9441   205
 4.9541   197
 4.9641   178
 4.9741   171
 4.9841   163
 4.9941   140
 5.0041   147
 5.0141   129
 5.0241   118
 5.0341   111
 5.0441   103
 5.0541    89
 5.0641    89
 5.0741    93
 5.0841    92
 5.0941    78
 5.1041    86
 5.1141    79
 5.1241    82
 5.1341    82
 5.1441    79
 5.1541    79
 5.1641    76
 5.1741    62
 5.1841    68
 5.1941    88
 5.2041    93
 5.2141    92
 5.2241    82
 5.2341    88
 5.2441    74
 5.2541    93
 5.2641    62
 5.2741    82
 5.2841   100
 5.2941    88
 5.3041    92
 5.3141    79
 5.3241    98
 5.3341    95
 5.3441   110
 5.3541   122
 5.3641   107
 5.3741   115
 5.3841   126
 5.3941   117
 5.4041   144
 5.4141   138
 5.4241   137
 5.4341   148
 5.4441   115
 5.4541   141
 5.4641   136
 5.4741   112
 5.4841   107
 5.4941   107
 5.5041   101
 5.5141   114
 5.5241    87
 5.5341    89
 5.5441    85
 5.5541    85
 5.5641    82
 5.5741    85
 5.5841    83
 5.5941    96
 5.6041   119
 5.6141    84
 5.6241    85
 5.6341    95
 5.6441    86
 5.6541    86
 5.6641    87
 5.6741    89
 5.6841    94
 5.6941   101
 5.7041   115
 5.7141   101
 5.7241   100
 5.7341   118
 5.7441   129
 5.7541   142
 5.7641   171
 5.7741   176
 5.7841   232
 5.7941   296
 5.8041   374
 5.8141   411
 5.8241   506
 5.8341   587
 5.8441   653
 5.8541   751
 5.8641   797
 5.8741   844
 5.8841   913
 5.8941   878
 5.9041   880
 5.9141   897
 5.9241   783
 5.9341   773
 5.9441   593
 5.9541   585
 5.9641   470
 5.9741   423
 5.9841   354
 5.9941   300
 6.0041   241
 6.0141   217
 6.0241   195
 6.0341   145
 6.0441   139
 6.0541   144
 6.0641   148
 6.0741   147
 6.0841   130
 6.0941   129
 6.1041   128
 6.1141   141
 6.1241   150
 6.1341   149
 6.1441   162
 6.1541   176
 6.1641   179
 6.1741   206
 6.1841   252
 6.1941   307
 6.2041   361
 6.2141   559
 6.2241   718
 6.2341  1044
 6.2441  1419
 6.2541  2049
 6.2641  2771
 6.2741  3879
 6.2841  5288
 6.2941  6987
 6.3041  8975
 6.3141 11357
 6.3241 14328
 6.3341 17243
 6.3441 20141
 6.3541 23013
 6.3641 25650
 6.3741 27765
 6.3841 29425
 6.3941 29666
 6.4041 29579
 6.4141 28976
 6.4241 27257
 6.4341 24845
 6.4441 22295
 6.4541 19345
 6.4641 16203
 6.4741 13432
 6.4841 10866
 6.4941  8303
 6.5041  6363
 6.5141  4832
 6.5241  3438
 6.5341  2445
 6.5441  1751
 6.5541  1218
 6.5641   860
 6.5741   575
 6.5841   392
 6.5941   306
 6.6041   261
 6.6141   243
 6.6241   194
 6.6341   188
 6.6441   188
 6.6541   166
 6.6641   167
 6.6741   160
 6.6841   148
 6.6941   177
 6.7041   179
 6.7141   141
 6.7241   164
 6.7341   186
 6.7441   162
 6.7541   161
 6.7641   163
 6.7741   192
 6.7841   188
 6.7941   192
 6.8041   194
 6.8141   213
 6.8241   257
 6.8341   223
 6.8441   276
 6.8541   298
 6.8641   331
 6.8741   355
 6.8841   400
 6.8941   497
 6.9041   651
 6.9141   741
 6.9241   933
 6.9341  1102
 6.9441  1370
 6.9541  1657
 6.9641  2063
 6.9741  2472
 6.9841  2928
 6.9941  3398
 7.0041  3843
 7.0141  4241
 7.0241  4419
 7.0341  4809
 7.0441  5072
 7.0541  4947
 7.0641  4973
 7.0741  4838
 7.0841  4404
 7.0941  4188
 7.1041  3596
 7.1141  3170
 7.1241  2791
 7.1341  2386
 7.1441  1895
 7.1541  1511
 7.1641  1214
 7.1741   945
 7.1841   747
 7.1941   576
 7.2041   444
 7.2141   348
 7.2241   270
 7.2341   224
 7.2441   202
 7.2541   189
 7.2641   171
 7.2741   174
 7.2841   184
 7.2941   200
 7.3041   178
 7.3141   208
 7.3241   199
 7.3341   199
 7.3441   205
 7.3541   202
 7.3641   197
 7.3741   236
 7.3841   249
 7.3941   228
 7.4041   223
 7.4141   243
 7.4241   268
 7.4341   261
 7.4441   241
 7.4541   247
 7.4641   222
 7.4741   240
 7.4841   232
 7.4941   207
 7.5041   219
 7.5141   183
 7.5241   206
 7.5341   186
 7.5441   192
 7.5541   181
 7.5641   179
 7.5741   189
 7.5841   174
 7.5941   159
 7.6041   180
 7.6141   175
 7.6241   172
 7.6341   163
 7.6441   174
 7.6541   167
 7.6641   203
 7.6741   183
 7.6841   195
 7.6941   188
 7.7041   182
 7.7141   181
 7.7241   178
 7.7341   171
 7.7441   171
 7.7541   198
 7.7641   214
 7.7741   226
 7.7841   230
 7.7941   205
 7.8041   229
 7.8141   220
 7.8241   215
 7.8341   228
 7.8441   235
 7.8541   274
 7.8641   264
 7.8741   280
 7.8841   248
 7.8941   305
 7.9041   298
 7.9141   273
 7.9241   292
 7.9341   323
 7.9441   334
 7.9541   369
 7.9641   388
 7.9741   403
 7.9841   432
 7.9941   508
 8.0041   504
 8.0141   558
 8.0241   562
 8.0341   643
 8.0441   683
 8.0541   707
 8.0641   758
 8.0741   779
 8.0841   836
 8.0941   882
 8.1041   976
 8.1141   991
 8.1241   993
 8.1341  1045
 8.1441  1027
 8.1541  1111
 8.1641  1045
 8.1741  1192
 8.1841  1122
 8.1941  1150
 8.2041  1172
 8.2141  1140
 8.2241  1224
 8.2341  1248
 8.2441  1264
 8.2541  1342
 8.2641  1407
 8.2741  1494
 8.2841  1542
 8.2941  1614
 8.3041  1767
 8.3141  1916
 8.3241  2103
 8.3341  2201
 8.3441  2352
 8.3541  2467
 8.3641  2674
 8.3741  2666
 8.3841  2791
 8.3941  2683
 8.4041  2624
 8.4141  2484
 8.4241  2289
 8.4341  2190
 8.4441  2027
 8.4541  1843
 8.4641  1652
 8.4741  1374
 8.4841  1203
 8.4941  1040
 8.5041   865
 8.5141   740
 8.5241   637
 8.5341   583
 8.5441   505
 8.5541   464
 8.5641   405
 8.5741   377
 8.5841   399
 8.5941   358
 8.6041   368
 8.6141   353
 8.6241   399
 8.6341   394
 8.6441   376
 8.6541   370
 8.6641   337
 8.6741   334
 8.6841   330
 8.6941   347
 8.7041   342
 8.7141   334
 8.7241   305
 8.7341   292
 8.7441   303
 8.7541   278
 8.7641   278
 8.7741   241
 8.7841   248
 8.7941   278
 8.8041   255
 8.8141   277
 8.8241   255
 8.8341   257
 8.8441   262
 8.8541   238
 8.8641   268
 8.8741   230
 8.8841   276
 8.8941   276
 8.9041   242
 8.9141   276
 8.9241   290
 8.9341   292
 8.9441   312
 8.9541   274
 8.9641   286
 8.9741   287
 8.9841   309
 8.9941   309
 9.0041   317
 9.0141   329
 9.0241   347
 9.0341   309
 9.0441   329
 9.0541   333
 9.0641   339
 9.0741   377
 9.0841   358
 9.0941   354
 9.1041   378
 9.1141   448
 9.1241   411
 9.1341   427
 9.1441   449
 9.1541   464
 9.1641   491
 9.1741   511
 9.1841   552
 9.1941   572
 9.2041   597
 9.2141   606
 9.2241   644
 9.2341   699
 9.2441   723
 9.2541   728
 9.2641   832
 9.2741   873
 9.2841   880
 9.2941   867
 9.3041   878
 9.3141   955
 9.3241   965
 9.3341   965
 9.3441  1090
 9.3541  1078
 9.3641  1085
 9.3741  1078
 9.3841  1135
 9.3941  1206
 9.4041  1176
 9.4141  1118
 9.4241  1127
 9.4341  1169
 9.4441  1232
 9.4541  1240
 9.4641  1268
 9.4741  1271
 9.4841  1329
 9.4941  1316
 9.5041  1369
 9.5141  1416
 9.5241  1413
 9.5341  1419
 9.5441  1546
 9.5541  1641
 9.5641  1730
 9.5741  1832
 9.5841  1965
 9.5941  2057
 9.6041  2216
 9.6141  2337
 9.6241  2376
 9.6341  2409
 9.6441  2582
 9.6541  2618
 9.6641  2634
 9.6741  2649
 9.6841  2578
 9.6941  2496
 9.7041  2420
 9.7141  2307
 9.7241  2166
 9.7341  1928
 9.7441  1810
 9.7541  1712
 9.7641  1554
 9.7741  1447
 9.7841  1312
 9.7941  1244
 9.8041  1198
 9.8141  1116
 9.8241  1052
 9.8341  1007
 9.8441  1062
 9.8541  1029
 9.8641  1022
 9.8741   972
 9.8841   984
 9.8941  1045
 9.9041  1096
 9.9141  1088
 9.9241  1069
 9.9341  1101
 9.9441  1096
 9.9541  1113
 9.9641  1065
 9.9741  1057
 9.9841   983
 9.9941   938
10.0041   877
10.0141   847
10.0241   762
10.0341   712
10.0441   644
10.0541   608
10.0641   501
10.0741   489
10.0841   426
10.0941   379
10.1041   353
10.1141   308
10.1241   291
10.1341   270
10.1441   283
10.1541   248
10.1641   252
10.1741   234
10.1841   217
10.1941   205
10.2041   201
10.2141   187
10.2241   194
10.2341   182
10.2441   177
10.2541   153
10.2641   150
10.2741   156
10.2841   156
10.2941   149
10.3041   149
10.3141   140
10.3241   150
10.3341   154
10.3441   146
10.3541   137
10.3641   153
10.3741   158
10.3841   134
10.3941   149
10.4041   144
10.4141   157
10.4241   150
10.4341   157
10.4441   148
10.4541   142
10.4641   163
10.4741   157
10.4841   141
10.4941   142
10.5041   152
10.5141   178
10.5241   170
10.5341   168
10.5441   160
10.5541   166
10.5641   164
10.5741   168
10.5841   182
10.5941   188
10.6041   181
10.6141   167
10.6241   168
10.6341   171
10.6441   175
10.6541   175
10.6641   173
10.6741   178
10.6841   183
10.6941   170
10.7041   183
10.7141   192
10.7241   187
10.7341   191
10.7441   201
10.7541   222
10.7641   215
10.7741   217
10.7841   236
10.7941   243
10.8041   233
10.8141   242
10.8241   253
10.8341   237
10.8441   252
10.8541   253
10.8641   255
10.8741   249
10.8841   250
10.8941   257
10.9041   251
10.9141   266
10.9241   271
10.9341   240
10.9441   253
10.9541   262
10.9641   273
10.9741   266
10.9841   254
10.9941   254
11.0041   264
11.0141   226
11.0241   229
11.0341   239
11.0441   236
11.0541   232
11.0641   225
11.0741   227
11.0841   234
11.0941   250
11.1041   247
11.1141   250
11.1241   224
11.1341   217
11.1441   236
11.1541   244
11.1641   243
11.1741   264
11.1841   289
11.1941   299
11.2041   325
11.2141   315
11.2241   315
11.2341   298
11.2441   322
11.2541   362
11.2641   354
11.2741   365
11.2841   353
11.2941   350
11.3041   370
11.3141   376
11.3241   387
11.3341   368
11.3441   346
11.3541   319
11.3641   296
11.3741   267
11.3841   262
11.3941   256
11.4041   226
11.4141   203
11.4241   202
11.4341   222
11.4441   211
11.4541   212
11.4641   191
11.4741   174
11.4841   173
11.4941   176
11.5041   187
11.5141   181
11.5241   175
11.5341   182
11.5441   220
11.5541   200
11.5641   196
11.5741   186
11.5841   189
11.5941   197
11.6041   209
11.6141   191
11.6241   185
11.6341   211
11.6441   209
11.6541   191
11.6641   183
11.6741   196
11.6841   205
11.6941   192
11.7041   173
11.7141   175
11.7241   170
11.7341   143
11.7441   155
11.7541   157
11.7641   153
11.7741   158
11.7841   162
11.7941   151
11.8041   147
11.8141   125
11.8241   127
11.8341   139
11.8441   141
11.8541   139
11.8641   141
11.8741   132
11.8841   140
11.8941   151
11.9041   144
11.9141   153
11.9241   153
11.9341   141
11.9441   141
11.9541   144
11.9641   133
11.9741   136
11.9841   132
11.9941   131
12.0041   134
12.0141   143
12.0241   157
12.0341   154
12.0441   145
12.0541   143
12.0641   135
12.0741   147
12.0841   141
12.0941   129
12.1041   156
12.1141   165
12.1241   151
12.1341   133
12.1441   141
12.1541   131
12.1641   119
12.1741   142
12.1841   146
12.1941   130
12.2041   129
12.2141   131
12.2241   130
12.2341   127
12.2441   134
12.2541   138
12.2641   151
12.2741   143
12.2841   131
12.2941   134
12.3041   152
12.3141   141
12.3241   127
12.3341   135
12.3441   145
12.3541   154
12.3641   144
12.3741   135
12.3841   143
12.3941   128
12.4041   133
12.4141   140
12.4241   144
12.4341   138
12.4441   137
12.4541   144
12.4641   143
12.4741   146
12.4841   159
12.4941   159
12.5041   153
12.5141   156
12.5241   146
12.5341   141
12.5441   145
12.5541   160
12.5641   160
12.5741   158
12.5841   158
12.5941   159
12.6041   155
12.6141   156
12.6241   150
12.6341   158
12.6441   156
12.6541   149
12.6641   144
12.6741   138
12.6841   140
12.6941   146
12.7041   150
12.7141   150
12.7241   150
12.7341   154
12.7441   161
12.7541   162
12.7641   156
12.7741   153
12.7841   157
12.7941   159
12.8041   154
12.8141   151
12.8241   156
12.8341   160
12.8441   163
12.8541   171
12.8641   179
12.8741   180
12.8841   176
12.8941   171
12.9041   166
12.9141   167
12.9241   173
12.9341   172
12.9441   169
12.9541   176
12.9641   184
12.9741   181
12.9841   166
12.9941   161
13.0041   166
13.0141   172
13.0241   164
13.0341   147
13.0441   162
13.0541   178
13.0641   168
13.0741   176
13.0841   175
13.0941   158
13.1041   160
13.1141   178
13.1241   175
13.1341   177
13.1441   180
13.1541   168
13.1641   174
13.1741   170
13.1841   184
13.1941   204
13.2041   195
13.2141   202
13.2241   204
13.2341   199
13.2441   226
13.2541   245
13.2641   221
13.2741   209
13.2841   249
13.2941   267
13.3041   269
13.3141   275
13.3241   285
13.3341   290
13.3441   279
13.3541   281
13.3641   295
13.3741   303
13.3841   298
13.3941   295
13.4041   299
13.4141   296
13.4241   292
13.4341   301
13.4441   304
13.4541   286
13.4641   265
13.4741   259
13.4841   259
13.4941   248
13.5041   230
13.5141   219
13.5241   214
13.5341   209
13.5441   207
13.5541   202
13.5641   197
13.5741   203
13.5841   208
13.5941   200
13.6041   200
13.6141   211
13.6241   207
13.6341   195
13.6441   192
13.6541   207
13.6641   217
13.6741   218
13.6841   205
13.6941   193
13.7041   188
13.7141   184
13.7241   196
13.7341   193
13.7441   198
13.7541   213
13.7641   209
13.7741   200
13.7841   197
13.7941   201
13.8041   211
13.8141   209
13.8241   198
13.8341   184
13.8441   194
13.8541   222
13.8641   214
13.8741   208
13.8841   203
13.8941   200
13.9041   207
13.9141   207
13.9241   216
13.9341   222
13.9441   221
13.9541   224
13.9641   226
13.9741   221
13.9841   220
13.9941   228
14.0041   237
14.0141   243
14.0241   246
14.0341   246
14.0441   248
14.0541   257
14.0641   268
14.0741   275
14.0841   283
14.0941   295
14.1041   304
14.1141   303
14.1241   294
14.1341   283
14.1441   289
14.1541   289
14.1641   275
14.1741   297
14.1841   327
14.1941   328
14.2041   315
14.2141   300
14.2241   294
14.2341   271
14.2441   261
14.2541   261
14.2641   251
14.2741   249
14.2841   242
14.2941   224
14.3041   236
14.3141   251
14.3241   242
14.3341   248
14.3441   243
14.3541   240
14.3641   258
14.3741   251
14.3841   226
14.3941   237
14.4041   240
14.4141   233
14.4241   245
14.4341   242
14.4441   244
14.4541   253
14.4641   258
14.4741   241
14.4841   232
14.4941   241
14.5041   238
14.5141   228
14.5241   230
14.5341   239
14.5441   234
14.5541   242
14.5641   245
14.5741   247
14.5841   250
14.5941   254
14.6041   263
14.6141   257
14.6241   246
14.6341   243
14.6441   250
14.6541   264
14.6641   271
14.6741   265
14.6841   264
14.6941   276
14.7041   271
14.7141   269
14.7241   282
14.7341   289
14.7441   310
14.7541   314
14.7641   302
14.7741   299
14.7841   311
14.7941   323
14.8041   328
14.8141   338
14.8241   340
14.8341   332
14.8441   325
14.8541   333
14.8641   334
14.8741   364
14.8841   380
14.8941   389
14.9041   395
14.9141   395
14.9241   395
14.9341   384
14.9441   375
14.9541   385
14.9641   395
14.9741   386
14.9841   407
14.9941   416
15.0041   400
15.0141   373
15.0241   379
15.0341   369
15.0441   354
15.0541   348
15.0641   346
15.0741   319
15.0841   308
15.0941   307
15.1041   298
15.1141   300
15.1241   305
15.1341   295
15.1441   292
15.1541   304
15.1641   290
15.1741   283
15.1841   304
15.1941   309
15.2041   301
15.2141   304
15.2241   286
15.2341   282
15.2441   303
15.2541   304
15.2641   294
15.2741   294
15.2841   289
15.2941   293
15.3041   299
15.3141   277
15.3241   260
15.3341   295
15.3441   290
15.3541   289
15.3641   287
15.3741   283
15.3841   307
15.3941   296
15.4041   284
15.4141   306
15.4241   301
15.4341   291
15.4441   320
15.4541   299
15.4641   305
15.4741   326
15.4841   329
15.4941   329
15.5041   316
15.5141   344
15.5241   341
15.5341   342
15.5441   376
15.5541   375
15.5641   376
15.5741   400
15.5841   403
15.5941   423
15.6041   477
15.6141   488
15.6241   516
15.6341   522
15.6441   580
15.6541   614
15.6641   628
15.6741   643
15.6841   679
15.6941   704
15.7041   745
15.7141   746
15.7241   720
15.7341   740
15.7441   793
15.7541   782
15.7641   774
15.7741   768
15.7841   756
15.7941   722
15.8041   713
15.8141   692
15.8241   652
15.8341   610
15.8441   590
15.8541   575
15.8641   561
15.8741   539
15.8841   521
15.8941   489
15.9041   456
15.9141   439
15.9241   421
15.9341   425
15.9441   391
15.9541   381
15.9641   386
15.9741   372
15.9841   348
15.9941   322
16.0041   334
16.0141   335
16.0241   345
16.0341   356
16.0441   328
16.0541   343
16.0641   366
16.0741   345
16.0841   351
16.0941   356
16.1041   360
16.1141   359
16.1241   348
16.1341   363
16.1441   346
16.1541   328
16.1641   338
16.1741   343
16.1841   373
16.1941   361
16.2041   360
16.2141   367
16.2241   353
16.2341   354
16.2441   364
16.2541   345
16.2641   336
16.2741   359
16.2841   358
16.2941   348
16.3041   361
16.3141   357
16.3241   351
16.3341   353
16.3441   368
16.3541   368
16.3641   369
16.3741   358
16.3841   366
16.3941   365
16.4041   377
16.4141   384
16.4241   371
16.4341   360
16.4441   355
16.4541   392
16.4641   406
16.4741   378
16.4841   383
16.4941   393
16.5041   385
16.5141   413
16.5241   396
16.5341   386
16.5441   373
16.5541   373
16.5641   399
16.5741   413
16.5841   413
16.5941   420
16.6041   408
16.6141   399
16.6241   400
16.6341   427
16.6441   422
16.6541   422
16.6641   404
16.6741   421
16.6841   410
16.6941   417
16.7041   412
16.7141   415
16.7241   391
16.7341   387
16.7441   410
16.7541   419
16.7641   419
16.7741   423
16.7841   433
16.7941   391
16.8041   398
16.8141   381
16.8241   360
16.8341   374
16.8441   379
16.8541   397
16.8641   398
16.8741   406
16.8841   418
16.8941   404
16.9041   413
16.9141   406
16.9241   382
16.9341   398
16.9441   409
16.9541   403
16.9641   396
16.9741   391
16.9841   423
16.9941   411
17.0041   372
17.0141   405
17.0241   430
17.0341   402
17.0441   400
17.0541   439
17.0641   427
17.0741   404
17.0841   398
17.0941   395
17.1041   405
17.1141   411
17.1241   416
17.1341   423
17.1441   404
17.1541   407
17.1641   401
17.1741   388
17.1841   422
17.1941   432
17.2041   445
17.2141   438
17.2241   447
17.2341   422
17.2441   395
17.2541   379
17.2641   387
17.2741   432
17.2841   427
17.2941   408
17.3041   391
17.3141   415
17.3241   426
17.3341   432
17.3441   436
17.3541   448
17.3641   418
17.3741   427
17.3841   431
17.3941   411
17.4041   424
17.4141   427
17.4241   416
17.4341   444
17.4441   443
17.4541   446
17.4641   463
17.4741   451
17.4841   428
17.4941   452
17.5041   448
17.5141   414
17.5241   448
17.5341   470
17.5441   488
17.5541   463
17.5641   479
17.5741   476
17.5841   483
17.5941   507
17.6041   482
17.6141   481
17.6241   497
17.6341   532
17.6441   544
17.6541   530
17.6641   509
17.6741   540
17.6841   494
17.6941   499
17.7041   497
17.7141   494
17.7241   491
17.7341   489
17.7441   461
17.7541   448
17.7641   474
17.7741   474
17.7841   462
17.7941   446
17.8041   459
17.8141   478
17.8241   445
17.8341   439
17.8441   441
17.8541   448
17.8641   455
17.8741   459
17.8841   462
17.8941   439
17.9041   443
17.9141   445
17.9241   436
17.9341   445
17.9441   467
17.9541   468
17.9641   476
17.9741   463
17.9841   467
17.9941   472
18.0041   468
18.0141   492
18.0241   467
18.0341   453
18.0441   460
18.0541   459
18.0641   459
18.0741   449
18.0841   468
18.0941   455
18.1041   443
18.1141   471
18.1241   471
18.1341   480
18.1441   460
18.1541   460
18.1641   446
18.1741   463
18.1841   459
18.1941   456
18.2041   477
18.2141   494
18.2241   486
18.2341   466
18.2441   452
18.2541   470
18.2641   472
18.2741   460
18.2841   449
18.2941   442
18.3041   486
18.3141   516
18.3241   492
18.3341   461
18.3441   482
18.3541   491
18.3641   514
18.3741   481
18.3841   478
18.3941   483
18.4041   525
18.4141   530
18.4241   504
18.4341   488
18.4441   473
18.4541   494
18.4641   489
18.4741   511
18.4841   442
18.4941   458
18.5041   490
18.5141   491
18.5241   506
18.5341   475
18.5441   506
18.5541   511
18.5641   473
18.5741   477
18.5841   499
18.5941   516
18.6041   493
18.6141   469
18.6241   512
18.6341   516
18.6441   498
18.6541   491
18.6641   488
18.6741   504
18.6841   452
18.6941   467
18.7041   498
18.7141   519
18.7241   481
18.7341   475
18.7441   458
18.7541   482
18.7641   495
18.7741   511
18.7841   493
18.7941   521
18.8041   498
18.8141   496
18.8241   492
18.8341   485
18.8441   483
18.8541   502
18.8641   520
18.8741   526
18.8841   511
18.8941   493
18.9041   499
18.9141   502
18.9241   495
18.9341   516
18.9441   492
18.9541   515
18.9641   508
18.9741   494
18.9841   507
18.9941   512
19.0041   515
19.0141   511
19.0241   521
19.0341   517
19.0441   500
19.0541   518
19.0641   546
19.0741   533
19.0841   517
19.0941   508
19.1041   503
19.1141   508
19.1241   507
19.1341   498
19.1441   503
19.1541   497
19.1641   506
19.1741   536
19.1841   522
19.1941   543
19.2041   512
19.2141   539
19.2241   522
19.2341   538
19.2441   536
19.2541   491
19.2641   505
19.2741   512
19.2841   482
19.2941   504
19.3041   534
19.3141   512
19.3241   504
19.3341   518
19.3441   544
19.3541   543
19.3641   525
19.3741   510
19.3841   550
19.3941   547
19.4041   496
19.4141   526
19.4241   493
19.4341   486
19.4441   508
19.4541   501
19.4641   563
19.4741   531
19.4841   498
19.4941   517
19.5041   531
19.5141   545
19.5241   530
19.5341   508
19.5441   533
19.5541   504
19.5641   527
19.5741   529
19.5841   546
19.5941   519
19.6041   494
19.6141   492
19.6241   482
19.6341   520
19.6441   535
19.6541   527
19.6641   527
19.6741   515
19.6841   529
19.6941   561
19.7041   519
19.7141   516
19.7241   531
19.7341   524
19.7441   534
19.7541   528
19.7641   502
19.7741   516
19.7841   525
19.7941   531
19.8041   531
19.8141   530
19.8241   525
19.8341   508
19.8441   524
19.8541   547
19.8641   515
19.8741   497
19.8841   525
19.8941   524
19.9041   513
19.9141   538
19.9241   548
19.9341   546
19.9441   554
19.9541   523
19.9641   512
19.9741   560
19.9841   549
19.9941   559
20.0041   556
20.0141   536
20.0241   516
20.0341   502
20.0441   521
20.0541   525
20.0641   508
20.0741   546
20.0841   531
20.0941   523
20.1041   544
20.1141   563
20.1241   513
20.1341   549
20.1441   536
20.1541   532
20.1641   558
20.1741   517
20.1841   519
20.1941   504
20.2041   568
20.2141   545
20.2241   565
20.2341   560
20.2441   534
20.2541   540
20.2641   562
20.2741   537
20.2841   508
20.2941   512
20.3041   513
20.3141   549
20.3241   518
20.3341   536
20.3441   516
20.3541   543
20.3641   522
20.3741   563
20.3841   528
20.3941   560
20.4041   543
20.4141   536
20.4241   554
20.4341   509
20.4441   559
20.4541   540
20.4641   539
20.4741   593
20.4841   573
20.4941   545
20.5041   550
20.5141   516
20.5241   530
20.5341   554
20.5441   569
20.5541   538
20.5641   536
20.5741   513
20.5841   529
20.5941   536
20.6041   548
20.6141   541
20.6241   531
20.6341   545
20.6441   536
20.6541   518
20.6641   550
20.6741   535
20.6841   562
20.6941   567
20.7041   565
20.7141   567
20.7241   526
20.7341   541
20.7441   552
20.7541   521
20.7641   549
20.7741   592
20.7841   587
20.7941   587
20.8041   590
20.8141   538
20.8241   553
20.8341   567
20.8441   561
20.8541   602
20.8641   588
20.8741   565
20.8841   611
20.8941   635
20.9041   602
20.9141   614
20.9241   646
20.9341   631
20.9441   629
20.9541   638
20.9641   659
20.9741   681
20.9841   672
20.9941   707
21.0041   703
21.0141   709
21.0241   700
21.0341   749
21.0441   745
21.0541   785
21.0641   789
21.0741   803
21.0841   782
21.0941   798
21.1041   756
21.1141   771
21.1241   792
21.1341   819
21.1441   808
21.1541   761
21.1641   876
21.1741   797
21.1841   744
21.1941   769
21.2041   791
21.2141   783
21.2241   727
21.2341   749
21.2441   750
21.2541   741
21.2641   656
21.2741   678
21.2841   658
21.2941   591
21.3041   611
21.3141   686
21.3241   606
21.3341   617
21.3441   584
21.3541   577
21.3641   588
21.3741   609
21.3841   515
21.3941   572
21.4041   585
21.4141   535
21.4241   530
21.4341   545
21.4441   557
21.4541   557
21.4641   554
21.4741   583
21.4841   549
21.4941   555
21.5041   529
21.5141   545
21.5241   559
21.5341   558
21.5441   531
21.5541   571
21.5641   544
21.5741   564
21.5841   566
21.5941   565
21.6041   514
21.6141   520
21.6241   527
21.6341   514
21.6441   556
21.6541   536
21.6641   536
21.6741   520
21.6841   537
21.6941   562
21.7041   510
21.7141   548
21.7241   537
21.7341   572
21.7441   562
21.7541   542
21.7641   517
21.7741   540
21.7841   566
21.7941   560
21.8041   537
21.8141   546
21.8241   501
21.8341   552
21.8441   527
21.8541   566
21.8641   545
21.8741   525
21.8841   545
21.8941   515
21.9041   566
21.9141   535
21.9241   531
21.9341   550
21.9441   506
21.9541   528
21.9641   555
21.9741   566
21.9841   529
21.9941   551
22.0041   538
22.0141   521
22.0241   499
22.0341   538
22.0441   537
22.0541   555
22.0641   580
22.0741   515
22.0841   548
22.0941   556
22.1041   535
22.1141   534
22.1241   543
22.1341   569
22.1441   593
22.1541   523
22.1641   524
22.1741   497
22.1841   500
22.1941   547
22.2041   560
22.2141   558
22.2241   553
22.2341   531
22.2441   530
22.2541   529
22.2641   514
22.2741   546
22.2841   543
22.2941   538
22.3041   526
22.3141   535
22.3241   504
22.3341   490
22.3441   537
22.3541   507
22.3641   529
22.3741   499
22.3841   543
22.3941   523
22.4041   563
22.4141   539
22.4241   514
22.4341   544
22.4441   517
22.4541   523
22.4641   521
22.4741   519
22.4841   513
22.4941   517
22.5041   530
22.5141   532
22.5241   535
22.5341   510
22.5441   480
22.5541   511
22.5641   525
22.5741   536
22.5841   527
22.5941   544
22.6041   536
22.6141   510
22.6241   541
22.6341   541
22.6441   507
22.6541   532
22.6641   516
22.6741   505
22.6841   549
22.6941   548
22.7041   507
22.7141   518
22.7241   519
22.7341   551
22.7441   521
22.7541   515
22.7641   522
22.7741   515
22.7841   482
22.7941   501
22.8041   513
22.8141   506
22.8241   504
22.8341   516
22.8441   503
22.8541   508
22.8641   504
22.8741   491
22.8841   505
22.8941   506
22.9041   545
22.9141   514
22.9241   535
22.9341   522
22.9441   539
22.9541   527
22.9641   518
22.9741   531
22.9841   482
22.9941   516
23.0041   492
23.0141   491
23.0241   531
23.0341   510
23.0441   498
23.0541   530
23.0641   568
23.0741   501
23.0841   523
23.0941   535
23.1041   526
23.1141   497
23.1241   501
23.1341   505
23.1441   470
23.1541   522
23.1641   510
23.1741   501
23.1841   494
23.1941   527
23.2041   490
23.2141   503
23.2241   512
23.2341   514
23.2441   522
23.2541   507
23.2641   556
23.2741   497
23.2841   501
23.2941   520
23.3041   466
23.3141   547
23.3241   496
23.3341   522
23.3441   503
23.3541   501
23.3641   534
23.3741   499
23.3841   519
23.3941   524
23.4041   491
23.4141   542
23.4241   465
23.4341   477
23.4441   477
23.4541   499
23.4641   521
23.4741   522
23.4841   497
23.4941   484
23.5041   530
23.5141   480
23.5241   505
23.5341   500
23.5441   496
23.5541   514
23.5641   489
23.5741   515
23.5841   512
23.5941   547
23.6041   524
23.6141   532
23.6241   517
23.6341   512
23.6441   492
23.6541   524
23.6641   522
23.6741   481
23.6841   533
23.6941   519
23.7041   558
23.7141   512
23.7241   565
23.7341   546
23.7441   530
23.7541   522
23.7641   545
23.7741   515
23.7841   489
23.7941   538
23.8041   567
23.8141   558
23.8241   501
23.8341   515
23.8441   528
23.8541   545
23.8641   521
23.8741   536
23.8841   532
23.8941   530
23.9041   533
23.9141   509
23.9241   521
23.9341   470
23.9441   503
23.9541   511
23.9641   499
23.9741   472
23.9841   517
23.9941   475
24.0041   513
24.0141   520
24.0241   445
24.0341   514
24.0441   454
24.0541   501
24.0641   522
24.0741   476
24.0841   491
24.0941   509
24.1041   485
24.1141   477
24.1241   468
24.1341   493
24.1441   511
24.1541   487
24.1641   510
24.1741   435
24.1841   491
24.1941   494
24.2041   489
24.2141   481
24.2241   495
24.2341   479
24.2441   489
24.2541   512
24.2641   471
24.2741   486
24.2841   506
24.2941   506
24.3041   455
24.3141   461
24.3241   462
24.3341   520
24.3441   501
24.3541   492
24.3641   467
24.3741   461
24.3841   459
24.3941   460
24.4041   463
24.4141   488
24.4241   477
24.4341   504
24.4441   481
24.4541   433
24.4641   495
24.4741   482
24.4841   493
24.4941   500
24.5041   494
24.5141   472
24.5241   463
24.5341   455
24.5441   495
24.5541   409
24.5641   418
24.5741   445
24.5841   470
24.5941   463
24.6041   479
24.6141   467
24.6241   440
24.6341   459
24.6441   474
24.6541   500
24.6641   491
24.6741   425
24.6841   474
24.6941   474
24.7041   474
24.7141   450
24.7241   477
24.7341   470
24.7441   455
24.7541   480
24.7641   470
24.7741   470
24.7841   466
24.7941   464
24.8041   447
24.8141   482
24.8241   463
24.8341   440
24.8441   463
24.8541   454
24.8641   452
24.8741   452
24.8841   474
24.8941   445
24.9041   485
24.9141   446
24.9241   465
24.9341   458
24.9441   437
24.9541   466
24.9641   437
24.9741   465
24.9841   440
24.9941   454
25.0041   477
25.0141   489
25.0241   455
25.0341   462
25.0441   454
25.0541   469
25.0641   496
25.0741   447
25.0841   435
25.0941   427
25.1041   456
25.1141   479
25.1241   465
25.1341   462
25.1441   461
25.1541   474
25.1641   469
25.1741   460
25.1841   419
25.1941   479
25.2041   475
25.2141   492
25.2241   514
25.2341   478
25.2441   503
25.2541   476
25.2641   466
25.2741   444
25.2841   454
25.2941   451
25.3041   466
25.3141   474
25.3241   462
25.3341   453
25.3441   467
25.3541   410
25.3641   462
25.3741   451
25.3841   427
25.3941   438
25.4041   475
25.4141   453
25.4241   451
25.4341   462
25.4441   436
25.4541   447
25.4641   428
25.4741   458
25.4841   456
25.4941   437
25.5041   442
25.5141   423
25.5241   425
25.5341   441
25.5441   385
25.5541   419
25.5641   425
25.5741   456
25.5841   400
25.5941   454
25.6041   452
25.6141   445
25.6241   434
25.6341   441
25.6441   407
25.6541   421
25.6641   425
25.6741   413
25.6841   434
25.6941   407
25.7041   432
25.7141   433
25.7241   437
25.7341   400
25.7441   406
25.7541   433
25.7641   438
25.7741   394
25.7841   431
25.7941   424
25.8041   437
25.8141   438
25.8241   457
25.8341   434
25.8441   392
25.8541   415
25.8641   394
25.8741   432
25.8841   401
25.8941   419
25.9041   386
25.9141   425
25.9241   418
25.9341   438
25.9441   423
25.9541   407
25.9641   415
25.9741   414
25.9841   432
25.9941   367
26.0041   427
26.0141   444
26.0241   380
26.0341   428
26.0441   416
26.0541   411
26.0641   380
26.0741   437
26.0841   400
26.0941   374
26.1041   432
26.1141   432
26.1241   385
26.1341   405
26.1441   416
26.1541   409
26.1641   401
26.1741   431
26.1841   413
26.1941   425
26.2041   399
26.2141   396
26.2241   386
26.2341   393
26.2441   392
26.2541   414
26.2641   404
26.2741   425
26.2841   391
26.2941   390
26.3041   402
26.3141   397
26.3241   409
26.3341   406
26.3441   368
26.3541   415
26.3641   426
26.3741   418
26.3841   408
26.3941   422
26.4041   389
26.4141   371
26.4241   370
26.4341   389
26.4441   398
26.4541   376
26.4641   377
26.4741   392
26.4841   401
26.4941   431
26.5041   426
26.5141   398
26.5241   365
26.5341   378
26.5441   384
26.5541   394
26.5641   433
26.5741   385
26.5841   373
26.5941   365
26.6041   385
26.6141   346
26.6241   355
26.6341   368
26.6441   397
26.6541   410
26.6641   419
26.6741   365
26.6841   394
26.6941   399
26.7041   440
26.7141   373
26.7241   411
26.7341   382
26.7441   386
26.7541   396
26.7641   371
26.7741   403
26.7841   368
26.7941   386
26.8041   375
26.8141   406
26.8241   395
26.8341   369
26.8441   372
26.8541   384
26.8641   393
26.8741   374
26.8841   367
26.8941   365
26.9041   360
26.9141   358
26.9241   360
26.9341   391
26.9441   379
26.9541   346
26.9641   395
26.9741   399
26.9841   395
26.9941   372
27.0041   387
27.0141   339
27.0241   363
27.0341   360
27.0441   356
27.0541   363
27.0641   379
27.0741   352
27.0841   373
27.0941   389
27.1041   362
27.1141   347
27.1241   364
27.1341   357
27.1441   360
27.1541   365
27.1641   365
27.1741   384
27.1841   363
27.1941   382
27.2041   343
27.2141   337
27.2241   370
27.2341   385
27.2441   366
27.2541   337
27.2641   343
27.2741   385
27.2841   387
27.2941   336
27.3041   339
27.3141   353
27.3241   357
27.3341   342
27.3441   350
27.3541   346
27.3641   372
27.3741   372
27.3841   345
27.3941   319
27.4041   332
27.4141   371
27.4241   356
27.4341   354
27.4441   385
27.4541   355
27.4641   314
27.4741   346
27.4841   361
27.4941   396
27.5041   336
27.5141   325
27.5241   358
27.5341   376
27.5441   335
27.5541   343
27.5641   381
27.5741   387
27.5841   342
27.5941   334
27.6041   349
27.6141   363
27.6241   357
27.6341   354
27.6441   372
27.6541   367
27.6641   342
27.6741   353
27.6841   367
27.6941   323
27.7041   329
27.7141   345
27.7241   338
27.7341   321
27.7441   345
27.7541   321
27.7641   346
27.7741   323
27.7841   336
27.7941   318
27.8041   319
27.8141   313
27.8241   323
27.8341   295
27.8441   337
27.8541   320
27.8641   341
27.8741   350
27.8841   318
27.8941   373
27.9041   349
27.9141   310
27.9241   335
27.9341   331
27.9441   331
27.9541   326
27.9641   343
27.9741   314
27.9841   320
27.9941   330
28.0041   324
28.0141   318
28.0241   355
28.0341   329
28.0441   297
28.0541   314
28.0641   331
28.0741   346
28.0841   304
28.0941   343
28.1041   337
28.1141   358
28.1241   330
28.1341   344
28.1441   343
28.1541   329
28.1641   328
28.1741   320
28.1841   341
28.1941   318
28.2041   313
28.2141   331
28.2241   325
28.2341   348
28.2441   302
28.2541   317
28.2641   317
28.2741   324
28.2841   313
28.2941   286
28.3041   334
28.3141   326
28.3241   331
28.3341   300
28.3441   307
28.3541   280
28.3641   310
28.3741   318
28.3841   312
28.3941   306
28.4041   325
28.4141   304
28.4241   305
28.4341   334
28.4441   302
28.4541   335
28.4641   327
28.4741   317
28.4841   331
28.4941   315
28.5041   342
28.5141   323
28.5241   320
28.5341   320
28.5441   327
28.5541   314
28.5641   321
28.5741   321
28.5841   352
28.5941   291
28.6041   310
28.6141   332
28.6241   317
28.6341   297
28.6441   294
28.6541   294
28.6641   313
28.6741   317
28.6841   314
28.6941   292
28.7041   272
28.7141   317
28.7241   313
28.7341   280
28.7441   304
28.7541   313
28.7641   305
28.7741   307
28.7841   282
28.7941   285
28.8041   317
28.8141   305
28.8241   279
28.8341   307
28.8441   307
28.8541   314
28.8641   285
28.8741   295
28.8841   304
28.8941   296
28.9041   294
28.9141   312
28.9241   297
28.9341   295
28.9441   294
28.9541   282
28.9641   265
28.9741   301
28.9841   276
28.9941   286
29.0041   311
29.0141   317
29.0241   267
29.0341   281
29.0441   271
29.0541   286
29.0641   290
29.0741   298
29.0841   287
29.0941   277
29.1041   286
29.1141   292
29.1241   284
29.1341   267
29.1441   277
29.1541   272
29.1641   283
29.1741   268
29.1841   277
29.1941   276
29.2041   267
29.2141   275
29.2241   290
29.2341   283
29.2441   271
29.2541   295
29.2641   309
29.2741   285
29.2841   279
29.2941   263
29.3041   302
29.3141   306
29.3241   273
29.3341   286
29.3441   275
29.3541   239
29.3641   278
29.3741   253
29.3841   276
29.3941   266
29.4041   301
29.4141   308
29.4241   285
29.4341   237
29.4441   253
29.4541   263
29.4641   271
29.4741   284
29.4841   291
29.4941   240
29.5041   251
29.5141   261
29.5241   268
29.5341   294
29.5441   274
29.5541   271
29.5641   269
29.5741   267
29.5841   264
29.5941   249
29.6041   263
29.6141   291
29.6241   289
29.6341   259
29.6441   254
29.6541   265
29.6641   242
29.6741   282
29.6841   279
29.6941   248
29.7041   284
29.7141   248
29.7241   251
29.7341   271
29.7441   258
29.7541   240
29.7641   248
29.7741   257
29.7841   252
29.7941   254
29.8041   221
29.8141   260
29.8241   261
29.8341   262
29.8441   262
29.8541   236
29.8641   236
29.8741   256
29.8841   257
29.8941   269
29.9041   270
29.9141   249
29.9241   261
29.9341   268
29.9441   268
29.9541   256
29.9641   247
29.9741   267
29.9841   248
29.9941   243
30.0041   245
30.0141   246
30.0241   261
30.0341   240
30.0441   235
30.0541   234
30.0641   245
30.0741   257
30.0841   245
30.0941   247
30.1041   247
30.1141   241
30.1241   265
30.1341   250
30.1441   250
30.1541   238
30.1641   253
30.1741   255
30.1841   234
30.1941   268
30.2041   246
30.2141   255
30.2241   256
30.2341   253
30.2441   243
30.2541   214
30.2641   233
30.2741   235
30.2841   240
30.2941   251
30.3041   234
30.3141   225
30.3241   220
30.3341   234
30.3441   241
30.3541   230
30.3641   220
30.3741   243
30.3841   244
30.3941   244
30.4041   236
30.4141   258
30.4241   235
30.4341   217
30.4441   237
30.4541   226
30.4641   220
30.4741   239
30.4841   211
30.4941   251
30.5041   248
30.5141   241
30.5241   249
30.5341   206
30.5441   205
30.5541   224
30.5641   220
30.5741   208
30.5841   219
30.5941   191
30.6041   234
30.6141   201
30.6241   208
30.6341   220
30.6441   234
30.6541   225
30.6641   236
30.6741   220
30.6841   212
30.6941   240
30.7041   245
30.7141   221
30.7241   212
30.7341   229
30.7441   236
30.7541   193
30.7641   228
30.7741   235
30.7841   239
30.7941   236
30.8041   225
30.8141   242
30.8241   219
30.8341   198
30.8441   224
30.8541   208
30.8641   212
30.8741   228
30.8841   229
30.8941   221
30.9041   214
30.9141   201
30.9241   223
30.9341   191
30.9441   202
30.9541   205
30.9641   224
30.9741   232
30.9841   237
30.9941   207
31.0041   244
31.0141   228
31.0241   218
31.0341   219
31.0441   193
31.0541   221
31.0641   230
31.0741   206
31.0841   189
31.0941   241
31.1041   209
31.1141   204
31.1241   211
31.1341   212
31.1441   212
31.1541   225
31.1641   214
31.1741   208
31.1841   224
31.1941   202
31.2041   208
31.2141   209
31.2241   196
31.2341   195
31.2441   223
31.2541   176
31.2641   217
31.2741   184
31.2841   206
31.2941   225
31.3041   213
31.3141   210
31.3241   199
31.3341   197
31.3441   209
31.3541   216
31.3641   235
31.3741   191
31.3841   196
31.3941   192
31.4041   215
31.4141   217
31.4241   192
31.4341   180
31.4441   222
31.4541   214
31.4641   189
31.4741   212
31.4841   186
31.4941   190
31.5041   205
31.5141   202
31.5241   198
31.5341   195
31.5441   203
31.5541   204
31.5641   187
31.5741   187
31.5841   193
31.5941   180
31.6041   229
31.6141   209
31.6241   188
31.6341   207
31.6441   204
31.6541   211
31.6641   215
31.6741   182
31.6841   179
31.6941   193
31.7041   193
31.7141   192
31.7241   168
31.7341   182
31.7441   176
31.7541   185
31.7641   206
31.7741   171
31.7841   187
31.7941   190
31.8041   241
31.8141   191
31.8241   207
31.8341   195
31.8441   185
31.8541   191
31.8641   208
31.8741   175
31.8841   200
31.8941   174
31.9041   206
31.9141   195
31.9241   193
31.9341   213
31.9441   182
31.9541   184
31.9641   199
31.9741   203
31.9841   168
31.9941   175
32.0041   204
32.0141   191
32.0241   168
32.0341   180
32.0441   203
32.0541   202
32.0641   182
32.0741   197
32.0841   185
32.0941   167
32.1041   190
32.1141   173
32.1241   210
32.1341   184
32.1441   193
32.1541   175
32.1641   189
32.1741   188
32.1841   194
32.1941   194
32.2041   205
32.2141   181
32.2241   207
32.2341   178
32.2441   191
32.2541   162
32.2641   170
32.2741   194
32.2841   150
32.2941   171
32.3041   195
32.3141   183
32.3241   184
32.3341   174
32.3441   190
32.3541   175
32.3641   162
32.3741   178
32.3841   163
32.3941   181
32.4041   172
32.4141   167
32.4241   177
32.4341   173
32.4441   164
32.4541   152
32.4641   157
32.4741   187
32.4841   174
32.4941   162
32.5041   169
32.5141   187
32.5241   164
32.5341   160
32.5441   173
32.5541   166
32.5641   174
32.5741   153
32.5841   157
32.5941   148
32.6041   139
32.6141   168
32.6241   173
32.6341   167
32.6441   162
32.6541   163
32.6641   179
32.6741   169
32.6841   157
32.6941   159
32.7041   166
32.7141   158
32.7241   161
32.7341   160
32.7441   168
32.7541   145
32.7641   146
32.7741   156
32.7841   150
32.7941   160
32.8041   156
32.8141   158
32.8241   157
32.8341   150
32.8441   160
32.8541   163
32.8641   173
32.8741   158
32.8841   164
32.8941   137
32.9041   168
32.9141   167
32.9241   150
32.9341   144
32.9441   149
32.9541   159
32.9641   162
32.9741   165
32.9841   161
32.9941   162
33.0041   153
33.0141   169
33.0241   160
33.0341   161
33.0441   154
33.0541   165
33.0641   150
33.0741   153
33.0841   126
33.0941   142
33.1041   153
33.1141   143
33.1241   161
33.1341   141
33.1441   131
33.1541   146
33.1641   162
33.1741   160
33.1841   134
33.1941   137
33.2041   156
33.2141   144
33.2241   142
33.2341   144
33.2441   145
33.2541   145
33.2641   150
33.2741   159
33.2841   143
33.2941   154
33.3041   144
33.3141   136
33.3241   141
33.3341   155
33.3441   160
33.3541   138
33.3641   131
33.3741   137
33.3841   141
33.3941   146
33.4041   171
33.4141   169
33.4241   153
33.4341   148
33.4441   127
33.4541   152
33.4641   144
33.4741   161
33.4841   150
33.4941   140
33.5041   145
33.5141   147
33.5241   137
33.5341   133
33.5441   139
33.5541   134
33.5641   139
33.5741   133
33.5841   123
33.5941   128
33.6041   135
33.6141   123
33.6241   145
33.6341   128
33.6441   143
33.6541   127
33.6641   132
33.6741   135
33.6841   127
33.6941   127
33.7041   141
33.7141   137
33.7241   122
33.7341   137
33.7441   136
33.7541   118
33.7641   136
33.7741   152
33.7841   142
33.7941   140
33.8041   124
33.8141   150
33.8241   136
33.8341   146
33.8441   133
33.8541   148
33.8641   131
33.8741   132
33.8841   155
33.8941   148
33.9041   136
33.9141   122
33.9241   130
33.9341   121
33.9441   111
33.9541   121
33.9641   119
33.9741   131
33.9841   137
33.9941   126
34.0041   120
34.0141   118
34.0241   111
34.0341   117
34.0441   113
34.0541   119
34.0641   121
34.0741   124
34.0841   112
34.0941   122
34.1041   139
34.1141   117
34.1241   126
34.1341   139
34.1441   125
34.1541   127
34.1641   113
34.1741   119
34.1841   139
34.1941   127
34.2041   132
34.2141   115
34.2241   123
34.2341   108
34.2441   120
34.2541   125
34.2641   117
34.2741   120
34.2841   121
34.2941   128
34.3041   116
34.3141   122
34.3241   124
34.3341   134
34.3441   128
34.3541   120
34.3641   101
34.3741   111
34.3841   111
34.3941   117
34.4041   124
34.4141   114
34.4241   117
34.4341   100
34.4441   118
34.4541    91
34.4641   109
34.4741   132
34.4841   105
34.4941   124
34.5041   110
34.5141   107
34.5241   113
34.5341   117
34.5441   106
34.5541   102
34.5641   117
34.5741   113
34.5841   108
34.5941   129
34.6041   122
34.6141    98
34.6241   103
34.6341   104
34.6441   123
34.6541   113
34.6641   108
34.6741   116
34.6841   116
34.6941   112
34.7041   108
34.7141   112
34.7241   131
34.7341   109
34.7441    99
34.7541   110
34.7641   134
34.7741    94
34.7841    95
34.7941   102
34.8041   130
34.8141   121
34.8241   128
34.8341   113
34.8441   113
34.8541    94
34.8641    95
34.8741   109
34.8841   106
34.8941   116
34.9041   118
34.9141   104
34.9241    92
34.9341    98
34.9441   120
34.9541   113
34.9641   111
34.9741   117
34.9841   101
34.9941   112
35.0041    96
35.0141    93
35.0241   101
35.0341   107
35.0441    98
35.0541   103
35.0641    94
35.0741   118
35.0841    93
35.0941   104
35.1041    88
35.1141    90
35.1241    87
35.1341   114
35.1441   110
35.1541   114
35.1641   101
35.1741   117
35.1841    89
35.1941   116
35.2041   104
35.2141   119
35.2241   113
35.2341    99
35.2441   104
35.2541   115
35.2641    98
35.2741   108
35.2841   121
35.2941   106
35.3041    98
35.3141    89
35.3241    89
35.3341   113
35.3441   106
35.3541   101
35.3641    90
35.3741   105
35.3841   100
35.3941    98
35.4041    96
35.4141    91
35.4241   107
35.4341    86
35.4441   105
35.4541    94
35.4641   103
35.4741    98
35.4841    88
35.4941    93
35.5041    98
35.5141    95
35.5241   101
35.5341   104
35.5441   101
35.5541    72
35.5641   107
35.5741    91
35.5841    94
35.5941    90
35.6041    80
35.6141    84
35.6241    92
35.6341   101
35.6441    80
35.6541    80
35.6641    83
35.6741    88
35.6841   104
35.6941    88
35.7041    86
35.7141    78
35.7241    97
35.7341    98
35.7441    88
35.7541    89
35.7641    92
35.7741   100
35.7841    69
35.7941    83
35.8041    82
35.8141    91
35.8241    84
35.8341    89
35.8441    67
35.8541    94
35.8641   100
35.8741    80
35.8841    71
35.8941    92
35.9041    97
35.9141    85
35.9241    78
35.9341    85
35.9441    85
35.9541    89
35.9641    90
35.9741    92
35.9841    74
35.9941    84
36.0041    90
36.0141    84
36.0241    80
36.0341    78
36.0441    72
36.0541    79
36.0641    74
36.0741    71
36.0841    67
36.0941    86
36.1041    91
36.1141    83
36.1241    78
36.1341    94
36.1441    75
36.1541    88
36.1641    82
36.1741    94
36.1841    81
36.1941    77
36.2041    72
36.2141    76
36.2241    70
36.2341    96
36.2441    84
36.2541    73
36.2641    63
36.2741    69
36.2841    89
36.2941    80
36.3041    82
36.3141    79
36.3241    80
36.3341    87
36.3441    71
36.3541    84
36.3641    81
36.3741    76
36.3841    73
36.3941    82
36.4041    93
36.4141    85
36.4241    75
36.4341    69
36.4441    69
36.4541    89
36.4641    74
36.4741    88
36.4841    81
36.4941    90
36.5041    67
36.5141    76
36.5241    77
36.5341    83
36.5441    87
36.5541    71
36.5641    73
36.5741    81
36.5841   101
36.5941    76
36.6041    54
36.6141    66
36.6241    66
36.6341    94
36.6441    76
36.6541    71
36.6641    56
36.6741    59
36.6841    69
36.6941    68
36.7041    69
36.7141    87
36.7241    51
36.7341    71
36.7441    75
36.7541    76
36.7641    84
36.7741    79
36.7841    67
36.7941    63
36.8041    71
36.8141    81
36.8241    70
36.8341    86
36.8441    83
36.8541    76
36.8641    77
36.8741    89
36.8841    63
36.8941    64
36.9041    70
36.9141    66
36.9241    66
36.9341    62
36.9441    57
36.9541    62
36.9641    57
36.9741    62
36.9841    69
36.9941    56
37.0041    75
37.0141    74
37.0241    59
37.0341    65
37.0441    60
37.0541    60
37.0641    70
37.0741    83
37.0841    74
37.0941    57
37.1041    55
37.1141    67
37.1241    69
37.1341    52
37.1441    59
37.1541    63
37.1641    64
37.1741    70
37.1841    57
37.1941    52
37.2041    65
37.2141    59
37.2241    55
37.2341    55
37.2441    58
37.2541    71
37.2641    54
37.2741    67
37.2841    80
37.2941    64
37.3041    47
37.3141    70
37.3241    62
37.3341    67
37.3441    64
37.3541    52
37.3641    64
37.3741    76
37.3841    64
37.3941    58
37.4041    57
37.4141    42
37.4241    50
37.4341    61
37.4441    82
37.4541    55
37.4641    59
37.4741    49
37.4841    51
37.4941    54
37.5041    59
37.5141    48
37.5241    53
37.5341    54
37.5441    57
37.5541    62
37.5641    70
37.5741    46
37.5841    57
37.5941    48
37.6041    44
37.6141    53
37.6241    58
37.6341    57
37.6441    45
37.6541    58
37.6641    62
37.6741    58
37.6841    47
37.6941    72
37.7041    51
37.7141    50
37.7241    57
37.7341    49
37.7441    48
37.7541    53
37.7641    57
37.7741    58
37.7841    46
37.7941    46
37.8041    41
37.8141    45
37.8241    42
37.8341    43
37.8441    53
37.8541    60
37.8641    61
37.8741    51
37.8841    47
37.8941    41
37.9041    46
37.9141    44
37.9241    48
37.9341    49
37.9441    47
37.9541    57
37.9641    59
37.9741    57
37.9841    55
37.9941    65
38.0041    52
38.0141    49
38.0241    47
38.0341    56
38.0441    46
38.0541    45
38.0641    69
38.0741    56
38.0841    53
38.0941    45
38.1041    47
38.1141    46
38.1241    44
38.1341    43
38.1441    47
38.1541    52
38.1641    59
38.1741    43
38.1841    59
38.1941    62
38.2041    39
38.2141    41
38.2241    44
38.2341    43
38.2441    58
38.2541    47
38.2641    62
38.2741    53
38.2841    37
38.2941    49
38.3041    51
38.3141    58
38.3241    49
38.3341    41
38.3441    40
38.3541    47
38.3641    37
38.3741    45
38.3841    46
38.3941    48
38.4041    37
38.4141    43
38.4241    29
38.4341    38
38.4441    34
38.4541    38
38.4641    45
38.4741    46
38.4841    45
38.4941    44
38.5041    44
38.5141    49
38.5241    34
38.5341    35
38.5441    42
38.5541    47
38.5641    44
38.5741    54
38.5841    49
38.5941    43
38.6041    38
38.6141    37
38.6241    39
38.6341    38
38.6441    41
38.6541    41
38.6641    38
38.6741    46
38.6841    41
38.6941    54
38.7041    44
38.7141    30
38.7241    34
38.7341    40
38.7441    35
38.7541    39
38.7641    39
38.7741    38
38.7841    42
38.7941    41
38.8041    27
38.8141    26
38.8241    32
38.8341    36
38.8441    48
38.8541    45
38.8641    25
38.8741    41
38.8841    27
38.8941    45
38.9041    36
38.9141    38
38.9241    38
38.9341    30
38.9441    46
38.9541    33
38.9641    30
38.9741    29
38.9841    36
38.9941    38
39.0041    39
39.0141    39
39.0241    34
39.0341    35
39.0441    37
39.0541    31
39.0641    40
39.0741    40
39.0841    35
39.0941    28
39.1041    31
39.1141    40
39.1241    38
39.1341    40
39.1441    26
39.1541    40
39.1641    29
39.1741    29
39.1841    42
39.1941    34
39.2041    25
39.2141    31
39.2241    32
39.2341    36
39.2441    39
39.2541    27
39.2641    35
39.2741    36
39.2841    30
39.2941    27
39.3041    34
39.3141    29
39.3241    36
39.3341    39
39.3441    39
39.3541    38
39.3641    34
39.3741    27
39.3841    32
39.3941    39
39.4041    29
39.4141    28
39.4241    35
39.4341    23
39.4441    29
39.4541    36
39.4641    21
39.4741    37
39.4841    30
39.4941    26
39.5041    28
39.5141    30
39.5241    33
39.5341    26
39.5441    27
39.5541    34
39.5641    25
39.5741    25
39.5841    42
39.5941    27
39.6041    25
39.6141    27
39.6241    20
39.6341    27
39.6441    30
39.6541    38
39.6641    31
39.6741    37
39.6841    26
39.6941    27
39.7041    38
39.7141    32
39.7241    35
39.7341    30
39.7441    25
39.7541    32
39.7641    25
39.7741    31
39.7841    24
39.7941    21
39.8041    25
39.8141    28
39.8241    26
39.8341    31
39.8441    36
39.8541    22
39.8641    31
39.8741    28
39.8841    25
39.8941    19
39.9041    30
39.9141    28
39.9241    30
39.9341    18
39.9441    25
39.9541    30
39.9641    23
39.9741    21
39.9841    23
