Bruker Nano GmbH Berlin, Germany
Esprit 1.9

Date: 4/1/2021 4:50:53 PM
Real time: 15873
Life time: 14600
Pulse density: 118874


Detector type: XFlash 430
Window type: Custom type
Detector thickness: 0.45
Si dead layer:0.029

Calibration, lin.: 10
Calibration, abs.: -955.9
Mn FWHM: 137.05
Fano factor: 0.121
Channels: 4095

Energy Counts
-0.9559     0
-0.9459     0
-0.9359     0
-0.9259     0
-0.9159     0
-0.9059     0
-0.8959     0
-0.8859     0
-0.8759     0
-0.8659     0
-0.8559     0
-0.8459     0
-0.8359     0
-0.8259     0
-0.8159     0
-0.8059     0
-0.7959     0
-0.7859     0
-0.7759     0
-0.7659     0
-0.7559     0
-0.7459     0
-0.7359     0
-0.7259     0
-0.7159     0
-0.7059     0
-0.6959     0
-0.6859     0
-0.6759     0
-0.6659     0
-0.6559     0
-0.6459     0
-0.6359     0
-0.6259     0
-0.6159     0
-0.6059     0
-0.5959     0
-0.5859     0
-0.5759     0
-0.5659     0
-0.5559     0
-0.5459     0
-0.5359     0
-0.5259     0
-0.5159     0
-0.5059     0
-0.4959     0
-0.4859     0
-0.4759     0
-0.4659     0
-0.4559     0
-0.4459     0
-0.4359     0
-0.4259     0
-0.4159     0
-0.4059     0
-0.3959     0
-0.3859     0
-0.3759     0
-0.3659     0
-0.3559     0
-0.3459     0
-0.3359     0
-0.3259     0
-0.3159     0
-0.3059     0
-0.2959     0
-0.2859     0
-0.2759     0
-0.2659     0
-0.2559     0
-0.2459     0
-0.2359     0
-0.2259     0
-0.2159     0
-0.2059     0
-0.1959     0
-0.1859     0
-0.1759     0
-0.1659     0
-0.1559     0
-0.1459     0
-0.1359     0
-0.1259     1
-0.1159     1
-0.1059     9
-0.0959    41
-0.0859   170
-0.0759   584
-0.0659  1750
-0.0559  4260
-0.0459  9383
-0.0359 17268
-0.0259 27857
-0.0159 37822
-0.0059 44402
 0.0041 44966
 0.0141 38807
 0.0241 28875
 0.0341 18108
 0.0441  9938
 0.0541  4624
 0.0641  1896
 0.0741   654
 0.0841   173
 0.0941    49
 0.1041    12
 0.1141     6
 0.1241     6
 0.1341    11
 0.1441     5
 0.1541     4
 0.1641     3
 0.1741     2
 0.1841   158
 0.1941   250
 0.2041   243
 0.2141   238
 0.2241   242
 0.2341   239
 0.2441   228
 0.2541   254
 0.2641   255
 0.2741   265
 0.2841   252
 0.2941   242
 0.3041   252
 0.3141   235
 0.3241   241
 0.3341   244
 0.3441   232
 0.3541   256
 0.3641   233
 0.3741   235
 0.3841   245
 0.3941   213
 0.4041   219
 0.4141   214
 0.4241   225
 0.4341   228
 0.4441   224
 0.4541   224
 0.4641   222
 0.4741   210
 0.4841   182
 0.4941   222
 0.5041   232
 0.5141   213
 0.5241   204
 0.5341   205
 0.5441   204
 0.5541   209
 0.5641   210
 0.5741   195
 0.5841   200
 0.5941   199
 0.6041   202
 0.6141   206
 0.6241   200
 0.6341   201
 0.6441   187
 0.6541   199
 0.6641   195
 0.6741   187
 0.6841   200
 0.6941   189
 0.7041   190
 0.7141   195
 0.7241   191
 0.7341   169
 0.7441   176
 0.7541   184
 0.7641   174
 0.7741   174
 0.7841   185
 0.7941   201
 0.8041   183
 0.8141   165
 0.8241   172
 0.8341   183
 0.8441   185
 0.8541   185
 0.8641   171
 0.8741   171
 0.8841   179
 0.8941   187
 0.9041   172
 0.9141   168
 0.9241   187
 0.9341   173
 0.9441   181
 0.9541   163
 0.9641   179
 0.9741   160
 0.9841   171
 0.9941   158
 1.0041   157
 1.0141   188
 1.0241   168
 1.0341   186
 1.0441   175
 1.0541   174
 1.0641   162
 1.0741   157
 1.0841   157
 1.0941   179
 1.1041   164
 1.1141   146
 1.1241   165
 1.1341   169
 1.1441   166
 1.1541   148
 1.1641   159
 1.1741   141
 1.1841   162
 1.1941   158
 1.2041   157
 1.2141   169
 1.2241   167
 1.2341   165
 1.2441   141
 1.2541   161
 1.2641   138
 1.2741   140
 1.2841   143
 1.2941   138
 1.3041   144
 1.3141   146
 1.3241   152
 1.3341   139
 1.3441   177
 1.3541   162
 1.3641   156
 1.3741   137
 1.3841   125
 1.3941   155
 1.4041   152
 1.4141   137
 1.4241   144
 1.4341   158
 1.4441   149
 1.4541   149
 1.4641   156
 1.4741   153
 1.4841   166
 1.4941   142
 1.5041   143
 1.5141   150
 1.5241   146
 1.5341   155
 1.5441   146
 1.5541   134
 1.5641   140
 1.5741   140
 1.5841   135
 1.5941   141
 1.6041   120
 1.6141   133
 1.6241   154
 1.6341   153
 1.6441   179
 1.6541   186
 1.6641   201
 1.6741   241
 1.6841   293
 1.6941   374
 1.7041   457
 1.7141   567
 1.7241   543
 1.7341   621
 1.7441   613
 1.7541   572
 1.7641   555
 1.7741   472
 1.7841   368
 1.7941   294
 1.8041   257
 1.8141   227
 1.8241   198
 1.8341   197
 1.8441   173
 1.8541   152
 1.8641   159
 1.8741   174
 1.8841   159
 1.8941   136
 1.9041   135
 1.9141   149
 1.9241   127
 1.9341   140
 1.9441   141
 1.9541   142
 1.9641   161
 1.9741   188
 1.9841   162
 1.9941   170
 2.0041   171
 2.0141   202
 2.0241   161
 2.0341   172
 2.0441   168
 2.0541   160
 2.0641   174
 2.0741   148
 2.0841   143
 2.0941   160
 2.1041   140
 2.1141   135
 2.1241   148
 2.1341   153
 2.1441   128
 2.1541   135
 2.1641   127
 2.1741   135
 2.1841   124
 2.1941   135
 2.2041   135
 2.2141   127
 2.2241   147
 2.2341   110
 2.2441   121
 2.2541   116
 2.2641   146
 2.2741   114
 2.2841   130
 2.2941   115
 2.3041   125
 2.3141   106
 2.3241   130
 2.3341   118
 2.3441   126
 2.3541   132
 2.3641   111
 2.3741    97
 2.3841   100
 2.3941   117
 2.4041   107
 2.4141   112
 2.4241   126
 2.4341   129
 2.4441   115
 2.4541   133
 2.4641   117
 2.4741   117
 2.4841   110
 2.4941    95
 2.5041   129
 2.5141   106
 2.5241   123
 2.5341   101
 2.5441   118
 2.5541   112
 2.5641   106
 2.5741   118
 2.5841   101
 2.5941   112
 2.6041   107
 2.6141   107
 2.6241   127
 2.6341    99
 2.6441   104
 2.6541   113
 2.6641   129
 2.6741   106
 2.6841    87
 2.6941    72
 2.7041   123
 2.7141   121
 2.7241    92
 2.7341   117
 2.7441    98
 2.7541   113
 2.7641   106
 2.7741   113
 2.7841   130
 2.7941   112
 2.8041   122
 2.8141   108
 2.8241    95
 2.8341   116
 2.8441   111
 2.8541   110
 2.8641    98
 2.8741   103
 2.8841   129
 2.8941   108
 2.9041   100
 2.9141    99
 2.9241   121
 2.9341   114
 2.9441    90
 2.9541   103
 2.9641    89
 2.9741   108
 2.9841   103
 2.9941   114
 3.0041   114
 3.0141   112
 3.0241   117
 3.0341    94
 3.0441   103
 3.0541   101
 3.0641   105
 3.0741    98
 3.0841    91
 3.0941    81
 3.1041    75
 3.1141    95
 3.1241    82
 3.1341    79
 3.1441    93
 3.1541    89
 3.1641    80
 3.1741    72
 3.1841    91
 3.1941   103
 3.2041    81
 3.2141   103
 3.2241   114
 3.2341   130
 3.2441   129
 3.2541   122
 3.2641   139
 3.2741   153
 3.2841   184
 3.2941   173
 3.3041   202
 3.3141   200
 3.3241   197
 3.3341   174
 3.3441   160
 3.3541   140
 3.3641   141
 3.3741   130
 3.3841   123
 3.3941   105
 3.4041    80
 3.4141    86
 3.4241    80
 3.4341    92
 3.4441    77
 3.4541    73
 3.4641    76
 3.4741    83
 3.4841    85
 3.4941    84
 3.5041    80
 3.5141    90
 3.5241    98
 3.5341   107
 3.5441   131
 3.5541   122
 3.5641   132
 3.5741   165
 3.5841   196
 3.5941   246
 3.6041   321
 3.6141   442
 3.6241   508
 3.6341   606
 3.6441   762
 3.6541   899
 3.6641  1020
 3.6741  1074
 3.6841  1122
 3.6941  1139
 3.7041  1062
 3.7141  1001
 3.7241   876
 3.7341   754
 3.7441   638
 3.7541   528
 3.7641   410
 3.7741   314
 3.7841   236
 3.7941   181
 3.8041   135
 3.8141   114
 3.8241   101
 3.8341   102
 3.8441    75
 3.8541    67
 3.8641    68
 3.8741    75
 3.8841    71
 3.8941    87
 3.9041    77
 3.9141   115
 3.9241   113
 3.9341   122
 3.9441   127
 3.9541   157
 3.9641   149
 3.9741   191
 3.9841   266
 3.9941   235
 4.0041   253
 4.0141   235
 4.0241   225
 4.0341   212
 4.0441   217
 4.0541   170
 4.0641   161
 4.0741   152
 4.0841   118
 4.0941   115
 4.1041    95
 4.1141    82
 4.1241    69
 4.1341    80
 4.1441    65
 4.1541    68
 4.1641    52
 4.1741    63
 4.1841    81
 4.1941    70
 4.2041    66
 4.2141    61
 4.2241    69
 4.2341    63
 4.2441    63
 4.2541    72
 4.2641    64
 4.2741    54
 4.2841    70
 4.2941    56
 4.3041    83
 4.3141    70
 4.3241    74
 4.3341    62
 4.3441    73
 4.3541    74
 4.3641    98
 4.3741    93
 4.3841   121
 4.3941   144
 4.4041   170
 4.4141   188
 4.4241   257
 4.4341   288
 4.4441   331
 4.4541   389
 4.4641   518
 4.4741   570
 4.4841   643
 4.4941   673
 4.5041   669
 4.5141   679
 4.5241   653
 4.5341   596
 4.5441   512
 4.5541   457
 4.5641   418
 4.5741   309
 4.5841   267
 4.5941   231
 4.6041   178
 4.6141   135
 4.6241   151
 4.6341    86
 4.6441    92
 4.6541    72
 4.6641    80
 4.6741   101
 4.6841    99
 4.6941    76
 4.7041    85
 4.7141    70
 4.7241    73
 4.7341    87
 4.7441    75
 4.7541    84
 4.7641    76
 4.7741    93
 4.7841   100
 4.7941   106
 4.8041   110
 4.8141   122
 4.8241   127
 4.8341   103
 4.8441   145
 4.8541   126
 4.8641   168
 4.8741   161
 4.8841   189
 4.8941   209
 4.9041   222
 4.9141   238
 4.9241   208
 4.9341   242
 4.9441   194
 4.9541   194
 4.9641   184
 4.9741   184
 4.9841   159
 4.9941   144
 5.0041   137
 5.0141   118
 5.0241   106
 5.0341    83
 5.0441    90
 5.0541    79
 5.0641    79
 5.0741    77
 5.0841    76
 5.0941    75
 5.1041    78
 5.1141    79
 5.1241    75
 5.1341    82
 5.1441    69
 5.1541    64
 5.1641    92
 5.1741    77
 5.1841    70
 5.1941    91
 5.2041    85
 5.2141    82
 5.2241    94
 5.2341    95
 5.2441    95
 5.2541    85
 5.2641    86
 5.2741    78
 5.2841   107
 5.2941    95
 5.3041   106
 5.3141   113
 5.3241   118
 5.3341   111
 5.3441   137
 5.3541   155
 5.3641   176
 5.3741   182
 5.3841   178
 5.3941   198
 5.4041   198
 5.4141   212
 5.4241   220
 5.4341   208
 5.4441   183
 5.4541   155
 5.4641   165
 5.4741   142
 5.4841   141
 5.4941   116
 5.5041   124
 5.5141   111
 5.5241   106
 5.5341   127
 5.5441    98
 5.5541   101
 5.5641    85
 5.5741   100
 5.5841    79
 5.5941    78
 5.6041    80
 5.6141    83
 5.6241    86
 5.6341    81
 5.6441   102
 5.6541    98
 5.6641    79
 5.6741    83
 5.6841    97
 5.6941    99
 5.7041    97
 5.7141    92
 5.7241   123
 5.7341   110
 5.7441   109
 5.7541   126
 5.7641   151
 5.7741   177
 5.7841   194
 5.7941   259
 5.8041   293
 5.8141   352
 5.8241   415
 5.8341   448
 5.8441   523
 5.8541   616
 5.8641   675
 5.8741   653
 5.8841   788
 5.8941   736
 5.9041   776
 5.9141   744
 5.9241   665
 5.9341   628
 5.9441   580
 5.9541   492
 5.9641   432
 5.9741   345
 5.9841   273
 5.9941   247
 6.0041   230
 6.0141   173
 6.0241   148
 6.0341   160
 6.0441   155
 6.0541   141
 6.0641   146
 6.0741   136
 6.0841   126
 6.0941   133
 6.1041   146
 6.1141   155
 6.1241   165
 6.1341   190
 6.1441   174
 6.1541   185
 6.1641   216
 6.1741   235
 6.1841   273
 6.1941   312
 6.2041   424
 6.2141   577
 6.2241   779
 6.2341  1118
 6.2441  1483
 6.2541  2098
 6.2641  2947
 6.2741  3986
 6.2841  5568
 6.2941  7382
 6.3041  9511
 6.3141 11963
 6.3241 14894
 6.3341 17781
 6.3441 20848
 6.3541 23976
 6.3641 26552
 6.3741 28808
 6.3841 30020
 6.3941 30703
 6.4041 30604
 6.4141 29607
 6.4241 28075
 6.4341 25431
 6.4441 22805
 6.4541 19609
 6.4641 16728
 6.4741 13694
 6.4841 10941
 6.4941  8632
 6.5041  6417
 6.5141  4847
 6.5241  3566
 6.5341  2571
 6.5441  1781
 6.5541  1248
 6.5641   874
 6.5741   583
 6.5841   473
 6.5941   339
 6.6041   261
 6.6141   224
 6.6241   197
 6.6341   179
 6.6441   163
 6.6541   146
 6.6641   164
 6.6741   143
 6.6841   175
 6.6941   155
 6.7041   146
 6.7141   182
 6.7241   175
 6.7341   184
 6.7441   169
 6.7541   155
 6.7641   176
 6.7741   187
 6.7841   189
 6.7941   183
 6.8041   207
 6.8141   236
 6.8241   239
 6.8341   302
 6.8441   295
 6.8541   269
 6.8641   339
 6.8741   341
 6.8841   449
 6.8941   522
 6.9041   653
 6.9141   773
 6.9241   932
 6.9341  1224
 6.9441  1482
 6.9541  1796
 6.9641  2175
 6.9741  2690
 6.9841  3074
 6.9941  3536
 7.0041  4096
 7.0141  4424
 7.0241  4783
 7.0341  5122
 7.0441  5233
 7.0541  5277
 7.0641  5238
 7.0741  4986
 7.0841  4875
 7.0941  4306
 7.1041  3923
 7.1141  3446
 7.1241  2916
 7.1341  2389
 7.1441  1974
 7.1541  1563
 7.1641  1283
 7.1741   950
 7.1841   736
 7.1941   543
 7.2041   458
 7.2141   379
 7.2241   302
 7.2341   262
 7.2441   210
 7.2541   189
 7.2641   204
 7.2741   175
 7.2841   175
 7.2941   199
 7.3041   176
 7.3141   192
 7.3241   196
 7.3341   218
 7.3441   238
 7.3541   238
 7.3641   276
 7.3741   266
 7.3841   277
 7.3941   294
 7.4041   348
 7.4141   363
 7.4241   349
 7.4341   378
 7.4441   406
 7.4541   381
 7.4641   391
 7.4741   394
 7.4841   404
 7.4941   366
 7.5041   344
 7.5141   314
 7.5241   290
 7.5341   269
 7.5441   257
 7.5541   255
 7.5641   224
 7.5741   215
 7.5841   193
 7.5941   178
 7.6041   153
 7.6141   179
 7.6241   163
 7.6341   161
 7.6441   146
 7.6541   192
 7.6641   147
 7.6741   163
 7.6841   144
 7.6941   176
 7.7041   198
 7.7141   181
 7.7241   201
 7.7341   176
 7.7441   170
 7.7541   193
 7.7641   184
 7.7741   183
 7.7841   179
 7.7941   194
 7.8041   193
 7.8141   171
 7.8241   199
 7.8341   184
 7.8441   222
 7.8541   236
 7.8641   249
 7.8741   227
 7.8841   266
 7.8941   284
 7.9041   276
 7.9141   273
 7.9241   312
 7.9341   305
 7.9441   328
 7.9541   325
 7.9641   379
 7.9741   405
 7.9841   448
 7.9941   430
 8.0041   475
 8.0141   563
 8.0241   539
 8.0341   558
 8.0441   642
 8.0541   691
 8.0641   682
 8.0741   749
 8.0841   796
 8.0941   822
 8.1041   852
 8.1141   893
 8.1241   986
 8.1341   936
 8.1441  1043
 8.1541  1036
 8.1641  1021
 8.1741  1079
 8.1841  1113
 8.1941  1120
 8.2041  1156
 8.2141  1176
 8.2241  1179
 8.2341  1228
 8.2441  1192
 8.2541  1200
 8.2641  1278
 8.2741  1436
 8.2841  1463
 8.2941  1576
 8.3041  1761
 8.3141  1778
 8.3241  2025
 8.3341  2179
 8.3441  2256
 8.3541  2440
 8.3641  2482
 8.3741  2569
 8.3841  2603
 8.3941  2600
 8.4041  2471
 8.4141  2506
 8.4241  2344
 8.4341  2183
 8.4441  2015
 8.4541  1776
 8.4641  1513
 8.4741  1445
 8.4841  1187
 8.4941  1027
 8.5041   923
 8.5141   742
 8.5241   630
 8.5341   573
 8.5441   526
 8.5541   463
 8.5641   458
 8.5741   418
 8.5841   427
 8.5941   428
 8.6041   423
 8.6141   446
 8.6241   426
 8.6341   439
 8.6441   401
 8.6541   411
 8.6641   395
 8.6741   384
 8.6841   420
 8.6941   385
 8.7041   333
 8.7141   308
 8.7241   339
 8.7341   305
 8.7441   284
 8.7541   275
 8.7641   272
 8.7741   288
 8.7841   265
 8.7941   270
 8.8041   247
 8.8141   238
 8.8241   244
 8.8341   262
 8.8441   245
 8.8541   233
 8.8641   249
 8.8741   246
 8.8841   252
 8.8941   248
 8.9041   261
 8.9141   245
 8.9241   222
 8.9341   255
 8.9441   237
 8.9541   252
 8.9641   238
 8.9741   272
 8.9841   264
 8.9941   278
 9.0041   280
 9.0141   309
 9.0241   274
 9.0341   284
 9.0441   328
 9.0541   323
 9.0641   318
 9.0741   350
 9.0841   338
 9.0941   363
 9.1041   376
 9.1141   374
 9.1241   354
 9.1341   414
 9.1441   447
 9.1541   463
 9.1641   482
 9.1741   470
 9.1841   510
 9.1941   511
 9.2041   544
 9.2141   570
 9.2241   599
 9.2341   689
 9.2441   690
 9.2541   709
 9.2641   700
 9.2741   777
 9.2841   836
 9.2941   823
 9.3041   887
 9.3141   886
 9.3241   905
 9.3341   887
 9.3441   934
 9.3541  1005
 9.3641  1012
 9.3741  1050
 9.3841  1113
 9.3941  1082
 9.4041  1072
 9.4141  1094
 9.4241  1075
 9.4341  1141
 9.4441  1102
 9.4541  1147
 9.4641  1149
 9.4741  1189
 9.4841  1216
 9.4941  1201
 9.5041  1251
 9.5141  1324
 9.5241  1341
 9.5341  1379
 9.5441  1434
 9.5541  1495
 9.5641  1540
 9.5741  1618
 9.5841  1762
 9.5941  1838
 9.6041  1941
 9.6141  2063
 9.6241  2144
 9.6341  2189
 9.6441  2287
 9.6541  2378
 9.6641  2318
 9.6741  2262
 9.6841  2205
 9.6941  2240
 9.7041  2060
 9.7141  1949
 9.7241  1869
 9.7341  1711
 9.7441  1598
 9.7541  1521
 9.7641  1409
 9.7741  1256
 9.7841  1228
 9.7941  1189
 9.8041  1066
 9.8141   972
 9.8241   924
 9.8341   920
 9.8441   891
 9.8541   881
 9.8641   877
 9.8741   858
 9.8841   922
 9.8941   970
 9.9041   975
 9.9141  1004
 9.9241  1002
 9.9341   990
 9.9441   972
 9.9541  1005
 9.9641   933
 9.9741   902
 9.9841   883
 9.9941   919
10.0041   872
10.0141   825
10.0241   768
10.0341   690
10.0441   599
10.0541   511
10.0641   491
10.0741   423
10.0841   362
10.0941   347
10.1041   344
10.1141   278
10.1241   258
10.1341   271
10.1441   236
10.1541   226
10.1641   187
10.1741   189
10.1841   158
10.1941   177
10.2041   177
10.2141   174
10.2241   173
10.2341   145
10.2441   147
10.2541   145
10.2641   150
10.2741   153
10.2841   144
10.2941   150
10.3041   148
10.3141   140
10.3241   146
10.3341   140
10.3441   131
10.3541   133
10.3641   117
10.3741   120
10.3841   126
10.3941   135
10.4041   144
10.4141   140
10.4241   125
10.4341   120
10.4441   141
10.4541   139
10.4641   133
10.4741   124
10.4841   133
10.4941   158
10.5041   151
10.5141   137
10.5241   165
10.5341   161
10.5441   152
10.5541   155
10.5641   151
10.5741   143
10.5841   138
10.5941   134
10.6041   155
10.6141   169
10.6241   146
10.6341   155
10.6441   153
10.6541   154
10.6641   164
10.6741   179
10.6841   173
10.6941   160
10.7041   185
10.7141   196
10.7241   181
10.7341   171
10.7441   184
10.7541   172
10.7641   186
10.7741   186
10.7841   198
10.7941   204
10.8041   188
10.8141   194
10.8241   203
10.8341   210
10.8441   209
10.8541   217
10.8641   226
10.8741   221
10.8841   246
10.8941   236
10.9041   225
10.9141   221
10.9241   232
10.9341   248
10.9441   238
10.9541   219
10.9641   207
10.9741   223
10.9841   241
10.9941   236
11.0041   243
11.0141   235
11.0241   207
11.0341   192
11.0441   183
11.0541   209
11.0641   225
11.0741   226
11.0841   218
11.0941   206
11.1041   200
11.1141   218
11.1241   213
11.1341   217
11.1441   212
11.1541   225
11.1641   237
11.1741   231
11.1841   245
11.1941   253
11.2041   275
11.2141   282
11.2241   300
11.2341   290
11.2441   296
11.2541   355
11.2641   342
11.2741   315
11.2841   335
11.2941   319
11.3041   314
11.3141   301
11.3241   298
11.3341   311
11.3441   282
11.3541   257
11.3641   256
11.3741   247
11.3841   243
11.3941   240
11.4041   200
11.4141   206
11.4241   195
11.4341   176
11.4441   189
11.4541   182
11.4641   158
11.4741   167
11.4841   169
11.4941   165
11.5041   169
11.5141   179
11.5241   171
11.5341   169
11.5441   158
11.5541   154
11.5641   175
11.5741   180
11.5841   175
11.5941   186
11.6041   176
11.6141   168
11.6241   193
11.6341   173
11.6441   158
11.6541   167
11.6641   168
11.6741   162
11.6841   161
11.6941   163
11.7041   154
11.7141   147
11.7241   154
11.7341   149
11.7441   142
11.7541   145
11.7641   138
11.7741   131
11.7841   139
11.7941   132
11.8041   130
11.8141   133
11.8241   120
11.8341   124
11.8441   132
11.8541   128
11.8641   127
11.8741   121
11.8841   129
11.8941   126
11.9041   137
11.9141   136
11.9241   120
11.9341   124
11.9441   136
11.9541   160
11.9641   138
11.9741   118
11.9841   129
11.9941   138
12.0041   143
12.0141   139
12.0241   145
12.0341   155
12.0441   146
12.0541   144
12.0641   132
12.0741   128
12.0841   131
12.0941   122
12.1041   133
12.1141   143
12.1241   154
12.1341   136
12.1441   132
12.1541   125
12.1641   129
12.1741   125
12.1841   124
12.1941   130
12.2041   119
12.2141   104
12.2241   118
12.2341   128
12.2441   118
12.2541   125
12.2641   120
12.2741   122
12.2841   129
12.2941   122
12.3041   127
12.3141   119
12.3241   117
12.3341   124
12.3441   124
12.3541   122
12.3641   108
12.3741   116
12.3841   123
12.3941   129
12.4041   133
12.4141   131
12.4241   131
12.4341   132
12.4441   130
12.4541   126
12.4641   121
12.4741   110
12.4841   127
12.4941   145
12.5041   147
12.5141   155
12.5241   147
12.5341   134
12.5441   122
12.5541   124
12.5641   137
12.5741   152
12.5841   147
12.5941   141
12.6041   134
12.6141   137
12.6241   140
12.6341   137
12.6441   139
12.6541   144
12.6641   147
12.6741   143
12.6841   137
12.6941   137
12.7041   142
12.7141   139
12.7241   135
12.7341   143
12.7441   151
12.7541   149
12.7641   145
12.7741   145
12.7841   144
12.7941   139
12.8041   133
12.8141   135
12.8241   148
12.8341   155
12.8441   155
12.8541   157
12.8641   161
12.8741   156
12.8841   148
12.8941   145
12.9041   143
12.9141   140
12.9241   139
12.9341   147
12.9441   152
12.9541   150
12.9641   152
12.9741   158
12.9841   161
12.9941   154
13.0041   132
13.0141   143
13.0241   164
13.0341   158
13.0441   149
13.0541   160
13.0641   174
13.0741   169
13.0841   154
13.0941   159
13.1041   154
13.1141   153
13.1241   162
13.1341   164
13.1441   162
13.1541   153
13.1641   149
13.1741   139
13.1841   150
13.1941   167
13.2041   170
13.2141   182
13.2241   190
13.2341   193
13.2441   184
13.2541   197
13.2641   209
13.2741   207
13.2841   198
13.2941   212
13.3041   236
13.3141   233
13.3241   236
13.3341   245
13.3441   250
13.3541   254
13.3641   250
13.3741   250
13.3841   259
13.3941   263
13.4041   257
13.4141   250
13.4241   245
13.4341   240
13.4441   236
13.4541   236
13.4641   231
13.4741   220
13.4841   211
13.4941   206
13.5041   204
13.5141   202
13.5241   205
13.5341   209
13.5441   204
13.5541   195
13.5641   187
13.5741   178
13.5841   172
13.5941   168
13.6041   168
13.6141   176
13.6241   183
13.6341   191
13.6441   193
13.6541   180
13.6641   171
13.6741   169
13.6841   168
13.6941   179
13.7041   181
13.7141   180
13.7241   180
13.7341   185
13.7441   190
13.7541   196
13.7641   192
13.7741   186
13.7841   185
13.7941   186
13.8041   199
13.8141   203
13.8241   201
13.8341   205
13.8441   204
13.8541   196
13.8641   197
13.8741   204
13.8841   203
13.8941   202
13.9041   208
13.9141   214
13.9241   220
13.9341   224
13.9441   224
13.9541   231
13.9641   250
13.9741   273
13.9841   293
13.9941   310
14.0041   318
14.0141   325
14.0241   350
14.0341   377
14.0441   393
14.0541   409
14.0641   421
14.0741   436
14.0841   459
14.0941   485
14.1041   510
14.1141   533
14.1241   559
14.1341   579
14.1441   571
14.1541   552
14.1641   539
14.1741   525
14.1841   508
14.1941   485
14.2041   455
14.2141   435
14.2241   424
14.2341   410
14.2441   400
14.2541   389
14.2641   361
14.2741   330
14.2841   320
14.2941   304
14.3041   262
14.3141   244
14.3241   269
14.3341   282
14.3441   251
14.3541   229
14.3641   234
14.3741   241
14.3841   232
14.3941   218
14.4041   223
14.4141   232
14.4241   224
14.4341   208
14.4441   226
14.4541   234
14.4641   212
14.4741   206
14.4841   231
14.4941   253
14.5041   247
14.5141   238
14.5241   244
14.5341   239
14.5441   233
14.5541   239
14.5641   245
14.5741   238
14.5841   243
14.5941   237
14.6041   217
14.6141   225
14.6241   228
14.6341   234
14.6441   230
14.6541   230
14.6641   251
14.6741   239
14.6841   234
14.6941   250
14.7041   245
14.7141   233
14.7241   227
14.7341   232
14.7441   238
14.7541   243
14.7641   226
14.7741   220
14.7841   237
14.7941   243
14.8041   252
14.8141   256
14.8241   269
14.8341   278
14.8441   266
14.8541   274
14.8641   285
14.8741   280
14.8841   292
14.8941   295
14.9041   290
14.9141   285
14.9241   280
14.9341   288
14.9441   291
14.9541   295
14.9641   292
14.9741   288
14.9841   276
14.9941   274
15.0041   294
15.0141   304
15.0241   308
15.0341   289
15.0441   282
15.0541   266
15.0641   269
15.0741   293
15.0841   278
15.0941   258
15.1041   260
15.1141   264
15.1241   264
15.1341   277
15.1441   280
15.1541   268
15.1641   262
15.1741   253
15.1841   274
15.1941   292
15.2041   288
15.2141   254
15.2241   264
15.2341   276
15.2441   273
15.2541   255
15.2641   247
15.2741   271
15.2841   273
15.2941   264
15.3041   274
15.3141   260
15.3241   259
15.3341   258
15.3441   251
15.3541   252
15.3641   256
15.3741   282
15.3841   288
15.3941   281
15.4041   287
15.4141   280
15.4241   264
15.4341   274
15.4441   275
15.4541   261
15.4641   274
15.4741   284
15.4841   303
15.4941   306
15.5041   313
15.5141   311
15.5241   303
15.5341   305
15.5441   326
15.5541   335
15.5641   337
15.5741   335
15.5841   347
15.5941   357
15.6041   364
15.6141   371
15.6241   412
15.6341   419
15.6441   443
15.6541   464
15.6641   482
15.6741   483
15.6841   498
15.6941   533
15.7041   523
15.7141   533
15.7241   567
15.7341   581
15.7441   591
15.7541   575
15.7641   583
15.7741   594
15.7841   581
15.7941   562
15.8041   566
15.8141   529
15.8241   507
15.8341   507
15.8441   493
15.8541   476
15.8641   458
15.8741   445
15.8841   458
15.8941   460
15.9041   433
15.9141   414
15.9241   402
15.9341   364
15.9441   368
15.9541   369
15.9641   342
15.9741   357
15.9841   347
15.9941   335
16.0041   350
16.0141   326
16.0241   321
16.0341   327
16.0441   354
16.0541   333
16.0641   330
16.0741   338
16.0841   317
16.0941   298
16.1041   322
16.1141   350
16.1241   335
16.1341   333
16.1441   325
16.1541   325
16.1641   325
16.1741   315
16.1841   339
16.1941   352
16.2041   339
16.2141   333
16.2241   346
16.2341   342
16.2441   340
16.2541   333
16.2641   343
16.2741   338
16.2841   318
16.2941   322
16.3041   346
16.3141   359
16.3241   341
16.3341   362
16.3441   347
16.3541   331
16.3641   334
16.3741   331
16.3841   348
16.3941   337
16.4041   321
16.4141   340
16.4241   338
16.4341   343
16.4441   353
16.4541   357
16.4641   364
16.4741   358
16.4841   351
16.4941   331
16.5041   353
16.5141   368
16.5241   372
16.5341   384
16.5441   360
16.5541   366
16.5641   342
16.5741   346
16.5841   377
16.5941   397
16.6041   375
16.6141   354
16.6241   369
16.6341   385
16.6441   358
16.6541   361
16.6641   380
16.6741   374
16.6841   368
16.6941   372
16.7041   373
16.7141   372
16.7241   362
16.7341   367
16.7441   371
16.7541   375
16.7641   379
16.7741   367
16.7841   361
16.7941   358
16.8041   358
16.8141   367
16.8241   346
16.8341   338
16.8441   365
16.8541   354
16.8641   339
16.8741   373
16.8841   393
16.8941   378
16.9041   362
16.9141   366
16.9241   372
16.9341   360
16.9441   393
16.9541   374
16.9641   374
16.9741   386
16.9841   379
16.9941   365
17.0041   378
17.0141   360
17.0241   350
17.0341   377
17.0441   377
17.0541   378
17.0641   365
17.0741   358
17.0841   356
17.0941   362
17.1041   393
17.1141   390
17.1241   400
17.1341   383
17.1441   365
17.1541   391
17.1641   401
17.1741   385
17.1841   388
17.1941   404
17.2041   412
17.2141   400
17.2241   386
17.2341   394
17.2441   392
17.2541   394
17.2641   394
17.2741   407
17.2841   411
17.2941   414
17.3041   388
17.3141   384
17.3241   411
17.3341   426
17.3441   420
17.3541   394
17.3641   390
17.3741   398
17.3841   404
17.3941   387
17.4041   414
17.4141   401
17.4241   386
17.4341   403
17.4441   398
17.4541   425
17.4641   431
17.4741   415
17.4841   398
17.4941   426
17.5041   430
17.5141   408
17.5241   424
17.5341   423
17.5441   413
17.5541   429
17.5641   469
17.5741   442
17.5841   429
17.5941   412
17.6041   425
17.6141   448
17.6241   448
17.6341   448
17.6441   454
17.6541   447
17.6641   439
17.6741   435
17.6841   450
17.6941   447
17.7041   435
17.7141   479
17.7241   440
17.7341   450
17.7441   452
17.7541   449
17.7641   431
17.7741   461
17.7841   462
17.7941   435
17.8041   453
17.8141   449
17.8241   434
17.8341   418
17.8441   426
17.8541   419
17.8641   436
17.8741   440
17.8841   462
17.8941   440
17.9041   437
17.9141   443
17.9241   440
17.9341   423
17.9441   429
17.9541   429
17.9641   452
17.9741   444
17.9841   427
17.9941   415
18.0041   438
18.0141   454
18.0241   451
18.0341   414
18.0441   450
18.0541   476
18.0641   460
18.0741   451
18.0841   475
18.0941   436
18.1041   408
18.1141   426
18.1241   426
18.1341   443
18.1441   455
18.1541   446
18.1641   440
18.1741   450
18.1841   436
18.1941   446
18.2041   438
18.2141   455
18.2241   432
18.2341   455
18.2441   448
18.2541   454
18.2641   427
18.2741   449
18.2841   473
18.2941   439
18.3041   444
18.3141   453
18.3241   468
18.3341   438
18.3441   477
18.3541   483
18.3641   444
18.3741   429
18.3841   432
18.3941   451
18.4041   476
18.4141   456
18.4241   440
18.4341   441
18.4441   456
18.4541   451
18.4641   442
18.4741   432
18.4841   458
18.4941   431
18.5041   451
18.5141   464
18.5241   477
18.5341   471
18.5441   480
18.5541   461
18.5641   470
18.5741   443
18.5841   450
18.5941   458
18.6041   436
18.6141   423
18.6241   451
18.6341   473
18.6441   480
18.6541   451
18.6641   468
18.6741   485
18.6841   478
18.6941   481
18.7041   475
18.7141   483
18.7241   463
18.7341   453
18.7441   438
18.7541   473
18.7641   477
18.7741   428
18.7841   473
18.7941   469
18.8041   469
18.8141   467
18.8241   456
18.8341   449
18.8441   466
18.8541   472
18.8641   462
18.8741   454
18.8841   459
18.8941   481
18.9041   490
18.9141   489
18.9241   498
18.9341   472
18.9441   444
18.9541   462
18.9641   481
18.9741   493
18.9841   513
18.9941   484
19.0041   490
19.0141   445
19.0241   452
19.0341   464
19.0441   488
19.0541   483
19.0641   500
19.0741   456
19.0841   446
19.0941   462
19.1041   481
19.1141   472
19.1241   428
19.1341   485
19.1441   453
19.1541   495
19.1641   527
19.1741   498
19.1841   458
19.1941   466
19.2041   461
19.2141   438
19.2241   496
19.2341   499
19.2441   514
19.2541   523
19.2641   463
19.2741   442
19.2841   470
19.2941   491
19.3041   465
19.3141   467
19.3241   456
19.3341   458
19.3441   464
19.3541   479
19.3641   479
19.3741   479
19.3841   480
19.3941   506
19.4041   499
19.4141   482
19.4241   467
19.4341   480
19.4441   479
19.4541   484
19.4641   467
19.4741   458
19.4841   487
19.4941   486
19.5041   495
19.5141   454
19.5241   452
19.5341   488
19.5441   456
19.5541   499
19.5641   491
19.5741   484
19.5841   542
19.5941   488
19.6041   491
19.6141   486
19.6241   464
19.6341   450
19.6441   465
19.6541   486
19.6641   472
19.6741   452
19.6841   537
19.6941   531
19.7041   490
19.7141   512
19.7241   516
19.7341   499
19.7441   490
19.7541   492
19.7641   485
19.7741   470
19.7841   482
19.7941   484
19.8041   468
19.8141   469
19.8241   471
19.8341   487
19.8441   486
19.8541   493
19.8641   510
19.8741   473
19.8841   507
19.8941   520
19.9041   474
19.9141   488
19.9241   471
19.9341   487
19.9441   508
19.9541   532
19.9641   506
19.9741   501
19.9841   478
19.9941   477
20.0041   465
20.0141   491
20.0241   496
20.0341   533
20.0441   512
20.0541   540
20.0641   492
20.0741   488
20.0841   499
20.0941   501
20.1041   464
20.1141   495
20.1241   508
20.1341   466
20.1441   528
20.1541   510
20.1641   527
20.1741   494
20.1841   504
20.1941   491
20.2041   521
20.2141   528
20.2241   494
20.2341   487
20.2441   463
20.2541   482
20.2641   499
20.2741   535
20.2841   506
20.2941   504
20.3041   502
20.3141   518
20.3241   530
20.3341   553
20.3441   515
20.3541   498
20.3641   517
20.3741   482
20.3841   479
20.3941   499
20.4041   489
20.4141   502
20.4241   534
20.4341   512
20.4441   511
20.4541   489
20.4641   522
20.4741   516
20.4841   481
20.4941   484
20.5041   496
20.5141   482
20.5241   525
20.5341   517
20.5441   496
20.5541   503
20.5641   513
20.5741   482
20.5841   513
20.5941   507
20.6041   482
20.6141   509
20.6241   491
20.6341   479
20.6441   494
20.6541   504
20.6641   507
20.6741   491
20.6841   513
20.6941   511
20.7041   494
20.7141   521
20.7241   486
20.7341   488
20.7441   539
20.7541   518
20.7641   493
20.7741   534
20.7841   529
20.7941   477
20.8041   495
20.8141   560
20.8241   523
20.8341   509
20.8441   525
20.8541   547
20.8641   574
20.8741   544
20.8841   541
20.8941   587
20.9041   538
20.9141   619
20.9241   637
20.9341   593
20.9441   606
20.9541   577
20.9641   642
20.9741   653
20.9841   620
20.9941   666
21.0041   671
21.0141   688
21.0241   686
21.0341   703
21.0441   724
21.0541   653
21.0641   677
21.0741   724
21.0841   681
21.0941   719
21.1041   726
21.1141   724
21.1241   726
21.1341   713
21.1441   750
21.1541   751
21.1641   765
21.1741   736
21.1841   730
21.1941   695
21.2041   701
21.2141   641
21.2241   679
21.2341   676
21.2441   664
21.2541   621
21.2641   623
21.2741   631
21.2841   605
21.2941   586
21.3041   636
21.3141   583
21.3241   582
21.3341   542
21.3441   536
21.3541   528
21.3641   550
21.3741   539
21.3841   541
21.3941   516
21.4041   544
21.4141   535
21.4241   542
21.4341   520
21.4441   503
21.4541   540
21.4641   489
21.4741   517
21.4841   504
21.4941   469
21.5041   495
21.5141   507
21.5241   494
21.5341   503
21.5441   500
21.5541   514
21.5641   522
21.5741   472
21.5841   497
21.5941   493
21.6041   492
21.6141   506
21.6241   502
21.6341   485
21.6441   492
21.6541   508
21.6641   510
21.6741   556
21.6841   509
21.6941   490
21.7041   475
21.7141   493
21.7241   477
21.7341   533
21.7441   494
21.7541   497
21.7641   550
21.7741   467
21.7841   500
21.7941   530
21.8041   529
21.8141   521
21.8241   527
21.8341   508
21.8441   526
21.8541   478
21.8641   532
21.8741   503
21.8841   519
21.8941   496
21.9041   490
21.9141   496
21.9241   530
21.9341   529
21.9441   506
21.9541   473
21.9641   502
21.9741   504
21.9841   486
21.9941   479
22.0041   508
22.0141   517
22.0241   500
22.0341   493
22.0441   520
22.0541   469
22.0641   526
22.0741   502
22.0841   501
22.0941   507
22.1041   507
22.1141   470
22.1241   511
22.1341   494
22.1441   523
22.1541   517
22.1641   485
22.1741   525
22.1841   528
22.1941   484
22.2041   515
22.2141   546
22.2241   509
22.2341   492
22.2441   477
22.2541   474
22.2641   525
22.2741   482
22.2841   503
22.2941   520
22.3041   493
22.3141   531
22.3241   488
22.3341   475
22.3441   521
22.3541   535
22.3641   553
22.3741   510
22.3841   492
22.3941   517
22.4041   505
22.4141   501
22.4241   492
22.4341   481
22.4441   483
22.4541   504
22.4641   525
22.4741   488
22.4841   502
22.4941   517
22.5041   514
22.5141   524
22.5241   475
22.5341   477
22.5441   506
22.5541   465
22.5641   527
22.5741   481
22.5841   445
22.5941   482
22.6041   476
22.6141   537
22.6241   511
22.6341   474
22.6441   497
22.6541   491
22.6641   463
22.6741   442
22.6841   484
22.6941   486
22.7041   454
22.7141   471
22.7241   489
22.7341   474
22.7441   500
22.7541   508
22.7641   526
22.7741   485
22.7841   470
22.7941   535
22.8041   499
22.8141   494
22.8241   492
22.8341   479
22.8441   520
22.8541   515
22.8641   503
22.8741   534
22.8841   491
22.8941   499
22.9041   476
22.9141   501
22.9241   477
22.9341   491
22.9441   490
22.9541   486
22.9641   477
22.9741   486
22.9841   487
22.9941   468
23.0041   488
23.0141   484
23.0241   506
23.0341   458
23.0441   479
23.0541   508
23.0641   489
23.0741   525
23.0841   475
23.0941   487
23.1041   480
23.1141   466
23.1241   509
23.1341   474
23.1441   509
23.1541   518
23.1641   440
23.1741   448
23.1841   481
23.1941   512
23.2041   473
23.2141   518
23.2241   490
23.2341   470
23.2441   468
23.2541   459
23.2641   491
23.2741   475
23.2841   455
23.2941   479
23.3041   512
23.3141   468
23.3241   474
23.3341   479
23.3441   463
23.3541   452
23.3641   455
23.3741   425
23.3841   423
23.3941   447
23.4041   464
23.4141   453
23.4241   488
23.4341   447
23.4441   477
23.4541   497
23.4641   483
23.4741   444
23.4841   466
23.4941   485
23.5041   477
23.5141   512
23.5241   433
23.5341   460
23.5441   472
23.5541   439
23.5641   479
23.5741   463
23.5841   488
23.5941   481
23.6041   473
23.6141   472
23.6241   488
23.6341   500
23.6441   468
23.6541   473
23.6641   473
23.6741   496
23.6841   484
23.6941   484
23.7041   473
23.7141   503
23.7241   486
23.7341   486
23.7441   474
23.7541   498
23.7641   478
23.7741   481
23.7841   522
23.7941   493
23.8041   522
23.8141   498
23.8241   515
23.8341   539
23.8441   469
23.8541   473
23.8641   529
23.8741   529
23.8841   500
23.8941   514
23.9041   538
23.9141   509
23.9241   538
23.9341   452
23.9441   483
23.9541   466
23.9641   465
23.9741   443
23.9841   448
23.9941   485
24.0041   472
24.0141   453
24.0241   424
24.0341   456
24.0441   444
24.0541   426
24.0641   461
24.0741   441
24.0841   470
24.0941   492
24.1041   470
24.1141   431
24.1241   454
24.1341   440
24.1441   448
24.1541   448
24.1641   437
24.1741   488
24.1841   469
24.1941   492
24.2041   465
24.2141   445
24.2241   446
24.2341   460
24.2441   447
24.2541   450
24.2641   469
24.2741   461
24.2841   439
24.2941   443
24.3041   429
24.3141   447
24.3241   457
24.3341   435
24.3441   468
24.3541   460
24.3641   454
24.3741   468
24.3841   461
24.3941   479
24.4041   438
24.4141   483
24.4241   412
24.4341   455
24.4441   459
24.4541   461
24.4641   446
24.4741   430
24.4841   435
24.4941   422
24.5041   443
24.5141   459
24.5241   444
24.5341   468
24.5441   441
24.5541   456
24.5641   483
24.5741   454
24.5841   454
24.5941   426
24.6041   443
24.6141   426
24.6241   403
24.6341   400
24.6441   418
24.6541   451
24.6641   422
24.6741   435
24.6841   437
24.6941   410
24.7041   443
24.7141   441
24.7241   414
24.7341   434
24.7441   408
24.7541   396
24.7641   453
24.7741   414
24.7841   420
24.7941   434
24.8041   431
24.8141   434
24.8241   420
24.8341   411
24.8441   397
24.8541   418
24.8641   415
24.8741   406
24.8841   458
24.8941   405
24.9041   424
24.9141   429
24.9241   404
24.9341   429
24.9441   422
24.9541   432
24.9641   435
24.9741   413
24.9841   413
24.9941   420
25.0041   432
25.0141   412
25.0241   417
25.0341   405
25.0441   413
25.0541   425
25.0641   435
25.0741   442
25.0841   429
25.0941   424
25.1041   414
25.1141   448
25.1241   405
25.1341   400
25.1441   442
25.1541   405
25.1641   445
25.1741   395
25.1841   447
25.1941   430
25.2041   430
25.2141   434
25.2241   444
25.2341   434
25.2441   440
25.2541   444
25.2641   447
25.2741   436
25.2841   416
25.2941   438
25.3041   457
25.3141   410
25.3241   442
25.3341   455
25.3441   434
25.3541   432
25.3641   417
25.3741   389
25.3841   389
25.3941   406
25.4041   435
25.4141   403
25.4241   419
25.4341   423
25.4441   445
25.4541   420
25.4641   437
25.4741   396
25.4841   423
25.4941   389
25.5041   399
25.5141   387
25.5241   427
25.5341   411
25.5441   431
25.5541   414
25.5641   428
25.5741   376
25.5841   394
25.5941   383
25.6041   387
25.6141   409
25.6241   401
25.6341   379
25.6441   399
25.6541   403
25.6641   394
25.6741   387
25.6841   395
25.6941   389
25.7041   389
25.7141   375
25.7241   373
25.7341   368
25.7441   419
25.7541   348
25.7641   392
25.7741   393
25.7841   367
25.7941   367
25.8041   387
25.8141   377
25.8241   395
25.8341   416
25.8441   416
25.8541   351
25.8641   373
25.8741   386
25.8841   373
25.8941   353
25.9041   398
25.9141   386
25.9241   409
25.9341   366
25.9441   372
25.9541   391
25.9641   375
25.9741   367
25.9841   415
25.9941   389
26.0041   383
26.0141   379
26.0241   396
26.0341   385
26.0441   390
26.0541   369
26.0641   377
26.0741   375
26.0841   385
26.0941   384
26.1041   377
26.1141   390
26.1241   385
26.1341   385
26.1441   355
26.1541   368
26.1641   413
26.1741   386
26.1841   395
26.1941   370
26.2041   365
26.2141   335
26.2241   359
26.2341   392
26.2441   385
26.2541   358
26.2641   382
26.2741   385
26.2841   381
26.2941   384
26.3041   388
26.3141   383
26.3241   397
26.3341   378
26.3441   400
26.3541   366
26.3641   357
26.3741   369
26.3841   379
26.3941   408
26.4041   354
26.4141   342
26.4241   360
26.4341   382
26.4441   372
26.4541   391
26.4641   385
26.4741   355
26.4841   332
26.4941   378
26.5041   372
26.5141   381
26.5241   374
26.5341   374
26.5441   347
26.5541   365
26.5641   349
26.5741   375
26.5841   347
26.5941   385
26.6041   363
26.6141   368
26.6241   417
26.6341   394
26.6441   392
26.6541   380
26.6641   363
26.6741   336
26.6841   344
26.6941   332
26.7041   350
26.7141   353
26.7241   334
26.7341   371
26.7441   358
26.7541   384
26.7641   370
26.7741   351
26.7841   368
26.7941   350
26.8041   319
26.8141   385
26.8241   343
26.8341   352
26.8441   347
26.8541   352
26.8641   343
26.8741   374
26.8841   364
26.8941   342
26.9041   333
26.9141   352
26.9241   348
26.9341   319
26.9441   329
26.9541   337
26.9641   308
26.9741   358
26.9841   317
26.9941   341
27.0041   341
27.0141   333
27.0241   361
27.0341   348
27.0441   347
27.0541   349
27.0641   338
27.0741   342
27.0841   320
27.0941   352
27.1041   361
27.1141   311
27.1241   353
27.1341   377
27.1441   323
27.1541   342
27.1641   348
27.1741   321
27.1841   340
27.1941   340
27.2041   305
27.2141   341
27.2241   324
27.2341   316
27.2441   353
27.2541   334
27.2641   341
27.2741   345
27.2841   331
27.2941   331
27.3041   319
27.3141   338
27.3241   326
27.3341   361
27.3441   311
27.3541   342
27.3641   316
27.3741   349
27.3841   310
27.3941   299
27.4041   320
27.4141   314
27.4241   341
27.4341   338
27.4441   326
27.4541   301
27.4641   346
27.4741   342
27.4841   328
27.4941   353
27.5041   341
27.5141   325
27.5241   333
27.5341   325
27.5441   337
27.5541   325
27.5641   333
27.5741   339
27.5841   324
27.5941   302
27.6041   334
27.6141   303
27.6241   353
27.6341   326
27.6441   360
27.6541   324
27.6641   329
27.6741   325
27.6841   312
27.6941   337
27.7041   316
27.7141   323
27.7241   320
27.7341   310
27.7441   319
27.7541   293
27.7641   309
27.7741   306
27.7841   295
27.7941   324
27.8041   309
27.8141   296
27.8241   319
27.8341   312
27.8441   287
27.8541   302
27.8641   323
27.8741   315
27.8841   292
27.8941   312
27.9041   321
27.9141   259
27.9241   327
27.9341   286
27.9441   330
27.9541   303
27.9641   322
27.9741   313
27.9841   313
27.9941   302
28.0041   337
28.0141   303
28.0241   299
28.0341   286
28.0441   295
28.0541   314
28.0641   310
28.0741   302
28.0841   304
28.0941   336
28.1041   327
28.1141   313
28.1241   302
28.1341   313
28.1441   292
28.1541   309
28.1641   288
28.1741   295
28.1841   283
28.1941   292
28.2041   302
28.2141   309
28.2241   292
28.2341   293
28.2441   316
28.2541   308
28.2641   310
28.2741   291
28.2841   296
28.2941   302
28.3041   301
28.3141   301
28.3241   287
28.3341   284
28.3441   283
28.3541   274
28.3641   308
28.3741   282
28.3841   310
28.3941   273
28.4041   301
28.4141   295
28.4241   304
28.4341   329
28.4441   259
28.4541   281
28.4641   329
28.4741   272
28.4841   270
28.4941   306
28.5041   289
28.5141   297
28.5241   294
28.5341   286
28.5441   307
28.5541   282
28.5641   276
28.5741   285
28.5841   298
28.5941   280
28.6041   264
28.6141   284
28.6241   271
28.6341   256
28.6441   285
28.6541   283
28.6641   297
28.6741   294
28.6841   282
28.6941   280
28.7041   284
28.7141   291
28.7241   279
28.7341   244
28.7441   282
28.7541   280
28.7641   284
28.7741   277
28.7841   291
28.7941   300
28.8041   273
28.8141   264
28.8241   270
28.8341   290
28.8441   269
28.8541   267
28.8641   296
28.8741   294
28.8841   263
28.8941   289
28.9041   293
28.9141   267
28.9241   262
28.9341   284
28.9441   263
28.9541   234
28.9641   249
28.9741   273
28.9841   284
28.9941   272
29.0041   261
29.0141   270
29.0241   255
29.0341   274
29.0441   289
29.0541   261
29.0641   258
29.0741   260
29.0841   261
29.0941   249
29.1041   251
29.1141   238
29.1241   249
29.1341   260
29.1441   245
29.1541   248
29.1641   260
29.1741   274
29.1841   273
29.1941   277
29.2041   279
29.2141   243
29.2241   248
29.2341   284
29.2441   280
29.2541   252
29.2641   254
29.2741   247
29.2841   255
29.2941   261
29.3041   288
29.3141   280
29.3241   261
29.3341   254
29.3441   230
29.3541   274
29.3641   277
29.3741   247
29.3841   236
29.3941   260
29.4041   256
29.4141   261
29.4241   256
29.4341   247
29.4441   255
29.4541   254
29.4641   246
29.4741   236
29.4841   271
29.4941   262
29.5041   210
29.5141   238
29.5241   250
29.5341   256
29.5441   232
29.5541   248
29.5641   249
29.5741   262
29.5841   251
29.5941   241
29.6041   256
29.6141   259
29.6241   233
29.6341   242
29.6441   251
29.6541   230
29.6641   258
29.6741   258
29.6841   257
29.6941   230
29.7041   238
29.7141   253
29.7241   238
29.7341   200
29.7441   226
29.7541   218
29.7641   228
29.7741   237
29.7841   233
29.7941   232
29.8041   240
29.8141   240
29.8241   279
29.8341   253
29.8441   246
29.8541   254
29.8641   246
29.8741   246
29.8841   240
29.8941   229
29.9041   235
29.9141   258
29.9241   221
29.9341   259
29.9441   233
29.9541   244
29.9641   212
29.9741   220
29.9841   234
29.9941   221
30.0041   235
30.0141   199
30.0241   240
30.0341   244
30.0441   214
30.0541   233
30.0641   224
30.0741   215
30.0841   188
30.0941   222
30.1041   212
30.1141   204
30.1241   203
30.1341   210
30.1441   218
30.1541   226
30.1641   248
30.1741   260
30.1841   236
30.1941   234
30.2041   221
30.2141   225
30.2241   220
30.2341   218
30.2441   210
30.2541   206
30.2641   214
30.2741   231
30.2841   232
30.2941   210
30.3041   212
30.3141   226
30.3241   257
30.3341   253
30.3441   212
30.3541   221
30.3641   213
30.3741   201
30.3841   211
30.3941   230
30.4041   244
30.4141   212
30.4241   221
30.4341   215
30.4441   211
30.4541   192
30.4641   198
30.4741   224
30.4841   205
30.4941   218
30.5041   209
30.5141   203
30.5241   198
30.5341   187
30.5441   216
30.5541   207
30.5641   217
30.5741   244
30.5841   222
30.5941   224
30.6041   190
30.6141   208
30.6241   219
30.6341   242
30.6441   235
30.6541   214
30.6641   223
30.6741   199
30.6841   210
30.6941   197
30.7041   195
30.7141   198
30.7241   236
30.7341   208
30.7441   194
30.7541   202
30.7641   205
30.7741   213
30.7841   204
30.7941   197
30.8041   172
30.8141   201
30.8241   224
30.8341   209
30.8441   216
30.8541   181
30.8641   189
30.8741   192
30.8841   222
30.8941   189
30.9041   217
30.9141   224
30.9241   211
30.9341   224
30.9441   175
30.9541   202
30.9641   194
30.9741   195
30.9841   215
30.9941   192
31.0041   179
31.0141   193
31.0241   212
31.0341   190
31.0441   225
31.0541   176
31.0641   202
31.0741   214
31.0841   162
31.0941   213
31.1041   219
31.1141   216
31.1241   205
31.1341   194
31.1441   221
31.1541   191
31.1641   203
31.1741   193
31.1841   191
31.1941   193
31.2041   187
31.2141   187
31.2241   176
31.2341   175
31.2441   197
31.2541   163
31.2641   184
31.2741   198
31.2841   214
31.2941   168
31.3041   168
31.3141   187
31.3241   197
31.3341   184
31.3441   179
31.3541   192
31.3641   207
31.3741   200
31.3841   175
31.3941   185
31.4041   169
31.4141   183
31.4241   198
31.4341   214
31.4441   179
31.4541   195
31.4641   191
31.4741   186
31.4841   178
31.4941   182
31.5041   188
31.5141   187
31.5241   188
31.5341   183
31.5441   191
31.5541   171
31.5641   162
31.5741   169
31.5841   179
31.5941   168
31.6041   163
31.6141   189
31.6241   181
31.6341   173
31.6441   186
31.6541   164
31.6641   188
31.6741   185
31.6841   187
31.6941   197
31.7041   180
31.7141   168
31.7241   177
31.7341   162
31.7441   198
31.7541   201
31.7641   176
31.7741   177
31.7841   173
31.7941   184
31.8041   190
31.8141   153
31.8241   169
31.8341   182
31.8441   184
31.8541   187
31.8641   170
31.8741   173
31.8841   190
31.8941   141
31.9041   175
31.9141   176
31.9241   159
31.9341   168
31.9441   158
31.9541   185
31.9641   159
31.9741   192
31.9841   176
31.9941   178
32.0041   176
32.0141   194
32.0241   175
32.0341   178
32.0441   174
32.0541   154
32.0641   181
32.0741   182
32.0841   190
32.0941   161
32.1041   183
32.1141   189
32.1241   192
32.1341   152
32.1441   178
32.1541   181
32.1641   169
32.1741   182
32.1841   175
32.1941   168
32.2041   155
32.2141   171
32.2241   194
32.2341   200
32.2441   187
32.2541   188
32.2641   181
32.2741   162
32.2841   159
32.2941   152
32.3041   202
32.3141   174
32.3241   160
32.3341   177
32.3441   173
32.3541   170
32.3641   157
32.3741   166
32.3841   153
32.3941   162
32.4041   147
32.4141   149
32.4241   167
32.4341   170
32.4441   163
32.4541   174
32.4641   167
32.4741   182
32.4841   150
32.4941   160
32.5041   154
32.5141   162
32.5241   171
32.5341   136
32.5441   169
32.5541   158
32.5641   139
32.5741   151
32.5841   155
32.5941   150
32.6041   151
32.6141   157
32.6241   144
32.6341   162
32.6441   145
32.6541   152
32.6641   150
32.6741   180
32.6841   134
32.6941   166
32.7041   162
32.7141   162
32.7241   164
32.7341   136
32.7441   152
32.7541   143
32.7641   165
32.7741   142
32.7841   137
32.7941   139
32.8041   138
32.8141   142
32.8241   141
32.8341   148
32.8441   142
32.8541   141
32.8641   138
32.8741   128
32.8841   148
32.8941   136
32.9041   147
32.9141   142
32.9241   156
32.9341   139
32.9441   148
32.9541   159
32.9641   158
32.9741   129
32.9841   158
32.9941   131
33.0041   141
33.0141   142
33.0241   145
33.0341   124
33.0441   128
33.0541   160
33.0641   152
33.0741   120
33.0841   143
33.0941   137
33.1041   146
33.1141   145
33.1241   150
33.1341   155
33.1441   131
33.1541   137
33.1641   133
33.1741   117
33.1841   129
33.1941   148
33.2041   155
33.2141   130
33.2241   144
33.2341   148
33.2441   135
33.2541   122
33.2641   146
33.2741   116
33.2841   153
33.2941   123
33.3041   138
33.3141   142
33.3241   149
33.3341   152
33.3441   134
33.3541   124
33.3641   134
33.3741   136
33.3841   139
33.3941   130
33.4041   134
33.4141   136
33.4241   127
33.4341   142
33.4441   142
33.4541   150
33.4641   123
33.4741   123
33.4841   112
33.4941   115
33.5041   128
33.5141   135
33.5241   130
33.5341   140
33.5441   139
33.5541   128
33.5641   141
33.5741   127
33.5841   128
33.5941   124
33.6041   128
33.6141   135
33.6241   132
33.6341   157
33.6441   149
33.6541   130
33.6641   114
33.6741   117
33.6841   129
33.6941   127
33.7041   114
33.7141   112
33.7241   132
33.7341   120
33.7441   126
33.7541   136
33.7641   134
33.7741   139
33.7841   115
33.7941   120
33.8041   125
33.8141   132
33.8241   115
33.8341   101
33.8441   121
33.8541   128
33.8641   131
33.8741   133
33.8841   119
33.8941   119
33.9041   117
33.9141   115
33.9241   140
33.9341   117
33.9441   113
33.9541   138
33.9641   131
33.9741   119
33.9841   127
33.9941   125
34.0041   114
34.0141   121
34.0241   104
34.0341   113
34.0441   110
34.0541   111
34.0641   110
34.0741   117
34.0841   115
34.0941   122
34.1041   120
34.1141   127
34.1241   108
34.1341   124
34.1441   115
34.1541   117
34.1641   104
34.1741   134
34.1841   117
34.1941   122
34.2041   114
34.2141   126
34.2241   104
34.2341   118
34.2441   121
34.2541   106
34.2641   114
34.2741   122
34.2841   125
34.2941   115
34.3041   116
34.3141   114
34.3241   107
34.3341   113
34.3441   115
34.3541   106
34.3641   107
34.3741   102
34.3841   127
34.3941   121
34.4041   118
34.4141   101
34.4241   121
34.4341   104
34.4441   109
34.4541   112
34.4641   140
34.4741   107
34.4841   111
34.4941    95
34.5041   125
34.5141   102
34.5241   104
34.5341   107
34.5441   100
34.5541    97
34.5641   121
34.5741    94
34.5841   109
34.5941   110
34.6041   115
34.6141   105
34.6241   103
34.6341   105
34.6441    99
34.6541   108
34.6641    94
34.6741   110
34.6841   109
34.6941   101
34.7041    98
34.7141   123
34.7241    96
34.7341    93
34.7441    98
34.7541   130
34.7641   104
34.7741   121
34.7841    96
34.7941    98
34.8041    95
34.8141    86
34.8241    94
34.8341   110
34.8441    96
34.8541    93
34.8641    99
34.8741    99
34.8841   103
34.8941    96
34.9041    85
34.9141    99
34.9241   108
34.9341    90
34.9441    93
34.9541   107
34.9641    84
34.9741    90
34.9841    81
34.9941   105
35.0041   107
35.0141    91
35.0241    96
35.0341   101
35.0441   103
35.0541   110
35.0641   102
35.0741   110
35.0841    89
35.0941    99
35.1041    92
35.1141    91
35.1241    88
35.1341    94
35.1441   111
35.1541    99
35.1641   102
35.1741    89
35.1841    97
35.1941    75
35.2041    87
35.2141    97
35.2241    78
35.2341    92
35.2441    83
35.2541    91
35.2641    94
35.2741    79
35.2841    97
35.2941   101
35.3041    99
35.3141    87
35.3241    96
35.3341    84
35.3441   106
35.3541   102
35.3641    93
35.3741    93
35.3841    97
35.3941    86
35.4041    84
35.4141    83
35.4241    78
35.4341    88
35.4441    92
35.4541    83
35.4641   100
35.4741    88
35.4841    83
35.4941    78
35.5041    95
35.5141    78
35.5241    84
35.5341    95
35.5441    92
35.5541    74
35.5641    86
35.5741    81
35.5841    77
35.5941    84
35.6041    76
35.6141    85
35.6241    88
35.6341    88
35.6441    80
35.6541    75
35.6641    71
35.6741    79
35.6841    95
35.6941    76
35.7041    93
35.7141    92
35.7241    70
35.7341    90
35.7441    83
35.7541    85
35.7641    83
35.7741    90
35.7841    87
35.7941    85
35.8041    94
35.8141    74
35.8241    86
35.8341    58
35.8441    79
35.8541    87
35.8641    82
35.8741    78
35.8841    73
35.8941    75
35.9041    83
35.9141    79
35.9241    67
35.9341    84
35.9441    64
35.9541    82
35.9641    84
35.9741    90
35.9841    81
35.9941    77
36.0041    80
36.0141    92
36.0241    65
36.0341    78
36.0441    93
36.0541    73
36.0641    84
36.0741    82
36.0841    61
36.0941    68
36.1041    72
36.1141    68
36.1241    74
36.1341    74
36.1441    65
36.1541    75
36.1641    75
36.1741    76
36.1841    64
36.1941    61
36.2041    68
36.2141    77
36.2241    71
36.2341    81
36.2441    73
36.2541    67
36.2641    70
36.2741    73
36.2841    60
36.2941    66
36.3041    68
36.3141    65
36.3241    62
36.3341    62
36.3441    82
36.3541    59
36.3641    71
36.3741    74
36.3841    67
36.3941    66
36.4041    82
36.4141    70
36.4241    55
36.4341    61
36.4441    71
36.4541    66
36.4641    78
36.4741    55
36.4841    60
36.4941    72
36.5041    74
36.5141    69
36.5241    84
36.5341    82
36.5441    82
36.5541    85
36.5641    84
36.5741    71
36.5841    67
36.5941    63
36.6041    68
36.6141    62
36.6241    61
36.6341    64
36.6441    62
36.6541    75
36.6641    68
36.6741    70
36.6841    62
36.6941    54
36.7041    69
36.7141    63
36.7241    77
36.7341    65
36.7441    84
36.7541    65
36.7641    63
36.7741    55
36.7841    62
36.7941    64
36.8041    59
36.8141    74
36.8241    70
36.8341    80
36.8441    52
36.8541    65
36.8641    67
36.8741    68
36.8841    75
36.8941    81
36.9041    61
36.9141    56
36.9241    67
36.9341    69
36.9441    65
36.9541    61
36.9641    66
36.9741    73
36.9841    63
36.9941    61
37.0041    66
37.0141    59
37.0241    58
37.0341    60
37.0441    64
37.0541    57
37.0641    56
37.0741    57
37.0841    65
37.0941    56
37.1041    58
37.1141    64
37.1241    56
37.1341    59
37.1441    62
37.1541    49
37.1641    53
37.1741    68
37.1841    63
37.1941    61
37.2041    67
37.2141    57
37.2241    56
37.2341    67
37.2441    53
37.2541    50
37.2641    58
37.2741    52
37.2841    55
37.2941    55
37.3041    63
37.3141    57
37.3241    50
37.3341    61
37.3441    64
37.3541    64
37.3641    67
37.3741    53
37.3841    61
37.3941    69
37.4041    67
37.4141    44
37.4241    68
37.4341    52
37.4441    45
37.4541    70
37.4641    53
37.4741    53
37.4841    51
37.4941    56
37.5041    58
37.5141    75
37.5241    55
37.5341    53
37.5441    45
37.5541    55
37.5641    50
37.5741    52
37.5841    60
37.5941    58
37.6041    60
37.6141    52
37.6241    54
37.6341    53
37.6441    52
37.6541    53
37.6641    53
37.6741    49
37.6841    37
37.6941    52
37.7041    53
37.7141    51
37.7241    56
37.7341    65
37.7441    44
37.7541    41
37.7641    52
37.7741    49
37.7841    63
37.7941    48
37.8041    33
37.8141    46
37.8241    45
37.8341    49
37.8441    61
37.8541    57
37.8641    50
37.8741    49
37.8841    41
37.8941    54
37.9041    54
37.9141    37
37.9241    49
37.9341    42
37.9441    38
37.9541    46
37.9641    42
37.9741    51
37.9841    48
37.9941    37
38.0041    44
38.0141    57
38.0241    46
38.0341    47
38.0441    43
38.0541    45
38.0641    49
38.0741    40
38.0841    43
38.0941    52
38.1041    49
38.1141    49
38.1241    46
38.1341    41
38.1441    40
38.1541    44
38.1641    46
38.1741    64
38.1841    46
38.1941    41
38.2041    47
38.2141    44
38.2241    45
38.2341    49
38.2441    35
38.2541    44
38.2641    41
38.2741    41
38.2841    52
38.2941    42
38.3041    53
38.3141    43
38.3241    50
38.3341    40
38.3441    40
38.3541    43
38.3641    48
38.3741    43
38.3841    39
38.3941    47
38.4041    43
38.4141    43
38.4241    41
38.4341    42
38.4441    38
38.4541    50
38.4641    41
38.4741    44
38.4841    38
38.4941    37
38.5041    32
38.5141    44
38.5241    36
38.5341    43
38.5441    42
38.5541    35
38.5641    35
38.5741    36
38.5841    34
38.5941    45
38.6041    30
38.6141    49
38.6241    46
38.6341    44
38.6441    37
38.6541    35
38.6641    34
38.6741    50
38.6841    49
38.6941    46
38.7041    42
38.7141    36
38.7241    25
38.7341    36
38.7441    32
38.7541    40
38.7641    34
38.7741    33
38.7841    42
38.7941    34
38.8041    35
38.8141    48
38.8241    37
38.8341    32
38.8441    45
38.8541    43
38.8641    38
38.8741    33
38.8841    33
38.8941    41
38.9041    32
38.9141    33
38.9241    33
38.9341    46
38.9441    35
38.9541    37
38.9641    36
38.9741    36
38.9841    28
38.9941    36
39.0041    39
39.0141    38
39.0241    37
39.0341    37
39.0441    36
39.0541    32
39.0641    33
39.0741    30
39.0841    29
39.0941    38
39.1041    42
39.1141    36
39.1241    40
39.1341    28
39.1441    43
39.1541    37
39.1641    32
39.1741    33
39.1841    37
39.1941    35
39.2041    44
39.2141    26
39.2241    29
39.2341    29
39.2441    28
39.2541    40
39.2641    34
39.2741    29
39.2841    37
39.2941    39
39.3041    24
39.3141    27
39.3241    31
39.3341    33
39.3441    35
39.3541    34
39.3641    41
39.3741    34
39.3841    36
39.3941    28
39.4041    34
39.4141    36
39.4241    37
39.4341    35
39.4441    33
39.4541    19
39.4641    21
39.4741    24
39.4841    28
39.4941    22
39.5041    29
39.5141    31
39.5241    31
39.5341    25
39.5441    22
39.5541    31
39.5641    36
39.5741    31
39.5841    24
39.5941    22
39.6041    25
39.6141    18
39.6241    25
39.6341    27
39.6441    18
39.6541    23
39.6641    23
39.6741    26
39.6841    23
39.6941    25
39.7041    25
39.7141    29
39.7241    34
39.7341    26
39.7441    22
39.7541    22
39.7641    25
39.7741    19
39.7841    33
39.7941    24
39.8041    20
39.8141    30
39.8241    20
39.8341    30
39.8441    21
39.8541    21
39.8641    21
39.8741    24
39.8841    27
39.8941    18
39.9041    25
39.9141    21
39.9241    29
39.9341    20
39.9441    39
39.9541    21
39.9641    31
39.9741    24
39.9841    25
