Bruker Nano GmbH Berlin, Germany
Esprit 1.9

Date: 4/21/2021 1:38:45 PM
Real time: 20964
Life time: 19594
Pulse density: 95748


Detector type: XFlash 430
Window type: Custom type
Detector thickness: 0.45
Si dead layer:0.029

Calibration, lin.: 10
Calibration, abs.: -955.9
Mn FWHM: 137.05
Fano factor: 0.121
Channels: 4095

Energy Counts
-0.9559     0
-0.9459     0
-0.9359     0
-0.9259     0
-0.9159     0
-0.9059     0
-0.8959     0
-0.8859     0
-0.8759     0
-0.8659     0
-0.8559     0
-0.8459     0
-0.8359     0
-0.8259     0
-0.8159     0
-0.8059     0
-0.7959     0
-0.7859     0
-0.7759     0
-0.7659     0
-0.7559     0
-0.7459     0
-0.7359     0
-0.7259     0
-0.7159     0
-0.7059     0
-0.6959     0
-0.6859     0
-0.6759     0
-0.6659     0
-0.6559     0
-0.6459     0
-0.6359     0
-0.6259     0
-0.6159     0
-0.6059     0
-0.5959     0
-0.5859     0
-0.5759     0
-0.5659     0
-0.5559     0
-0.5459     0
-0.5359     0
-0.5259     0
-0.5159     0
-0.5059     0
-0.4959     0
-0.4859     0
-0.4759     0
-0.4659     0
-0.4559     0
-0.4459     0
-0.4359     0
-0.4259     0
-0.4159     0
-0.4059     0
-0.3959     0
-0.3859     0
-0.3759     0
-0.3659     0
-0.3559     0
-0.3459     0
-0.3359     0
-0.3259     0
-0.3159     0
-0.3059     0
-0.2959     0
-0.2859     0
-0.2759     0
-0.2659     0
-0.2559     0
-0.2459     0
-0.2359     0
-0.2259     0
-0.2159     0
-0.2059     0
-0.1959     0
-0.1859     0
-0.1759     0
-0.1659     0
-0.1559     0
-0.1459     0
-0.1359     2
-0.1259     2
-0.1159     0
-0.1059     8
-0.0959    48
-0.0859   241
-0.0759   745
-0.0659  2291
-0.0559  5698
-0.0459 12462
-0.0359 23504
-0.0259 37268
-0.0159 51248
-0.0059 59771
 0.0041 60644
 0.0141 51631
 0.0241 38438
 0.0341 24196
 0.0441 13291
 0.0541  6180
 0.0641  2481
 0.0741   827
 0.0841   275
 0.0941    64
 0.1041    20
 0.1141    12
 0.1241    15
 0.1341     7
 0.1441    11
 0.1541     7
 0.1641     2
 0.1741    20
 0.1841   173
 0.1941   340
 0.2041   326
 0.2141   317
 0.2241   330
 0.2341   316
 0.2441   314
 0.2541   320
 0.2641   345
 0.2741   329
 0.2841   313
 0.2941   305
 0.3041   309
 0.3141   301
 0.3241   305
 0.3341   316
 0.3441   305
 0.3541   286
 0.3641   284
 0.3741   288
 0.3841   311
 0.3941   315
 0.4041   262
 0.4141   296
 0.4241   282
 0.4341   260
 0.4441   271
 0.4541   257
 0.4641   282
 0.4741   285
 0.4841   270
 0.4941   269
 0.5041   275
 0.5141   281
 0.5241   293
 0.5341   289
 0.5441   273
 0.5541   294
 0.5641   273
 0.5741   247
 0.5841   258
 0.5941   266
 0.6041   242
 0.6141   239
 0.6241   256
 0.6341   263
 0.6441   267
 0.6541   250
 0.6641   238
 0.6741   249
 0.6841   260
 0.6941   252
 0.7041   235
 0.7141   228
 0.7241   225
 0.7341   227
 0.7441   231
 0.7541   240
 0.7641   251
 0.7741   230
 0.7841   216
 0.7941   218
 0.8041   210
 0.8141   221
 0.8241   228
 0.8341   228
 0.8441   231
 0.8541   238
 0.8641   238
 0.8741   238
 0.8841   237
 0.8941   220
 0.9041   224
 0.9141   233
 0.9241   214
 0.9341   205
 0.9441   213
 0.9541   236
 0.9641   217
 0.9741   221
 0.9841   214
 0.9941   220
 1.0041   212
 1.0141   213
 1.0241   216
 1.0341   206
 1.0441   218
 1.0541   212
 1.0641   191
 1.0741   210
 1.0841   217
 1.0941   217
 1.1041   206
 1.1141   216
 1.1241   205
 1.1341   220
 1.1441   210
 1.1541   215
 1.1641   201
 1.1741   206
 1.1841   209
 1.1941   198
 1.2041   194
 1.2141   202
 1.2241   209
 1.2341   184
 1.2441   200
 1.2541   224
 1.2641   198
 1.2741   192
 1.2841   178
 1.2941   195
 1.3041   205
 1.3141   193
 1.3241   200
 1.3341   205
 1.3441   191
 1.3541   179
 1.3641   185
 1.3741   174
 1.3841   193
 1.3941   211
 1.4041   192
 1.4141   186
 1.4241   176
 1.4341   196
 1.4441   187
 1.4541   188
 1.4641   203
 1.4741   192
 1.4841   211
 1.4941   203
 1.5041   205
 1.5141   191
 1.5241   189
 1.5341   173
 1.5441   183
 1.5541   166
 1.5641   190
 1.5741   179
 1.5841   190
 1.5941   188
 1.6041   178
 1.6141   188
 1.6241   188
 1.6341   179
 1.6441   165
 1.6541   234
 1.6641   283
 1.6741   313
 1.6841   378
 1.6941   492
 1.7041   562
 1.7141   636
 1.7241   771
 1.7341   760
 1.7441   769
 1.7541   743
 1.7641   694
 1.7741   591
 1.7841   462
 1.7941   398
 1.8041   344
 1.8141   282
 1.8241   255
 1.8341   263
 1.8441   213
 1.8541   219
 1.8641   226
 1.8741   205
 1.8841   201
 1.8941   193
 1.9041   193
 1.9141   196
 1.9241   195
 1.9341   185
 1.9441   207
 1.9541   210
 1.9641   222
 1.9741   220
 1.9841   244
 1.9941   202
 2.0041   232
 2.0141   210
 2.0241   208
 2.0341   229
 2.0441   194
 2.0541   198
 2.0641   198
 2.0741   177
 2.0841   176
 2.0941   180
 2.1041   163
 2.1141   165
 2.1241   157
 2.1341   187
 2.1441   177
 2.1541   158
 2.1641   178
 2.1741   187
 2.1841   170
 2.1941   185
 2.2041   165
 2.2141   171
 2.2241   173
 2.2341   176
 2.2441   161
 2.2541   151
 2.2641   154
 2.2741   165
 2.2841   163
 2.2941   160
 2.3041   156
 2.3141   162
 2.3241   175
 2.3341   164
 2.3441   172
 2.3541   153
 2.3641   162
 2.3741   162
 2.3841   165
 2.3941   170
 2.4041   135
 2.4141   165
 2.4241   157
 2.4341   187
 2.4441   155
 2.4541   159
 2.4641   158
 2.4741   173
 2.4841   158
 2.4941   151
 2.5041   134
 2.5141   154
 2.5241   147
 2.5341   142
 2.5441   142
 2.5541   185
 2.5641   181
 2.5741   142
 2.5841   166
 2.5941   147
 2.6041   160
 2.6141   180
 2.6241   147
 2.6341   161
 2.6441   140
 2.6541   163
 2.6641   153
 2.6741   161
 2.6841   152
 2.6941   147
 2.7041   141
 2.7141   135
 2.7241   148
 2.7341   153
 2.7441   133
 2.7541   150
 2.7641   160
 2.7741   140
 2.7841   148
 2.7941   137
 2.8041   146
 2.8141   139
 2.8241   154
 2.8341   172
 2.8441   152
 2.8541   174
 2.8641   140
 2.8741   161
 2.8841   131
 2.8941   140
 2.9041   150
 2.9141   153
 2.9241   138
 2.9341   153
 2.9441   140
 2.9541   134
 2.9641   142
 2.9741   141
 2.9841   138
 2.9941   130
 3.0041   132
 3.0141   130
 3.0241   117
 3.0341   122
 3.0441   124
 3.0541   122
 3.0641   138
 3.0741   135
 3.0841   121
 3.0941   117
 3.1041   133
 3.1141   131
 3.1241   130
 3.1341   129
 3.1441   120
 3.1541   130
 3.1641   116
 3.1741   130
 3.1841   121
 3.1941   140
 3.2041   123
 3.2141   137
 3.2241   152
 3.2341   161
 3.2441   185
 3.2541   171
 3.2641   198
 3.2741   217
 3.2841   245
 3.2941   304
 3.3041   283
 3.3141   276
 3.3241   309
 3.3341   294
 3.3441   232
 3.3541   237
 3.3641   209
 3.3741   187
 3.3841   163
 3.3941   153
 3.4041   131
 3.4141   125
 3.4241   115
 3.4341   124
 3.4441   122
 3.4541   112
 3.4641   104
 3.4741   127
 3.4841   114
 3.4941   115
 3.5041   124
 3.5141   126
 3.5241   132
 3.5341   146
 3.5441   149
 3.5541   176
 3.5641   192
 3.5741   243
 3.5841   273
 3.5941   329
 3.6041   408
 3.6141   495
 3.6241   621
 3.6341   734
 3.6441   933
 3.6541  1119
 3.6641  1293
 3.6741  1327
 3.6841  1474
 3.6941  1409
 3.7041  1315
 3.7141  1249
 3.7241  1114
 3.7341   918
 3.7441   754
 3.7541   621
 3.7641   452
 3.7741   341
 3.7841   328
 3.7941   228
 3.8041   175
 3.8141   144
 3.8241   115
 3.8341    96
 3.8441   106
 3.8541   102
 3.8641    98
 3.8741   110
 3.8841   113
 3.8941   120
 3.9041   126
 3.9141   133
 3.9241   146
 3.9341   139
 3.9441   168
 3.9541   194
 3.9641   214
 3.9741   252
 3.9841   259
 3.9941   288
 4.0041   310
 4.0141   300
 4.0241   274
 4.0341   281
 4.0441   273
 4.0541   249
 4.0641   214
 4.0741   172
 4.0841   151
 4.0941   127
 4.1041   124
 4.1141   116
 4.1241    91
 4.1341   123
 4.1441    89
 4.1541    87
 4.1641    74
 4.1741    85
 4.1841    86
 4.1941    86
 4.2041    76
 4.2141    82
 4.2241    65
 4.2341    87
 4.2441    90
 4.2541    91
 4.2641    86
 4.2741    84
 4.2841    70
 4.2941    87
 4.3041    79
 4.3141    98
 4.3241    86
 4.3341    73
 4.3441   102
 4.3541    85
 4.3641   101
 4.3741   101
 4.3841   102
 4.3941   104
 4.4041   138
 4.4141   143
 4.4241   172
 4.4341   207
 4.4441   236
 4.4541   284
 4.4641   326
 4.4741   353
 4.4841   355
 4.4941   401
 4.5041   397
 4.5141   424
 4.5241   377
 4.5341   381
 4.5441   326
 4.5541   301
 4.5641   254
 4.5741   211
 4.5841   208
 4.5941   159
 4.6041   149
 4.6141   123
 4.6241   132
 4.6341    96
 4.6441   106
 4.6541   101
 4.6641    96
 4.6741   116
 4.6841   120
 4.6941   100
 4.7041   106
 4.7141    88
 4.7241    93
 4.7341    95
 4.7441    85
 4.7541   103
 4.7641    94
 4.7741    97
 4.7841    96
 4.7941   106
 4.8041   115
 4.8141   104
 4.8241   113
 4.8341   133
 4.8441   132
 4.8541   120
 4.8641   150
 4.8741   132
 4.8841   133
 4.8941   152
 4.9041   168
 4.9141   163
 4.9241   148
 4.9341   148
 4.9441   170
 4.9541   157
 4.9641   166
 4.9741   135
 4.9841   138
 4.9941   140
 5.0041   133
 5.0141   121
 5.0241    87
 5.0341    93
 5.0441    95
 5.0541    86
 5.0641    96
 5.0741    99
 5.0841   101
 5.0941    87
 5.1041    83
 5.1141    98
 5.1241    95
 5.1341    92
 5.1441   106
 5.1541   102
 5.1641   119
 5.1741   102
 5.1841   111
 5.1941   106
 5.2041    76
 5.2141    83
 5.2241    75
 5.2341    93
 5.2441   105
 5.2541    96
 5.2641   114
 5.2741   102
 5.2841   110
 5.2941   115
 5.3041   131
 5.3141   118
 5.3241   148
 5.3341   160
 5.3441   170
 5.3541   181
 5.3641   211
 5.3741   218
 5.3841   228
 5.3941   242
 5.4041   233
 5.4141   248
 5.4241   243
 5.4341   234
 5.4441   256
 5.4541   218
 5.4641   192
 5.4741   161
 5.4841   160
 5.4941   180
 5.5041   141
 5.5141   142
 5.5241   114
 5.5341   122
 5.5441   109
 5.5541   105
 5.5641    99
 5.5741    99
 5.5841    99
 5.5941   102
 5.6041   114
 5.6141   108
 5.6241   102
 5.6341   112
 5.6441   104
 5.6541    98
 5.6641   109
 5.6741   111
 5.6841    99
 5.6941   115
 5.7041   119
 5.7141   122
 5.7241   124
 5.7341   144
 5.7441   168
 5.7541   170
 5.7641   203
 5.7741   221
 5.7841   275
 5.7941   328
 5.8041   414
 5.8141   471
 5.8241   591
 5.8341   708
 5.8441   830
 5.8541   986
 5.8641  1009
 5.8741  1077
 5.8841  1145
 5.8941  1205
 5.9041  1179
 5.9141  1129
 5.9241  1030
 5.9341   956
 5.9441   788
 5.9541   770
 5.9641   683
 5.9741   530
 5.9841   436
 5.9941   371
 6.0041   289
 6.0141   247
 6.0241   221
 6.0341   178
 6.0441   182
 6.0541   154
 6.0641   150
 6.0741   141
 6.0841   154
 6.0941   143
 6.1041   129
 6.1141   142
 6.1241   171
 6.1341   157
 6.1441   168
 6.1541   174
 6.1641   190
 6.1741   211
 6.1841   229
 6.1941   259
 6.2041   360
 6.2141   426
 6.2241   583
 6.2341   837
 6.2441  1174
 6.2541  1548
 6.2641  2205
 6.2741  3134
 6.2841  4106
 6.2941  5596
 6.3041  7129
 6.3141  9094
 6.3241 11272
 6.3341 13427
 6.3441 15790
 6.3541 18510
 6.3641 20443
 6.3741 21744
 6.3841 23395
 6.3941 23764
 6.4041 24089
 6.4141 23008
 6.4241 21939
 6.4341 20259
 6.4441 17884
 6.4541 15803
 6.4641 13252
 6.4741 10998
 6.4841  9010
 6.4941  6890
 6.5041  5271
 6.5141  3988
 6.5241  2953
 6.5341  2034
 6.5441  1549
 6.5541  1055
 6.5641   755
 6.5741   582
 6.5841   414
 6.5941   304
 6.6041   235
 6.6141   202
 6.6241   199
 6.6341   186
 6.6441   168
 6.6541   166
 6.6641   164
 6.6741   154
 6.6841   181
 6.6941   183
 6.7041   163
 6.7141   180
 6.7241   152
 6.7341   192
 6.7441   155
 6.7541   176
 6.7641   172
 6.7741   176
 6.7841   189
 6.7941   200
 6.8041   218
 6.8141   216
 6.8241   235
 6.8341   259
 6.8441   238
 6.8541   289
 6.8641   331
 6.8741   313
 6.8841   359
 6.8941   434
 6.9041   501
 6.9141   602
 6.9241   764
 6.9341   903
 6.9441  1077
 6.9541  1325
 6.9641  1630
 6.9741  1875
 6.9841  2283
 6.9941  2599
 7.0041  2896
 7.0141  3242
 7.0241  3578
 7.0341  3646
 7.0441  3910
 7.0541  3976
 7.0641  3920
 7.0741  3655
 7.0841  3614
 7.0941  3338
 7.1041  2885
 7.1141  2514
 7.1241  2081
 7.1341  1821
 7.1441  1550
 7.1541  1183
 7.1641  1018
 7.1741   779
 7.1841   637
 7.1941   526
 7.2041   415
 7.2141   368
 7.2241   294
 7.2341   255
 7.2441   244
 7.2541   236
 7.2641   208
 7.2741   212
 7.2841   233
 7.2941   247
 7.3041   226
 7.3141   237
 7.3241   274
 7.3341   293
 7.3441   299
 7.3541   336
 7.3641   313
 7.3741   363
 7.3841   360
 7.3941   407
 7.4041   403
 7.4141   452
 7.4241   466
 7.4341   461
 7.4441   492
 7.4541   488
 7.4641   475
 7.4741   464
 7.4841   472
 7.4941   482
 7.5041   448
 7.5141   415
 7.5241   395
 7.5341   361
 7.5441   338
 7.5541   298
 7.5641   284
 7.5741   238
 7.5841   246
 7.5941   236
 7.6041   220
 7.6141   229
 7.6241   242
 7.6341   207
 7.6441   207
 7.6541   223
 7.6641   210
 7.6741   214
 7.6841   226
 7.6941   220
 7.7041   211
 7.7141   233
 7.7241   226
 7.7341   229
 7.7441   233
 7.7541   246
 7.7641   266
 7.7741   256
 7.7841   253
 7.7941   260
 7.8041   265
 7.8141   288
 7.8241   319
 7.8341   290
 7.8441   277
 7.8541   308
 7.8641   307
 7.8741   340
 7.8841   373
 7.8941   364
 7.9041   355
 7.9141   389
 7.9241   398
 7.9341   443
 7.9441   418
 7.9541   452
 7.9641   491
 7.9741   487
 7.9841   522
 7.9941   617
 8.0041   609
 8.0141   691
 8.0241   772
 8.0341   740
 8.0441   837
 8.0541   846
 8.0641   951
 8.0741   979
 8.0841   996
 8.0941  1138
 8.1041  1165
 8.1141  1168
 8.1241  1234
 8.1341  1304
 8.1441  1345
 8.1541  1354
 8.1641  1420
 8.1741  1388
 8.1841  1411
 8.1941  1437
 8.2041  1503
 8.2141  1477
 8.2241  1493
 8.2341  1651
 8.2441  1599
 8.2541  1733
 8.2641  1753
 8.2741  1887
 8.2841  2049
 8.2941  2165
 8.3041  2245
 8.3141  2490
 8.3241  2748
 8.3341  2939
 8.3441  3082
 8.3541  3174
 8.3641  3356
 8.3741  3554
 8.3841  3562
 8.3941  3551
 8.4041  3397
 8.4141  3332
 8.4241  3096
 8.4341  2888
 8.4441  2714
 8.4541  2434
 8.4641  2040
 8.4741  1850
 8.4841  1554
 8.4941  1394
 8.5041  1142
 8.5141  1015
 8.5241   821
 8.5341   694
 8.5441   638
 8.5541   542
 8.5641   523
 8.5741   472
 8.5841   419
 8.5941   407
 8.6041   404
 8.6141   450
 8.6241   425
 8.6341   415
 8.6441   416
 8.6541   418
 8.6641   406
 8.6741   390
 8.6841   403
 8.6941   399
 8.7041   397
 8.7141   387
 8.7241   381
 8.7341   388
 8.7441   386
 8.7541   357
 8.7641   327
 8.7741   334
 8.7841   353
 8.7941   328
 8.8041   320
 8.8141   325
 8.8241   338
 8.8341   300
 8.8441   296
 8.8541   306
 8.8641   314
 8.8741   327
 8.8841   337
 8.8941   308
 8.9041   324
 8.9141   343
 8.9241   328
 8.9341   332
 8.9441   383
 8.9541   362
 8.9641   364
 8.9741   357
 8.9841   367
 8.9941   378
 9.0041   375
 9.0141   405
 9.0241   394
 9.0341   375
 9.0441   398
 9.0541   415
 9.0641   444
 9.0741   451
 9.0841   489
 9.0941   480
 9.1041   476
 9.1141   485
 9.1241   475
 9.1341   554
 9.1441   577
 9.1541   613
 9.1641   629
 9.1741   665
 9.1841   617
 9.1941   725
 9.2041   775
 9.2141   781
 9.2241   799
 9.2341   815
 9.2441   902
 9.2541   983
 9.2641  1012
 9.2741  1040
 9.2841  1113
 9.2941  1110
 9.3041  1107
 9.3141  1197
 9.3241  1227
 9.3341  1342
 9.3441  1245
 9.3541  1283
 9.3641  1297
 9.3741  1316
 9.3841  1359
 9.3941  1421
 9.4041  1355
 9.4141  1369
 9.4241  1393
 9.4341  1419
 9.4441  1436
 9.4541  1469
 9.4641  1474
 9.4741  1533
 9.4841  1513
 9.4941  1560
 9.5041  1646
 9.5141  1635
 9.5241  1804
 9.5341  1880
 9.5441  1941
 9.5541  2022
 9.5641  2102
 9.5741  2213
 9.5841  2426
 9.5941  2523
 9.6041  2694
 9.6141  2925
 9.6241  3110
 9.6341  3199
 9.6441  3349
 9.6541  3377
 9.6641  3478
 9.6741  3511
 9.6841  3504
 9.6941  3354
 9.7041  3243
 9.7141  3038
 9.7241  2908
 9.7341  2732
 9.7441  2450
 9.7541  2299
 9.7641  2131
 9.7741  2021
 9.7841  1778
 9.7941  1646
 9.8041  1520
 9.8141  1432
 9.8241  1385
 9.8341  1309
 9.8441  1299
 9.8541  1337
 9.8641  1317
 9.8741  1359
 9.8841  1335
 9.8941  1380
 9.9041  1484
 9.9141  1449
 9.9241  1528
 9.9341  1471
 9.9441  1442
 9.9541  1541
 9.9641  1468
 9.9741  1450
 9.9841  1376
 9.9941  1336
10.0041  1277
10.0141  1185
10.0241  1091
10.0341  1019
10.0441   920
10.0541   785
10.0641   695
10.0741   617
10.0841   550
10.0941   492
10.1041   494
10.1141   435
10.1241   407
10.1341   353
10.1441   345
10.1541   324
10.1641   286
10.1741   256
10.1841   250
10.1941   240
10.2041   242
10.2141   230
10.2241   211
10.2341   211
10.2441   199
10.2541   208
10.2641   204
10.2741   196
10.2841   196
10.2941   203
10.3041   205
10.3141   187
10.3241   184
10.3341   182
10.3441   179
10.3541   185
10.3641   167
10.3741   179
10.3841   184
10.3941   166
10.4041   163
10.4141   170
10.4241   174
10.4341   188
10.4441   179
10.4541   189
10.4641   186
10.4741   203
10.4841   217
10.4941   204
10.5041   196
10.5141   187
10.5241   191
10.5341   193
10.5441   186
10.5541   212
10.5641   202
10.5741   227
10.5841   200
10.5941   201
10.6041   205
10.6141   219
10.6241   228
10.6341   208
10.6441   221
10.6541   224
10.6641   205
10.6741   206
10.6841   227
10.6941   233
10.7041   241
10.7141   221
10.7241   242
10.7341   229
10.7441   223
10.7541   239
10.7641   225
10.7741   240
10.7841   239
10.7941   264
10.8041   275
10.8141   274
10.8241   293
10.8341   292
10.8441   301
10.8541   284
10.8641   302
10.8741   306
10.8841   312
10.8941   318
10.9041   321
10.9141   311
10.9241   308
10.9341   306
10.9441   302
10.9541   298
10.9641   282
10.9741   286
10.9841   295
10.9941   310
11.0041   302
11.0141   292
11.0241   308
11.0341   287
11.0441   266
11.0541   269
11.0641   274
11.0741   290
11.0841   280
11.0941   288
11.1041   287
11.1141   256
11.1241   279
11.1341   313
11.1441   282
11.1541   322
11.1641   307
11.1741   298
11.1841   332
11.1941   369
11.2041   382
11.2141   363
11.2241   376
11.2341   404
11.2441   413
11.2541   430
11.2641   456
11.2741   455
11.2841   443
11.2941   420
11.3041   426
11.3141   423
11.3241   411
11.3341   391
11.3441   364
11.3541   356
11.3641   345
11.3741   322
11.3841   301
11.3941   294
11.4041   289
11.4141   291
11.4241   264
11.4341   265
11.4441   247
11.4541   227
11.4641   217
11.4741   230
11.4841   224
11.4941   205
11.5041   236
11.5141   225
11.5241   215
11.5341   210
11.5441   213
11.5541   226
11.5641   246
11.5741   241
11.5841   218
11.5941   240
11.6041   236
11.6141   230
11.6241   241
11.6341   247
11.6441   232
11.6541   239
11.6641   238
11.6741   235
11.6841   215
11.6941   214
11.7041   208
11.7141   208
11.7241   212
11.7341   207
11.7441   191
11.7541   201
11.7641   187
11.7741   178
11.7841   185
11.7941   171
11.8041   158
11.8141   170
11.8241   170
11.8341   155
11.8441   169
11.8541   173
11.8641   161
11.8741   151
11.8841   156
11.8941   159
11.9041   165
11.9141   170
11.9241   170
11.9341   170
11.9441   161
11.9541   155
11.9641   164
11.9741   172
11.9841   173
11.9941   181
12.0041   172
12.0141   171
12.0241   179
12.0341   175
12.0441   161
12.0541   163
12.0641   164
12.0741   175
12.0841   182
12.0941   176
12.1041   178
12.1141   164
12.1241   161
12.1341   169
12.1441   174
12.1541   178
12.1641   167
12.1741   170
12.1841   164
12.1941   159
12.2041   167
12.2141   169
12.2241   159
12.2341   156
12.2441   157
12.2541   165
12.2641   158
12.2741   152
12.2841   160
12.2941   154
12.3041   167
12.3141   163
12.3241   164
12.3341   174
12.3441   175
12.3541   167
12.3641   154
12.3741   157
12.3841   179
12.3941   173
12.4041   178
12.4141   165
12.4241   160
12.4341   179
12.4441   172
12.4541   161
12.4641   160
12.4741   155
12.4841   169
12.4941   158
12.5041   160
12.5141   165
12.5241   161
12.5341   165
12.5441   173
12.5541   179
12.5641   193
12.5741   201
12.5841   191
12.5941   190
12.6041   178
12.6141   188
12.6241   195
12.6341   191
12.6441   184
12.6541   179
12.6641   181
12.6741   193
12.6841   187
12.6941   184
12.7041   181
12.7141   179
12.7241   177
12.7341   187
12.7441   183
12.7541   172
12.7641   174
12.7741   180
12.7841   189
12.7941   197
12.8041   194
12.8141   181
12.8241   173
12.8341   176
12.8441   188
12.8541   193
12.8641   182
12.8741   173
12.8841   181
12.8941   190
12.9041   182
12.9141   173
12.9241   199
12.9341   212
12.9441   192
12.9541   192
12.9641   198
12.9741   189
12.9841   196
12.9941   199
13.0041   197
13.0141   195
13.0241   196
13.0341   207
13.0441   200
13.0541   180
13.0641   186
13.0741   188
13.0841   188
13.0941   196
13.1041   188
13.1141   187
13.1241   189
13.1341   192
13.1441   214
13.1541   215
13.1641   195
13.1741   202
13.1841   210
13.1941   220
13.2041   231
13.2141   243
13.2241   245
13.2341   245
13.2441   269
13.2541   257
13.2641   270
13.2741   305
13.2841   291
13.2941   290
13.3041   335
13.3141   352
13.3241   365
13.3341   390
13.3441   371
13.3541   371
13.3641   387
13.3741   372
13.3841   357
13.3941   359
13.4041   349
13.4141   351
13.4241   348
13.4341   338
13.4441   320
13.4541   307
13.4641   279
13.4741   285
13.4841   314
13.4941   298
13.5041   268
13.5141   251
13.5241   250
13.5341   252
13.5441   240
13.5541   236
13.5641   237
13.5741   231
13.5841   236
13.5941   232
13.6041   221
13.6141   216
13.6241   211
13.6341   226
13.6441   219
13.6541   202
13.6641   216
13.6741   223
13.6841   221
13.6941   217
13.7041   215
13.7141   212
13.7241   220
13.7341   233
13.7441   225
13.7541   223
13.7641   220
13.7741   217
13.7841   222
13.7941   224
13.8041   240
13.8141   234
13.8241   206
13.8341   209
13.8441   216
13.8541   211
13.8641   231
13.8741   227
13.8841   211
13.8941   225
13.9041   219
13.9141   207
13.9241   223
13.9341   248
13.9441   248
13.9541   243
13.9641   258
13.9741   256
13.9841   251
13.9941   255
14.0041   271
14.0141   294
14.0241   318
14.0341   338
14.0441   315
14.0541   318
14.0641   348
14.0741   350
14.0841   362
14.0941   380
14.1041   402
14.1141   431
14.1241   425
14.1341   434
14.1441   435
14.1541   420
14.1641   436
14.1741   422
14.1841   403
14.1941   406
14.2041   384
14.2141   389
14.2241   387
14.2341   348
14.2441   354
14.2541   348
14.2641   325
14.2741   322
14.2841   296
14.2941   281
14.3041   281
14.3141   274
14.3241   271
14.3341   275
14.3441   274
14.3541   245
14.3641   244
14.3741   256
14.3841   258
14.3941   253
14.4041   234
14.4141   233
14.4241   261
14.4341   266
14.4441   250
14.4541   241
14.4641   236
14.4741   249
14.4841   258
14.4941   259
14.5041   252
14.5141   256
14.5241   261
14.5341   245
14.5441   235
14.5541   242
14.5641   261
14.5741   253
14.5841   235
14.5941   249
14.6041   251
14.6141   260
14.6241   272
14.6341   273
14.6441   268
14.6541   264
14.6641   264
14.6741   253
14.6841   270
14.6941   270
14.7041   251
14.7141   255
14.7241   259
14.7341   263
14.7441   264
14.7541   271
14.7641   277
14.7741   248
14.7841   238
14.7941   253
14.8041   264
14.8141   288
14.8241   305
14.8341   310
14.8441   311
14.8541   304
14.8641   305
14.8741   327
14.8841   331
14.8941   304
14.9041   306
14.9141   318
14.9241   331
14.9341   329
14.9441   308
14.9541   329
14.9641   347
14.9741   339
14.9841   312
14.9941   303
15.0041   306
15.0141   312
15.0241   316
15.0341   304
15.0441   297
15.0541   288
15.0641   269
15.0741   279
15.0841   283
15.0941   271
15.1041   279
15.1141   294
15.1241   283
15.1341   286
15.1441   298
15.1541   286
15.1641   300
15.1741   282
15.1841   256
15.1941   276
15.2041   286
15.2141   281
15.2241   278
15.2341   277
15.2441   287
15.2541   265
15.2641   263
15.2741   258
15.2841   281
15.2941   281
15.3041   256
15.3141   264
15.3241   280
15.3341   304
15.3441   277
15.3541   277
15.3641   288
15.3741   289
15.3841   285
15.3941   272
15.4041   262
15.4141   269
15.4241   293
15.4341   283
15.4441   288
15.4541   295
15.4641   305
15.4741   302
15.4841   297
15.4941   313
15.5041   305
15.5141   316
15.5241   339
15.5341   346
15.5441   355
15.5541   373
15.5641   404
15.5741   414
15.5841   435
15.5941   459
15.6041   495
15.6141   540
15.6241   563
15.6341   614
15.6441   626
15.6541   641
15.6641   703
15.6741   747
15.6841   771
15.6941   787
15.7041   806
15.7141   849
15.7241   886
15.7341   893
15.7441   907
15.7541   925
15.7641   912
15.7741   906
15.7841   874
15.7941   823
15.8041   796
15.8141   763
15.8241   752
15.8341   759
15.8441   716
15.8541   632
15.8641   622
15.8741   586
15.8841   548
15.8941   517
15.9041   466
15.9141   445
15.9241   457
15.9341   452
15.9441   415
15.9541   398
15.9641   387
15.9741   363
15.9841   350
15.9941   349
16.0041   324
16.0141   343
16.0241   343
16.0341   355
16.0441   327
16.0541   331
16.0641   330
16.0741   344
16.0841   343
16.0941   328
16.1041   305
16.1141   313
16.1241   319
16.1341   313
16.1441   297
16.1541   296
16.1641   324
16.1741   314
16.1841   315
16.1941   309
16.2041   307
16.2141   319
16.2241   312
16.2341   329
16.2441   339
16.2541   335
16.2641   322
16.2741   309
16.2841   308
16.2941   319
16.3041   332
16.3141   317
16.3241   325
16.3341   329
16.3441   331
16.3541   333
16.3641   337
16.3741   314
16.3841   313
16.3941   317
16.4041   342
16.4141   330
16.4241   343
16.4341   325
16.4441   321
16.4541   335
16.4641   327
16.4741   335
16.4841   355
16.4941   344
16.5041   333
16.5141   345
16.5241   314
16.5341   324
16.5441   346
16.5541   332
16.5641   358
16.5741   345
16.5841   339
16.5941   343
16.6041   352
16.6141   358
16.6241   347
16.6341   367
16.6441   363
16.6541   357
16.6641   364
16.6741   364
16.6841   354
16.6941   367
16.7041   351
16.7141   344
16.7241   347
16.7341   351
16.7441   350
16.7541   341
16.7641   346
16.7741   363
16.7841   346
16.7941   350
16.8041   360
16.8141   364
16.8241   362
16.8341   378
16.8441   365
16.8541   344
16.8641   357
16.8741   355
16.8841   347
16.8941   366
16.9041   373
16.9141   367
16.9241   381
16.9341   393
16.9441   372
16.9541   345
16.9641   363
16.9741   352
16.9841   344
16.9941   343
17.0041   333
17.0141   360
17.0241   367
17.0341   378
17.0441   353
17.0541   337
17.0641   349
17.0741   379
17.0841   377
17.0941   387
17.1041   369
17.1141   361
17.1241   384
17.1341   370
17.1441   374
17.1541   371
17.1641   396
17.1741   378
17.1841   369
17.1941   354
17.2041   386
17.2141   395
17.2241   397
17.2341   389
17.2441   371
17.2541   375
17.2641   390
17.2741   352
17.2841   359
17.2941   379
17.3041   396
17.3141   382
17.3241   375
17.3341   387
17.3441   413
17.3541   398
17.3641   408
17.3741   392
17.3841   387
17.3941   382
17.4041   399
17.4141   384
17.4241   389
17.4341   379
17.4441   416
17.4541   438
17.4641   414
17.4741   415
17.4841   436
17.4941   409
17.5041   424
17.5141   441
17.5241   444
17.5341   431
17.5441   439
17.5541   465
17.5641   472
17.5741   480
17.5841   492
17.5941   463
17.6041   469
17.6141   472
17.6241   511
17.6341   513
17.6441   461
17.6541   475
17.6641   520
17.6741   501
17.6841   496
17.6941   500
17.7041   458
17.7141   486
17.7241   510
17.7341   501
17.7441   489
17.7541   474
17.7641   482
17.7741   456
17.7841   465
17.7941   444
17.8041   419
17.8141   427
17.8241   442
17.8341   425
17.8441   437
17.8541   447
17.8641   437
17.8741   448
17.8841   436
17.8941   422
17.9041   415
17.9141   419
17.9241   439
17.9341   442
17.9441   425
17.9541   440
17.9641   452
17.9741   458
17.9841   418
17.9941   445
18.0041   460
18.0141   458
18.0241   420
18.0341   429
18.0441   429
18.0541   430
18.0641   419
18.0741   439
18.0841   436
18.0941   423
18.1041   411
18.1141   415
18.1241   426
18.1341   428
18.1441   438
18.1541   462
18.1641   423
18.1741   409
18.1841   436
18.1941   430
18.2041   435
18.2141   407
18.2241   421
18.2341   445
18.2441   423
18.2541   449
18.2641   432
18.2741   410
18.2841   404
18.2941   426
18.3041   422
18.3141   444
18.3241   447
18.3341   425
18.3441   441
18.3541   448
18.3641   452
18.3741   437
18.3841   439
18.3941   452
18.4041   476
18.4141   458
18.4241   452
18.4341   460
18.4441   473
18.4541   450
18.4641   437
18.4741   463
18.4841   436
18.4941   434
18.5041   458
18.5141   431
18.5241   434
18.5341   445
18.5441   457
18.5541   449
18.5641   452
18.5741   468
18.5841   453
18.5941   466
18.6041   447
18.6141   435
18.6241   456
18.6341   470
18.6441   434
18.6541   438
18.6641   450
18.6741   449
18.6841   447
18.6941   449
18.7041   462
18.7141   488
18.7241   470
18.7341   490
18.7441   491
18.7541   441
18.7641   464
18.7741   462
18.7841   496
18.7941   456
18.8041   485
18.8141   460
18.8241   480
18.8341   432
18.8441   422
18.8541   456
18.8641   477
18.8741   507
18.8841   475
18.8941   500
18.9041   485
18.9141   484
18.9241   490
18.9341   483
18.9441   484
18.9541   462
18.9641   442
18.9741   432
18.9841   443
18.9941   477
19.0041   453
19.0141   468
19.0241   443
19.0341   457
19.0441   490
19.0541   514
19.0641   468
19.0741   485
19.0841   518
19.0941   482
19.1041   466
19.1141   482
19.1241   480
19.1341   495
19.1441   500
19.1541   474
19.1641   508
19.1741   494
19.1841   486
19.1941   488
19.2041   434
19.2141   473
19.2241   503
19.2341   485
19.2441   460
19.2541   504
19.2641   478
19.2741   472
19.2841   468
19.2941   481
19.3041   501
19.3141   498
19.3241   478
19.3341   473
19.3441   478
19.3541   481
19.3641   452
19.3741   477
19.3841   485
19.3941   458
19.4041   494
19.4141   473
19.4241   490
19.4341   461
19.4441   467
19.4541   519
19.4641   490
19.4741   515
19.4841   509
19.4941   499
19.5041   475
19.5141   458
19.5241   493
19.5341   481
19.5441   498
19.5541   510
19.5641   508
19.5741   515
19.5841   497
19.5941   498
19.6041   492
19.6141   512
19.6241   503
19.6341   519
19.6441   493
19.6541   511
19.6641   510
19.6741   517
19.6841   560
19.6941   512
19.7041   525
19.7141   510
19.7241   486
19.7341   522
19.7441   523
19.7541   475
19.7641   505
19.7741   509
19.7841   484
19.7941   533
19.8041   563
19.8141   551
19.8241   504
19.8341   511
19.8441   450
19.8541   495
19.8641   517
19.8741   521
19.8841   489
19.8941   505
19.9041   529
19.9141   527
19.9241   488
19.9341   500
19.9441   539
19.9541   540
19.9641   519
19.9741   504
19.9841   513
19.9941   501
20.0041   509
20.0141   493
20.0241   511
20.0341   528
20.0441   505
20.0541   512
20.0641   485
20.0741   484
20.0841   513
20.0941   529
20.1041   542
20.1141   511
20.1241   545
20.1341   523
20.1441   490
20.1541   494
20.1641   511
20.1741   543
20.1841   544
20.1941   515
20.2041   526
20.2141   511
20.2241   501
20.2341   519
20.2441   526
20.2541   526
20.2641   533
20.2741   503
20.2841   484
20.2941   479
20.3041   488
20.3141   531
20.3241   483
20.3341   529
20.3441   526
20.3541   543
20.3641   533
20.3741   535
20.3841   521
20.3941   538
20.4041   533
20.4141   536
20.4241   538
20.4341   500
20.4441   521
20.4541   526
20.4641   547
20.4741   538
20.4841   532
20.4941   534
20.5041   573
20.5141   511
20.5241   517
20.5341   544
20.5441   525
20.5541   545
20.5641   524
20.5741   517
20.5841   549
20.5941   513
20.6041   539
20.6141   523
20.6241   518
20.6341   575
20.6441   557
20.6541   530
20.6641   583
20.6741   584
20.6841   551
20.6941   498
20.7041   535
20.7141   549
20.7241   548
20.7341   542
20.7441   536
20.7541   522
20.7641   553
20.7741   507
20.7841   582
20.7941   547
20.8041   588
20.8141   530
20.8241   536
20.8341   567
20.8441   554
20.8541   509
20.8641   557
20.8741   580
20.8841   591
20.8941   616
20.9041   624
20.9141   655
20.9241   648
20.9341   648
20.9441   688
20.9541   673
20.9641   705
20.9741   725
20.9841   712
20.9941   808
21.0041   756
21.0141   792
21.0241   820
21.0341   836
21.0441   820
21.0541   808
21.0641   824
21.0741   829
21.0841   858
21.0941   846
21.1041   883
21.1141   845
21.1241   880
21.1341   861
21.1441   853
21.1541   838
21.1641   874
21.1741   876
21.1841   851
21.1941   814
21.2041   801
21.2141   815
21.2241   814
21.2341   784
21.2441   790
21.2541   827
21.2641   750
21.2741   736
21.2841   670
21.2941   699
21.3041   672
21.3141   654
21.3241   667
21.3341   616
21.3441   612
21.3541   604
21.3641   559
21.3741   608
21.3841   577
21.3941   556
21.4041   541
21.4141   568
21.4241   574
21.4341   620
21.4441   591
21.4541   545
21.4641   602
21.4741   600
21.4841   571
21.4941   559
21.5041   583
21.5141   550
21.5241   561
21.5341   557
21.5441   538
21.5541   583
21.5641   537
21.5741   583
21.5841   537
21.5941   529
21.6041   535
21.6141   551
21.6241   551
21.6341   500
21.6441   534
21.6541   604
21.6641   566
21.6741   514
21.6841   538
21.6941   569
21.7041   627
21.7141   577
21.7241   529
21.7341   546
21.7441   593
21.7541   557
21.7641   549
21.7741   575
21.7841   555
21.7941   555
21.8041   540
21.8141   584
21.8241   569
21.8341   574
21.8441   532
21.8541   568
21.8641   496
21.8741   577
21.8841   552
21.8941   585
21.9041   547
21.9141   560
21.9241   569
21.9341   537
21.9441   513
21.9541   541
21.9641   557
21.9741   542
21.9841   539
21.9941   575
22.0041   545
22.0141   522
22.0241   565
22.0341   535
22.0441   558
22.0541   601
22.0641   540
22.0741   557
22.0841   578
22.0941   559
22.1041   576
22.1141   573
22.1241   523
22.1341   567
22.1441   551
22.1541   548
22.1641   557
22.1741   603
22.1841   545
22.1941   543
22.2041   576
22.2141   559
22.2241   560
22.2341   514
22.2441   585
22.2541   567
22.2641   587
22.2741   538
22.2841   571
22.2941   518
22.3041   562
22.3141   517
22.3241   551
22.3341   568
22.3441   556
22.3541   557
22.3641   572
22.3741   564
22.3841   550
22.3941   544
22.4041   575
22.4141   556
22.4241   558
22.4341   532
22.4441   541
22.4541   548
22.4641   556
22.4741   534
22.4841   538
22.4941   564
22.5041   540
22.5141   589
22.5241   541
22.5341   533
22.5441   574
22.5541   558
22.5641   559
22.5741   598
22.5841   589
22.5941   579
22.6041   566
22.6141   563
22.6241   547
22.6341   605
22.6441   539
22.6541   568
22.6641   574
22.6741   583
22.6841   552
22.6941   517
22.7041   495
22.7141   579
22.7241   518
22.7341   514
22.7441   585
22.7541   612
22.7641   581
22.7741   533
22.7841   586
22.7941   561
22.8041   545
22.8141   554
22.8241   564
22.8341   556
22.8441   584
22.8541   530
22.8641   557
22.8741   533
22.8841   616
22.8941   535
22.9041   537
22.9141   554
22.9241   546
22.9341   593
22.9441   598
22.9541   549
22.9641   578
22.9741   547
22.9841   555
22.9941   588
23.0041   539
23.0141   554
23.0241   606
23.0341   546
23.0441   561
23.0541   595
23.0641   547
23.0741   538
23.0841   576
23.0941   562
23.1041   577
23.1141   555
23.1241   593
23.1341   560
23.1441   549
23.1541   564
23.1641   589
23.1741   550
23.1841   538
23.1941   556
23.2041   539
23.2141   605
23.2241   545
23.2341   549
23.2441   540
23.2541   598
23.2641   562
23.2741   567
23.2841   556
23.2941   529
23.3041   573
23.3141   561
23.3241   545
23.3341   567
23.3441   559
23.3541   557
23.3641   580
23.3741   568
23.3841   548
23.3941   528
23.4041   555
23.4141   582
23.4241   587
23.4341   557
23.4441   542
23.4541   567
23.4641   521
23.4741   574
23.4841   581
23.4941   570
23.5041   564
23.5141   519
23.5241   548
23.5341   546
23.5441   526
23.5541   569
23.5641   568
23.5741   611
23.5841   563
23.5941   553
23.6041   550
23.6141   556
23.6241   553
23.6341   590
23.6441   568
23.6541   581
23.6641   586
23.6741   599
23.6841   588
23.6941   564
23.7041   594
23.7141   576
23.7241   578
23.7341   606
23.7441   582
23.7541   584
23.7641   596
23.7741   583
23.7841   581
23.7941   611
23.8041   583
23.8141   616
23.8241   616
23.8341   602
23.8441   569
23.8541   569
23.8641   558
23.8741   593
23.8841   596
23.8941   606
23.9041   608
23.9141   597
23.9241   553
23.9341   644
23.9441   578
23.9541   539
23.9641   599
23.9741   588
23.9841   545
23.9941   580
24.0041   585
24.0141   551
24.0241   566
24.0341   520
24.0441   560
24.0541   532
24.0641   551
24.0741   563
24.0841   549
24.0941   581
24.1041   545
24.1141   531
24.1241   522
24.1341   548
24.1441   527
24.1541   486
24.1641   552
24.1741   545
24.1841   545
24.1941   547
24.2041   590
24.2141   550
24.2241   600
24.2341   524
24.2441   528
24.2541   573
24.2641   502
24.2741   514
24.2841   539
24.2941   514
24.3041   507
24.3141   566
24.3241   590
24.3341   535
24.3441   572
24.3541   504
24.3641   539
24.3741   542
24.3841   588
24.3941   534
24.4041   564
24.4141   585
24.4241   533
24.4341   557
24.4441   548
24.4541   548
24.4641   569
24.4741   511
24.4841   544
24.4941   555
24.5041   539
24.5141   502
24.5241   529
24.5341   531
24.5441   503
24.5541   535
24.5641   502
24.5741   581
24.5841   539
24.5941   533
24.6041   508
24.6141   539
24.6241   521
24.6341   521
24.6441   511
24.6541   507
24.6641   521
24.6741   503
24.6841   526
24.6941   545
24.7041   531
24.7141   519
24.7241   542
24.7341   504
24.7441   519
24.7541   541
24.7641   516
24.7741   534
24.7841   505
24.7941   546
24.8041   496
24.8141   503
24.8241   518
24.8341   514
24.8441   508
24.8541   515
24.8641   532
24.8741   520
24.8841   543
24.8941   482
24.9041   511
24.9141   533
24.9241   507
24.9341   522
24.9441   499
24.9541   541
24.9641   507
24.9741   537
24.9841   513
24.9941   519
25.0041   514
25.0141   540
25.0241   526
25.0341   530
25.0441   522
25.0541   542
25.0641   569
25.0741   556
25.0841   536
25.0941   526
25.1041   551
25.1141   563
25.1241   549
25.1341   526
25.1441   544
25.1541   510
25.1641   549
25.1741   535
25.1841   536
25.1941   517
25.2041   530
25.2141   524
25.2241   547
25.2341   542
25.2441   493
25.2541   525
25.2641   543
25.2741   569
25.2841   527
25.2941   533
25.3041   545
25.3141   517
25.3241   506
25.3341   507
25.3441   565
25.3541   553
25.3641   551
25.3741   530
25.3841   561
25.3941   552
25.4041   530
25.4141   511
25.4241   526
25.4341   518
25.4441   522
25.4541   483
25.4641   520
25.4741   537
25.4841   540
25.4941   500
25.5041   493
25.5141   511
25.5241   521
25.5341   512
25.5441   486
25.5541   489
25.5641   523
25.5741   538
25.5841   498
25.5941   460
25.6041   508
25.6141   510
25.6241   522
25.6341   510
25.6441   540
25.6541   483
25.6641   473
25.6741   495
25.6841   528
25.6941   508
25.7041   493
25.7141   472
25.7241   474
25.7341   476
25.7441   481
25.7541   503
25.7641   485
25.7741   526
25.7841   513
25.7941   530
25.8041   499
25.8141   486
25.8241   481
25.8341   490
25.8441   494
25.8541   483
25.8641   479
25.8741   509
25.8841   484
25.8941   502
25.9041   498
25.9141   463
25.9241   458
25.9341   478
25.9441   496
25.9541   470
25.9641   465
25.9741   491
25.9841   492
25.9941   496
26.0041   521
26.0141   502
26.0241   482
26.0341   512
26.0441   467
26.0541   480
26.0641   505
26.0741   462
26.0841   506
26.0941   476
26.1041   486
26.1141   503
26.1241   487
26.1341   473
26.1441   519
26.1541   531
26.1641   475
26.1741   506
26.1841   516
26.1941   483
26.2041   504
26.2141   503
26.2241   491
26.2341   466
26.2441   517
26.2541   492
26.2641   466
26.2741   460
26.2841   465
26.2941   490
26.3041   502
26.3141   480
26.3241   464
26.3341   494
26.3441   459
26.3541   510
26.3641   505
26.3741   492
26.3841   469
26.3941   494
26.4041   456
26.4141   463
26.4241   467
26.4341   477
26.4441   463
26.4541   483
26.4641   453
26.4741   496
26.4841   498
26.4941   444
26.5041   431
26.5141   450
26.5241   472
26.5341   487
26.5441   492
26.5541   475
26.5641   466
26.5741   443
26.5841   460
26.5941   435
26.6041   459
26.6141   485
26.6241   464
26.6341   455
26.6441   489
26.6541   479
26.6641   450
26.6741   439
26.6841   480
26.6941   445
26.7041   484
26.7141   482
26.7241   429
26.7341   478
26.7441   455
26.7541   457
26.7641   472
26.7741   466
26.7841   457
26.7941   453
26.8041   471
26.8141   473
26.8241   472
26.8341   452
26.8441   453
26.8541   422
26.8641   432
26.8741   446
26.8841   437
26.8941   471
26.9041   466
26.9141   433
26.9241   401
26.9341   435
26.9441   468
26.9541   467
26.9641   434
26.9741   441
26.9841   421
26.9941   461
27.0041   449
27.0141   451
27.0241   455
27.0341   416
27.0441   427
27.0541   431
27.0641   424
27.0741   461
27.0841   451
27.0941   459
27.1041   449
27.1141   434
27.1241   425
27.1341   479
27.1441   462
27.1541   448
27.1641   478
27.1741   416
27.1841   447
27.1941   447
27.2041   409
27.2141   459
27.2241   448
27.2341   464
27.2441   415
27.2541   456
27.2641   401
27.2741   444
27.2841   435
27.2941   452
27.3041   451
27.3141   447
27.3241   421
27.3341   434
27.3441   445
27.3541   433
27.3641   411
27.3741   437
27.3841   414
27.3941   435
27.4041   444
27.4141   428
27.4241   433
27.4341   438
27.4441   470
27.4541   452
27.4641   426
27.4741   397
27.4841   433
27.4941   417
27.5041   412
27.5141   438
27.5241   429
27.5341   472
27.5441   430
27.5541   439
27.5641   460
27.5741   458
27.5841   437
27.5941   437
27.6041   438
27.6141   430
27.6241   431
27.6341   401
27.6441   441
27.6541   431
27.6641   452
27.6741   413
27.6841   396
27.6941   426
27.7041   407
27.7141   430
27.7241   402
27.7341   417
27.7441   429
27.7541   456
27.7641   385
27.7741   404
27.7841   403
27.7941   435
27.8041   441
27.8141   423
27.8241   442
27.8341   421
27.8441   376
27.8541   398
27.8641   449
27.8741   411
27.8841   402
27.8941   426
27.9041   403
27.9141   390
27.9241   391
27.9341   397
27.9441   435
27.9541   401
27.9641   445
27.9741   411
27.9841   384
27.9941   421
28.0041   384
28.0141   385
28.0241   378
28.0341   378
28.0441   409
28.0541   409
28.0641   401
28.0741   413
28.0841   388
28.0941   380
28.1041   398
28.1141   387
28.1241   407
28.1341   384
28.1441   375
28.1541   362
28.1641   379
28.1741   406
28.1841   414
28.1941   397
28.2041   397
28.2141   405
28.2241   389
28.2341   390
28.2441   416
28.2541   398
28.2641   375
28.2741   392
28.2841   363
28.2941   415
28.3041   425
28.3141   402
28.3241   402
28.3341   373
28.3441   376
28.3541   396
28.3641   372
28.3741   412
28.3841   377
28.3941   410
28.4041   424
28.4141   363
28.4241   393
28.4341   412
28.4441   404
28.4541   361
28.4641   366
28.4741   407
28.4841   374
28.4941   390
28.5041   413
28.5141   375
28.5241   417
28.5341   391
28.5441   371
28.5541   411
28.5641   390
28.5741   382
28.5841   386
28.5941   372
28.6041   383
28.6141   375
28.6241   368
28.6341   360
28.6441   396
28.6541   345
28.6641   387
28.6741   386
28.6841   375
28.6941   368
28.7041   379
28.7141   368
28.7241   405
28.7341   360
28.7441   394
28.7541   366
28.7641   368
28.7741   367
28.7841   380
28.7941   351
28.8041   366
28.8141   337
28.8241   377
28.8341   387
28.8441   368
28.8541   375
28.8641   337
28.8741   353
28.8841   339
28.8941   356
28.9041   360
28.9141   369
28.9241   357
28.9341   378
28.9441   385
28.9541   362
28.9641   360
28.9741   337
28.9841   397
28.9941   358
29.0041   371
29.0141   340
29.0241   383
29.0341   358
29.0441   347
29.0541   338
29.0641   363
29.0741   371
29.0841   344
29.0941   338
29.1041   342
29.1141   342
29.1241   379
29.1341   378
29.1441   362
29.1541   389
29.1641   370
29.1741   377
29.1841   361
29.1941   366
29.2041   381
29.2141   334
29.2241   360
29.2341   333
29.2441   341
29.2541   366
29.2641   349
29.2741   362
29.2841   331
29.2941   373
29.3041   339
29.3141   351
29.3241   314
29.3341   347
29.3441   372
29.3541   383
29.3641   350
29.3741   353
29.3841   364
29.3941   352
29.4041   360
29.4141   342
29.4241   338
29.4341   321
29.4441   356
29.4541   319
29.4641   333
29.4741   344
29.4841   361
29.4941   327
29.5041   343
29.5141   328
29.5241   330
29.5341   335
29.5441   329
29.5541   314
29.5641   336
29.5741   333
29.5841   340
29.5941   345
29.6041   326
29.6141   355
29.6241   320
29.6341   334
29.6441   326
29.6541   323
29.6641   358
29.6741   347
29.6841   341
29.6941   343
29.7041   307
29.7141   353
29.7241   344
29.7341   294
29.7441   316
29.7541   326
29.7641   345
29.7741   351
29.7841   334
29.7941   341
29.8041   312
29.8141   324
29.8241   314
29.8341   319
29.8441   334
29.8541   306
29.8641   354
29.8741   336
29.8841   287
29.8941   347
29.9041   326
29.9141   305
29.9241   340
29.9341   313
29.9441   343
29.9541   314
29.9641   309
29.9741   338
29.9841   316
29.9941   294
30.0041   299
30.0141   333
30.0241   310
30.0341   333
30.0441   328
30.0541   297
30.0641   349
30.0741   316
30.0841   323
30.0941   339
30.1041   310
30.1141   313
30.1241   306
30.1341   311
30.1441   309
30.1541   298
30.1641   288
30.1741   344
30.1841   320
30.1941   319
30.2041   291
30.2141   307
30.2241   324
30.2341   311
30.2441   294
30.2541   321
30.2641   312
30.2741   279
30.2841   269
30.2941   294
30.3041   272
30.3141   296
30.3241   287
30.3341   309
30.3441   319
30.3541   328
30.3641   312
30.3741   321
30.3841   319
30.3941   289
30.4041   327
30.4141   286
30.4241   317
30.4341   275
30.4441   281
30.4541   291
30.4641   284
30.4741   269
30.4841   258
30.4941   284
30.5041   298
30.5141   291
30.5241   305
30.5341   297
30.5441   326
30.5541   314
30.5641   311
30.5741   315
30.5841   308
30.5941   300
30.6041   309
30.6141   311
30.6241   295
30.6341   297
30.6441   301
30.6541   278
30.6641   295
30.6741   276
30.6841   278
30.6941   269
30.7041   319
30.7141   281
30.7241   280
30.7341   303
30.7441   304
30.7541   314
30.7641   273
30.7741   316
30.7841   260
30.7941   288
30.8041   311
30.8141   274
30.8241   283
30.8341   272
30.8441   285
30.8541   270
30.8641   282
30.8741   310
30.8841   310
30.8941   287
30.9041   301
30.9141   305
30.9241   266
30.9341   280
30.9441   313
30.9541   295
30.9641   272
30.9741   331
30.9841   308
30.9941   286
31.0041   252
31.0141   291
31.0241   287
31.0341   292
31.0441   277
31.0541   279
31.0641   266
31.0741   303
31.0841   298
31.0941   280
31.1041   244
31.1141   279
31.1241   259
31.1341   298
31.1441   289
31.1541   281
31.1641   267
31.1741   281
31.1841   294
31.1941   284
31.2041   248
31.2141   264
31.2241   277
31.2341   282
31.2441   275
31.2541   275
31.2641   229
31.2741   266
31.2841   302
31.2941   286
31.3041   278
31.3141   260
31.3241   270
31.3341   257
31.3441   273
31.3541   298
31.3641   265
31.3741   276
31.3841   250
31.3941   271
31.4041   288
31.4141   275
31.4241   299
31.4341   280
31.4441   258
31.4541   243
31.4641   237
31.4741   266
31.4841   268
31.4941   273
31.5041   255
31.5141   258
31.5241   251
31.5341   255
31.5441   265
31.5541   271
31.5641   253
31.5741   247
31.5841   277
31.5941   273
31.6041   255
31.6141   228
31.6241   282
31.6341   254
31.6441   270
31.6541   284
31.6641   261
31.6741   246
31.6841   269
31.6941   230
31.7041   262
31.7141   253
31.7241   267
31.7341   285
31.7441   234
31.7541   255
31.7641   280
31.7741   255
31.7841   274
31.7941   250
31.8041   248
31.8141   302
31.8241   257
31.8341   276
31.8441   277
31.8541   278
31.8641   273
31.8741   243
31.8841   277
31.8941   269
31.9041   235
31.9141   275
31.9241   242
31.9341   256
31.9441   275
31.9541   299
31.9641   272
31.9741   247
31.9841   244
31.9941   237
32.0041   237
32.0141   281
32.0241   251
32.0341   246
32.0441   253
32.0541   250
32.0641   273
32.0741   272
32.0841   243
32.0941   259
32.1041   283
32.1141   250
32.1241   279
32.1341   295
32.1441   250
32.1541   246
32.1641   284
32.1741   253
32.1841   270
32.1941   264
32.2041   296
32.2141   265
32.2241   267
32.2341   294
32.2441   243
32.2541   267
32.2641   256
32.2741   269
32.2841   238
32.2941   222
32.3041   265
32.3141   255
32.3241   252
32.3341   256
32.3441   221
32.3541   263
32.3641   226
32.3741   237
32.3841   250
32.3941   264
32.4041   239
32.4141   225
32.4241   266
32.4341   230
32.4441   218
32.4541   200
32.4641   214
32.4741   247
32.4841   220
32.4941   231
32.5041   207
32.5141   219
32.5241   227
32.5341   239
32.5441   214
32.5541   199
32.5641   245
32.5741   204
32.5841   220
32.5941   216
32.6041   225
32.6141   211
32.6241   216
32.6341   238
32.6441   214
32.6541   218
32.6641   215
32.6741   194
32.6841   236
32.6941   212
32.7041   217
32.7141   216
32.7241   219
32.7341   190
32.7441   199
32.7541   226
32.7641   205
32.7741   201
32.7841   217
32.7941   199
32.8041   201
32.8141   222
32.8241   196
32.8341   225
32.8441   220
32.8541   211
32.8641   203
32.8741   201
32.8841   196
32.8941   202
32.9041   198
32.9141   186
32.9241   204
32.9341   202
32.9441   179
32.9541   211
32.9641   241
32.9741   217
32.9841   203
32.9941   208
33.0041   188
33.0141   227
33.0241   208
33.0341   200
33.0441   185
33.0541   217
33.0641   200
33.0741   189
33.0841   194
33.0941   186
33.1041   185
33.1141   193
33.1241   171
33.1341   199
33.1441   201
33.1541   225
33.1641   195
33.1741   206
33.1841   186
33.1941   207
33.2041   185
33.2141   197
33.2241   199
33.2341   188
33.2441   179
33.2541   196
33.2641   189
33.2741   186
33.2841   192
33.2941   186
33.3041   181
33.3141   208
33.3241   198
33.3341   200
33.3441   170
33.3541   201
33.3641   192
33.3741   189
33.3841   183
33.3941   190
33.4041   189
33.4141   183
33.4241   200
33.4341   184
33.4441   192
33.4541   202
33.4641   215
33.4741   193
33.4841   199
33.4941   183
33.5041   175
33.5141   170
33.5241   210
33.5341   201
33.5441   191
33.5541   175
33.5641   170
33.5741   187
33.5841   184
33.5941   180
33.6041   182
33.6141   168
33.6241   165
33.6341   174
33.6441   162
33.6541   164
33.6641   174
33.6741   179
33.6841   169
33.6941   176
33.7041   171
33.7141   159
33.7241   191
33.7341   160
33.7441   178
33.7541   168
33.7641   190
33.7741   173
33.7841   176
33.7941   169
33.8041   175
33.8141   163
33.8241   187
33.8341   183
33.8441   193
33.8541   163
33.8641   171
33.8741   175
33.8841   181
33.8941   173
33.9041   168
33.9141   176
33.9241   189
33.9341   190
33.9441   195
33.9541   177
33.9641   173
33.9741   175
33.9841   177
33.9941   169
34.0041   148
34.0141   181
34.0241   175
34.0341   160
34.0441   152
34.0541   160
34.0641   157
34.0741   171
34.0841   162
34.0941   165
34.1041   162
34.1141   165
34.1241   174
34.1341   183
34.1441   177
34.1541   158
34.1641   162
34.1741   154
34.1841   168
34.1941   166
34.2041   155
34.2141   143
34.2241   146
34.2341   158
34.2441   167
34.2541   171
34.2641   147
34.2741   169
34.2841   159
34.2941   170
34.3041   175
34.3141   157
34.3241   166
34.3341   144
34.3441   146
34.3541   161
34.3641   176
34.3741   136
34.3841   128
34.3941   159
34.4041   159
34.4141   148
34.4241   186
34.4341   177
34.4441   167
34.4541   164
34.4641   159
34.4741   146
34.4841   164
34.4941   142
34.5041   166
34.5141   152
34.5241   169
34.5341   158
34.5441   156
34.5541   152
34.5641   177
34.5741   157
34.5841   163
34.5941   153
34.6041   146
34.6141   150
34.6241   150
34.6341   132
34.6441   137
34.6541   143
34.6641   152
34.6741   184
34.6841   152
34.6941   152
34.7041   135
34.7141   153
34.7241   137
34.7341   136
34.7441   141
34.7541   123
34.7641   133
34.7741   146
34.7841   154
34.7941   138
34.8041   141
34.8141   169
34.8241   157
34.8341   154
34.8441   145
34.8541   152
34.8641   161
34.8741   139
34.8841   142
34.8941   133
34.9041   143
34.9141   155
34.9241   138
34.9341   144
34.9441   142
34.9541   152
34.9641   163
34.9741   138
34.9841   132
34.9941   148
35.0041   121
35.0141   137
35.0241   129
35.0341   146
35.0441   154
35.0541   133
35.0641   126
35.0741   129
35.0841   142
35.0941   147
35.1041   130
35.1141   148
35.1241   134
35.1341   138
35.1441   140
35.1541   136
35.1641   128
35.1741   139
35.1841   148
35.1941   143
35.2041   143
35.2141   142
35.2241   146
35.2341   141
35.2441   129
35.2541   129
35.2641   155
35.2741   133
35.2841   132
35.2941   142
35.3041   147
35.3141   139
35.3241   142
35.3341   152
35.3441   119
35.3541   125
35.3641   134
35.3741   140
35.3841   128
35.3941   124
35.4041   131
35.4141   124
35.4241   135
35.4341   127
35.4441   124
35.4541   152
35.4641   113
35.4741   116
35.4841   120
35.4941   124
35.5041   133
35.5141   128
35.5241   123
35.5341   138
35.5441   134
35.5541   114
35.5641   153
35.5741   136
35.5841   151
35.5941   117
35.6041   108
35.6141   122
35.6241   121
35.6341   128
35.6441   129
35.6541   122
35.6641   117
35.6741   112
35.6841   129
35.6941   117
35.7041   143
35.7141   128
35.7241   119
35.7341   104
35.7441   104
35.7541   122
35.7641   138
35.7741   122
35.7841   137
35.7941   130
35.8041   122
35.8141    96
35.8241   134
35.8341   103
35.8441   136
35.8541   114
35.8641    89
35.8741   129
35.8841   112
35.8941   117
35.9041   110
35.9141   127
35.9241   120
35.9341   115
35.9441   119
35.9541   121
35.9641   100
35.9741   107
35.9841   120
35.9941   109
36.0041   117
36.0141   118
36.0241   100
36.0341   115
36.0441    98
36.0541   111
36.0641   111
36.0741   124
36.0841   124
36.0941   106
36.1041   114
36.1141    98
36.1241   130
36.1341   121
36.1441   117
36.1541    99
36.1641   119
36.1741   102
36.1841   102
36.1941    90
36.2041   117
36.2141   101
36.2241   119
36.2341   117
36.2441   120
36.2541   105
36.2641   119
36.2741   110
36.2841   122
36.2941   121
36.3041   125
36.3141   121
36.3241   117
36.3341   104
36.3441   124
36.3541   106
36.3641   100
36.3741   118
36.3841   119
36.3941   104
36.4041   122
36.4141   107
36.4241   117
36.4341    99
36.4441   104
36.4541   108
36.4641    83
36.4741   113
36.4841   116
36.4941    96
36.5041    93
36.5141    95
36.5241    99
36.5341   107
36.5441   105
36.5541   106
36.5641    98
36.5741   113
36.5841    89
36.5941   112
36.6041   120
36.6141   106
36.6241    76
36.6341   105
36.6441   104
36.6541   103
36.6641   104
36.6741   102
36.6841   110
36.6941    99
36.7041    93
36.7141    83
36.7241    95
36.7341   103
36.7441   106
36.7541    90
36.7641   107
36.7741    84
36.7841    94
36.7941   108
36.8041    98
36.8141    95
36.8241   101
36.8341    91
36.8441    75
36.8541    94
36.8641    97
36.8741   102
36.8841    84
36.8941    89
36.9041    90
36.9141    96
36.9241    90
36.9341    99
36.9441    97
36.9541    95
36.9641    85
36.9741   100
36.9841    94
36.9941    95
37.0041    93
37.0141    80
37.0241    73
37.0341   107
37.0441    92
37.0541   102
37.0641   111
37.0741    94
37.0841    92
37.0941   101
37.1041    79
37.1141    82
37.1241    88
37.1341    89
37.1441    86
37.1541    75
37.1641    87
37.1741    74
37.1841    77
37.1941    74
37.2041   102
37.2141    95
37.2241    85
37.2341    78
37.2441    97
37.2541    97
37.2641    87
37.2741    83
37.2841    85
37.2941    99
37.3041    88
37.3141    93
37.3241    66
37.3341    69
37.3441    68
37.3541    90
37.3641    67
37.3741    80
37.3841    78
37.3941    79
37.4041    66
37.4141    79
37.4241    68
37.4341    80
37.4441    82
37.4541    78
37.4641    83
37.4741    81
37.4841    89
37.4941    89
37.5041    79
37.5141    96
37.5241    91
37.5341    76
37.5441    76
37.5541    74
37.5641    91
37.5741    62
37.5841    78
37.5941    78
37.6041    78
37.6141    97
37.6241    89
37.6341    76
37.6441    69
37.6541    86
37.6641    75
37.6741    67
37.6841    80
37.6941    75
37.7041    90
37.7141    96
37.7241    89
37.7341    76
37.7441    93
37.7541    72
37.7641    73
37.7741    70
37.7841    73
37.7941    80
37.8041    68
37.8141    73
37.8241    79
37.8341    74
37.8441    63
37.8541    85
37.8641    93
37.8741    64
37.8841    65
37.8941    71
37.9041    73
37.9141    69
37.9241    71
37.9341    69
37.9441    84
37.9541    67
37.9641    64
37.9741    63
37.9841    57
37.9941    60
38.0041    82
38.0141    78
38.0241    70
38.0341    79
38.0441    62
38.0541    72
38.0641    61
38.0741    58
38.0841    74
38.0941    72
38.1041    82
38.1141    78
38.1241    71
38.1341    62
38.1441    61
38.1541    64
38.1641    74
38.1741    66
38.1841    67
38.1941    68
38.2041    71
38.2141    75
38.2241    69
38.2341    70
38.2441    69
38.2541    67
38.2641    76
38.2741    69
38.2841    69
38.2941    57
38.3041    58
38.3141    59
38.3241    50
38.3341    52
38.3441    74
38.3541    59
38.3641    66
38.3741    51
38.3841    59
38.3941    64
38.4041    51
38.4141    66
38.4241    68
38.4341    53
38.4441    60
38.4541    56
38.4641    76
38.4741    53
38.4841    53
38.4941    71
38.5041    56
38.5141    73
38.5241    70
38.5341    43
38.5441    59
38.5541    62
38.5641    60
38.5741    60
38.5841    55
38.5941    75
38.6041    62
38.6141    54
38.6241    54
38.6341    60
38.6441    51
38.6541    53
38.6641    67
38.6741    64
38.6841    60
38.6941    61
38.7041    65
38.7141    43
38.7241    59
38.7341    49
38.7441    63
38.7541    56
38.7641    55
38.7741    50
38.7841    51
38.7941    61
38.8041    51
38.8141    57
38.8241    65
38.8341    51
38.8441    48
38.8541    54
38.8641    46
38.8741    49
38.8841    55
38.8941    53
38.9041    60
38.9141    55
38.9241    54
38.9341    60
38.9441    55
38.9541    67
38.9641    54
38.9741    39
38.9841    47
38.9941    50
39.0041    44
39.0141    44
39.0241    45
39.0341    49
39.0441    60
39.0541    52
39.0641    50
39.0741    58
39.0841    62
39.0941    55
39.1041    46
39.1141    42
39.1241    42
39.1341    46
39.1441    51
39.1541    47
39.1641    56
39.1741    42
39.1841    55
39.1941    53
39.2041    58
39.2141    49
39.2241    52
39.2341    48
39.2441    53
39.2541    47
39.2641    49
39.2741    58
39.2841    41
39.2941    43
39.3041    44
39.3141    40
39.3241    52
39.3341    40
39.3441    48
39.3541    39
39.3641    41
39.3741    46
39.3841    44
39.3941    55
39.4041    31
39.4141    46
39.4241    48
39.4341    46
39.4441    54
39.4541    37
39.4641    42
39.4741    53
39.4841    57
39.4941    51
39.5041    45
39.5141    57
39.5241    41
39.5341    43
39.5441    38
39.5541    41
39.5641    32
39.5741    46
39.5841    54
39.5941    58
39.6041    41
39.6141    39
39.6241    41
39.6341    41
39.6441    50
39.6541    35
39.6641    47
39.6741    46
39.6841    28
39.6941    30
39.7041    43
39.7141    41
39.7241    48
39.7341    41
39.7441    34
39.7541    40
39.7641    51
39.7741    36
39.7841    39
39.7941    41
39.8041    32
39.8141    37
39.8241    32
39.8341    35
39.8441    28
39.8541    33
39.8641    46
39.8741    54
39.8841    31
39.8941    41
39.9041    46
39.9141    45
39.9241    41
39.9341    34
39.9441    36
39.9541    44
39.9641    40
39.9741    33
39.9841    43
