Bruker Nano GmbH Berlin, Germany
Esprit 1.9

Date: 4/1/2021 4:46:29 PM
Real time: 25014
Life time: 23403
Pulse density: 93368


Detector type: XFlash 430
Window type: Custom type
Detector thickness: 0.45
Si dead layer:0.029

Calibration, lin.: 10
Calibration, abs.: -955.9
Mn FWHM: 137.05
Fano factor: 0.121
Channels: 4095

Energy Counts
-0.9559     0
-0.9459     0
-0.9359     0
-0.9259     0
-0.9159     0
-0.9059     0
-0.8959     0
-0.8859     0
-0.8759     0
-0.8659     0
-0.8559     0
-0.8459     0
-0.8359     0
-0.8259     0
-0.8159     0
-0.8059     0
-0.7959     0
-0.7859     0
-0.7759     0
-0.7659     0
-0.7559     0
-0.7459     0
-0.7359     0
-0.7259     0
-0.7159     0
-0.7059     0
-0.6959     0
-0.6859     0
-0.6759     0
-0.6659     0
-0.6559     0
-0.6459     0
-0.6359     0
-0.6259     0
-0.6159     0
-0.6059     0
-0.5959     0
-0.5859     0
-0.5759     0
-0.5659     0
-0.5559     0
-0.5459     0
-0.5359     0
-0.5259     0
-0.5159     0
-0.5059     0
-0.4959     0
-0.4859     0
-0.4759     0
-0.4659     0
-0.4559     0
-0.4459     0
-0.4359     0
-0.4259     0
-0.4159     0
-0.4059     0
-0.3959     0
-0.3859     0
-0.3759     0
-0.3659     0
-0.3559     0
-0.3459     0
-0.3359     0
-0.3259     0
-0.3159     0
-0.3059     0
-0.2959     0
-0.2859     0
-0.2759     0
-0.2659     0
-0.2559     0
-0.2459     0
-0.2359     0
-0.2259     0
-0.2159     0
-0.2059     0
-0.1959     0
-0.1859     0
-0.1759     0
-0.1659     0
-0.1559     0
-0.1459     0
-0.1359     0
-0.1259     1
-0.1159     4
-0.1059    14
-0.0959    57
-0.0859   240
-0.0759   883
-0.0659  2605
-0.0559  6835
-0.0459 14733
-0.0359 28036
-0.0259 44385
-0.0159 61369
-0.0059 71702
 0.0041 72295
 0.0141 62021
 0.0241 46110
 0.0341 28751
 0.0441 15538
 0.0541  7447
 0.0641  2955
 0.0741   970
 0.0841   307
 0.0941    81
 0.1041    23
 0.1141    14
 0.1241    15
 0.1341    11
 0.1441    10
 0.1541     7
 0.1641     9
 0.1741     3
 0.1841   223
 0.1941   458
 0.2041   427
 0.2141   416
 0.2241   429
 0.2341   406
 0.2441   396
 0.2541   418
 0.2641   435
 0.2741   427
 0.2841   404
 0.2941   370
 0.3041   394
 0.3141   405
 0.3241   385
 0.3341   369
 0.3441   416
 0.3541   387
 0.3641   398
 0.3741   369
 0.3841   354
 0.3941   355
 0.4041   349
 0.4141   329
 0.4241   346
 0.4341   352
 0.4441   371
 0.4541   331
 0.4641   315
 0.4741   329
 0.4841   354
 0.4941   345
 0.5041   333
 0.5141   339
 0.5241   342
 0.5341   349
 0.5441   350
 0.5541   305
 0.5641   322
 0.5741   332
 0.5841   316
 0.5941   327
 0.6041   327
 0.6141   317
 0.6241   327
 0.6341   327
 0.6441   321
 0.6541   329
 0.6641   342
 0.6741   329
 0.6841   302
 0.6941   295
 0.7041   298
 0.7141   310
 0.7241   318
 0.7341   313
 0.7441   299
 0.7541   303
 0.7641   308
 0.7741   305
 0.7841   290
 0.7941   285
 0.8041   264
 0.8141   295
 0.8241   298
 0.8341   281
 0.8441   293
 0.8541   284
 0.8641   294
 0.8741   295
 0.8841   304
 0.8941   297
 0.9041   279
 0.9141   270
 0.9241   277
 0.9341   276
 0.9441   263
 0.9541   260
 0.9641   281
 0.9741   280
 0.9841   261
 0.9941   258
 1.0041   263
 1.0141   272
 1.0241   278
 1.0341   248
 1.0441   258
 1.0541   250
 1.0641   258
 1.0741   271
 1.0841   299
 1.0941   254
 1.1041   250
 1.1141   262
 1.1241   279
 1.1341   269
 1.1441   257
 1.1541   255
 1.1641   236
 1.1741   239
 1.1841   270
 1.1941   238
 1.2041   251
 1.2141   261
 1.2241   229
 1.2341   235
 1.2441   265
 1.2541   244
 1.2641   230
 1.2741   235
 1.2841   238
 1.2941   225
 1.3041   240
 1.3141   252
 1.3241   247
 1.3341   256
 1.3441   242
 1.3541   245
 1.3641   239
 1.3741   231
 1.3841   224
 1.3941   237
 1.4041   235
 1.4141   246
 1.4241   234
 1.4341   247
 1.4441   229
 1.4541   234
 1.4641   229
 1.4741   235
 1.4841   236
 1.4941   254
 1.5041   240
 1.5141   264
 1.5241   240
 1.5341   224
 1.5441   236
 1.5541   234
 1.5641   240
 1.5741   220
 1.5841   236
 1.5941   226
 1.6041   224
 1.6141   225
 1.6241   243
 1.6341   246
 1.6441   260
 1.6541   277
 1.6641   326
 1.6741   387
 1.6841   498
 1.6941   546
 1.7041   681
 1.7141   833
 1.7241   888
 1.7341   889
 1.7441   859
 1.7541   861
 1.7641   794
 1.7741   676
 1.7841   583
 1.7941   488
 1.8041   425
 1.8141   367
 1.8241   348
 1.8341   294
 1.8441   288
 1.8541   287
 1.8641   261
 1.8741   216
 1.8841   224
 1.8941   251
 1.9041   244
 1.9141   273
 1.9241   220
 1.9341   219
 1.9441   236
 1.9541   241
 1.9641   247
 1.9741   268
 1.9841   258
 1.9941   256
 2.0041   256
 2.0141   264
 2.0241   280
 2.0341   271
 2.0441   286
 2.0541   245
 2.0641   259
 2.0741   233
 2.0841   225
 2.0941   234
 2.1041   235
 2.1141   204
 2.1241   217
 2.1341   231
 2.1441   234
 2.1541   222
 2.1641   196
 2.1741   198
 2.1841   218
 2.1941   202
 2.2041   205
 2.2141   193
 2.2241   218
 2.2341   205
 2.2441   218
 2.2541   230
 2.2641   193
 2.2741   178
 2.2841   200
 2.2941   195
 2.3041   205
 2.3141   203
 2.3241   203
 2.3341   223
 2.3441   189
 2.3541   198
 2.3641   222
 2.3741   191
 2.3841   179
 2.3941   178
 2.4041   183
 2.4141   192
 2.4241   180
 2.4341   192
 2.4441   189
 2.4541   187
 2.4641   188
 2.4741   173
 2.4841   179
 2.4941   174
 2.5041   169
 2.5141   155
 2.5241   169
 2.5341   181
 2.5441   194
 2.5541   190
 2.5641   186
 2.5741   208
 2.5841   186
 2.5941   204
 2.6041   186
 2.6141   192
 2.6241   198
 2.6341   181
 2.6441   153
 2.6541   173
 2.6641   176
 2.6741   164
 2.6841   187
 2.6941   178
 2.7041   159
 2.7141   144
 2.7241   164
 2.7341   167
 2.7441   178
 2.7541   171
 2.7641   198
 2.7741   148
 2.7841   173
 2.7941   173
 2.8041   169
 2.8141   174
 2.8241   186
 2.8341   186
 2.8441   181
 2.8541   163
 2.8641   163
 2.8741   179
 2.8841   158
 2.8941   170
 2.9041   152
 2.9141   166
 2.9241   168
 2.9341   142
 2.9441   184
 2.9541   166
 2.9641   149
 2.9741   186
 2.9841   133
 2.9941   188
 3.0041   143
 3.0141   159
 3.0241   166
 3.0341   171
 3.0441   144
 3.0541   159
 3.0641   143
 3.0741   142
 3.0841   139
 3.0941   151
 3.1041   142
 3.1141   142
 3.1241   148
 3.1341   146
 3.1441   116
 3.1541   156
 3.1641   130
 3.1741   132
 3.1841   149
 3.1941   150
 3.2041   153
 3.2141   146
 3.2241   172
 3.2341   183
 3.2441   187
 3.2541   192
 3.2641   209
 3.2741   217
 3.2841   243
 3.2941   268
 3.3041   279
 3.3141   274
 3.3241   274
 3.3341   285
 3.3441   269
 3.3541   220
 3.3641   218
 3.3741   205
 3.3841   168
 3.3941   152
 3.4041   133
 3.4141   130
 3.4241   143
 3.4341   145
 3.4441   138
 3.4541   142
 3.4641   139
 3.4741   127
 3.4841   144
 3.4941   159
 3.5041   153
 3.5141   149
 3.5241   153
 3.5341   197
 3.5441   176
 3.5541   235
 3.5641   261
 3.5741   332
 3.5841   474
 3.5941   602
 3.6041   764
 3.6141  1041
 3.6241  1366
 3.6341  1663
 3.6441  2020
 3.6541  2359
 3.6641  2724
 3.6741  2943
 3.6841  3093
 3.6941  3014
 3.7041  2981
 3.7141  2669
 3.7241  2508
 3.7341  2106
 3.7441  1728
 3.7541  1290
 3.7641   940
 3.7741   772
 3.7841   555
 3.7941   392
 3.8041   285
 3.8141   234
 3.8241   190
 3.8341   171
 3.8441   150
 3.8541   120
 3.8641   140
 3.8741   160
 3.8841   158
 3.8941   163
 3.9041   199
 3.9141   206
 3.9241   239
 3.9341   285
 3.9441   329
 3.9541   379
 3.9641   445
 3.9741   485
 3.9841   584
 3.9941   582
 4.0041   605
 4.0141   626
 4.0241   612
 4.0341   589
 4.0441   556
 4.0541   477
 4.0641   424
 4.0741   378
 4.0841   333
 4.0941   246
 4.1041   205
 4.1141   148
 4.1241   133
 4.1341   132
 4.1441   118
 4.1541   107
 4.1641   101
 4.1741   128
 4.1841    93
 4.1941    92
 4.2041   108
 4.2141    87
 4.2241    89
 4.2341    95
 4.2441    96
 4.2541    80
 4.2641   119
 4.2741   107
 4.2841   110
 4.2941    96
 4.3041   100
 4.3141    99
 4.3241    96
 4.3341   107
 4.3441   108
 4.3541    90
 4.3641    98
 4.3741   109
 4.3841   135
 4.3941   149
 4.4041   179
 4.4141   206
 4.4241   260
 4.4341   295
 4.4441   322
 4.4541   376
 4.4641   468
 4.4741   493
 4.4841   524
 4.4941   565
 4.5041   594
 4.5141   580
 4.5241   540
 4.5341   505
 4.5441   465
 4.5541   446
 4.5641   379
 4.5741   311
 4.5841   265
 4.5941   206
 4.6041   178
 4.6141   171
 4.6241   148
 4.6341   156
 4.6441   148
 4.6541   130
 4.6641   112
 4.6741   125
 4.6841    95
 4.6941   105
 4.7041   113
 4.7141    89
 4.7241    98
 4.7341   115
 4.7441   114
 4.7541   122
 4.7641   110
 4.7741   117
 4.7841   129
 4.7941   121
 4.8041   132
 4.8141   115
 4.8241   139
 4.8341   136
 4.8441   135
 4.8541   143
 4.8641   161
 4.8741   195
 4.8841   185
 4.8941   179
 4.9041   195
 4.9141   182
 4.9241   218
 4.9341   211
 4.9441   189
 4.9541   205
 4.9641   182
 4.9741   191
 4.9841   149
 4.9941   149
 5.0041   143
 5.0141   133
 5.0241   134
 5.0341   120
 5.0441   123
 5.0541   120
 5.0641   115
 5.0741   123
 5.0841   110
 5.0941   112
 5.1041   110
 5.1141   115
 5.1241   114
 5.1341   111
 5.1441    99
 5.1541   107
 5.1641   114
 5.1741   104
 5.1841   116
 5.1941   110
 5.2041    96
 5.2141   114
 5.2241   117
 5.2341   126
 5.2441   107
 5.2541   107
 5.2641   108
 5.2741   115
 5.2841    96
 5.2941   122
 5.3041   116
 5.3141   121
 5.3241   122
 5.3341   138
 5.3441   125
 5.3541   150
 5.3641   154
 5.3741   160
 5.3841   149
 5.3941   172
 5.4041   171
 5.4141   166
 5.4241   173
 5.4341   179
 5.4441   172
 5.4541   164
 5.4641   150
 5.4741   158
 5.4841   167
 5.4941   157
 5.5041   140
 5.5141   105
 5.5241    95
 5.5341   117
 5.5441   128
 5.5541   121
 5.5641   141
 5.5741   117
 5.5841   119
 5.5941   122
 5.6041   106
 5.6141   120
 5.6241   102
 5.6341    93
 5.6441   132
 5.6541   110
 5.6641   116
 5.6741   120
 5.6841   127
 5.6941   117
 5.7041   111
 5.7141   124
 5.7241   137
 5.7341   119
 5.7441   155
 5.7541   156
 5.7641   176
 5.7741   170
 5.7841   208
 5.7941   231
 5.8041   256
 5.8141   292
 5.8241   310
 5.8341   425
 5.8441   447
 5.8541   468
 5.8641   536
 5.8741   551
 5.8841   580
 5.8941   574
 5.9041   569
 5.9141   557
 5.9241   541
 5.9341   499
 5.9441   435
 5.9541   411
 5.9641   331
 5.9741   334
 5.9841   294
 5.9941   229
 6.0041   219
 6.0141   213
 6.0241   208
 6.0341   162
 6.0441   151
 6.0541   143
 6.0641   133
 6.0741   157
 6.0841   170
 6.0941   131
 6.1041   162
 6.1141   159
 6.1241   172
 6.1341   192
 6.1441   179
 6.1541   180
 6.1641   196
 6.1741   195
 6.1841   222
 6.1941   269
 6.2041   324
 6.2141   410
 6.2241   452
 6.2341   641
 6.2441   823
 6.2541  1189
 6.2641  1648
 6.2741  2315
 6.2841  3017
 6.2941  3879
 6.3041  5162
 6.3141  6418
 6.3241  8059
 6.3341  9618
 6.3441 11227
 6.3541 12857
 6.3641 14146
 6.3741 15284
 6.3841 16124
 6.3941 16503
 6.4041 16226
 6.4141 15946
 6.4241 14938
 6.4341 13692
 6.4441 12226
 6.4541 10690
 6.4641  9140
 6.4741  7383
 6.4841  5878
 6.4941  4651
 6.5041  3584
 6.5141  2674
 6.5241  1986
 6.5341  1416
 6.5441  1028
 6.5541   775
 6.5641   586
 6.5741   417
 6.5841   314
 6.5941   270
 6.6041   218
 6.6141   204
 6.6241   221
 6.6341   171
 6.6441   203
 6.6541   157
 6.6641   175
 6.6741   189
 6.6841   175
 6.6941   187
 6.7041   181
 6.7141   195
 6.7241   186
 6.7341   198
 6.7441   178
 6.7541   196
 6.7641   169
 6.7741   210
 6.7841   183
 6.7941   185
 6.8041   183
 6.8141   242
 6.8241   203
 6.8341   229
 6.8441   239
 6.8541   271
 6.8641   281
 6.8741   325
 6.8841   325
 6.8941   362
 6.9041   409
 6.9141   496
 6.9241   661
 6.9341   723
 6.9441   908
 6.9541  1068
 6.9641  1257
 6.9741  1476
 6.9841  1698
 6.9941  1995
 7.0041  2209
 7.0141  2473
 7.0241  2651
 7.0341  2763
 7.0441  2971
 7.0541  2775
 7.0641  2878
 7.0741  2748
 7.0841  2683
 7.0941  2425
 7.1041  2244
 7.1141  1861
 7.1241  1628
 7.1341  1503
 7.1441  1222
 7.1541  1016
 7.1641   795
 7.1741   667
 7.1841   573
 7.1941   457
 7.2041   405
 7.2141   340
 7.2241   293
 7.2341   300
 7.2441   255
 7.2541   278
 7.2641   257
 7.2741   257
 7.2841   253
 7.2941   267
 7.3041   288
 7.3141   286
 7.3241   292
 7.3341   323
 7.3441   314
 7.3541   354
 7.3641   359
 7.3741   384
 7.3841   361
 7.3941   367
 7.4041   390
 7.4141   392
 7.4241   434
 7.4341   371
 7.4441   391
 7.4541   414
 7.4641   390
 7.4741   379
 7.4841   359
 7.4941   356
 7.5041   355
 7.5141   366
 7.5241   309
 7.5341   298
 7.5441   306
 7.5541   304
 7.5641   257
 7.5741   259
 7.5841   246
 7.5941   252
 7.6041   226
 7.6141   266
 7.6241   279
 7.6341   248
 7.6441   258
 7.6541   264
 7.6641   261
 7.6741   268
 7.6841   266
 7.6941   281
 7.7041   256
 7.7141   286
 7.7241   294
 7.7341   312
 7.7441   303
 7.7541   303
 7.7641   283
 7.7741   322
 7.7841   358
 7.7941   327
 7.8041   333
 7.8141   328
 7.8241   329
 7.8341   367
 7.8441   367
 7.8541   364
 7.8641   374
 7.8741   349
 7.8841   411
 7.8941   422
 7.9041   402
 7.9141   413
 7.9241   456
 7.9341   506
 7.9441   481
 7.9541   545
 7.9641   604
 7.9741   623
 7.9841   686
 7.9941   675
 8.0041   762
 8.0141   850
 8.0241   870
 8.0341   910
 8.0441   979
 8.0541  1054
 8.0641  1149
 8.0741  1171
 8.0841  1260
 8.0941  1319
 8.1041  1341
 8.1141  1429
 8.1241  1596
 8.1341  1561
 8.1441  1598
 8.1541  1655
 8.1641  1690
 8.1741  1725
 8.1841  1747
 8.1941  1840
 8.2041  1864
 8.2141  1844
 8.2241  1813
 8.2341  1880
 8.2441  1886
 8.2541  1997
 8.2641  2052
 8.2741  2199
 8.2841  2342
 8.2941  2558
 8.3041  2653
 8.3141  2831
 8.3241  3040
 8.3341  3318
 8.3441  3516
 8.3541  3736
 8.3641  3826
 8.3741  3988
 8.3841  3891
 8.3941  3935
 8.4041  3823
 8.4141  3731
 8.4241  3482
 8.4341  3236
 8.4441  2947
 8.4541  2580
 8.4641  2358
 8.4741  2056
 8.4841  1806
 8.4941  1556
 8.5041  1277
 8.5141  1078
 8.5241   955
 8.5341   815
 8.5441   706
 8.5541   682
 8.5641   576
 8.5741   581
 8.5841   522
 8.5941   509
 8.6041   486
 8.6141   490
 8.6241   460
 8.6341   506
 8.6441   503
 8.6541   491
 8.6641   502
 8.6741   454
 8.6841   462
 8.6941   456
 8.7041   479
 8.7141   468
 8.7241   418
 8.7341   432
 8.7441   435
 8.7541   414
 8.7641   408
 8.7741   420
 8.7841   417
 8.7941   389
 8.8041   420
 8.8141   418
 8.8241   422
 8.8341   384
 8.8441   401
 8.8541   398
 8.8641   403
 8.8741   432
 8.8841   436
 8.8941   405
 8.9041   428
 8.9141   413
 8.9241   421
 8.9341   432
 8.9441   421
 8.9541   450
 8.9641   447
 8.9741   451
 8.9841   504
 8.9941   490
 9.0041   473
 9.0141   495
 9.0241   491
 9.0341   532
 9.0441   552
 9.0541   528
 9.0641   509
 9.0741   561
 9.0841   548
 9.0941   560
 9.1041   618
 9.1141   633
 9.1241   683
 9.1341   724
 9.1441   751
 9.1541   698
 9.1641   753
 9.1741   792
 9.1841   833
 9.1941   943
 9.2041   916
 9.2141   976
 9.2241  1001
 9.2341  1077
 9.2441  1114
 9.2541  1175
 9.2641  1197
 9.2741  1275
 9.2841  1287
 9.2941  1392
 9.3041  1370
 9.3141  1439
 9.3241  1560
 9.3341  1535
 9.3441  1574
 9.3541  1631
 9.3641  1738
 9.3741  1779
 9.3841  1704
 9.3941  1743
 9.4041  1722
 9.4141  1808
 9.4241  1812
 9.4341  1890
 9.4441  1877
 9.4541  1946
 9.4641  1995
 9.4741  1934
 9.4841  1984
 9.4941  2062
 9.5041  2028
 9.5141  2134
 9.5241  2263
 9.5341  2281
 9.5441  2396
 9.5541  2448
 9.5641  2732
 9.5741  2791
 9.5841  2923
 9.5941  3189
 9.6041  3283
 9.6141  3438
 9.6241  3662
 9.6341  3814
 9.6441  3960
 9.6541  4057
 9.6641  4122
 9.6741  4065
 9.6841  4045
 9.6941  4065
 9.7041  3795
 9.7141  3554
 9.7241  3422
 9.7341  3201
 9.7441  2921
 9.7541  2773
 9.7641  2551
 9.7741  2333
 9.7841  2160
 9.7941  2018
 9.8041  1941
 9.8141  1808
 9.8241  1728
 9.8341  1679
 9.8441  1609
 9.8541  1547
 9.8641  1594
 9.8741  1654
 9.8841  1656
 9.8941  1657
 9.9041  1748
 9.9141  1790
 9.9241  1791
 9.9341  1818
 9.9441  1852
 9.9541  1802
 9.9641  1737
 9.9741  1756
 9.9841  1649
 9.9941  1603
10.0041  1457
10.0141  1406
10.0241  1280
10.0341  1180
10.0441  1059
10.0541   987
10.0641   843
10.0741   746
10.0841   689
10.0941   638
10.1041   542
10.1141   515
10.1241   484
10.1341   429
10.1441   403
10.1541   412
10.1641   395
10.1741   354
10.1841   324
10.1941   326
10.2041   325
10.2141   308
10.2241   301
10.2341   290
10.2441   280
10.2541   258
10.2641   241
10.2741   246
10.2841   248
10.2941   253
10.3041   244
10.3141   238
10.3241   230
10.3341   249
10.3441   254
10.3541   250
10.3641   256
10.3741   260
10.3841   256
10.3941   248
10.4041   244
10.4141   236
10.4241   232
10.4341   225
10.4441   225
10.4541   259
10.4641   246
10.4741   244
10.4841   239
10.4941   242
10.5041   251
10.5141   262
10.5241   243
10.5341   246
10.5441   265
10.5541   261
10.5641   258
10.5741   262
10.5841   249
10.5941   249
10.6041   269
10.6141   272
10.6241   259
10.6341   268
10.6441   270
10.6541   286
10.6641   320
10.6741   301
10.6841   285
10.6941   280
10.7041   278
10.7141   293
10.7241   301
10.7341   305
10.7441   332
10.7541   340
10.7641   314
10.7741   315
10.7841   332
10.7941   341
10.8041   347
10.8141   336
10.8241   352
10.8341   379
10.8441   402
10.8541   396
10.8641   376
10.8741   388
10.8841   404
10.8941   409
10.9041   401
10.9141   386
10.9241   414
10.9341   394
10.9441   414
10.9541   400
10.9641   397
10.9741   417
10.9841   412
10.9941   394
11.0041   368
11.0141   374
11.0241   372
11.0341   366
11.0441   335
11.0541   350
11.0641   372
11.0741   366
11.0841   354
11.0941   354
11.1041   374
11.1141   348
11.1241   363
11.1341   370
11.1441   365
11.1541   369
11.1641   371
11.1741   408
11.1841   434
11.1941   440
11.2041   465
11.2141   470
11.2241   505
11.2341   535
11.2441   538
11.2541   561
11.2641   563
11.2741   560
11.2841   578
11.2941   577
11.3041   576
11.3141   542
11.3241   565
11.3341   518
11.3441   487
11.3541   414
11.3641   413
11.3741   427
11.3841   411
11.3941   360
11.4041   335
11.4141   323
11.4241   331
11.4341   338
11.4441   333
11.4541   280
11.4641   272
11.4741   294
11.4841   301
11.4941   291
11.5041   295
11.5141   274
11.5241   282
11.5341   293
11.5441   295
11.5541   287
11.5641   287
11.5741   284
11.5841   278
11.5941   292
11.6041   296
11.6141   308
11.6241   297
11.6341   310
11.6441   321
11.6541   290
11.6641   311
11.6741   311
11.6841   260
11.6941   264
11.7041   279
11.7141   251
11.7241   241
11.7341   250
11.7441   235
11.7541   241
11.7641   245
11.7741   238
11.7841   244
11.7941   241
11.8041   246
11.8141   230
11.8241   208
11.8341   208
11.8441   237
11.8541   233
11.8641   225
11.8741   219
11.8841   230
11.8941   229
11.9041   225
11.9141   225
11.9241   215
11.9341   220
11.9441   210
11.9541   211
11.9641   233
11.9741   236
11.9841   232
11.9941   232
12.0041   226
12.0141   225
12.0241   224
12.0341   215
12.0441   224
12.0541   240
12.0641   228
12.0741   211
12.0841   192
12.0941   208
12.1041   225
12.1141   242
12.1241   236
12.1341   231
12.1441   222
12.1541   212
12.1641   212
12.1741   208
12.1841   194
12.1941   200
12.2041   208
12.2141   231
12.2241   229
12.2341   203
12.2441   217
12.2541   224
12.2641   213
12.2741   205
12.2841   217
12.2941   204
12.3041   215
12.3141   204
12.3241   200
12.3341   223
12.3441   222
12.3541   218
12.3641   218
12.3741   232
12.3841   228
12.3941   206
12.4041   212
12.4141   232
12.4241   215
12.4341   205
12.4441   209
12.4541   221
12.4641   232
12.4741   230
12.4841   227
12.4941   212
12.5041   218
12.5141   232
12.5241   227
12.5341   223
12.5441   231
12.5541   232
12.5641   239
12.5741   244
12.5841   230
12.5941   250
12.6041   251
12.6141   228
12.6241   218
12.6341   226
12.6441   240
12.6541   249
12.6641   221
12.6741   228
12.6841   223
12.6941   223
12.7041   218
12.7141   223
12.7241   231
12.7341   225
12.7441   225
12.7541   219
12.7641   226
12.7741   238
12.7841   237
12.7941   237
12.8041   240
12.8141   237
12.8241   229
12.8341   223
12.8441   226
12.8541   236
12.8641   247
12.8741   247
12.8841   238
12.8941   232
12.9041   236
12.9141   241
12.9241   245
12.9341   249
12.9441   251
12.9541   249
12.9641   245
12.9741   244
12.9841   246
12.9941   249
13.0041   252
13.0141   249
13.0241   244
13.0341   247
13.0441   258
13.0541   266
13.0641   264
13.0741   261
13.0841   263
13.0941   268
13.1041   272
13.1141   267
13.1241   264
13.1341   264
13.1441   266
13.1541   271
13.1641   275
13.1741   277
13.1841   276
13.1941   277
13.2041   286
13.2141   290
13.2241   272
13.2341   281
13.2441   309
13.2541   308
13.2641   326
13.2741   351
13.2841   357
13.2941   351
13.3041   365
13.3141   366
13.3241   359
13.3341   367
13.3441   386
13.3541   397
13.3641   391
13.3741   390
13.3841   406
13.3941   414
13.4041   399
13.4141   374
13.4241   353
13.4341   341
13.4441   345
13.4541   350
13.4641   342
13.4741   347
13.4841   347
13.4941   328
13.5041   314
13.5141   311
13.5241   314
13.5341   308
13.5441   323
13.5541   330
13.5641   312
13.5741   291
13.5841   283
13.5941   301
13.6041   317
13.6141   291
13.6241   277
13.6341   294
13.6441   282
13.6541   288
13.6641   303
13.6741   299
13.6841   289
13.6941   295
13.7041   304
13.7141   303
13.7241   294
13.7341   299
13.7441   306
13.7541   293
13.7641   302
13.7741   307
13.7841   306
13.7941   309
13.8041   297
13.8141   303
13.8241   310
13.8341   293
13.8441   289
13.8541   301
13.8641   304
13.8741   308
13.8841   313
13.8941   318
13.9041   320
13.9141   339
13.9241   347
13.9341   328
13.9441   334
13.9541   339
13.9641   360
13.9741   363
13.9841   361
13.9941   364
14.0041   356
14.0141   347
14.0241   360
14.0341   393
14.0441   390
14.0541   413
14.0641   428
14.0741   419
14.0841   437
14.0941   455
14.1041   465
14.1141   461
14.1241   464
14.1341   445
14.1441   444
14.1541   459
14.1641   440
14.1741   472
14.1841   477
14.1941   481
14.2041   489
14.2141   450
14.2241   430
14.2341   429
14.2441   428
14.2541   420
14.2641   398
14.2741   390
14.2841   394
14.2941   379
14.3041   365
14.3141   371
14.3241   372
14.3341   372
14.3441   365
14.3541   375
14.3641   363
14.3741   356
14.3841   361
14.3941   352
14.4041   349
14.4141   345
14.4241   358
14.4341   371
14.4441   356
14.4541   348
14.4641   364
14.4741   357
14.4841   374
14.4941   361
14.5041   354
14.5141   366
14.5241   370
14.5341   390
14.5441   374
14.5541   377
14.5641   376
14.5741   373
14.5841   367
14.5941   366
14.6041   361
14.6141   364
14.6241   382
14.6341   372
14.6441   379
14.6541   391
14.6641   390
14.6741   366
14.6841   353
14.6941   371
14.7041   366
14.7141   373
14.7241   385
14.7341   387
14.7441   388
14.7541   401
14.7641   384
14.7741   381
14.7841   405
14.7941   407
14.8041   390
14.8141   408
14.8241   435
14.8341   425
14.8441   439
14.8541   426
14.8641   417
14.8741   434
14.8841   445
14.8941   444
14.9041   440
14.9141   442
14.9241   468
14.9341   452
14.9441   437
14.9541   453
14.9641   448
14.9741   427
14.9841   444
14.9941   460
15.0041   449
15.0141   450
15.0241   456
15.0341   458
15.0441   445
15.0541   442
15.0641   420
15.0741   432
15.0841   446
15.0941   448
15.1041   434
15.1141   419
15.1241   411
15.1341   424
15.1441   411
15.1541   421
15.1641   436
15.1741   437
15.1841   414
15.1941   399
15.2041   414
15.2141   409
15.2241   429
15.2341   437
15.2441   422
15.2541   415
15.2641   431
15.2741   419
15.2841   446
15.2941   451
15.3041   416
15.3141   397
15.3241   407
15.3341   449
15.3441   454
15.3541   424
15.3641   411
15.3741   446
15.3841   443
15.3941   442
15.4041   445
15.4141   393
15.4241   412
15.4341   444
15.4441   444
15.4541   459
15.4641   473
15.4741   462
15.4841   481
15.4941   482
15.5041   497
15.5141   516
15.5241   524
15.5341   524
15.5441   560
15.5541   586
15.5641   615
15.5741   653
15.5841   680
15.5941   712
15.6041   771
15.6141   812
15.6241   856
15.6341   909
15.6441   972
15.6541  1010
15.6641  1034
15.6741  1080
15.6841  1124
15.6941  1144
15.7041  1217
15.7141  1266
15.7241  1290
15.7341  1300
15.7441  1322
15.7541  1296
15.7641  1291
15.7741  1299
15.7841  1301
15.7941  1213
15.8041  1146
15.8141  1148
15.8241  1128
15.8341  1086
15.8441  1007
15.8541   964
15.8641   918
15.8741   864
15.8841   817
15.8941   786
15.9041   737
15.9141   697
15.9241   651
15.9341   612
15.9441   587
15.9541   562
15.9641   562
15.9741   554
15.9841   515
15.9941   494
16.0041   484
16.0141   484
16.0241   504
16.0341   491
16.0441   471
16.0541   491
16.0641   507
16.0741   499
16.0841   495
16.0941   511
16.1041   487
16.1141   495
16.1241   523
16.1341   530
16.1441   540
16.1541   529
16.1641   495
16.1741   488
16.1841   509
16.1941   529
16.2041   511
16.2141   531
16.2241   528
16.2341   531
16.2441   523
16.2541   529
16.2641   506
16.2741   518
16.2841   506
16.2941   512
16.3041   504
16.3141   505
16.3241   495
16.3341   497
16.3441   499
16.3541   509
16.3641   509
16.3741   536
16.3841   540
16.3941   509
16.4041   517
16.4141   547
16.4241   529
16.4341   521
16.4441   536
16.4541   537
16.4641   541
16.4741   529
16.4841   531
16.4941   542
16.5041   531
16.5141   552
16.5241   567
16.5341   571
16.5441   556
16.5541   543
16.5641   564
16.5741   579
16.5841   563
16.5941   555
16.6041   573
16.6141   562
16.6241   580
16.6341   561
16.6441   562
16.6541   590
16.6641   585
16.6741   559
16.6841   551
16.6941   574
16.7041   546
16.7141   560
16.7241   584
16.7341   599
16.7441   588
16.7541   577
16.7641   595
16.7741   580
16.7841   579
16.7941   562
16.8041   547
16.8141   562
16.8241   600
16.8341   593
16.8441   581
16.8541   587
16.8641   589
16.8741   580
16.8841   575
16.8941   612
16.9041   580
16.9141   580
16.9241   584
16.9341   562
16.9441   588
16.9541   553
16.9641   546
16.9741   576
16.9841   548
16.9941   562
17.0041   558
17.0141   561
17.0241   601
17.0341   597
17.0441   563
17.0541   582
17.0641   581
17.0741   606
17.0841   632
17.0941   590
17.1041   561
17.1141   573
17.1241   566
17.1341   609
17.1441   602
17.1541   578
17.1641   552
17.1741   582
17.1841   616
17.1941   598
17.2041   604
17.2141   615
17.2241   585
17.2341   623
17.2441   629
17.2541   628
17.2641   598
17.2741   629
17.2841   627
17.2941   597
17.3041   624
17.3141   620
17.3241   603
17.3341   568
17.3441   595
17.3541   612
17.3641   600
17.3741   622
17.3841   611
17.3941   599
17.4041   652
17.4141   625
17.4241   621
17.4341   634
17.4441   634
17.4541   643
17.4641   630
17.4741   606
17.4841   613
17.4941   628
17.5041   680
17.5141   681
17.5241   699
17.5341   700
17.5441   694
17.5541   679
17.5641   711
17.5741   715
17.5841   746
17.5941   736
17.6041   744
17.6141   754
17.6241   741
17.6341   745
17.6441   745
17.6541   758
17.6641   716
17.6741   751
17.6841   788
17.6941   805
17.7041   767
17.7141   770
17.7241   755
17.7341   762
17.7441   733
17.7541   715
17.7641   707
17.7741   726
17.7841   736
17.7941   712
17.8041   678
17.8141   693
17.8241   699
17.8341   667
17.8441   679
17.8541   701
17.8641   661
17.8741   650
17.8841   668
17.8941   694
17.9041   682
17.9141   688
17.9241   692
17.9341   664
17.9441   667
17.9541   695
17.9641   673
17.9741   685
17.9841   667
17.9941   662
18.0041   679
18.0141   687
18.0241   709
18.0341   691
18.0441   710
18.0541   691
18.0641   667
18.0741   706
18.0841   664
18.0941   633
18.1041   674
18.1141   701
18.1241   690
18.1341   700
18.1441   704
18.1541   685
18.1641   684
18.1741   691
18.1841   716
18.1941   699
18.2041   677
18.2141   637
18.2241   623
18.2341   674
18.2441   664
18.2541   650
18.2641   695
18.2741   693
18.2841   687
18.2941   682
18.3041   665
18.3141   669
18.3241   669
18.3341   715
18.3441   695
18.3541   694
18.3641   706
18.3741   691
18.3841   693
18.3941   663
18.4041   671
18.4141   695
18.4241   689
18.4341   708
18.4441   688
18.4541   716
18.4641   669
18.4741   679
18.4841   679
18.4941   676
18.5041   705
18.5141   726
18.5241   681
18.5341   683
18.5441   685
18.5541   653
18.5641   705
18.5741   723
18.5841   711
18.5941   726
18.6041   714
18.6141   727
18.6241   686
18.6341   753
18.6441   697
18.6541   721
18.6641   724
18.6741   737
18.6841   729
18.6941   748
18.7041   750
18.7141   702
18.7241   713
18.7341   755
18.7441   721
18.7541   703
18.7641   733
18.7741   689
18.7841   694
18.7941   696
18.8041   700
18.8141   702
18.8241   733
18.8341   743
18.8441   725
18.8541   707
18.8641   711
18.8741   713
18.8841   779
18.8941   718
18.9041   708
18.9141   721
18.9241   765
18.9341   710
18.9441   735
18.9541   773
18.9641   743
18.9741   712
18.9841   720
18.9941   737
19.0041   722
19.0141   728
19.0241   693
19.0341   706
19.0441   741
19.0541   716
19.0641   701
19.0741   734
19.0841   758
19.0941   724
19.1041   704
19.1141   720
19.1241   726
19.1341   734
19.1441   723
19.1541   728
19.1641   747
19.1741   737
19.1841   711
19.1941   699
19.2041   719
19.2141   785
19.2241   744
19.2341   733
19.2441   739
19.2541   762
19.2641   753
19.2741   742
19.2841   731
19.2941   751
19.3041   731
19.3141   756
19.3241   743
19.3341   752
19.3441   738
19.3541   741
19.3641   734
19.3741   759
19.3841   779
19.3941   772
19.4041   782
19.4141   766
19.4241   743
19.4341   754
19.4441   742
19.4541   760
19.4641   754
19.4741   763
19.4841   785
19.4941   741
19.5041   767
19.5141   715
19.5241   756
19.5341   733
19.5441   697
19.5541   798
19.5641   758
19.5741   765
19.5841   754
19.5941   741
19.6041   731
19.6141   767
19.6241   757
19.6341   711
19.6441   769
19.6541   768
19.6641   744
19.6741   753
19.6841   801
19.6941   806
19.7041   769
19.7141   751
19.7241   775
19.7341   790
19.7441   784
19.7541   767
19.7641   767
19.7741   744
19.7841   714
19.7941   740
19.8041   753
19.8141   809
19.8241   801
19.8341   775
19.8441   788
19.8541   780
19.8641   766
19.8741   774
19.8841   786
19.8941   780
19.9041   785
19.9141   741
19.9241   767
19.9341   783
19.9441   730
19.9541   732
19.9641   746
19.9741   761
19.9841   768
19.9941   742
20.0041   766
20.0141   762
20.0241   791
20.0341   775
20.0441   799
20.0541   826
20.0641   818
20.0741   776
20.0841   796
20.0941   787
20.1041   797
20.1141   813
20.1241   802
20.1341   798
20.1441   802
20.1541   827
20.1641   810
20.1741   755
20.1841   779
20.1941   771
20.2041   783
20.2141   815
20.2241   813
20.2341   751
20.2441   763
20.2541   820
20.2641   761
20.2741   762
20.2841   766
20.2941   805
20.3041   785
20.3141   767
20.3241   787
20.3341   783
20.3441   770
20.3541   817
20.3641   793
20.3741   763
20.3841   760
20.3941   752
20.4041   787
20.4141   769
20.4241   775
20.4341   725
20.4441   796
20.4541   794
20.4641   753
20.4741   782
20.4841   764
20.4941   769
20.5041   778
20.5141   755
20.5241   772
20.5341   797
20.5441   775
20.5541   800
20.5641   777
20.5741   783
20.5841   795
20.5941   740
20.6041   762
20.6141   794
20.6241   804
20.6341   790
20.6441   726
20.6541   774
20.6641   780
20.6741   808
20.6841   792
20.6941   816
20.7041   808
20.7141   796
20.7241   778
20.7341   769
20.7441   780
20.7541   806
20.7641   788
20.7741   795
20.7841   796
20.7941   775
20.8041   797
20.8141   859
20.8241   837
20.8341   841
20.8441   848
20.8541   842
20.8641   886
20.8741   828
20.8841   800
20.8941   898
20.9041   847
20.9141   887
20.9241   880
20.9341   984
20.9441   961
20.9541   976
20.9641   940
20.9741   981
20.9841   980
20.9941  1048
21.0041  1060
21.0141  1102
21.0241  1106
21.0341  1095
21.0441  1119
21.0541  1144
21.0641  1119
21.0741  1117
21.0841  1152
21.0941  1176
21.1041  1139
21.1141  1165
21.1241  1191
21.1341  1177
21.1441  1197
21.1541  1129
21.1641  1147
21.1741  1143
21.1841  1139
21.1941  1160
21.2041  1114
21.2141  1156
21.2241  1058
21.2341  1041
21.2441  1058
21.2541  1047
21.2641   967
21.2741  1015
21.2841   982
21.2941   956
21.3041   944
21.3141   965
21.3241   892
21.3341   871
21.3441   873
21.3541   882
21.3641   850
21.3741   868
21.3841   835
21.3941   861
21.4041   787
21.4141   779
21.4241   856
21.4341   764
21.4441   791
21.4541   797
21.4641   776
21.4741   805
21.4841   754
21.4941   798
21.5041   838
21.5141   813
21.5241   812
21.5341   768
21.5441   768
21.5541   806
21.5641   791
21.5741   778
21.5841   784
21.5941   789
21.6041   809
21.6141   829
21.6241   772
21.6341   807
21.6441   839
21.6541   829
21.6641   796
21.6741   786
21.6841   770
21.6941   758
21.7041   796
21.7141   807
21.7241   785
21.7341   781
21.7441   775
21.7541   808
21.7641   767
21.7741   783
21.7841   765
21.7941   838
21.8041   795
21.8141   809
21.8241   815
21.8341   792
21.8441   752
21.8541   791
21.8641   786
21.8741   755
21.8841   799
21.8941   818
21.9041   790
21.9141   802
21.9241   805
21.9341   740
21.9441   809
21.9541   840
21.9641   783
21.9741   830
21.9841   808
21.9941   799
22.0041   762
22.0141   844
22.0241   835
22.0341   772
22.0441   756
22.0541   831
22.0641   772
22.0741   762
22.0841   805
22.0941   799
22.1041   753
22.1141   734
22.1241   816
22.1341   807
22.1441   801
22.1541   813
22.1641   742
22.1741   803
22.1841   790
22.1941   739
22.2041   766
22.2141   790
22.2241   796
22.2341   812
22.2441   810
22.2541   795
22.2641   782
22.2741   751
22.2841   784
22.2941   746
22.3041   776
22.3141   819
22.3241   789
22.3341   777
22.3441   858
22.3541   797
22.3641   764
22.3741   733
22.3841   779
22.3941   798
22.4041   795
22.4141   790
22.4241   808
22.4341   817
22.4441   821
22.4541   796
22.4641   774
22.4741   797
22.4841   753
22.4941   789
22.5041   834
22.5141   803
22.5241   768
22.5341   798
22.5441   838
22.5541   783
22.5641   815
22.5741   758
22.5841   752
22.5941   793
22.6041   780
22.6141   757
22.6241   749
22.6341   783
22.6441   800
22.6541   777
22.6641   763
22.6741   782
22.6841   739
22.6941   828
22.7041   844
22.7141   738
22.7241   776
22.7341   777
22.7441   780
22.7541   788
22.7641   778
22.7741   800
22.7841   760
22.7941   778
22.8041   751
22.8141   804
22.8241   770
22.8341   782
22.8441   805
22.8541   759
22.8641   757
22.8741   721
22.8841   797
22.8941   752
22.9041   785
22.9141   766
22.9241   773
22.9341   805
22.9441   716
22.9541   754
22.9641   776
22.9741   768
22.9841   788
22.9941   777
23.0041   718
23.0141   774
23.0241   770
23.0341   835
23.0441   775
23.0541   789
23.0641   730
23.0741   819
23.0841   769
23.0941   711
23.1041   792
23.1141   782
23.1241   731
23.1341   687
23.1441   783
23.1541   770
23.1641   758
23.1741   785
23.1841   776
23.1941   750
23.2041   767
23.2141   752
23.2241   784
23.2341   790
23.2441   737
23.2541   750
23.2641   764
23.2741   722
23.2841   787
23.2941   766
23.3041   721
23.3141   762
23.3241   767
23.3341   751
23.3441   780
23.3541   755
23.3641   733
23.3741   757
23.3841   773
23.3941   719
23.4041   753
23.4141   766
23.4241   771
23.4341   832
23.4441   727
23.4541   775
23.4641   744
23.4741   720
23.4841   800
23.4941   727
23.5041   721
23.5141   794
23.5241   723
23.5341   755
23.5441   739
23.5541   765
23.5641   747
23.5741   746
23.5841   759
23.5941   759
23.6041   773
23.6141   754
23.6241   788
23.6341   763
23.6441   764
23.6541   787
23.6641   758
23.6741   815
23.6841   790
23.6941   784
23.7041   815
23.7141   750
23.7241   781
23.7341   728
23.7441   762
23.7541   824
23.7641   802
23.7741   857
23.7841   780
23.7941   806
23.8041   785
23.8141   793
23.8241   785
23.8341   818
23.8441   797
23.8541   794
23.8641   824
23.8741   749
23.8841   786
23.8941   745
23.9041   713
23.9141   791
23.9241   778
23.9341   831
23.9441   822
23.9541   785
23.9641   837
23.9741   752
23.9841   750
23.9941   741
24.0041   720
24.0141   775
24.0241   752
24.0341   776
24.0441   759
24.0541   772
24.0641   734
24.0741   698
24.0841   768
24.0941   724
24.1041   749
24.1141   703
24.1241   743
24.1341   723
24.1441   716
24.1541   789
24.1641   733
24.1741   741
24.1841   772
24.1941   741
24.2041   735
24.2141   701
24.2241   699
24.2341   745
24.2441   741
24.2541   786
24.2641   723
24.2741   726
24.2841   737
24.2941   740
24.3041   714
24.3141   741
24.3241   732
24.3341   729
24.3441   706
24.3541   713
24.3641   719
24.3741   759
24.3841   679
24.3941   726
24.4041   698
24.4141   719
24.4241   722
24.4341   711
24.4441   705
24.4541   674
24.4641   735
24.4741   747
24.4841   708
24.4941   705
24.5041   657
24.5141   717
24.5241   747
24.5341   740
24.5441   675
24.5541   643
24.5641   666
24.5741   709
24.5841   720
24.5941   714
24.6041   717
24.6141   723
24.6241   705
24.6341   715
24.6441   686
24.6541   740
24.6641   692
24.6741   717
24.6841   695
24.6941   661
24.7041   738
24.7141   692
24.7241   702
24.7341   716
24.7441   678
24.7541   660
24.7641   714
24.7741   691
24.7841   681
24.7941   728
24.8041   696
24.8141   705
24.8241   712
24.8341   668
24.8441   694
24.8541   693
24.8641   680
24.8741   711
24.8841   760
24.8941   653
24.9041   684
24.9141   676
24.9241   652
24.9341   676
24.9441   680
24.9541   705
24.9641   685
24.9741   690
24.9841   692
24.9941   718
25.0041   714
25.0141   682
25.0241   646
25.0341   642
25.0441   705
25.0541   701
25.0641   669
25.0741   698
25.0841   660
25.0941   666
25.1041   660
25.1141   677
25.1241   696
25.1341   714
25.1441   694
25.1541   668
25.1641   697
25.1741   711
25.1841   684
25.1941   711
25.2041   700
25.2141   661
25.2241   723
25.2341   701
25.2441   698
25.2541   687
25.2641   683
25.2741   667
25.2841   657
25.2941   705
25.3041   706
25.3141   692
25.3241   705
25.3341   693
25.3441   679
25.3541   668
25.3641   660
25.3741   662
25.3841   683
25.3941   708
25.4041   686
25.4141   681
25.4241   659
25.4341   632
25.4441   628
25.4541   722
25.4641   699
25.4741   666
25.4841   633
25.4941   650
25.5041   641
25.5141   659
25.5241   642
25.5341   600
25.5441   688
25.5541   626
25.5641   647
25.5741   652
25.5841   664
25.5941   689
25.6041   632
25.6141   609
25.6241   629
25.6341   633
25.6441   684
25.6541   654
25.6641   640
25.6741   640
25.6841   594
25.6941   614
25.7041   625
25.7141   619
25.7241   662
25.7341   666
25.7441   661
25.7541   677
25.7641   656
25.7741   663
25.7841   645
25.7941   628
25.8041   683
25.8141   650
25.8241   626
25.8341   655
25.8441   616
25.8541   656
25.8641   637
25.8741   647
25.8841   661
25.8941   645
25.9041   613
25.9141   650
25.9241   607
25.9341   603
25.9441   615
25.9541   634
25.9641   677
25.9741   637
25.9841   603
25.9941   633
26.0041   641
26.0141   615
26.0241   651
26.0341   621
26.0441   594
26.0541   651
26.0641   627
26.0741   624
26.0841   655
26.0941   617
26.1041   635
26.1141   620
26.1241   664
26.1341   605
26.1441   607
26.1541   642
26.1641   629
26.1741   613
26.1841   656
26.1941   604
26.2041   598
26.2141   651
26.2241   628
26.2341   636
26.2441   638
26.2541   605
26.2641   620
26.2741   614
26.2841   620
26.2941   585
26.3041   589
26.3141   640
26.3241   609
26.3341   585
26.3441   580
26.3541   626
26.3641   621
26.3741   636
26.3841   628
26.3941   587
26.4041   643
26.4141   609
26.4241   587
26.4341   611
26.4441   631
26.4541   598
26.4641   587
26.4741   602
26.4841   581
26.4941   626
26.5041   614
26.5141   568
26.5241   561
26.5341   564
26.5441   586
26.5541   602
26.5641   592
26.5741   584
26.5841   565
26.5941   549
26.6041   607
26.6141   599
26.6241   583
26.6341   575
26.6441   593
26.6541   577
26.6641   581
26.6741   576
26.6841   623
26.6941   563
26.7041   565
26.7141   555
26.7241   552
26.7341   598
26.7441   596
26.7541   572
26.7641   586
26.7741   552
26.7841   559
26.7941   569
26.8041   584
26.8141   611
26.8241   574
26.8341   572
26.8441   594
26.8541   574
26.8641   565
26.8741   587
26.8841   589
26.8941   553
26.9041   613
26.9141   554
26.9241   578
26.9341   592
26.9441   605
26.9541   582
26.9641   561
26.9741   562
26.9841   582
26.9941   573
27.0041   552
27.0141   564
27.0241   594
27.0341   539
27.0441   558
27.0541   619
27.0641   600
27.0741   574
27.0841   557
27.0941   568
27.1041   597
27.1141   543
27.1241   543
27.1341   565
27.1441   559
27.1541   551
27.1641   553
27.1741   520
27.1841   533
27.1941   555
27.2041   546
27.2141   517
27.2241   545
27.2341   557
27.2441   559
27.2541   544
27.2641   540
27.2741   560
27.2841   555
27.2941   558
27.3041   531
27.3141   535
27.3241   542
27.3341   569
27.3441   552
27.3541   553
27.3641   550
27.3741   586
27.3841   574
27.3941   559
27.4041   541
27.4141   544
27.4241   556
27.4341   558
27.4441   546
27.4541   543
27.4641   536
27.4741   544
27.4841   544
27.4941   543
27.5041   562
27.5141   522
27.5241   514
27.5341   541
27.5441   553
27.5541   532
27.5641   506
27.5741   525
27.5841   520
27.5941   520
27.6041   539
27.6141   513
27.6241   567
27.6341   553
27.6441   530
27.6541   507
27.6641   532
27.6741   529
27.6841   536
27.6941   518
27.7041   564
27.7141   516
27.7241   520
27.7341   532
27.7441   497
27.7541   521
27.7641   533
27.7741   545
27.7841   531
27.7941   554
27.8041   523
27.8141   522
27.8241   525
27.8341   514
27.8441   528
27.8541   482
27.8641   500
27.8741   497
27.8841   488
27.8941   498
27.9041   469
27.9141   520
27.9241   497
27.9341   497
27.9441   484
27.9541   495
27.9641   514
27.9741   522
27.9841   524
27.9941   511
28.0041   496
28.0141   527
28.0241   507
28.0341   495
28.0441   505
28.0541   504
28.0641   505
28.0741   475
28.0841   548
28.0941   500
28.1041   492
28.1141   508
28.1241   499
28.1341   457
28.1441   498
28.1541   481
28.1641   518
28.1741   496
28.1841   467
28.1941   511
28.2041   477
28.2141   504
28.2241   499
28.2341   454
28.2441   484
28.2541   521
28.2641   505
28.2741   443
28.2841   497
28.2941   487
28.3041   511
28.3141   508
28.3241   467
28.3341   490
28.3441   530
28.3541   484
28.3641   506
28.3741   451
28.3841   508
28.3941   505
28.4041   500
28.4141   529
28.4241   462
28.4341   485
28.4441   489
28.4541   499
28.4641   456
28.4741   497
28.4841   482
28.4941   465
28.5041   450
28.5141   469
28.5241   464
28.5341   453
28.5441   510
28.5541   475
28.5641   499
28.5741   476
28.5841   486
28.5941   462
28.6041   470
28.6141   440
28.6241   459
28.6341   481
28.6441   494
28.6541   442
28.6641   469
28.6741   450
28.6841   427
28.6941   459
28.7041   455
28.7141   460
28.7241   460
28.7341   437
28.7441   468
28.7541   426
28.7641   451
28.7741   443
28.7841   446
28.7941   447
28.8041   449
28.8141   447
28.8241   447
28.8341   455
28.8441   434
28.8541   425
28.8641   425
28.8741   447
28.8841   463
28.8941   447
28.9041   436
28.9141   423
28.9241   427
28.9341   417
28.9441   455
28.9541   409
28.9641   448
28.9741   472
28.9841   447
28.9941   445
29.0041   426
29.0141   447
29.0241   451
29.0341   431
29.0441   442
29.0541   471
29.0641   485
29.0741   477
29.0841   442
29.0941   427
29.1041   404
29.1141   439
29.1241   458
29.1341   420
29.1441   410
29.1541   372
29.1641   432
29.1741   415
29.1841   405
29.1941   420
29.2041   459
29.2141   423
29.2241   428
29.2341   390
29.2441   464
29.2541   427
29.2641   416
29.2741   413
29.2841   384
29.2941   409
29.3041   415
29.3141   451
29.3241   394
29.3341   398
29.3441   400
29.3541   413
29.3641   392
29.3741   382
29.3841   402
29.3941   408
29.4041   431
29.4141   410
29.4241   445
29.4341   410
29.4441   428
29.4541   427
29.4641   425
29.4741   419
29.4841   416
29.4941   422
29.5041   433
29.5141   411
29.5241   418
29.5341   424
29.5441   418
29.5541   399
29.5641   395
29.5741   421
29.5841   384
29.5941   380
29.6041   402
29.6141   412
29.6241   405
29.6341   405
29.6441   407
29.6541   415
29.6641   455
29.6741   407
29.6841   440
29.6941   415
29.7041   402
29.7141   415
29.7241   426
29.7341   393
29.7441   381
29.7541   382
29.7641   404
29.7741   413
29.7841   413
29.7941   377
29.8041   370
29.8141   382
29.8241   395
29.8341   384
29.8441   391
29.8541   400
29.8641   405
29.8741   409
29.8841   376
29.8941   373
29.9041   358
29.9141   383
29.9241   378
29.9341   394
29.9441   391
29.9541   374
29.9641   407
29.9741   373
29.9841   379
29.9941   399
30.0041   366
30.0141   382
30.0241   405
30.0341   370
30.0441   425
30.0541   373
30.0641   407
30.0741   381
30.0841   367
30.0941   348
30.1041   395
30.1141   394
30.1241   394
30.1341   383
30.1441   360
30.1541   384
30.1641   356
30.1741   372
30.1841   350
30.1941   382
30.2041   375
30.2141   386
30.2241   388
30.2341   370
30.2441   391
30.2541   399
30.2641   355
30.2741   359
30.2841   369
30.2941   352
30.3041   369
30.3141   392
30.3241   436
30.3341   359
30.3441   392
30.3541   381
30.3641   359
30.3741   357
30.3841   357
30.3941   354
30.4041   365
30.4141   372
30.4241   389
30.4341   382
30.4441   363
30.4541   325
30.4641   365
30.4741   379
30.4841   355
30.4941   330
30.5041   340
30.5141   397
30.5241   329
30.5341   339
30.5441   368
30.5541   351
30.5641   349
30.5741   321
30.5841   380
30.5941   385
30.6041   364
30.6141   345
30.6241   345
30.6341   350
30.6441   338
30.6541   349
30.6641   350
30.6741   335
30.6841   379
30.6941   375
30.7041   374
30.7141   339
30.7241   327
30.7341   341
30.7441   336
30.7541   341
30.7641   345
30.7741   333
30.7841   336
30.7941   312
30.8041   333
30.8141   353
30.8241   357
30.8341   338
30.8441   327
30.8541   350
30.8641   346
30.8741   337
30.8841   306
30.8941   326
30.9041   367
30.9141   331
30.9241   349
30.9341   331
30.9441   367
30.9541   372
30.9641   314
30.9741   342
30.9841   292
30.9941   318
31.0041   351
31.0141   317
31.0241   370
31.0341   324
31.0441   353
31.0541   312
31.0641   331
31.0741   326
31.0841   373
31.0941   329
31.1041   339
31.1141   302
31.1241   315
31.1341   317
31.1441   298
31.1541   322
31.1641   323
31.1741   338
31.1841   335
31.1941   329
31.2041   330
31.2141   317
31.2241   310
31.2341   323
31.2441   331
31.2541   340
31.2641   313
31.2741   327
31.2841   313
31.2941   313
31.3041   329
31.3141   307
31.3241   326
31.3341   331
31.3441   358
31.3541   293
31.3641   308
31.3741   312
31.3841   299
31.3941   304
31.4041   303
31.4141   320
31.4241   292
31.4341   336
31.4441   326
31.4541   313
31.4641   322
31.4741   283
31.4841   332
31.4941   325
31.5041   316
31.5141   320
31.5241   313
31.5341   327
31.5441   299
31.5541   297
31.5641   275
31.5741   317
31.5841   307
31.5941   302
31.6041   315
31.6141   336
31.6241   290
31.6341   287
31.6441   311
31.6541   310
31.6641   287
31.6741   306
31.6841   330
31.6941   311
31.7041   327
31.7141   300
31.7241   304
31.7341   293
31.7441   296
31.7541   324
31.7641   327
31.7741   328
31.7841   290
31.7941   296
31.8041   312
31.8141   292
31.8241   259
31.8341   308
31.8441   288
31.8541   302
31.8641   306
31.8741   295
31.8841   304
31.8941   287
31.9041   304
31.9141   306
31.9241   306
31.9341   313
31.9441   306
31.9541   301
31.9641   289
31.9741   307
31.9841   299
31.9941   278
32.0041   249
32.0141   288
32.0241   287
32.0341   290
32.0441   279
32.0541   286
32.0641   270
32.0741   292
32.0841   283
32.0941   315
32.1041   276
32.1141   310
32.1241   286
32.1341   278
32.1441   320
32.1541   263
32.1641   248
32.1741   288
32.1841   299
32.1941   295
32.2041   277
32.2141   288
32.2241   288
32.2341   289
32.2441   286
32.2541   263
32.2641   273
32.2741   256
32.2841   280
32.2941   274
32.3041   287
32.3141   265
32.3241   281
32.3341   266
32.3441   264
32.3541   270
32.3641   245
32.3741   284
32.3841   290
32.3941   293
32.4041   279
32.4141   249
32.4241   262
32.4341   265
32.4441   258
32.4541   255
32.4641   268
32.4741   256
32.4841   250
32.4941   260
32.5041   245
32.5141   247
32.5241   249
32.5341   241
32.5441   271
32.5541   262
32.5641   251
32.5741   240
32.5841   251
32.5941   263
32.6041   257
32.6141   238
32.6241   253
32.6341   246
32.6441   264
32.6541   232
32.6641   238
32.6741   267
32.6841   281
32.6941   249
32.7041   249
32.7141   219
32.7241   276
32.7341   230
32.7441   248
32.7541   263
32.7641   244
32.7741   245
32.7841   262
32.7941   270
32.8041   261
32.8141   266
32.8241   232
32.8341   252
32.8441   246
32.8541   217
32.8641   258
32.8741   218
32.8841   232
32.8941   240
32.9041   229
32.9141   241
32.9241   237
32.9341   220
32.9441   249
32.9541   235
32.9641   229
32.9741   256
32.9841   276
32.9941   248
33.0041   236
33.0141   241
33.0241   244
33.0341   232
33.0441   238
33.0541   228
33.0641   243
33.0741   226
33.0841   218
33.0941   237
33.1041   209
33.1141   197
33.1241   255
33.1341   247
33.1441   233
33.1541   247
33.1641   233
33.1741   217
33.1841   225
33.1941   215
33.2041   206
33.2141   213
33.2241   242
33.2341   215
33.2441   201
33.2541   236
33.2641   251
33.2741   225
33.2841   215
33.2941   233
33.3041   229
33.3141   217
33.3241   216
33.3341   218
33.3441   239
33.3541   220
33.3641   223
33.3741   226
33.3841   265
33.3941   239
33.4041   205
33.4141   225
33.4241   214
33.4341   231
33.4441   236
33.4541   232
33.4641   213
33.4741   205
33.4841   247
33.4941   213
33.5041   213
33.5141   234
33.5241   210
33.5341   237
33.5441   207
33.5541   209
33.5641   207
33.5741   218
33.5841   205
33.5941   245
33.6041   209
33.6141   235
33.6241   218
33.6341   204
33.6441   209
33.6541   224
33.6641   237
33.6741   219
33.6841   220
33.6941   200
33.7041   197
33.7141   201
33.7241   201
33.7341   209
33.7441   178
33.7541   188
33.7641   214
33.7741   216
33.7841   201
33.7941   223
33.8041   195
33.8141   203
33.8241   196
33.8341   206
33.8441   190
33.8541   197
33.8641   224
33.8741   205
33.8841   199
33.8941   224
33.9041   195
33.9141   214
33.9241   186
33.9341   191
33.9441   204
33.9541   193
33.9641   189
33.9741   196
33.9841   201
33.9941   220
34.0041   188
34.0141   186
34.0241   190
34.0341   192
34.0441   185
34.0541   181
34.0641   193
34.0741   182
34.0841   207
34.0941   206
34.1041   186
34.1141   224
34.1241   197
34.1341   197
34.1441   190
34.1541   203
34.1641   199
34.1741   196
34.1841   189
34.1941   179
34.2041   195
34.2141   192
34.2241   192
34.2341   208
34.2441   191
34.2541   182
34.2641   196
34.2741   184
34.2841   181
34.2941   220
34.3041   200
34.3141   187
34.3241   164
34.3341   172
34.3441   199
34.3541   175
34.3641   192
34.3741   169
34.3841   182
34.3941   175
34.4041   189
34.4141   192
34.4241   176
34.4341   190
34.4441   173
34.4541   186
34.4641   198
34.4741   177
34.4841   162
34.4941   171
34.5041   185
34.5141   173
34.5241   195
34.5341   169
34.5441   217
34.5541   175
34.5641   178
34.5741   174
34.5841   193
34.5941   190
34.6041   182
34.6141   172
34.6241   155
34.6341   157
34.6441   176
34.6541   153
34.6641   172
34.6741   163
34.6841   172
34.6941   187
34.7041   181
34.7141   161
34.7241   165
34.7341   164
34.7441   164
34.7541   166
34.7641   173
34.7741   164
34.7841   179
34.7941   181
34.8041   184
34.8141   167
34.8241   161
34.8341   148
34.8441   184
34.8541   178
34.8641   185
34.8741   156
34.8841   154
34.8941   164
34.9041   165
34.9141   149
34.9241   165
34.9341   174
34.9441   176
34.9541   168
34.9641   179
34.9741   152
34.9841   155
34.9941   172
35.0041   182
35.0141   180
35.0241   166
35.0341   176
35.0441   156
35.0541   141
35.0641   167
35.0741   192
35.0841   170
35.0941   181
35.1041   160
35.1141   165
35.1241   155
35.1341   135
35.1441   163
35.1541   153
35.1641   173
35.1741   148
35.1841   153
35.1941   150
35.2041   137
35.2141   152
35.2241   162
35.2341   154
35.2441   176
35.2541   148
35.2641   136
35.2741   144
35.2841   171
35.2941   173
35.3041   179
35.3141   169
35.3241   174
35.3341   146
35.3441   150
35.3541   147
35.3641   164
35.3741   162
35.3841   145
35.3941   148
35.4041   141
35.4141   133
35.4241   152
35.4341   157
35.4441   147
35.4541   144
35.4641   147
35.4741   149
35.4841   155
35.4941   146
35.5041   143
35.5141   151
35.5241   158
35.5341   148
35.5441   142
35.5541   161
35.5641   153
35.5741   149
35.5841   133
35.5941   164
35.6041   124
35.6141   144
35.6241   152
35.6341   138
35.6441   129
35.6541   163
35.6641   154
35.6741   119
35.6841   148
35.6941   144
35.7041   143
35.7141   131
35.7241   145
35.7341   137
35.7441   151
35.7541   164
35.7641   128
35.7741   116
35.7841   131
35.7941   134
35.8041   140
35.8141   124
35.8241   147
35.8341   124
35.8441   139
35.8541   162
35.8641   149
35.8741   132
35.8841   133
35.8941   138
35.9041   135
35.9141   120
35.9241   124
35.9341   150
35.9441   145
35.9541   136
35.9641   138
35.9741   132
35.9841   139
35.9941   142
36.0041   115
36.0141   112
36.0241   137
36.0341   132
36.0441   146
36.0541   126
36.0641   133
36.0741   138
36.0841   111
36.0941   123
36.1041   125
36.1141   130
36.1241   121
36.1341   144
36.1441   117
36.1541   126
36.1641   126
36.1741   129
36.1841   131
36.1941   125
36.2041   117
36.2141   139
36.2241   118
36.2341   106
36.2441   123
36.2541   113
36.2641   116
36.2741   129
36.2841   140
36.2941   119
36.3041   127
36.3141   148
36.3241   123
36.3341   120
36.3441   112
36.3541   133
36.3641   114
36.3741   107
36.3841   123
36.3941   134
36.4041   124
36.4141   116
36.4241   121
36.4341   121
36.4441   115
36.4541   112
36.4641   133
36.4741   123
36.4841   104
36.4941   125
36.5041   123
36.5141   109
36.5241   110
36.5341   122
36.5441   110
36.5541   102
36.5641    99
36.5741   107
36.5841   108
36.5941   106
36.6041   112
36.6141   111
36.6241    96
36.6341   106
36.6441    99
36.6541   127
36.6641   118
36.6741   103
36.6841    81
36.6941   120
36.7041    87
36.7141    95
36.7241   124
36.7341   102
36.7441   117
36.7541    95
36.7641    99
36.7741   102
36.7841   113
36.7941   109
36.8041   103
36.8141   110
36.8241   107
36.8341   116
36.8441    98
36.8541   104
36.8641   104
36.8741    95
36.8841   122
36.8941   100
36.9041   107
36.9141   116
36.9241   113
36.9341   113
36.9441   119
36.9541   118
36.9641   108
36.9741   108
36.9841   107
36.9941    98
37.0041    98
37.0141   100
37.0241   103
37.0341    95
37.0441   104
37.0541    81
37.0641   110
37.0741   122
37.0841   112
37.0941   103
37.1041    95
37.1141    91
37.1241   110
37.1341    86
37.1441    95
37.1541   103
37.1641    98
37.1741    84
37.1841   115
37.1941    89
37.2041   100
37.2141   105
37.2241    87
37.2341   107
37.2441    94
37.2541    93
37.2641    94
37.2741    94
37.2841    92
37.2941    88
37.3041    97
37.3141   110
37.3241   102
37.3341    94
37.3441    83
37.3541    86
37.3641    88
37.3741    94
37.3841    95
37.3941    83
37.4041    89
37.4141    85
37.4241    94
37.4341    91
37.4441   104
37.4541    91
37.4641   102
37.4741    96
37.4841    96
37.4941    90
37.5041   101
37.5141    90
37.5241   117
37.5341   101
37.5441    85
37.5541    72
37.5641   103
37.5741   100
37.5841    79
37.5941    86
37.6041    85
37.6141    87
37.6241    68
37.6341    98
37.6441    95
37.6541    91
37.6641    92
37.6741    79
37.6841    90
37.6941    72
37.7041    86
37.7141    84
37.7241    84
37.7341    74
37.7441    82
37.7541    77
37.7641    99
37.7741    76
37.7841    65
37.7941   111
37.8041    77
37.8141   105
37.8241   103
37.8341    87
37.8441    82
37.8541    93
37.8641    86
37.8741    99
37.8841    70
37.8941    78
37.9041    85
37.9141    92
37.9241    76
37.9341    90
37.9441    78
37.9541    81
37.9641    80
37.9741    74
37.9841    92
37.9941    78
38.0041    74
38.0141    90
38.0241    86
38.0341    90
38.0441    94
38.0541    77
38.0641    87
38.0741    69
38.0841    81
38.0941    86
38.1041    85
38.1141    63
38.1241    83
38.1341    77
38.1441    79
38.1541    60
38.1641    70
38.1741    86
38.1841    89
38.1941    88
38.2041    62
38.2141    63
38.2241    79
38.2341    85
38.2441    79
38.2541    69
38.2641    82
38.2741    73
38.2841    70
38.2941    82
38.3041    81
38.3141    79
38.3241    88
38.3341    91
38.3441    67
38.3541    66
38.3641    80
38.3741    53
38.3841    67
38.3941    73
38.4041    69
38.4141    78
38.4241    80
38.4341    72
38.4441    86
38.4541    68
38.4641    76
38.4741    70
38.4841    63
38.4941    62
38.5041    61
38.5141    61
38.5241    77
38.5341    47
38.5441    52
38.5541    69
38.5641    73
38.5741    63
38.5841    66
38.5941    63
38.6041    70
38.6141    82
38.6241    60
38.6341    66
38.6441    69
38.6541    66
38.6641    74
38.6741    73
38.6841    56
38.6941    63
38.7041    66
38.7141    79
38.7241    59
38.7341    56
38.7441    59
38.7541    71
38.7641    67
38.7741    75
38.7841    70
38.7941    74
38.8041    70
38.8141    69
38.8241    63
38.8341    61
38.8441    65
38.8541    59
38.8641    60
38.8741    55
38.8841    61
38.8941    56
38.9041    72
38.9141    47
38.9241    74
38.9341    66
38.9441    57
38.9541    49
38.9641    49
38.9741    65
38.9841    57
38.9941    66
39.0041    50
39.0141    39
39.0241    60
39.0341    52
39.0441    45
39.0541    55
39.0641    50
39.0741    47
39.0841    46
39.0941    56
39.1041    67
39.1141    47
39.1241    63
39.1341    65
39.1441    60
39.1541    45
39.1641    61
39.1741    57
39.1841    46
39.1941    52
39.2041    60
39.2141    61
39.2241    53
39.2341    65
39.2441    61
39.2541    48
39.2641    51
39.2741    52
39.2841    46
39.2941    55
39.3041    49
39.3141    64
39.3241    52
39.3341    47
39.3441    62
39.3541    54
39.3641    42
39.3741    44
39.3841    51
39.3941    63
39.4041    52
39.4141    47
39.4241    53
39.4341    61
39.4441    52
39.4541    46
39.4641    39
39.4741    41
39.4841    52
39.4941    49
39.5041    51
39.5141    55
39.5241    49
39.5341    54
39.5441    51
39.5541    57
39.5641    53
39.5741    41
39.5841    39
39.5941    52
39.6041    40
39.6141    44
39.6241    51
39.6341    49
39.6441    37
39.6541    55
39.6641    35
39.6741    45
39.6841    40
39.6941    40
39.7041    36
39.7141    54
39.7241    52
39.7341    47
39.7441    50
39.7541    53
39.7641    34
39.7741    34
39.7841    43
39.7941    47
39.8041    43
39.8141    42
39.8241    45
39.8341    45
39.8441    52
39.8541    50
39.8641    43
39.8741    37
39.8841    42
39.8941    37
39.9041    55
39.9141    54
39.9241    40
39.9341    36
39.9441    43
39.9541    45
39.9641    35
39.9741    48
39.9841    52
