Bruker Nano GmbH Berlin, Germany
Esprit 1.9

Date: 5/14/2021 3:57:52 PM
Real time: 24308
Life time: 23147
Pulse density: 69880


Detector type: XFlash 430
Window type: Custom type
Detector thickness: 0.45
Si dead layer:0.029

Calibration, lin.: 10
Calibration, abs.: -955.9
Mn FWHM: 137.05
Fano factor: 0.121
Channels: 4096

Energy Counts
-0.9559     0
-0.9459     0
-0.9359     0
-0.9259     0
-0.9159     0
-0.9059     0
-0.8959     0
-0.8859     0
-0.8759     0
-0.8659     0
-0.8559     0
-0.8459     0
-0.8359     0
-0.8259     0
-0.8159     0
-0.8059     0
-0.7959     0
-0.7859     0
-0.7759     0
-0.7659     0
-0.7559     0
-0.7459     0
-0.7359     0
-0.7259     0
-0.7159     0
-0.7059     0
-0.6959     0
-0.6859     0
-0.6759     0
-0.6659     0
-0.6559     0
-0.6459     0
-0.6359     0
-0.6259     0
-0.6159     0
-0.6059     0
-0.5959     0
-0.5859     0
-0.5759     0
-0.5659     0
-0.5559     0
-0.5459     0
-0.5359     0
-0.5259     0
-0.5159     0
-0.5059     0
-0.4959     0
-0.4859     0
-0.4759     0
-0.4659     0
-0.4559     0
-0.4459     0
-0.4359     0
-0.4259     0
-0.4159     0
-0.4059     0
-0.3959     0
-0.3859     0
-0.3759     0
-0.3659     0
-0.3559     0
-0.3459     0
-0.3359     0
-0.3259     0
-0.3159     0
-0.3059     0
-0.2959     0
-0.2859     0
-0.2759     0
-0.2659     0
-0.2559     0
-0.2459     0
-0.2359     0
-0.2259     0
-0.2159     0
-0.2059     0
-0.1959     0
-0.1859     0
-0.1759     0
-0.1659     0
-0.1559     0
-0.1459     0
-0.1359     0
-0.1259     1
-0.1159     3
-0.1059    21
-0.0959    65
-0.0859   268
-0.0759   919
-0.0659  2753
-0.0559  6789
-0.0459 14588
-0.0359 27419
-0.0259 44493
-0.0159 60436
-0.0059 71266
 0.0041 71345
 0.0141 61288
 0.0241 44971
 0.0341 28671
 0.0441 15462
 0.0541  7207
 0.0641  2970
 0.0741   994
 0.0841   309
 0.0941    81
 0.1041    24
 0.1141     9
 0.1241     7
 0.1341     6
 0.1441     4
 0.1541     7
 0.1641     8
 0.1741     2
 0.1841   162
 0.1941   324
 0.2041   314
 0.2141   282
 0.2241   288
 0.2341   319
 0.2441   306
 0.2541   300
 0.2641   309
 0.2741   317
 0.2841   306
 0.2941   301
 0.3041   327
 0.3141   310
 0.3241   288
 0.3341   300
 0.3441   305
 0.3541   303
 0.3641   274
 0.3741   277
 0.3841   305
 0.3941   293
 0.4041   286
 0.4141   277
 0.4241   249
 0.4341   276
 0.4441   272
 0.4541   266
 0.4641   276
 0.4741   260
 0.4841   249
 0.4941   269
 0.5041   269
 0.5141   280
 0.5241   284
 0.5341   268
 0.5441   261
 0.5541   261
 0.5641   247
 0.5741   248
 0.5841   250
 0.5941   241
 0.6041   244
 0.6141   235
 0.6241   232
 0.6341   250
 0.6441   268
 0.6541   260
 0.6641   250
 0.6741   246
 0.6841   230
 0.6941   236
 0.7041   244
 0.7141   225
 0.7241   203
 0.7341   211
 0.7441   225
 0.7541   224
 0.7641   228
 0.7741   228
 0.7841   220
 0.7941   235
 0.8041   226
 0.8141   226
 0.8241   239
 0.8341   206
 0.8441   204
 0.8541   219
 0.8641   221
 0.8741   201
 0.8841   214
 0.8941   224
 0.9041   218
 0.9141   213
 0.9241   211
 0.9341   219
 0.9441   209
 0.9541   223
 0.9641   219
 0.9741   201
 0.9841   186
 0.9941   177
 1.0041   184
 1.0141   196
 1.0241   191
 1.0341   174
 1.0441   188
 1.0541   197
 1.0641   209
 1.0741   206
 1.0841   200
 1.0941   214
 1.1041   213
 1.1141   201
 1.1241   206
 1.1341   203
 1.1441   191
 1.1541   199
 1.1641   189
 1.1741   179
 1.1841   211
 1.1941   226
 1.2041   190
 1.2141   179
 1.2241   200
 1.2341   192
 1.2441   186
 1.2541   183
 1.2641   204
 1.2741   198
 1.2841   197
 1.2941   187
 1.3041   184
 1.3141   167
 1.3241   174
 1.3341   185
 1.3441   194
 1.3541   190
 1.3641   178
 1.3741   211
 1.3841   184
 1.3941   182
 1.4041   200
 1.4141   196
 1.4241   197
 1.4341   186
 1.4441   164
 1.4541   170
 1.4641   178
 1.4741   172
 1.4841   189
 1.4941   176
 1.5041   195
 1.5141   183
 1.5241   186
 1.5341   179
 1.5441   183
 1.5541   192
 1.5641   173
 1.5741   169
 1.5841   180
 1.5941   170
 1.6041   178
 1.6141   179
 1.6241   200
 1.6341   190
 1.6441   205
 1.6541   255
 1.6641   273
 1.6741   344
 1.6841   438
 1.6941   544
 1.7041   681
 1.7141   808
 1.7241   865
 1.7341   870
 1.7441   975
 1.7541   866
 1.7641   705
 1.7741   670
 1.7841   534
 1.7941   433
 1.8041   370
 1.8141   326
 1.8241   286
 1.8341   259
 1.8441   231
 1.8541   233
 1.8641   223
 1.8741   226
 1.8841   220
 1.8941   178
 1.9041   196
 1.9141   209
 1.9241   179
 1.9341   200
 1.9441   175
 1.9541   208
 1.9641   182
 1.9741   213
 1.9841   253
 1.9941   216
 2.0041   245
 2.0141   247
 2.0241   226
 2.0341   200
 2.0441   204
 2.0541   218
 2.0641   204
 2.0741   209
 2.0841   176
 2.0941   167
 2.1041   176
 2.1141   165
 2.1241   175
 2.1341   190
 2.1441   150
 2.1541   167
 2.1641   179
 2.1741   181
 2.1841   175
 2.1941   153
 2.2041   164
 2.2141   157
 2.2241   136
 2.2341   150
 2.2441   158
 2.2541   157
 2.2641   160
 2.2741   152
 2.2841   192
 2.2941   160
 2.3041   145
 2.3141   192
 2.3241   158
 2.3341   145
 2.3441   163
 2.3541   162
 2.3641   170
 2.3741   164
 2.3841   146
 2.3941   160
 2.4041   161
 2.4141   131
 2.4241   163
 2.4341   130
 2.4441   139
 2.4541   152
 2.4641   158
 2.4741   133
 2.4841   133
 2.4941   140
 2.5041   158
 2.5141   157
 2.5241   135
 2.5341   143
 2.5441   173
 2.5541   155
 2.5641   141
 2.5741   166
 2.5841   182
 2.5941   159
 2.6041   160
 2.6141   146
 2.6241   180
 2.6341   166
 2.6441   160
 2.6541   154
 2.6641   138
 2.6741   141
 2.6841   148
 2.6941   164
 2.7041   127
 2.7141   151
 2.7241   138
 2.7341   152
 2.7441   171
 2.7541   130
 2.7641   156
 2.7741   118
 2.7841   145
 2.7941   153
 2.8041   134
 2.8141   138
 2.8241   150
 2.8341   131
 2.8441   124
 2.8541   145
 2.8641   166
 2.8741   148
 2.8841   130
 2.8941   141
 2.9041   139
 2.9141   140
 2.9241   135
 2.9341   140
 2.9441   138
 2.9541   138
 2.9641   140
 2.9741   122
 2.9841   141
 2.9941   137
 3.0041   127
 3.0141   127
 3.0241   129
 3.0341   126
 3.0441   109
 3.0541   134
 3.0641   152
 3.0741   146
 3.0841    98
 3.0941   120
 3.1041   147
 3.1141   121
 3.1241   126
 3.1341   122
 3.1441   104
 3.1541   112
 3.1641   121
 3.1741   125
 3.1841   121
 3.1941   131
 3.2041   124
 3.2141   132
 3.2241   151
 3.2341   137
 3.2441   164
 3.2541   187
 3.2641   179
 3.2741   192
 3.2841   229
 3.2941   247
 3.3041   229
 3.3141   267
 3.3241   250
 3.3341   243
 3.3441   221
 3.3541   217
 3.3641   175
 3.3741   172
 3.3841   144
 3.3941   126
 3.4041   139
 3.4141   134
 3.4241   134
 3.4341   117
 3.4441   115
 3.4541   132
 3.4641   142
 3.4741   137
 3.4841   133
 3.4941   153
 3.5041   171
 3.5141   202
 3.5241   199
 3.5341   241
 3.5441   315
 3.5541   394
 3.5641   498
 3.5741   679
 3.5841   993
 3.5941  1447
 3.6041  1932
 3.6141  2593
 3.6241  3545
 3.6341  4561
 3.6441  5664
 3.6541  6660
 3.6641  7484
 3.6741  8245
 3.6841  8517
 3.6941  8520
 3.7041  8201
 3.7141  7581
 3.7241  6663
 3.7341  5759
 3.7441  4673
 3.7541  3670
 3.7641  2736
 3.7741  1963
 3.7841  1347
 3.7941   941
 3.8041   645
 3.8141   477
 3.8241   300
 3.8341   237
 3.8441   195
 3.8541   205
 3.8641   197
 3.8741   201
 3.8841   198
 3.8941   277
 3.9041   318
 3.9141   390
 3.9241   525
 3.9341   708
 3.9441   797
 3.9541   976
 3.9641  1193
 3.9741  1424
 3.9841  1591
 3.9941  1668
 4.0041  1798
 4.0141  1715
 4.0241  1681
 4.0341  1636
 4.0441  1461
 4.0541  1278
 4.0641  1112
 4.0741   825
 4.0841   670
 4.0941   528
 4.1041   390
 4.1141   283
 4.1241   235
 4.1341   186
 4.1441   140
 4.1541   126
 4.1641   110
 4.1741   118
 4.1841    95
 4.1941    91
 4.2041    98
 4.2141   102
 4.2241    97
 4.2341    93
 4.2441    94
 4.2541    74
 4.2641    84
 4.2741    73
 4.2841    81
 4.2941    83
 4.3041    91
 4.3141    83
 4.3241    93
 4.3341    88
 4.3441    83
 4.3541    88
 4.3641    90
 4.3741    85
 4.3841   106
 4.3941    85
 4.4041   111
 4.4141   137
 4.4241   118
 4.4341   139
 4.4441   153
 4.4541   160
 4.4641   169
 4.4741   195
 4.4841   207
 4.4941   210
 4.5041   214
 4.5141   202
 4.5241   202
 4.5341   178
 4.5441   160
 4.5541   171
 4.5641   176
 4.5741   153
 4.5841   151
 4.5941   157
 4.6041   118
 4.6141   125
 4.6241   111
 4.6341   105
 4.6441   103
 4.6541   104
 4.6641    99
 4.6741   101
 4.6841    95
 4.6941   116
 4.7041   111
 4.7141    98
 4.7241    91
 4.7341    97
 4.7441   117
 4.7541    94
 4.7641    84
 4.7741    75
 4.7841    86
 4.7941    93
 4.8041    85
 4.8141    78
 4.8241    80
 4.8341   107
 4.8441   102
 4.8541   103
 4.8641   100
 4.8741   108
 4.8841   109
 4.8941   107
 4.9041   129
 4.9141   102
 4.9241   119
 4.9341   112
 4.9441   109
 4.9541    98
 4.9641   118
 4.9741   123
 4.9841   109
 4.9941   113
 5.0041   104
 5.0141   126
 5.0241    88
 5.0341   110
 5.0441    96
 5.0541    92
 5.0641    98
 5.0741   114
 5.0841   108
 5.0941   106
 5.1041   107
 5.1141   100
 5.1241    84
 5.1341    94
 5.1441   109
 5.1541   102
 5.1641   104
 5.1741   106
 5.1841    94
 5.1941    87
 5.2041    93
 5.2141   127
 5.2241   123
 5.2341    96
 5.2441   106
 5.2541   110
 5.2641   114
 5.2741   116
 5.2841    98
 5.2941   122
 5.3041   103
 5.3141    94
 5.3241    96
 5.3341   105
 5.3441    98
 5.3541   142
 5.3641   133
 5.3741   125
 5.3841   123
 5.3941   131
 5.4041   148
 5.4141   148
 5.4241   121
 5.4341   131
 5.4441   133
 5.4541   125
 5.4641   129
 5.4741   136
 5.4841   112
 5.4941   121
 5.5041    94
 5.5141    96
 5.5241   117
 5.5341   120
 5.5441   111
 5.5541   107
 5.5641   103
 5.5741   113
 5.5841   105
 5.5941    96
 5.6041   102
 5.6141    96
 5.6241    74
 5.6341    86
 5.6441   107
 5.6541   108
 5.6641   100
 5.6741   112
 5.6841    92
 5.6941    98
 5.7041    98
 5.7141   130
 5.7241   127
 5.7341    97
 5.7441   121
 5.7541   118
 5.7641   115
 5.7741   126
 5.7841   141
 5.7941   136
 5.8041   170
 5.8141   196
 5.8241   197
 5.8341   221
 5.8441   247
 5.8541   271
 5.8641   342
 5.8741   303
 5.8841   310
 5.8941   343
 5.9041   344
 5.9141   339
 5.9241   277
 5.9341   305
 5.9441   277
 5.9541   235
 5.9641   212
 5.9741   216
 5.9841   180
 5.9941   175
 6.0041   160
 6.0141   129
 6.0241   138
 6.0341   144
 6.0441   123
 6.0541   134
 6.0641   129
 6.0741   131
 6.0841    99
 6.0941   127
 6.1041   125
 6.1141   116
 6.1241   144
 6.1341   143
 6.1441   126
 6.1541   128
 6.1641   135
 6.1741   148
 6.1841   154
 6.1941   163
 6.2041   183
 6.2141   200
 6.2241   250
 6.2341   310
 6.2441   393
 6.2541   539
 6.2641   722
 6.2741   910
 6.2841  1202
 6.2941  1574
 6.3041  1967
 6.3141  2478
 6.3241  3070
 6.3341  3565
 6.3441  4301
 6.3541  4865
 6.3641  5375
 6.3741  5806
 6.3841  6146
 6.3941  6247
 6.4041  6145
 6.4141  6040
 6.4241  5766
 6.4341  5276
 6.4441  4828
 6.4541  4108
 6.4641  3503
 6.4741  2910
 6.4841  2380
 6.4941  1817
 6.5041  1429
 6.5141  1075
 6.5241   849
 6.5341   689
 6.5441   503
 6.5541   417
 6.5641   325
 6.5741   268
 6.5841   223
 6.5941   188
 6.6041   167
 6.6141   198
 6.6241   161
 6.6341   150
 6.6441   147
 6.6541   177
 6.6641   171
 6.6741   150
 6.6841   147
 6.6941   162
 6.7041   171
 6.7141   167
 6.7241   145
 6.7341   150
 6.7441   179
 6.7541   155
 6.7641   169
 6.7741   166
 6.7841   176
 6.7941   192
 6.8041   165
 6.8141   157
 6.8241   181
 6.8341   170
 6.8441   177
 6.8541   189
 6.8641   173
 6.8741   204
 6.8841   204
 6.8941   235
 6.9041   232
 6.9141   289
 6.9241   307
 6.9341   372
 6.9441   443
 6.9541   466
 6.9641   544
 6.9741   589
 6.9841   705
 6.9941   810
 7.0041   839
 7.0141   988
 7.0241  1069
 7.0341  1159
 7.0441  1065
 7.0541  1161
 7.0641  1169
 7.0741  1168
 7.0841  1052
 7.0941   980
 7.1041   907
 7.1141   792
 7.1241   680
 7.1341   673
 7.1441   557
 7.1541   479
 7.1641   400
 7.1741   349
 7.1841   324
 7.1941   275
 7.2041   271
 7.2141   277
 7.2241   254
 7.2341   238
 7.2441   210
 7.2541   241
 7.2641   265
 7.2741   279
 7.2841   255
 7.2941   236
 7.3041   257
 7.3141   267
 7.3241   254
 7.3341   300
 7.3441   328
 7.3541   307
 7.3641   337
 7.3741   333
 7.3841   319
 7.3941   347
 7.4041   325
 7.4141   358
 7.4241   332
 7.4341   329
 7.4441   319
 7.4541   298
 7.4641   324
 7.4741   289
 7.4841   295
 7.4941   300
 7.5041   310
 7.5141   252
 7.5241   236
 7.5341   252
 7.5441   214
 7.5541   232
 7.5641   236
 7.5741   260
 7.5841   217
 7.5941   251
 7.6041   248
 7.6141   225
 7.6241   235
 7.6341   232
 7.6441   233
 7.6541   247
 7.6641   241
 7.6741   258
 7.6841   261
 7.6941   263
 7.7041   275
 7.7141   282
 7.7241   310
 7.7341   246
 7.7441   264
 7.7541   308
 7.7641   275
 7.7741   284
 7.7841   325
 7.7941   331
 7.8041   306
 7.8141   313
 7.8241   328
 7.8341   321
 7.8441   379
 7.8541   353
 7.8641   345
 7.8741   336
 7.8841   372
 7.8941   338
 7.9041   375
 7.9141   401
 7.9241   419
 7.9341   470
 7.9441   458
 7.9541   497
 7.9641   528
 7.9741   565
 7.9841   624
 7.9941   634
 8.0041   736
 8.0141   732
 8.0241   779
 8.0341   880
 8.0441   899
 8.0541  1048
 8.0641  1071
 8.0741  1171
 8.0841  1183
 8.0941  1244
 8.1041  1281
 8.1141  1405
 8.1241  1392
 8.1341  1495
 8.1441  1600
 8.1541  1543
 8.1641  1615
 8.1741  1623
 8.1841  1622
 8.1941  1657
 8.2041  1643
 8.2141  1629
 8.2241  1628
 8.2341  1706
 8.2441  1683
 8.2541  1757
 8.2641  1833
 8.2741  1919
 8.2841  2043
 8.2941  2191
 8.3041  2363
 8.3141  2625
 8.3241  2691
 8.3341  2857
 8.3441  3160
 8.3541  3283
 8.3641  3478
 8.3741  3468
 8.3841  3636
 8.3941  3552
 8.4041  3468
 8.4141  3524
 8.4241  3133
 8.4341  2964
 8.4441  2733
 8.4541  2351
 8.4641  2164
 8.4741  1848
 8.4841  1537
 8.4941  1292
 8.5041  1163
 8.5141   968
 8.5241   783
 8.5341   698
 8.5441   587
 8.5541   516
 8.5641   490
 8.5741   473
 8.5841   416
 8.5941   414
 8.6041   379
 8.6141   341
 8.6241   346
 8.6341   396
 8.6441   384
 8.6541   379
 8.6641   400
 8.6741   397
 8.6841   388
 8.6941   369
 8.7041   361
 8.7141   373
 8.7241   382
 8.7341   346
 8.7441   371
 8.7541   345
 8.7641   381
 8.7741   379
 8.7841   342
 8.7941   359
 8.8041   374
 8.8141   394
 8.8241   401
 8.8341   383
 8.8441   371
 8.8541   384
 8.8641   371
 8.8741   368
 8.8841   407
 8.8941   431
 8.9041   431
 8.9141   410
 8.9241   453
 8.9341   403
 8.9441   426
 8.9541   411
 8.9641   439
 8.9741   441
 8.9841   458
 8.9941   452
 9.0041   454
 9.0141   451
 9.0241   446
 9.0341   488
 9.0441   482
 9.0541   479
 9.0641   520
 9.0741   504
 9.0841   476
 9.0941   568
 9.1041   608
 9.1141   553
 9.1241   620
 9.1341   623
 9.1441   674
 9.1541   656
 9.1641   728
 9.1741   724
 9.1841   777
 9.1941   821
 9.2041   799
 9.2141   886
 9.2241   931
 9.2341   971
 9.2441  1012
 9.2541  1042
 9.2641  1076
 9.2741  1123
 9.2841  1149
 9.2941  1190
 9.3041  1270
 9.3141  1305
 9.3241  1355
 9.3341  1401
 9.3441  1403
 9.3541  1493
 9.3641  1452
 9.3741  1537
 9.3841  1519
 9.3941  1518
 9.4041  1568
 9.4141  1609
 9.4241  1664
 9.4341  1662
 9.4441  1679
 9.4541  1665
 9.4641  1674
 9.4741  1785
 9.4841  1719
 9.4941  1710
 9.5041  1786
 9.5141  1834
 9.5241  1941
 9.5341  1886
 9.5441  2000
 9.5541  2096
 9.5641  2294
 9.5741  2422
 9.5841  2497
 9.5941  2653
 9.6041  2818
 9.6141  3009
 9.6241  3097
 9.6341  3225
 9.6441  3351
 9.6541  3420
 9.6641  3326
 9.6741  3429
 9.6841  3376
 9.6941  3293
 9.7041  3115
 9.7141  3043
 9.7241  2858
 9.7341  2729
 9.7441  2444
 9.7541  2263
 9.7641  2127
 9.7741  1960
 9.7841  1851
 9.7941  1678
 9.8041  1599
 9.8141  1482
 9.8241  1416
 9.8341  1411
 9.8441  1383
 9.8541  1385
 9.8641  1406
 9.8741  1437
 9.8841  1494
 9.8941  1555
 9.9041  1612
 9.9141  1611
 9.9241  1620
 9.9341  1697
 9.9441  1676
 9.9541  1671
 9.9641  1644
 9.9741  1602
 9.9841  1601
 9.9941  1472
10.0041  1395
10.0141  1238
10.0241  1140
10.0341  1048
10.0441   953
10.0541   831
10.0641   724
10.0741   690
10.0841   618
10.0941   508
10.1041   446
10.1141   397
10.1241   394
10.1341   373
10.1441   362
10.1541   356
10.1641   297
10.1741   278
10.1841   328
10.1941   283
10.2041   278
10.2141   275
10.2241   247
10.2341   247
10.2441   259
10.2541   257
10.2641   241
10.2741   222
10.2841   212
10.2941   222
10.3041   224
10.3141   218
10.3241   207
10.3341   189
10.3441   197
10.3541   190
10.3641   198
10.3741   212
10.3841   203
10.3941   215
10.4041   210
10.4141   222
10.4241   224
10.4341   215
10.4441   207
10.4541   219
10.4641   212
10.4741   191
10.4841   199
10.4941   231
10.5041   227
10.5141   208
10.5241   218
10.5341   225
10.5441   230
10.5541   221
10.5641   212
10.5741   230
10.5841   237
10.5941   235
10.6041   226
10.6141   219
10.6241   214
10.6341   223
10.6441   222
10.6541   239
10.6641   245
10.6741   242
10.6841   249
10.6941   239
10.7041   242
10.7141   229
10.7241   237
10.7341   265
10.7441   268
10.7541   273
10.7641   296
10.7741   294
10.7841   287
10.7941   299
10.8041   299
10.8141   320
10.8241   325
10.8341   340
10.8441   335
10.8541   359
10.8641   353
10.8741   347
10.8841   337
10.8941   351
10.9041   319
10.9141   344
10.9241   350
10.9341   345
10.9441   343
10.9541   334
10.9641   348
10.9741   367
10.9841   365
10.9941   348
11.0041   359
11.0141   345
11.0241   346
11.0341   336
11.0441   315
11.0541   326
11.0641   307
11.0741   302
11.0841   317
11.0941   275
11.1041   286
11.1141   299
11.1241   280
11.1341   283
11.1441   310
11.1541   326
11.1641   339
11.1741   333
11.1841   338
11.1941   376
11.2041   430
11.2141   425
11.2241   439
11.2341   448
11.2441   450
11.2541   474
11.2641   477
11.2741   485
11.2841   474
11.2941   438
11.3041   449
11.3141   475
11.3241   457
11.3341   427
11.3441   401
11.3541   403
11.3641   371
11.3741   350
11.3841   305
11.3941   309
11.4041   305
11.4141   303
11.4241   263
11.4341   257
11.4441   253
11.4541   252
11.4641   245
11.4741   236
11.4841   240
11.4941   237
11.5041   254
11.5141   233
11.5241   232
11.5341   238
11.5441   237
11.5541   216
11.5641   252
11.5741   268
11.5841   257
11.5941   246
11.6041   238
11.6141   249
11.6241   258
11.6341   262
11.6441   254
11.6541   243
11.6641   226
11.6741   249
11.6841   251
11.6941   258
11.7041   238
11.7141   221
11.7241   206
11.7341   206
11.7441   232
11.7541   204
11.7641   184
11.7741   185
11.7841   188
11.7941   189
11.8041   167
11.8141   160
11.8241   173
11.8341   179
11.8441   164
11.8541   167
11.8641   179
11.8741   181
11.8841   178
11.8941   177
11.9041   185
11.9141   176
11.9241   169
11.9341   176
11.9441   168
11.9541   173
11.9641   185
11.9741   193
11.9841   186
11.9941   188
12.0041   195
12.0141   204
12.0241   206
12.0341   174
12.0441   176
12.0541   211
12.0641   191
12.0741   188
12.0841   189
12.0941   190
12.1041   189
12.1141   183
12.1241   188
12.1341   205
12.1441   207
12.1541   194
12.1641   199
12.1741   190
12.1841   189
12.1941   182
12.2041   187
12.2141   177
12.2241   175
12.2341   172
12.2441   181
12.2541   178
12.2641   168
12.2741   168
12.2841   166
12.2941   155
12.3041   176
12.3141   186
12.3241   191
12.3341   194
12.3441   169
12.3541   161
12.3641   174
12.3741   184
12.3841   170
12.3941   178
12.4041   191
12.4141   186
12.4241   188
12.4341   187
12.4441   183
12.4541   182
12.4641   175
12.4741   170
12.4841   176
12.4941   187
12.5041   188
12.5141   182
12.5241   179
12.5341   183
12.5441   191
12.5541   190
12.5641   186
12.5741   181
12.5841   185
12.5941   204
12.6041   202
12.6141   192
12.6241   198
12.6341   177
12.6441   187
12.6541   191
12.6641   190
12.6741   191
12.6841   183
12.6941   188
12.7041   194
12.7141   194
12.7241   205
12.7341   193
12.7441   204
12.7541   202
12.7641   186
12.7741   193
12.7841   195
12.7941   185
12.8041   180
12.8141   212
12.8241   203
12.8341   188
12.8441   191
12.8541   178
12.8641   180
12.8741   198
12.8841   194
12.8941   168
12.9041   168
12.9141   198
12.9241   208
12.9341   191
12.9441   197
12.9541   198
12.9641   192
12.9741   186
12.9841   186
12.9941   187
13.0041   182
13.0141   202
13.0241   196
13.0341   191
13.0441   189
13.0541   193
13.0641   195
13.0741   190
13.0841   212
13.0941   208
13.1041   192
13.1141   201
13.1241   205
13.1341   217
13.1441   219
13.1541   220
13.1641   212
13.1741   205
13.1841   201
13.1941   196
13.2041   191
13.2141   189
13.2241   204
13.2341   210
13.2441   221
13.2541   241
13.2641   247
13.2741   253
13.2841   263
13.2941   267
13.3041   261
13.3141   258
13.3241   271
13.3341   279
13.3441   266
13.3541   264
13.3641   289
13.3741   303
13.3841   317
13.3941   304
13.4041   294
13.4141   317
13.4241   295
13.4341   270
13.4441   270
13.4541   271
13.4641   267
13.4741   259
13.4841   267
13.4941   261
13.5041   251
13.5141   251
13.5241   247
13.5341   234
13.5441   235
13.5541   233
13.5641   217
13.5741   228
13.5841   232
13.5941   244
13.6041   234
13.6141   219
13.6241   224
13.6341   226
13.6441   220
13.6541   216
13.6641   227
13.6741   228
13.6841   225
13.6941   215
13.7041   215
13.7141   230
13.7241   221
13.7341   219
13.7441   238
13.7541   225
13.7641   225
13.7741   234
13.7841   223
13.7941   216
13.8041   216
13.8141   232
13.8241   230
13.8341   232
13.8441   249
13.8541   256
13.8641   230
13.8741   220
13.8841   266
13.8941   269
13.9041   251
13.9141   255
13.9241   264
13.9341   293
13.9441   323
13.9541   324
13.9641   331
13.9741   359
13.9841   365
13.9941   377
14.0041   401
14.0141   426
14.0241   456
14.0341   494
14.0441   534
14.0541   569
14.0641   615
14.0741   638
14.0841   664
14.0941   705
14.1041   715
14.1141   711
14.1241   737
14.1341   785
14.1441   762
14.1541   718
14.1641   735
14.1741   743
14.1841   704
14.1941   675
14.2041   671
14.2141   640
14.2241   593
14.2341   551
14.2441   526
14.2541   499
14.2641   456
14.2741   415
14.2841   382
14.2941   361
14.3041   362
14.3141   334
14.3241   290
14.3341   275
14.3441   285
14.3541   285
14.3641   255
14.3741   258
14.3841   265
14.3941   268
14.4041   266
14.4141   253
14.4241   245
14.4341   250
14.4441   258
14.4541   267
14.4641   274
14.4741   260
14.4841   254
14.4941   269
14.5041   276
14.5141   275
14.5241   271
14.5341   257
14.5441   251
14.5541   261
14.5641   279
14.5741   276
14.5841   247
14.5941   237
14.6041   242
14.6141   247
14.6241   251
14.6341   272
14.6441   266
14.6541   249
14.6641   258
14.6741   247
14.6841   264
14.6941   276
14.7041   285
14.7141   289
14.7241   283
14.7341   286
14.7441   279
14.7541   259
14.7641   261
14.7741   279
14.7841   275
14.7941   271
14.8041   274
14.8141   279
14.8241   287
14.8341   286
14.8441   282
14.8541   286
14.8641   285
14.8741   287
14.8841   294
14.8941   295
14.9041   284
14.9141   292
14.9241   308
14.9341   314
14.9441   300
14.9541   309
14.9641   313
14.9741   307
14.9841   302
14.9941   296
15.0041   293
15.0141   297
15.0241   302
15.0341   299
15.0441   298
15.0541   318
15.0641   310
15.0741   277
15.0841   277
15.0941   282
15.1041   274
15.1141   280
15.1241   282
15.1341   280
15.1441   267
15.1541   266
15.1641   285
15.1741   279
15.1841   284
15.1941   291
15.2041   280
15.2141   285
15.2241   301
15.2341   285
15.2441   298
15.2541   297
15.2641   283
15.2741   274
15.2841   269
15.2941   274
15.3041   276
15.3141   276
15.3241   274
15.3341   267
15.3441   285
15.3541   297
15.3641   308
15.3741   285
15.3841   285
15.3941   284
15.4041   267
15.4141   270
15.4241   279
15.4341   302
15.4441   302
15.4541   292
15.4641   297
15.4741   309
15.4841   293
15.4941   298
15.5041   304
15.5141   298
15.5241   321
15.5341   319
15.5441   290
15.5541   297
15.5641   324
15.5741   329
15.5841   324
15.5941   365
15.6041   351
15.6141   353
15.6241   362
15.6341   399
15.6441   431
15.6541   456
15.6641   435
15.6741   440
15.6841   466
15.6941   473
15.7041   480
15.7141   476
15.7241   479
15.7341   522
15.7441   537
15.7541   530
15.7641   536
15.7741   542
15.7841   540
15.7941   563
15.8041   546
15.8141   525
15.8241   532
15.8341   524
15.8441   504
15.8541   488
15.8641   484
15.8741   457
15.8841   450
15.8941   434
15.9041   424
15.9141   399
15.9241   392
15.9341   375
15.9441   395
15.9541   355
15.9641   318
15.9741   332
15.9841   356
15.9941   355
16.0041   341
16.0141   342
16.0241   353
16.0341   358
16.0441   336
16.0541   335
16.0641   323
16.0741   322
16.0841   329
16.0941   333
16.1041   332
16.1141   337
16.1241   352
16.1341   328
16.1441   319
16.1541   339
16.1641   330
16.1741   317
16.1841   305
16.1941   317
16.2041   334
16.2141   339
16.2241   311
16.2341   317
16.2441   330
16.2541   342
16.2641   316
16.2741   307
16.2841   314
16.2941   309
16.3041   325
16.3141   329
16.3241   330
16.3341   338
16.3441   349
16.3541   334
16.3641   322
16.3741   345
16.3841   348
16.3941   333
16.4041   325
16.4141   339
16.4241   323
16.4341   346
16.4441   354
16.4541   325
16.4641   329
16.4741   330
16.4841   336
16.4941   320
16.5041   334
16.5141   350
16.5241   346
16.5341   330
16.5441   352
16.5541   371
16.5641   367
16.5741   350
16.5841   347
16.5941   334
16.6041   366
16.6141   352
16.6241   329
16.6341   342
16.6441   339
16.6541   362
16.6641   358
16.6741   324
16.6841   334
16.6941   324
16.7041   321
16.7141   343
16.7241   321
16.7341   349
16.7441   385
16.7541   338
16.7641   323
16.7741   338
16.7841   345
16.7941   348
16.8041   375
16.8141   355
16.8241   380
16.8341   352
16.8441   378
16.8541   354
16.8641   328
16.8741   352
16.8841   350
16.8941   322
16.9041   348
16.9141   370
16.9241   350
16.9341   359
16.9441   351
16.9541   354
16.9641   342
16.9741   339
16.9841   317
16.9941   341
17.0041   358
17.0141   368
17.0241   359
17.0341   360
17.0441   380
17.0541   361
17.0641   329
17.0741   405
17.0841   373
17.0941   367
17.1041   355
17.1141   383
17.1241   373
17.1341   370
17.1441   373
17.1541   365
17.1641   358
17.1741   370
17.1841   364
17.1941   363
17.2041   393
17.2141   391
17.2241   371
17.2341   363
17.2441   368
17.2541   365
17.2641   334
17.2741   384
17.2841   363
17.2941   350
17.3041   363
17.3141   387
17.3241   391
17.3341   377
17.3441   387
17.3541   372
17.3641   379
17.3741   385
17.3841   381
17.3941   375
17.4041   373
17.4141   382
17.4241   394
17.4341   405
17.4441   380
17.4541   387
17.4641   384
17.4741   374
17.4841   360
17.4941   380
17.5041   408
17.5141   394
17.5241   388
17.5341   379
17.5441   401
17.5541   388
17.5641   395
17.5741   407
17.5841   392
17.5941   392
17.6041   390
17.6141   405
17.6241   406
17.6341   418
17.6441   431
17.6541   423
17.6641   436
17.6741   435
17.6841   431
17.6941   387
17.7041   394
17.7141   409
17.7241   397
17.7341   385
17.7441   409
17.7541   397
17.7641   415
17.7741   421
17.7841   400
17.7941   376
17.8041   419
17.8141   409
17.8241   369
17.8341   383
17.8441   397
17.8541   385
17.8641   382
17.8741   378
17.8841   407
17.8941   409
17.9041   398
17.9141   394
17.9241   405
17.9341   412
17.9441   395
17.9541   394
17.9641   395
17.9741   412
17.9841   406
17.9941   404
18.0041   411
18.0141   394
18.0241   413
18.0341   419
18.0441   425
18.0541   385
18.0641   423
18.0741   454
18.0841   415
18.0941   412
18.1041   415
18.1141   429
18.1241   419
18.1341   422
18.1441   414
18.1541   390
18.1641   405
18.1741   406
18.1841   381
18.1941   400
18.2041   433
18.2141   408
18.2241   404
18.2341   420
18.2441   398
18.2541   403
18.2641   405
18.2741   403
18.2841   418
18.2941   421
18.3041   423
18.3141   394
18.3241   412
18.3341   422
18.3441   421
18.3541   442
18.3641   447
18.3741   418
18.3841   405
18.3941   411
18.4041   409
18.4141   429
18.4241   429
18.4341   446
18.4441   450
18.4541   409
18.4641   404
18.4741   440
18.4841   432
18.4941   434
18.5041   442
18.5141   432
18.5241   416
18.5341   426
18.5441   428
18.5541   437
18.5641   460
18.5741   409
18.5841   414
18.5941   415
18.6041   421
18.6141   456
18.6241   439
18.6341   441
18.6441   468
18.6541   464
18.6641   436
18.6741   433
18.6841   431
18.6941   445
18.7041   428
18.7141   420
18.7241   423
18.7341   412
18.7441   424
18.7541   414
18.7641   434
18.7741   440
18.7841   457
18.7941   445
18.8041   442
18.8141   451
18.8241   459
18.8341   416
18.8441   436
18.8541   440
18.8641   463
18.8741   445
18.8841   449
18.8941   449
18.9041   463
18.9141   469
18.9241   483
18.9341   453
18.9441   436
18.9541   439
18.9641   448
18.9741   462
18.9841   441
18.9941   465
19.0041   435
19.0141   455
19.0241   460
19.0341   419
19.0441   443
19.0541   461
19.0641   456
19.0741   450
19.0841   456
19.0941   451
19.1041   446
19.1141   491
19.1241   476
19.1341   481
19.1441   459
19.1541   452
19.1641   433
19.1741   459
19.1841   464
19.1941   444
19.2041   436
19.2141   446
19.2241   470
19.2341   458
19.2441   457
19.2541   502
19.2641   461
19.2741   455
19.2841   439
19.2941   467
19.3041   461
19.3141   468
19.3241   445
19.3341   441
19.3441   466
19.3541   473
19.3641   424
19.3741   489
19.3841   465
19.3941   452
19.4041   454
19.4141   465
19.4241   466
19.4341   473
19.4441   440
19.4541   499
19.4641   474
19.4741   431
19.4841   446
19.4941   443
19.5041   453
19.5141   463
19.5241   452
19.5341   473
19.5441   456
19.5541   487
19.5641   475
19.5741   500
19.5841   503
19.5941   479
19.6041   495
19.6141   460
19.6241   479
19.6341   489
19.6441   474
19.6541   464
19.6641   458
19.6741   499
19.6841   499
19.6941   484
19.7041   480
19.7141   452
19.7241   481
19.7341   484
19.7441   473
19.7541   466
19.7641   464
19.7741   501
19.7841   497
19.7941   497
19.8041   479
19.8141   489
19.8241   495
19.8341   485
19.8441   488
19.8541   458
19.8641   466
19.8741   480
19.8841   486
19.8941   450
19.9041   471
19.9141   481
19.9241   474
19.9341   472
19.9441   485
19.9541   504
19.9641   474
19.9741   511
19.9841   510
19.9941   486
20.0041   479
20.0141   442
20.0241   473
20.0341   488
20.0441   493
20.0541   508
20.0641   508
20.0741   510
20.0841   454
20.0941   457
20.1041   499
20.1141   486
20.1241   508
20.1341   506
20.1441   477
20.1541   511
20.1641   486
20.1741   454
20.1841   470
20.1941   466
20.2041   474
20.2141   474
20.2241   485
20.2341   464
20.2441   461
20.2541   491
20.2641   506
20.2741   479
20.2841   487
20.2941   511
20.3041   511
20.3141   517
20.3241   514
20.3341   487
20.3441   481
20.3541   505
20.3641   512
20.3741   473
20.3841   497
20.3941   473
20.4041   485
20.4141   500
20.4241   513
20.4341   457
20.4441   484
20.4541   484
20.4641   497
20.4741   513
20.4841   501
20.4941   514
20.5041   503
20.5141   512
20.5241   513
20.5341   478
20.5441   454
20.5541   505
20.5641   503
20.5741   477
20.5841   483
20.5941   494
20.6041   525
20.6141   480
20.6241   477
20.6341   510
20.6441   481
20.6541   518
20.6641   510
20.6741   513
20.6841   510
20.6941   486
20.7041   488
20.7141   541
20.7241   518
20.7341   516
20.7441   471
20.7541   502
20.7641   511
20.7741   514
20.7841   487
20.7941   519
20.8041   555
20.8141   521
20.8241   485
20.8341   524
20.8441   548
20.8541   543
20.8641   586
20.8741   588
20.8841   574
20.8941   579
20.9041   576
20.9141   554
20.9241   582
20.9341   635
20.9441   664
20.9541   639
20.9641   672
20.9741   697
20.9841   702
20.9941   679
21.0041   692
21.0141   693
21.0241   694
21.0341   744
21.0441   746
21.0541   826
21.0641   751
21.0741   748
21.0841   837
21.0941   793
21.1041   812
21.1141   788
21.1241   766
21.1341   829
21.1441   779
21.1541   833
21.1641   815
21.1741   840
21.1841   827
21.1941   839
21.2041   801
21.2141   756
21.2241   724
21.2341   769
21.2441   683
21.2541   717
21.2641   693
21.2741   636
21.2841   629
21.2941   625
21.3041   607
21.3141   619
21.3241   583
21.3341   581
21.3441   585
21.3541   623
21.3641   510
21.3741   532
21.3841   579
21.3941   525
21.4041   553
21.4141   548
21.4241   540
21.4341   525
21.4441   543
21.4541   550
21.4641   508
21.4741   508
21.4841   497
21.4941   511
21.5041   502
21.5141   523
21.5241   556
21.5341   520
21.5441   496
21.5541   503
21.5641   498
21.5741   525
21.5841   486
21.5941   508
21.6041   519
21.6141   507
21.6241   516
21.6341   528
21.6441   529
21.6541   499
21.6641   516
21.6741   515
21.6841   539
21.6941   479
21.7041   501
21.7141   516
21.7241   509
21.7341   519
21.7441   549
21.7541   524
21.7641   525
21.7741   516
21.7841   540
21.7941   476
21.8041   479
21.8141   469
21.8241   499
21.8341   517
21.8441   497
21.8541   508
21.8641   511
21.8741   521
21.8841   540
21.8941   498
21.9041   522
21.9141   546
21.9241   541
21.9341   492
21.9441   512
21.9541   498
21.9641   496
21.9741   506
21.9841   546
21.9941   518
22.0041   503
22.0141   503
22.0241   509
22.0341   536
22.0441   520
22.0541   516
22.0641   549
22.0741   521
22.0841   533
22.0941   494
22.1041   527
22.1141   503
22.1241   519
22.1341   528
22.1441   558
22.1541   537
22.1641   499
22.1741   540
22.1841   510
22.1941   553
22.2041   551
22.2141   524
22.2241   529
22.2341   518
22.2441   511
22.2541   514
22.2641   545
22.2741   522
22.2841   508
22.2941   549
22.3041   497
22.3141   498
22.3241   545
22.3341   531
22.3441   549
22.3541   520
22.3641   523
22.3741   525
22.3841   544
22.3941   519
22.4041   541
22.4141   541
22.4241   556
22.4341   520
22.4441   551
22.4541   517
22.4641   487
22.4741   533
22.4841   546
22.4941   505
22.5041   503
22.5141   554
22.5241   510
22.5341   506
22.5441   518
22.5541   541
22.5641   531
22.5741   537
22.5841   512
22.5941   478
22.6041   558
22.6141   511
22.6241   518
22.6341   541
22.6441   535
22.6541   557
22.6641   549
22.6741   543
22.6841   556
22.6941   549
22.7041   521
22.7141   545
22.7241   535
22.7341   510
22.7441   538
22.7541   550
22.7641   580
22.7741   523
22.7841   552
22.7941   512
22.8041   544
22.8141   536
22.8241   537
22.8341   512
22.8441   546
22.8541   532
22.8641   542
22.8741   505
22.8841   532
22.8941   520
22.9041   520
22.9141   523
22.9241   514
22.9341   564
22.9441   487
22.9541   495
22.9641   509
22.9741   502
22.9841   567
22.9941   520
23.0041   535
23.0141   528
23.0241   534
23.0341   541
23.0441   497
23.0541   520
23.0641   539
23.0741   532
23.0841   523
23.0941   505
23.1041   497
23.1141   521
23.1241   533
23.1341   491
23.1441   524
23.1541   563
23.1641   483
23.1741   544
23.1841   490
23.1941   481
23.2041   481
23.2141   560
23.2241   522
23.2341   547
23.2441   517
23.2541   511
23.2641   521
23.2741   518
23.2841   530
23.2941   538
23.3041   509
23.3141   479
23.3241   509
23.3341   525
23.3441   500
23.3541   492
23.3641   505
23.3741   513
23.3841   485
23.3941   515
23.4041   521
23.4141   534
23.4241   473
23.4341   542
23.4441   515
23.4541   507
23.4641   542
23.4741   530
23.4841   533
23.4941   515
23.5041   495
23.5141   522
23.5241   553
23.5341   501
23.5441   526
23.5541   491
23.5641   551
23.5741   553
23.5841   551
23.5941   527
23.6041   549
23.6141   532
23.6241   537
23.6341   546
23.6441   537
23.6541   488
23.6641   541
23.6741   534
23.6841   541
23.6941   522
23.7041   559
23.7141   569
23.7241   548
23.7341   550
23.7441   537
23.7541   589
23.7641   616
23.7741   553
23.7841   595
23.7941   570
23.8041   572
23.8141   584
23.8241   585
23.8341   563
23.8441   571
23.8541   562
23.8641   541
23.8741   536
23.8841   602
23.8941   532
23.9041   549
23.9141   499
23.9241   494
23.9341   527
23.9441   519
23.9541   544
23.9641   514
23.9741   495
23.9841   543
23.9941   550
24.0041   549
24.0141   526
24.0241   524
24.0341   514
24.0441   520
24.0541   503
24.0641   482
24.0741   513
24.0841   508
24.0941   522
24.1041   523
24.1141   508
24.1241   532
24.1341   473
24.1441   534
24.1541   542
24.1641   519
24.1741   525
24.1841   504
24.1941   508
24.2041   497
24.2141   486
24.2241   540
24.2341   545
24.2441   524
24.2541   520
24.2641   530
24.2741   507
24.2841   512
24.2941   526
24.3041   506
24.3141   472
24.3241   530
24.3341   516
24.3441   503
24.3541   526
24.3641   493
24.3741   494
24.3841   497
24.3941   481
24.4041   525
24.4141   462
24.4241   502
24.4341   509
24.4441   489
24.4541   476
24.4641   525
24.4741   483
24.4841   487
24.4941   477
24.5041   504
24.5141   490
24.5241   500
24.5341   443
24.5441   487
24.5541   484
24.5641   487
24.5741   519
24.5841   480
24.5941   510
24.6041   504
24.6141   499
24.6241   489
24.6341   476
24.6441   470
24.6541   503
24.6641   474
24.6741   501
24.6841   516
24.6941   494
24.7041   519
24.7141   503
24.7241   472
24.7341   504
24.7441   479
24.7541   469
24.7641   486
24.7741   467
24.7841   490
24.7941   469
24.8041   493
24.8141   491
24.8241   522
24.8341   482
24.8441   495
24.8541   488
24.8641   456
24.8741   479
24.8841   506
24.8941   509
24.9041   476
24.9141   456
24.9241   503
24.9341   482
24.9441   493
24.9541   519
24.9641   516
24.9741   492
24.9841   531
24.9941   491
25.0041   506
25.0141   522
25.0241   494
25.0341   515
25.0441   495
25.0541   514
25.0641   492
25.0741   511
25.0841   494
25.0941   476
25.1041   458
25.1141   497
25.1241   504
25.1341   521
25.1441   536
25.1541   480
25.1641   481
25.1741   518
25.1841   496
25.1941   461
25.2041   497
25.2141   514
25.2241   531
25.2341   499
25.2441   514
25.2541   492
25.2641   524
25.2741   513
25.2841   521
25.2941   483
25.3041   492
25.3141   489
25.3241   482
25.3341   478
25.3441   497
25.3541   480
25.3641   462
25.3741   461
25.3841   508
25.3941   490
25.4041   498
25.4141   498
25.4241   470
25.4341   485
25.4441   460
25.4541   471
25.4641   456
25.4741   497
25.4841   462
25.4941   480
25.5041   462
25.5141   472
25.5241   461
25.5341   452
25.5441   478
25.5541   472
25.5641   464
25.5741   452
25.5841   467
25.5941   469
25.6041   449
25.6141   465
25.6241   477
25.6341   461
25.6441   474
25.6541   473
25.6641   444
25.6741   493
25.6841   465
25.6941   471
25.7041   460
25.7141   445
25.7241   449
25.7341   495
25.7441   453
25.7541   454
25.7641   498
25.7741   451
25.7841   471
25.7941   479
25.8041   464
25.8141   429
25.8241   472
25.8341   461
25.8441   456
25.8541   490
25.8641   472
25.8741   475
25.8841   491
25.8941   469
25.9041   481
25.9141   435
25.9241   474
25.9341   438
25.9441   455
25.9541   443
25.9641   456
25.9741   479
25.9841   479
25.9941   505
26.0041   475
26.0141   442
26.0241   483
26.0341   461
26.0441   427
26.0541   458
26.0641   475
26.0741   456
26.0841   450
26.0941   455
26.1041   487
26.1141   454
26.1241   451
26.1341   452
26.1441   478
26.1541   443
26.1641   435
26.1741   432
26.1841   459
26.1941   461
26.2041   466
26.2141   433
26.2241   467
26.2341   462
26.2441   458
26.2541   464
26.2641   465
26.2741   469
26.2841   470
26.2941   473
26.3041   434
26.3141   436
26.3241   434
26.3341   440
26.3441   443
26.3541   430
26.3641   465
26.3741   436
26.3841   451
26.3941   421
26.4041   424
26.4141   426
26.4241   427
26.4341   414
26.4441   457
26.4541   472
26.4641   421
26.4741   394
26.4841   394
26.4941   478
26.5041   475
26.5141   468
26.5241   430
26.5341   443
26.5441   432
26.5541   415
26.5641   414
26.5741   429
26.5841   397
26.5941   433
26.6041   448
26.6141   443
26.6241   429
26.6341   452
26.6441   438
26.6541   448
26.6641   435
26.6741   422
26.6841   432
26.6941   437
26.7041   412
26.7141   418
26.7241   452
26.7341   423
26.7441   459
26.7541   444
26.7641   432
26.7741   418
26.7841   453
26.7941   429
26.8041   406
26.8141   427
26.8241   446
26.8341   425
26.8441   436
26.8541   436
26.8641   420
26.8741   436
26.8841   427
26.8941   428
26.9041   437
26.9141   395
26.9241   447
26.9341   439
26.9441   413
26.9541   429
26.9641   383
26.9741   394
26.9841   428
26.9941   379
27.0041   409
27.0141   423
27.0241   412
27.0341   412
27.0441   399
27.0541   383
27.0641   391
27.0741   448
27.0841   385
27.0941   441
27.1041   460
27.1141   431
27.1241   419
27.1341   400
27.1441   417
27.1541   458
27.1641   430
27.1741   444
27.1841   392
27.1941   404
27.2041   426
27.2141   425
27.2241   407
27.2341   426
27.2441   405
27.2541   374
27.2641   420
27.2741   424
27.2841   404
27.2941   442
27.3041   391
27.3141   379
27.3241   429
27.3341   383
27.3441   415
27.3541   439
27.3641   417
27.3741   401
27.3841   381
27.3941   390
27.4041   413
27.4141   414
27.4241   393
27.4341   425
27.4441   403
27.4541   419
27.4641   407
27.4741   378
27.4841   414
27.4941   404
27.5041   410
27.5141   404
27.5241   428
27.5341   419
27.5441   429
27.5541   415
27.5641   392
27.5741   383
27.5841   410
27.5941   414
27.6041   406
27.6141   384
27.6241   398
27.6341   382
27.6441   411
27.6541   397
27.6641   444
27.6741   392
27.6841   368
27.6941   399
27.7041   386
27.7141   373
27.7241   379
27.7341   399
27.7441   407
27.7541   417
27.7641   377
27.7741   400
27.7841   379
27.7941   410
27.8041   353
27.8141   368
27.8241   419
27.8341   398
27.8441   357
27.8541   396
27.8641   368
27.8741   385
27.8841   388
27.8941   421
27.9041   353
27.9141   381
27.9241   420
27.9341   402
27.9441   406
27.9541   361
27.9641   386
27.9741   396
27.9841   398
27.9941   340
28.0041   374
28.0141   384
28.0241   401
28.0341   369
28.0441   381
28.0541   413
28.0641   362
28.0741   385
28.0841   391
28.0941   387
28.1041   358
28.1141   355
28.1241   377
28.1341   402
28.1441   398
28.1541   375
28.1641   378
28.1741   366
28.1841   385
28.1941   403
28.2041   376
28.2141   377
28.2241   377
28.2341   373
28.2441   356
28.2541   387
28.2641   376
28.2741   399
28.2841   369
28.2941   352
28.3041   389
28.3141   374
28.3241   391
28.3341   357
28.3441   360
28.3541   373
28.3641   366
28.3741   367
28.3841   363
28.3941   369
28.4041   381
28.4141   357
28.4241   361
28.4341   389
28.4441   369
28.4541   380
28.4641   370
28.4741   383
28.4841   381
28.4941   338
28.5041   371
28.5141   359
28.5241   366
28.5341   372
28.5441   371
28.5541   377
28.5641   373
28.5741   387
28.5841   378
28.5941   371
28.6041   368
28.6141   351
28.6241   335
28.6341   368
28.6441   335
28.6541   360
28.6641   380
28.6741   357
28.6841   403
28.6941   376
28.7041   383
28.7141   386
28.7241   324
28.7341   360
28.7441   349
28.7541   378
28.7641   363
28.7741   323
28.7841   323
28.7941   330
28.8041   348
28.8141   343
28.8241   345
28.8341   353
28.8441   369
28.8541   341
28.8641   346
28.8741   332
28.8841   369
28.8941   350
28.9041   336
28.9141   316
28.9241   348
28.9341   361
28.9441   382
28.9541   347
28.9641   310
28.9741   332
28.9841   331
28.9941   346
29.0041   315
29.0141   325
29.0241   342
29.0341   326
29.0441   353
29.0541   328
29.0641   330
29.0741   326
29.0841   326
29.0941   375
29.1041   366
29.1141   345
29.1241   352
29.1341   323
29.1441   350
29.1541   338
29.1641   367
29.1741   333
29.1841   319
29.1941   330
29.2041   319
29.2141   324
29.2241   344
29.2341   349
29.2441   332
29.2541   334
29.2641   370
29.2741   331
29.2841   324
29.2941   335
29.3041   333
29.3141   350
29.3241   325
29.3341   379
29.3441   312
29.3541   300
29.3641   351
29.3741   301
29.3841   308
29.3941   317
29.4041   347
29.4141   304
29.4241   346
29.4341   312
29.4441   303
29.4541   339
29.4641   341
29.4741   328
29.4841   345
29.4941   308
29.5041   320
29.5141   313
29.5241   312
29.5341   328
29.5441   322
29.5541   309
29.5641   306
29.5741   320
29.5841   311
29.5941   313
29.6041   336
29.6141   307
29.6241   297
29.6341   334
29.6441   310
29.6541   333
29.6641   324
29.6741   314
29.6841   316
29.6941   334
29.7041   329
29.7141   312
29.7241   314
29.7341   316
29.7441   310
29.7541   329
29.7641   306
29.7741   299
29.7841   350
29.7941   315
29.8041   320
29.8141   289
29.8241   343
29.8341   310
29.8441   305
29.8541   310
29.8641   328
29.8741   291
29.8841   281
29.8941   279
29.9041   329
29.9141   316
29.9241   310
29.9341   324
29.9441   326
29.9541   296
29.9641   288
29.9741   315
29.9841   318
29.9941   299
30.0041   317
30.0141   292
30.0241   304
30.0341   312
30.0441   275
30.0541   325
30.0641   302
30.0741   271
30.0841   294
30.0941   308
30.1041   304
30.1141   305
30.1241   315
30.1341   288
30.1441   315
30.1541   302
30.1641   314
30.1741   294
30.1841   313
30.1941   279
30.2041   303
30.2141   300
30.2241   272
30.2341   313
30.2441   265
30.2541   299
30.2641   301
30.2741   281
30.2841   279
30.2941   318
30.3041   291
30.3141   300
30.3241   273
30.3341   293
30.3441   290
30.3541   307
30.3641   283
30.3741   295
30.3841   274
30.3941   281
30.4041   268
30.4141   286
30.4241   283
30.4341   277
30.4441   284
30.4541   312
30.4641   274
30.4741   306
30.4841   275
30.4941   277
30.5041   301
30.5141   264
30.5241   294
30.5341   287
30.5441   281
30.5541   295
30.5641   254
30.5741   280
30.5841   276
30.5941   262
30.6041   283
30.6141   287
30.6241   287
30.6341   259
30.6441   267
30.6541   254
30.6641   277
30.6741   266
30.6841   281
30.6941   308
30.7041   287
30.7141   280
30.7241   263
30.7341   304
30.7441   260
30.7541   284
30.7641   270
30.7741   263
30.7841   269
30.7941   267
30.8041   260
30.8141   245
30.8241   277
30.8341   298
30.8441   277
30.8541   295
30.8641   256
30.8741   256
30.8841   289
30.8941   254
30.9041   255
30.9141   279
30.9241   287
30.9341   256
30.9441   256
30.9541   279
30.9641   262
30.9741   243
30.9841   276
30.9941   257
31.0041   254
31.0141   254
31.0241   265
31.0341   246
31.0441   252
31.0541   273
31.0641   242
31.0741   236
31.0841   254
31.0941   247
31.1041   278
31.1141   278
31.1241   259
31.1341   227
31.1441   252
31.1541   273
31.1641   239
31.1741   260
31.1841   258
31.1941   249
31.2041   237
31.2141   263
31.2241   224
31.2341   248
31.2441   275
31.2541   263
31.2641   232
31.2741   238
31.2841   259
31.2941   236
31.3041   235
31.3141   275
31.3241   268
31.3341   252
31.3441   237
31.3541   253
31.3641   243
31.3741   248
31.3841   261
31.3941   267
31.4041   247
31.4141   252
31.4241   257
31.4341   233
31.4441   261
31.4541   247
31.4641   247
31.4741   232
31.4841   252
31.4941   260
31.5041   257
31.5141   260
31.5241   261
31.5341   225
31.5441   249
31.5541   221
31.5641   249
31.5741   268
31.5841   265
31.5941   271
31.6041   227
31.6141   254
31.6241   236
31.6341   240
31.6441   240
31.6541   252
31.6641   235
31.6741   256
31.6841   239
31.6941   234
31.7041   245
31.7141   246
31.7241   226
31.7341   237
31.7441   239
31.7541   234
31.7641   243
31.7741   250
31.7841   237
31.7941   252
31.8041   240
31.8141   233
31.8241   226
31.8341   233
31.8441   269
31.8541   261
31.8641   252
31.8741   244
31.8841   209
31.8941   266
31.9041   249
31.9141   247
31.9241   233
31.9341   227
31.9441   237
31.9541   241
31.9641   252
31.9741   222
31.9841   221
31.9941   225
32.0041   236
32.0141   240
32.0241   235
32.0341   227
32.0441   222
32.0541   260
32.0641   237
32.0741   233
32.0841   254
32.0941   235
32.1041   233
32.1141   227
32.1241   258
32.1341   256
32.1441   232
32.1541   248
32.1641   214
32.1741   208
32.1841   225
32.1941   229
32.2041   241
32.2141   230
32.2241   208
32.2341   226
32.2441   235
32.2541   218
32.2641   224
32.2741   226
32.2841   208
32.2941   219
32.3041   210
32.3141   240
32.3241   232
32.3341   220
32.3441   209
32.3541   201
32.3641   217
32.3741   238
32.3841   207
32.3941   209
32.4041   212
32.4141   218
32.4241   199
32.4341   199
32.4441   195
32.4541   220
32.4641   219
32.4741   230
32.4841   232
32.4941   220
32.5041   218
32.5141   190
32.5241   206
32.5341   222
32.5441   208
32.5541   218
32.5641   221
32.5741   211
32.5841   198
32.5941   217
32.6041   224
32.6141   218
32.6241   223
32.6341   209
32.6441   202
32.6541   206
32.6641   211
32.6741   211
32.6841   205
32.6941   225
32.7041   208
32.7141   196
32.7241   201
32.7341   204
32.7441   205
32.7541   191
32.7641   192
32.7741   220
32.7841   183
32.7941   192
32.8041   178
32.8141   207
32.8241   210
32.8341   211
32.8441   219
32.8541   202
32.8641   201
32.8741   199
32.8841   186
32.8941   179
32.9041   182
32.9141   203
32.9241   213
32.9341   190
32.9441   179
32.9541   212
32.9641   201
32.9741   200
32.9841   190
32.9941   182
33.0041   215
33.0141   178
33.0241   208
33.0341   176
33.0441   190
33.0541   215
33.0641   198
33.0741   206
33.0841   196
33.0941   189
33.1041   173
33.1141   192
33.1241   164
33.1341   204
33.1441   211
33.1541   192
33.1641   180
33.1741   194
33.1841   185
33.1941   173
33.2041   199
33.2141   195
33.2241   163
33.2341   169
33.2441   185
33.2541   193
33.2641   192
33.2741   155
33.2841   204
33.2941   187
33.3041   159
33.3141   191
33.3241   175
33.3341   203
33.3441   181
33.3541   179
33.3641   187
33.3741   171
33.3841   190
33.3941   151
33.4041   190
33.4141   173
33.4241   178
33.4341   186
33.4441   187
33.4541   179
33.4641   192
33.4741   178
33.4841   172
33.4941   193
33.5041   167
33.5141   202
33.5241   181
33.5341   169
33.5441   191
33.5541   178
33.5641   185
33.5741   179
33.5841   165
33.5941   166
33.6041   173
33.6141   178
33.6241   198
33.6341   157
33.6441   201
33.6541   164
33.6641   175
33.6741   170
33.6841   181
33.6941   171
33.7041   158
33.7141   167
33.7241   161
33.7341   167
33.7441   167
33.7541   142
33.7641   159
33.7741   169
33.7841   155
33.7941   164
33.8041   143
33.8141   149
33.8241   173
33.8341   153
33.8441   156
33.8541   187
33.8641   188
33.8741   165
33.8841   155
33.8941   161
33.9041   151
33.9141   142
33.9241   164
33.9341   160
33.9441   167
33.9541   156
33.9641   188
33.9741   162
33.9841   171
33.9941   163
34.0041   164
34.0141   190
34.0241   176
34.0341   195
34.0441   167
34.0541   183
34.0641   150
34.0741   160
34.0841   173
34.0941   180
34.1041   179
34.1141   167
34.1241   149
34.1341   178
34.1441   159
34.1541   144
34.1641   158
34.1741   162
34.1841   142
34.1941   159
34.2041   142
34.2141   141
34.2241   149
34.2341   154
34.2441   135
34.2541   131
34.2641   154
34.2741   149
34.2841   182
34.2941   158
34.3041   165
34.3141   156
34.3241   147
34.3341   149
34.3441   157
34.3541   165
34.3641   165
34.3741   150
34.3841   148
34.3941   156
34.4041   150
34.4141   165
34.4241   146
34.4341   137
34.4441   159
34.4541   148
34.4641   145
34.4741   157
34.4841   148
34.4941   152
34.5041   151
34.5141   177
34.5241   153
34.5341   144
34.5441   146
34.5541   138
34.5641   153
34.5741   166
34.5841   170
34.5941   151
34.6041   157
34.6141   129
34.6241   131
34.6341   168
34.6441   152
34.6541   161
34.6641   170
34.6741   137
34.6841   143
34.6941   150
34.7041   144
34.7141   137
34.7241   141
34.7341   126
34.7441   141
34.7541   161
34.7641   138
34.7741   151
34.7841   140
34.7941   130
34.8041   150
34.8141   140
34.8241   160
34.8341   144
34.8441   128
34.8541   132
34.8641   141
34.8741   126
34.8841   149
34.8941   132
34.9041   139
34.9141   164
34.9241   126
34.9341   142
34.9441   113
34.9541   128
34.9641   123
34.9741   141
34.9841   127
34.9941   141
35.0041   131
35.0141   144
35.0241   142
35.0341   135
35.0441   132
35.0541   130
35.0641   123
35.0741   142
35.0841   140
35.0941   138
35.1041   130
35.1141   126
35.1241   131
35.1341   124
35.1441   132
35.1541   124
35.1641   138
35.1741   142
35.1841   124
35.1941   130
35.2041   123
35.2141   139
35.2241   148
35.2341   143
35.2441   128
35.2541   124
35.2641   138
35.2741   126
35.2841   115
35.2941   122
35.3041   135
35.3141   139
35.3241   127
35.3341   122
35.3441   129
35.3541   114
35.3641   135
35.3741   101
35.3841   143
35.3941   112
35.4041   135
35.4141   126
35.4241   140
35.4341   133
35.4441   121
35.4541   122
35.4641   120
35.4741   150
35.4841   128
35.4941   139
35.5041   131
35.5141   131
35.5241   124
35.5341   129
35.5441   114
35.5541   132
35.5641   130
35.5741   131
35.5841   124
35.5941   125
35.6041   117
35.6141   114
35.6241   112
35.6341   120
35.6441   118
35.6541   115
35.6641   119
35.6741   112
35.6841   113
35.6941   115
35.7041   115
35.7141   121
35.7241   120
35.7341   115
35.7441   105
35.7541   116
35.7641   114
35.7741   103
35.7841   111
35.7941   115
35.8041   123
35.8141   109
35.8241   107
35.8341   108
35.8441   120
35.8541   128
35.8641   120
35.8741   131
35.8841   147
35.8941   122
35.9041   107
35.9141   100
35.9241   122
35.9341   101
35.9441   120
35.9541   125
35.9641   112
35.9741   107
35.9841   118
35.9941   109
36.0041   128
36.0141    92
36.0241   116
36.0341   104
36.0441   111
36.0541   104
36.0641   114
36.0741   105
36.0841   121
36.0941   121
36.1041   108
36.1141   107
36.1241   103
36.1341   112
36.1441   124
36.1541   116
36.1641    97
36.1741   116
36.1841   111
36.1941   103
36.2041   100
36.2141   110
36.2241   112
36.2341    95
36.2441    82
36.2541    99
36.2641    93
36.2741   109
36.2841   134
36.2941   112
36.3041   104
36.3141   106
36.3241   109
36.3341   104
36.3441   123
36.3541   103
36.3641   101
36.3741   120
36.3841   114
36.3941   111
36.4041    95
36.4141    98
36.4241   125
36.4341   107
36.4441    97
36.4541   110
36.4641    89
36.4741    99
36.4841   111
36.4941    93
36.5041   104
36.5141    89
36.5241   103
36.5341    98
36.5441   105
36.5541   109
36.5641   102
36.5741   100
36.5841   108
36.5941    91
36.6041   101
36.6141   101
36.6241   101
36.6341   104
36.6441    86
36.6541    88
36.6641    93
36.6741    85
36.6841   120
36.6941   110
36.7041    96
36.7141    97
36.7241    85
36.7341    90
36.7441    90
36.7541    85
36.7641   106
36.7741    89
36.7841    97
36.7941    60
36.8041    90
36.8141    82
36.8241   103
36.8341    97
36.8441    99
36.8541    99
36.8641    91
36.8741   106
36.8841    84
36.8941    93
36.9041    83
36.9141    97
36.9241    78
36.9341    74
36.9441    90
36.9541    84
36.9641    93
36.9741    75
36.9841    83
36.9941    89
37.0041    85
37.0141    79
37.0241    85
37.0341    98
37.0441    98
37.0541   105
37.0641    90
37.0741    80
37.0841    85
37.0941    89
37.1041    93
37.1141    80
37.1241    81
37.1341    97
37.1441    88
37.1541    79
37.1641    92
37.1741    83
37.1841    75
37.1941    78
37.2041    89
37.2141    90
37.2241    90
37.2341    86
37.2441    86
37.2541    99
37.2641    83
37.2741    78
37.2841    72
37.2941    74
37.3041    58
37.3141    96
37.3241    87
37.3341    79
37.3441    74
37.3541    89
37.3641    93
37.3741    77
37.3841    80
37.3941    85
37.4041    68
37.4141    83
37.4241    80
37.4341    89
37.4441    83
37.4541    69
37.4641    75
37.4741    82
37.4841    82
37.4941    69
37.5041    70
37.5141    88
37.5241    80
37.5341    84
37.5441    85
37.5541    86
37.5641    69
37.5741    89
37.5841    81
37.5941    73
37.6041    87
37.6141    84
37.6241    94
37.6341    76
37.6441    73
37.6541    79
37.6641    84
37.6741    79
37.6841    66
37.6941    76
37.7041    87
37.7141    63
37.7241    71
37.7341    69
37.7441    84
37.7541    55
37.7641    72
37.7741    92
37.7841    80
37.7941    70
37.8041    77
37.8141    75
37.8241    85
37.8341    78
37.8441    80
37.8541    81
37.8641    82
37.8741    60
37.8841    82
37.8941    90
37.9041    68
37.9141    69
37.9241    71
37.9341    64
37.9441    68
37.9541    71
37.9641    61
37.9741    62
37.9841    74
37.9941    74
38.0041    75
38.0141    63
38.0241    76
38.0341    69
38.0441    71
38.0541    63
38.0641    82
38.0741    54
38.0841    77
38.0941    57
38.1041    65
38.1141    53
38.1241    63
38.1341    68
38.1441    76
38.1541    59
38.1641    68
38.1741    66
38.1841    64
38.1941    67
38.2041    79
38.2141    71
38.2241    82
38.2341    62
38.2441    75
38.2541    64
38.2641    69
38.2741    59
38.2841    61
38.2941    69
38.3041    60
38.3141    59
38.3241    70
38.3341    71
38.3441    66
38.3541    43
38.3641    56
38.3741    65
38.3841    51
38.3941    65
38.4041    64
38.4141    55
38.4241    63
38.4341    65
38.4441    57
38.4541    51
38.4641    53
38.4741    62
38.4841    59
38.4941    57
38.5041    54
38.5141    67
38.5241    64
38.5341    59
38.5441    64
38.5541    65
38.5641    52
38.5741    74
38.5841    62
38.5941    59
38.6041    56
38.6141    58
38.6241    56
38.6341    63
38.6441    57
38.6541    51
38.6641    49
38.6741    47
38.6841    59
38.6941    62
38.7041    63
38.7141    55
38.7241    40
38.7341    61
38.7441    53
38.7541    66
38.7641    59
38.7741    52
38.7841    47
38.7941    49
38.8041    63
38.8141    58
38.8241    53
38.8341    53
38.8441    56
38.8541    63
38.8641    54
38.8741    55
38.8841    59
38.8941    60
38.9041    53
38.9141    49
38.9241    61
38.9341    53
38.9441    56
38.9541    46
38.9641    36
38.9741    54
38.9841    56
38.9941    46
39.0041    63
39.0141    39
39.0241    44
39.0341    47
39.0441    50
39.0541    53
39.0641    49
39.0741    56
39.0841    58
39.0941    53
39.1041    46
39.1141    52
39.1241    55
39.1341    65
39.1441    53
39.1541    47
39.1641    36
39.1741    48
39.1841    57
39.1941    48
39.2041    49
39.2141    42
39.2241    44
39.2341    39
39.2441    51
39.2541    41
39.2641    59
39.2741    59
39.2841    51
39.2941    56
39.3041    47
39.3141    43
39.3241    51
39.3341    53
39.3441    42
39.3541    48
39.3641    51
39.3741    36
39.3841    29
39.3941    39
39.4041    46
39.4141    38
39.4241    43
39.4341    55
39.4441    48
39.4541    40
39.4641    38
39.4741    47
39.4841    47
39.4941    56
39.5041    55
39.5141    41
39.5241    50
39.5341    42
39.5441    49
39.5541    40
39.5641    44
39.5741    36
39.5841    49
39.5941    59
39.6041    51
39.6141    40
39.6241    54
39.6341    37
39.6441    33
39.6541    49
39.6641    40
39.6741    42
39.6841    37
39.6941    45
39.7041    44
39.7141    44
39.7241    41
39.7341    43
39.7441    37
39.7541    50
39.7641    43
39.7741    39
39.7841    34
39.7941    41
39.8041    40
39.8141    39
39.8241    52
39.8341    30
39.8441    40
39.8541    36
39.8641    35
39.8741    34
39.8841    40
39.8941    39
39.9041    39
39.9141    34
39.9241    42
39.9341    31
39.9441    52
39.9541    25
39.9641    43
39.9741    33
39.9841    36
39.9941    35
