Bruker Nano GmbH Berlin, Germany
Esprit 1.9

Date: 4/1/2021 4:55:40 PM
Real time: 34548
Life time: 32675
Pulse density: 77054


Detector type: XFlash 430
Window type: Custom type
Detector thickness: 0.45
Si dead layer:0.029

Calibration, lin.: 10
Calibration, abs.: -955.9
Mn FWHM: 137.05
Fano factor: 0.121
Channels: 4096

Energy Counts
-0.9559      0
-0.9459      0
-0.9359      0
-0.9259      0
-0.9159      0
-0.9059      0
-0.8959      0
-0.8859      0
-0.8759      0
-0.8659      0
-0.8559      0
-0.8459      0
-0.8359      0
-0.8259      0
-0.8159      0
-0.8059      0
-0.7959      0
-0.7859      0
-0.7759      0
-0.7659      0
-0.7559      0
-0.7459      0
-0.7359      0
-0.7259      0
-0.7159      0
-0.7059      0
-0.6959      0
-0.6859      0
-0.6759      0
-0.6659      0
-0.6559      0
-0.6459      0
-0.6359      0
-0.6259      0
-0.6159      0
-0.6059      0
-0.5959      0
-0.5859      0
-0.5759      0
-0.5659      0
-0.5559      0
-0.5459      0
-0.5359      0
-0.5259      0
-0.5159      0
-0.5059      0
-0.4959      0
-0.4859      0
-0.4759      0
-0.4659      0
-0.4559      0
-0.4459      0
-0.4359      0
-0.4259      0
-0.4159      0
-0.4059      0
-0.3959      0
-0.3859      0
-0.3759      0
-0.3659      0
-0.3559      0
-0.3459      0
-0.3359      0
-0.3259      0
-0.3159      0
-0.3059      0
-0.2959      0
-0.2859      0
-0.2759      0
-0.2659      0
-0.2559      0
-0.2459      0
-0.2359      0
-0.2259      0
-0.2159      0
-0.2059      0
-0.1959      0
-0.1859      0
-0.1759      0
-0.1659      0
-0.1559      0
-0.1459      1
-0.1359      0
-0.1259      2
-0.1159      6
-0.1059     23
-0.0959     98
-0.0859    403
-0.0759   1260
-0.0659   3691
-0.0559   9464
-0.0459  20682
-0.0359  38909
-0.0259  62110
-0.0159  85536
-0.0059 100323
 0.0041 101234
 0.0141  86428
 0.0241  63867
 0.0341  40296
 0.0441  22006
 0.0541  10128
 0.0641   4086
 0.0741   1389
 0.0841    449
 0.0941    135
 0.1041     40
 0.1141     20
 0.1241     12
 0.1341     10
 0.1441     16
 0.1541      4
 0.1641      8
 0.1741     36
 0.1841    307
 0.1941    557
 0.2041    504
 0.2141    521
 0.2241    498
 0.2341    509
 0.2441    515
 0.2541    528
 0.2641    495
 0.2741    475
 0.2841    504
 0.2941    524
 0.3041    511
 0.3141    499
 0.3241    479
 0.3341    460
 0.3441    466
 0.3541    493
 0.3641    510
 0.3741    479
 0.3841    480
 0.3941    495
 0.4041    488
 0.4141    470
 0.4241    456
 0.4341    447
 0.4441    455
 0.4541    458
 0.4641    455
 0.4741    449
 0.4841    462
 0.4941    484
 0.5041    480
 0.5141    463
 0.5241    441
 0.5341    446
 0.5441    426
 0.5541    438
 0.5641    422
 0.5741    401
 0.5841    421
 0.5941    421
 0.6041    431
 0.6141    441
 0.6241    417
 0.6341    406
 0.6441    394
 0.6541    396
 0.6641    385
 0.6741    388
 0.6841    402
 0.6941    389
 0.7041    392
 0.7141    401
 0.7241    402
 0.7341    393
 0.7441    386
 0.7541    385
 0.7641    394
 0.7741    395
 0.7841    370
 0.7941    365
 0.8041    368
 0.8141    376
 0.8241    362
 0.8341    354
 0.8441    365
 0.8541    366
 0.8641    380
 0.8741    383
 0.8841    357
 0.8941    372
 0.9041    383
 0.9141    366
 0.9241    369
 0.9341    364
 0.9441    386
 0.9541    360
 0.9641    354
 0.9741    355
 0.9841    377
 0.9941    355
 1.0041    330
 1.0141    369
 1.0241    326
 1.0341    333
 1.0441    307
 1.0541    315
 1.0641    359
 1.0741    363
 1.0841    343
 1.0941    329
 1.1041    354
 1.1141    333
 1.1241    321
 1.1341    339
 1.1441    355
 1.1541    346
 1.1641    325
 1.1741    327
 1.1841    314
 1.1941    340
 1.2041    321
 1.2141    346
 1.2241    311
 1.2341    342
 1.2441    300
 1.2541    303
 1.2641    319
 1.2741    317
 1.2841    280
 1.2941    293
 1.3041    324
 1.3141    344
 1.3241    312
 1.3341    304
 1.3441    309
 1.3541    317
 1.3641    309
 1.3741    322
 1.3841    309
 1.3941    307
 1.4041    302
 1.4141    300
 1.4241    312
 1.4341    307
 1.4441    282
 1.4541    305
 1.4641    302
 1.4741    284
 1.4841    298
 1.4941    294
 1.5041    295
 1.5141    285
 1.5241    286
 1.5341    274
 1.5441    273
 1.5541    285
 1.5641    295
 1.5741    302
 1.5841    300
 1.5941    283
 1.6041    303
 1.6141    286
 1.6241    324
 1.6341    298
 1.6441    332
 1.6541    370
 1.6641    415
 1.6741    495
 1.6841    586
 1.6941    735
 1.7041    866
 1.7141   1020
 1.7241   1133
 1.7341   1177
 1.7441   1197
 1.7541   1148
 1.7641    999
 1.7741    891
 1.7841    761
 1.7941    600
 1.8041    508
 1.8141    463
 1.8241    432
 1.8341    428
 1.8441    388
 1.8541    365
 1.8641    363
 1.8741    336
 1.8841    312
 1.8941    291
 1.9041    311
 1.9141    303
 1.9241    311
 1.9341    290
 1.9441    318
 1.9541    291
 1.9641    303
 1.9741    338
 1.9841    349
 1.9941    366
 2.0041    363
 2.0141    361
 2.0241    363
 2.0341    372
 2.0441    340
 2.0541    332
 2.0641    332
 2.0741    298
 2.0841    349
 2.0941    297
 2.1041    264
 2.1141    290
 2.1241    280
 2.1341    269
 2.1441    272
 2.1541    256
 2.1641    273
 2.1741    277
 2.1841    291
 2.1941    253
 2.2041    264
 2.2141    290
 2.2241    267
 2.2341    249
 2.2441    248
 2.2541    280
 2.2641    236
 2.2741    252
 2.2841    231
 2.2941    244
 2.3041    243
 2.3141    277
 2.3241    255
 2.3341    251
 2.3441    230
 2.3541    241
 2.3641    254
 2.3741    278
 2.3841    270
 2.3941    232
 2.4041    255
 2.4141    248
 2.4241    212
 2.4341    231
 2.4441    262
 2.4541    212
 2.4641    258
 2.4741    234
 2.4841    242
 2.4941    220
 2.5041    264
 2.5141    257
 2.5241    227
 2.5341    213
 2.5441    218
 2.5541    244
 2.5641    233
 2.5741    228
 2.5841    228
 2.5941    243
 2.6041    205
 2.6141    232
 2.6241    216
 2.6341    204
 2.6441    247
 2.6541    219
 2.6641    197
 2.6741    227
 2.6841    208
 2.6941    224
 2.7041    222
 2.7141    230
 2.7241    222
 2.7341    203
 2.7441    210
 2.7541    229
 2.7641    234
 2.7741    231
 2.7841    214
 2.7941    206
 2.8041    236
 2.8141    210
 2.8241    252
 2.8341    213
 2.8441    246
 2.8541    217
 2.8641    231
 2.8741    206
 2.8841    245
 2.8941    194
 2.9041    242
 2.9141    205
 2.9241    202
 2.9341    215
 2.9441    213
 2.9541    183
 2.9641    204
 2.9741    231
 2.9841    209
 2.9941    212
 3.0041    197
 3.0141    181
 3.0241    209
 3.0341    212
 3.0441    189
 3.0541    204
 3.0641    185
 3.0741    192
 3.0841    199
 3.0941    172
 3.1041    181
 3.1141    192
 3.1241    207
 3.1341    193
 3.1441    190
 3.1541    151
 3.1641    189
 3.1741    188
 3.1841    184
 3.1941    179
 3.2041    186
 3.2141    180
 3.2241    196
 3.2341    233
 3.2441    229
 3.2541    246
 3.2641    236
 3.2741    290
 3.2841    297
 3.2941    349
 3.3041    320
 3.3141    334
 3.3241    301
 3.3341    301
 3.3441    244
 3.3541    270
 3.3641    251
 3.3741    220
 3.3841    204
 3.3941    213
 3.4041    202
 3.4141    202
 3.4241    162
 3.4341    163
 3.4441    158
 3.4541    155
 3.4641    170
 3.4741    165
 3.4841    161
 3.4941    167
 3.5041    146
 3.5141    175
 3.5241    189
 3.5341    209
 3.5441    216
 3.5541    242
 3.5641    274
 3.5741    302
 3.5841    338
 3.5941    438
 3.6041    524
 3.6141    662
 3.6241    804
 3.6341    969
 3.6441   1228
 3.6541   1427
 3.6641   1626
 3.6741   1687
 3.6841   1761
 3.6941   1706
 3.7041   1749
 3.7141   1526
 3.7241   1319
 3.7341   1200
 3.7441    985
 3.7541    817
 3.7641    679
 3.7741    506
 3.7841    393
 3.7941    294
 3.8041    256
 3.8141    190
 3.8241    178
 3.8341    172
 3.8441    143
 3.8541    152
 3.8641    176
 3.8741    151
 3.8841    166
 3.8941    157
 3.9041    154
 3.9141    159
 3.9241    169
 3.9341    189
 3.9441    223
 3.9541    239
 3.9641    272
 3.9741    278
 3.9841    286
 3.9941    337
 4.0041    345
 4.0141    324
 4.0241    344
 4.0341    333
 4.0441    300
 4.0541    311
 4.0641    279
 4.0741    241
 4.0841    206
 4.0941    199
 4.1041    174
 4.1141    140
 4.1241    161
 4.1341    123
 4.1441    127
 4.1541    148
 4.1641    121
 4.1741    112
 4.1841    125
 4.1941    141
 4.2041    135
 4.2141    110
 4.2241    119
 4.2341    141
 4.2441    118
 4.2541    104
 4.2641    126
 4.2741    131
 4.2841    132
 4.2941    117
 4.3041    111
 4.3141    119
 4.3241    123
 4.3341    121
 4.3441    143
 4.3541    125
 4.3641    130
 4.3741    129
 4.3841    136
 4.3941    150
 4.4041    169
 4.4141    183
 4.4241    202
 4.4341    243
 4.4441    258
 4.4541    302
 4.4641    355
 4.4741    395
 4.4841    409
 4.4941    412
 4.5041    451
 4.5141    432
 4.5241    429
 4.5341    400
 4.5441    381
 4.5541    369
 4.5641    288
 4.5741    256
 4.5841    243
 4.5941    226
 4.6041    182
 4.6141    178
 4.6241    171
 4.6341    155
 4.6441    154
 4.6541    142
 4.6641    144
 4.6741    131
 4.6841    159
 4.6941    121
 4.7041    159
 4.7141    154
 4.7241    140
 4.7341    142
 4.7441    127
 4.7541    138
 4.7641    153
 4.7741    137
 4.7841    139
 4.7941    138
 4.8041    151
 4.8141    146
 4.8241    144
 4.8341    153
 4.8441    161
 4.8541    159
 4.8641    166
 4.8741    195
 4.8841    181
 4.8941    167
 4.9041    169
 4.9141    203
 4.9241    187
 4.9341    187
 4.9441    187
 4.9541    181
 4.9641    194
 4.9741    194
 4.9841    173
 4.9941    182
 5.0041    176
 5.0141    149
 5.0241    165
 5.0341    164
 5.0441    131
 5.0541    156
 5.0641    146
 5.0741    153
 5.0841    141
 5.0941    147
 5.1041    140
 5.1141    134
 5.1241    142
 5.1341    132
 5.1441    162
 5.1541    156
 5.1641    150
 5.1741    138
 5.1841    131
 5.1941    143
 5.2041    150
 5.2141    141
 5.2241    125
 5.2341    157
 5.2441    147
 5.2541    142
 5.2641    136
 5.2741    133
 5.2841    147
 5.2941    140
 5.3041    140
 5.3141    146
 5.3241    130
 5.3341    152
 5.3441    135
 5.3541    138
 5.3641    144
 5.3741    152
 5.3841    148
 5.3941    151
 5.4041    155
 5.4141    137
 5.4241    162
 5.4341    155
 5.4441    151
 5.4541    140
 5.4641    140
 5.4741    136
 5.4841    138
 5.4941    124
 5.5041    147
 5.5141    146
 5.5241    137
 5.5341    132
 5.5441    141
 5.5541    160
 5.5641    132
 5.5741    134
 5.5841    153
 5.5941    154
 5.6041    143
 5.6141    158
 5.6241    147
 5.6341    129
 5.6441    155
 5.6541    144
 5.6641    156
 5.6741    155
 5.6841    146
 5.6941    151
 5.7041    162
 5.7141    162
 5.7241    144
 5.7341    167
 5.7441    150
 5.7541    188
 5.7641    188
 5.7741    190
 5.7841    187
 5.7941    175
 5.8041    185
 5.8141    204
 5.8241    204
 5.8341    239
 5.8441    243
 5.8541    231
 5.8641    270
 5.8741    266
 5.8841    259
 5.8941    262
 5.9041    281
 5.9141    264
 5.9241    301
 5.9341    239
 5.9441    238
 5.9541    225
 5.9641    232
 5.9741    237
 5.9841    207
 5.9941    192
 6.0041    227
 6.0141    175
 6.0241    164
 6.0341    206
 6.0441    184
 6.0541    175
 6.0641    186
 6.0741    168
 6.0841    168
 6.0941    176
 6.1041    182
 6.1141    185
 6.1241    196
 6.1341    157
 6.1441    155
 6.1541    184
 6.1641    184
 6.1741    188
 6.1841    193
 6.1941    185
 6.2041    183
 6.2141    226
 6.2241    226
 6.2341    280
 6.2441    317
 6.2541    371
 6.2641    507
 6.2741    633
 6.2841    839
 6.2941   1001
 6.3041   1206
 6.3141   1499
 6.3241   1954
 6.3341   2290
 6.3441   2617
 6.3541   2822
 6.3641   3250
 6.3741   3486
 6.3841   3628
 6.3941   3801
 6.4041   3765
 6.4141   3574
 6.4241   3417
 6.4341   3217
 6.4441   2857
 6.4541   2569
 6.4641   2194
 6.4741   1774
 6.4841   1403
 6.4941   1186
 6.5041    925
 6.5141    778
 6.5241    631
 6.5341    477
 6.5441    371
 6.5541    318
 6.5641    283
 6.5741    260
 6.5841    224
 6.5941    234
 6.6041    220
 6.6141    225
 6.6241    206
 6.6341    198
 6.6441    221
 6.6541    229
 6.6641    217
 6.6741    194
 6.6841    245
 6.6941    198
 6.7041    236
 6.7141    247
 6.7241    219
 6.7341    229
 6.7441    236
 6.7541    244
 6.7641    246
 6.7741    228
 6.7841    221
 6.7941    224
 6.8041    254
 6.8141    227
 6.8241    227
 6.8341    275
 6.8441    217
 6.8541    254
 6.8641    233
 6.8741    268
 6.8841    272
 6.8941    269
 6.9041    298
 6.9141    326
 6.9241    330
 6.9341    350
 6.9441    380
 6.9541    420
 6.9641    450
 6.9741    578
 6.9841    581
 6.9941    620
 7.0041    692
 7.0141    723
 7.0241    832
 7.0341    792
 7.0441    861
 7.0541    822
 7.0641    777
 7.0741    847
 7.0841    731
 7.0941    780
 7.1041    718
 7.1141    612
 7.1241    591
 7.1341    518
 7.1441    456
 7.1541    442
 7.1641    446
 7.1741    431
 7.1841    411
 7.1941    328
 7.2041    297
 7.2141    341
 7.2241    334
 7.2341    355
 7.2441    344
 7.2541    344
 7.2641    313
 7.2741    359
 7.2841    360
 7.2941    363
 7.3041    388
 7.3141    379
 7.3241    422
 7.3341    426
 7.3441    418
 7.3541    400
 7.3641    427
 7.3741    431
 7.3841    454
 7.3941    461
 7.4041    494
 7.4141    463
 7.4241    450
 7.4341    445
 7.4441    413
 7.4541    403
 7.4641    451
 7.4741    397
 7.4841    379
 7.4941    398
 7.5041    342
 7.5141    367
 7.5241    315
 7.5341    348
 7.5441    372
 7.5541    345
 7.5641    318
 7.5741    337
 7.5841    348
 7.5941    322
 7.6041    371
 7.6141    341
 7.6241    328
 7.6341    344
 7.6441    360
 7.6541    363
 7.6641    370
 7.6741    374
 7.6841    352
 7.6941    390
 7.7041    382
 7.7141    408
 7.7241    416
 7.7341    402
 7.7441    437
 7.7541    458
 7.7641    480
 7.7741    490
 7.7841    456
 7.7941    482
 7.8041    503
 7.8141    529
 7.8241    502
 7.8341    495
 7.8441    509
 7.8541    527
 7.8641    555
 7.8741    587
 7.8841    645
 7.8941    585
 7.9041    612
 7.9141    635
 7.9241    665
 7.9341    709
 7.9441    755
 7.9541    817
 7.9641    823
 7.9741    928
 7.9841    963
 7.9941   1029
 8.0041   1164
 8.0141   1094
 8.0241   1226
 8.0341   1307
 8.0441   1414
 8.0541   1502
 8.0641   1543
 8.0741   1718
 8.0841   1814
 8.0941   1925
 8.1041   2064
 8.1141   2174
 8.1241   2248
 8.1341   2262
 8.1441   2346
 8.1541   2378
 8.1641   2374
 8.1741   2520
 8.1841   2499
 8.1941   2595
 8.2041   2532
 8.2141   2610
 8.2241   2621
 8.2341   2663
 8.2441   2757
 8.2541   2882
 8.2641   3000
 8.2741   3155
 8.2841   3382
 8.2941   3609
 8.3041   3913
 8.3141   4243
 8.3241   4538
 8.3341   4884
 8.3441   5166
 8.3541   5400
 8.3641   5769
 8.3741   5885
 8.3841   5978
 8.3941   5860
 8.4041   5787
 8.4141   5599
 8.4241   5276
 8.4341   4877
 8.4441   4388
 8.4541   3936
 8.4641   3533
 8.4741   3050
 8.4841   2493
 8.4941   2194
 8.5041   1848
 8.5141   1627
 8.5241   1294
 8.5341   1166
 8.5441    989
 8.5541    855
 8.5641    812
 8.5741    745
 8.5841    629
 8.5941    619
 8.6041    586
 8.6141    671
 8.6241    678
 8.6341    644
 8.6441    632
 8.6541    597
 8.6641    634
 8.6741    653
 8.6841    651
 8.6941    641
 8.7041    618
 8.7141    686
 8.7241    663
 8.7341    646
 8.7441    661
 8.7541    655
 8.7641    624
 8.7741    617
 8.7841    656
 8.7941    614
 8.8041    632
 8.8141    621
 8.8241    603
 8.8341    655
 8.8441    580
 8.8541    614
 8.8641    588
 8.8741    602
 8.8841    619
 8.8941    612
 8.9041    644
 8.9141    681
 8.9241    645
 8.9341    671
 8.9441    646
 8.9541    651
 8.9641    652
 8.9741    690
 8.9841    688
 8.9941    679
 9.0041    718
 9.0141    729
 9.0241    761
 9.0341    699
 9.0441    778
 9.0541    744
 9.0641    809
 9.0741    801
 9.0841    816
 9.0941    856
 9.1041    927
 9.1141    948
 9.1241    945
 9.1341    994
 9.1441   1066
 9.1541   1105
 9.1641   1197
 9.1741   1191
 9.1841   1204
 9.1941   1322
 9.2041   1344
 9.2141   1433
 9.2241   1449
 9.2341   1555
 9.2441   1634
 9.2541   1640
 9.2641   1800
 9.2741   1899
 9.2841   1950
 9.2941   1982
 9.3041   2033
 9.3141   2111
 9.3241   2225
 9.3341   2207
 9.3441   2320
 9.3541   2367
 9.3641   2407
 9.3741   2504
 9.3841   2536
 9.3941   2537
 9.4041   2602
 9.4141   2632
 9.4241   2710
 9.4341   2762
 9.4441   2823
 9.4541   2787
 9.4641   2845
 9.4741   2914
 9.4841   2868
 9.4941   2990
 9.5041   3112
 9.5141   3265
 9.5241   3353
 9.5341   3498
 9.5441   3655
 9.5541   3915
 9.5641   4052
 9.5741   4272
 9.5841   4550
 9.5941   4791
 9.6041   5112
 9.6141   5378
 9.6241   5679
 9.6341   5779
 9.6441   6020
 9.6541   6143
 9.6641   6180
 9.6741   6067
 9.6841   5932
 9.6941   5657
 9.7041   5496
 9.7141   5278
 9.7241   5015
 9.7341   4637
 9.7441   4312
 9.7541   3939
 9.7641   3617
 9.7741   3404
 9.7841   3129
 9.7941   2921
 9.8041   2781
 9.8141   2563
 9.8241   2472
 9.8341   2494
 9.8441   2399
 9.8541   2300
 9.8641   2418
 9.8741   2478
 9.8841   2504
 9.8941   2530
 9.9041   2499
 9.9141   2621
 9.9241   2650
 9.9341   2717
 9.9441   2650
 9.9541   2705
 9.9641   2661
 9.9741   2517
 9.9841   2404
 9.9941   2261
10.0041   2126
10.0141   2041
10.0241   1914
10.0341   1779
10.0441   1534
10.0541   1430
10.0641   1244
10.0741   1140
10.0841    999
10.0941    853
10.1041    815
10.1141    741
10.1241    684
10.1341    679
10.1441    599
10.1541    570
10.1641    561
10.1741    523
10.1841    500
10.1941    509
10.2041    486
10.2141    472
10.2241    468
10.2341    442
10.2441    449
10.2541    422
10.2641    409
10.2741    379
10.2841    364
10.2941    384
10.3041    373
10.3141    353
10.3241    340
10.3341    356
10.3441    340
10.3541    326
10.3641    348
10.3741    361
10.3841    351
10.3941    368
10.4041    341
10.4141    329
10.4241    355
10.4341    350
10.4441    350
10.4541    361
10.4641    366
10.4741    374
10.4841    363
10.4941    384
10.5041    368
10.5141    374
10.5241    349
10.5341    385
10.5441    377
10.5541    378
10.5641    380
10.5741    388
10.5841    391
10.5941    390
10.6041    398
10.6141    407
10.6241    411
10.6341    418
10.6441    406
10.6541    417
10.6641    417
10.6741    392
10.6841    444
10.6941    451
10.7041    411
10.7141    447
10.7241    472
10.7341    473
10.7441    459
10.7541    466
10.7641    503
10.7741    504
10.7841    504
10.7941    516
10.8041    530
10.8141    548
10.8241    557
10.8341    543
10.8441    543
10.8541    528
10.8641    520
10.8741    531
10.8841    573
10.8941    584
10.9041    587
10.9141    597
10.9241    574
10.9341    603
10.9441    589
10.9541    581
10.9641    603
10.9741    586
10.9841    579
10.9941    577
11.0041    557
11.0141    542
11.0241    534
11.0341    551
11.0441    543
11.0541    499
11.0641    542
11.0741    528
11.0841    525
11.0941    542
11.1041    523
11.1141    525
11.1241    533
11.1341    550
11.1441    553
11.1541    581
11.1641    587
11.1741    625
11.1841    633
11.1941    656
11.2041    688
11.2141    666
11.2241    719
11.2341    743
11.2441    769
11.2541    803
11.2641    797
11.2741    805
11.2841    793
11.2941    756
11.3041    764
11.3141    740
11.3241    745
11.3341    721
11.3441    705
11.3541    639
11.3641    623
11.3741    594
11.3841    565
11.3941    513
11.4041    492
11.4141    466
11.4241    455
11.4341    441
11.4441    432
11.4541    415
11.4641    395
11.4741    399
11.4841    392
11.4941    384
11.5041    403
11.5141    400
11.5241    384
11.5341    378
11.5441    395
11.5541    408
11.5641    395
11.5741    436
11.5841    445
11.5941    419
11.6041    411
11.6141    421
11.6241    411
11.6341    423
11.6441    446
11.6541    438
11.6641    415
11.6741    435
11.6841    434
11.6941    420
11.7041    402
11.7141    396
11.7241    346
11.7341    357
11.7441    353
11.7541    369
11.7641    339
11.7741    289
11.7841    288
11.7941    338
11.8041    322
11.8141    315
11.8241    303
11.8341    295
11.8441    309
11.8541    302
11.8641    299
11.8741    320
11.8841    306
11.8941    292
11.9041    294
11.9141    284
11.9241    296
11.9341    296
11.9441    308
11.9541    306
11.9641    304
11.9741    317
11.9841    305
11.9941    309
12.0041    316
12.0141    327
12.0241    331
12.0341    324
12.0441    313
12.0541    315
12.0641    314
12.0741    320
12.0841    330
12.0941    315
12.1041    300
12.1141    302
12.1241    324
12.1341    319
12.1441    291
12.1541    293
12.1641    297
12.1741    296
12.1841    304
12.1941    300
12.2041    286
12.2141    304
12.2241    319
12.2341    303
12.2441    298
12.2541    341
12.2641    326
12.2741    285
12.2841    284
12.2941    293
12.3041    291
12.3141    284
12.3241    282
12.3341    296
12.3441    298
12.3541    301
12.3641    310
12.3741    291
12.3841    288
12.3941    295
12.4041    306
12.4141    318
12.4241    293
12.4341    281
12.4441    296
12.4541    300
12.4641    295
12.4741    292
12.4841    293
12.4941    315
12.5041    319
12.5141    323
12.5241    317
12.5341    316
12.5441    321
12.5541    333
12.5641    318
12.5741    310
12.5841    312
12.5941    317
12.6041    320
12.6141    316
12.6241    319
12.6341    331
12.6441    326
12.6541    319
12.6641    329
12.6741    333
12.6841    304
12.6941    319
12.7041    338
12.7141    336
12.7241    328
12.7341    337
12.7441    321
12.7541    316
12.7641    316
12.7741    314
12.7841    325
12.7941    321
12.8041    321
12.8141    343
12.8241    350
12.8341    322
12.8441    311
12.8541    326
12.8641    317
12.8741    330
12.8841    331
12.8941    327
12.9041    337
12.9141    342
12.9241    332
12.9341    326
12.9441    341
12.9541    338
12.9641    332
12.9741    348
12.9841    362
12.9941    357
13.0041    362
13.0141    355
13.0241    350
13.0341    352
13.0441    337
13.0541    330
13.0641    327
13.0741    340
13.0841    372
13.0941    354
13.1041    333
13.1141    342
13.1241    339
13.1341    344
13.1441    356
13.1541    366
13.1641    369
13.1741    384
13.1841    384
13.1941    374
13.2041    386
13.2141    392
13.2241    383
13.2341    400
13.2441    405
13.2541    412
13.2641    431
13.2741    426
13.2841    448
13.2941    475
13.3041    472
13.3141    442
13.3241    464
13.3341    476
13.3441    468
13.3541    469
13.3641    465
13.3741    467
13.3841    455
13.3941    457
13.4041    489
13.4141    482
13.4241    464
13.4341    470
13.4441    452
13.4541    445
13.4641    462
13.4741    457
13.4841    442
13.4941    431
13.5041    430
13.5141    427
13.5241    420
13.5341    406
13.5441    425
13.5541    431
13.5641    409
13.5741    404
13.5841    407
13.5941    399
13.6041    389
13.6141    400
13.6241    406
13.6341    413
13.6441    412
13.6541    418
13.6641    408
13.6741    406
13.6841    421
13.6941    433
13.7041    434
13.7141    408
13.7241    391
13.7341    391
13.7441    406
13.7541    431
13.7641    432
13.7741    445
13.7841    446
13.7941    405
13.8041    393
13.8141    413
13.8241    403
13.8341    412
13.8441    441
13.8541    437
13.8641    421
13.8741    417
13.8841    431
13.8941    433
13.9041    426
13.9141    440
13.9241    447
13.9341    445
13.9441    453
13.9541    459
13.9641    446
13.9741    450
13.9841    460
13.9941    463
14.0041    494
14.0141    517
14.0241    517
14.0341    517
14.0441    538
14.0541    547
14.0641    537
14.0741    554
14.0841    584
14.0941    609
14.1041    606
14.1141    619
14.1241    631
14.1341    617
14.1441    595
14.1541    592
14.1641    632
14.1741    627
14.1841    620
14.1941    625
14.2041    625
14.2141    596
14.2241    553
14.2341    557
14.2441    537
14.2541    515
14.2641    556
14.2741    555
14.2841    522
14.2941    498
14.3041    500
14.3141    523
14.3241    511
14.3341    484
14.3441    472
14.3541    458
14.3641    458
14.3741    479
14.3841    472
14.3941    461
14.4041    473
14.4141    487
14.4241    496
14.4341    487
14.4441    484
14.4541    487
14.4641    498
14.4741    483
14.4841    472
14.4941    515
14.5041    535
14.5141    513
14.5241    497
14.5341    497
14.5441    495
14.5541    471
14.5641    491
14.5741    526
14.5841    497
14.5941    478
14.6041    485
14.6141    491
14.6241    509
14.6341    534
14.6441    513
14.6541    471
14.6641    501
14.6741    523
14.6841    525
14.6941    529
14.7041    529
14.7141    516
14.7241    503
14.7341    494
14.7441    494
14.7541    505
14.7641    514
14.7741    496
14.7841    515
14.7941    522
14.8041    507
14.8141    538
14.8241    528
14.8341    532
14.8441    558
14.8541    549
14.8641    562
14.8741    559
14.8841    547
14.8941    546
14.9041    537
14.9141    555
14.9241    592
14.9341    589
14.9441    568
14.9541    566
14.9641    564
14.9741    537
14.9841    553
14.9941    577
15.0041    602
15.0141    588
15.0241    549
15.0341    553
15.0441    554
15.0541    546
15.0641    557
15.0741    550
15.0841    540
15.0941    553
15.1041    559
15.1141    569
15.1241    575
15.1341    588
15.1441    553
15.1541    541
15.1641    540
15.1741    543
15.1841    568
15.1941    576
15.2041    567
15.2141    571
15.2241    580
15.2341    570
15.2441    548
15.2541    557
15.2641    552
15.2741    538
15.2841    546
15.2941    556
15.3041    542
15.3141    531
15.3241    577
15.3341    583
15.3441    562
15.3541    565
15.3641    585
15.3741    602
15.3841    566
15.3941    557
15.4041    552
15.4141    576
15.4241    585
15.4341    569
15.4441    590
15.4541    602
15.4641    587
15.4741    611
15.4841    623
15.4941    620
15.5041    658
15.5141    652
15.5241    648
15.5341    693
15.5441    700
15.5541    711
15.5641    790
15.5741    838
15.5841    850
15.5941    877
15.6041    909
15.6141    957
15.6241   1043
15.6341   1062
15.6441   1104
15.6541   1169
15.6641   1222
15.6741   1305
15.6841   1367
15.6941   1399
15.7041   1435
15.7141   1484
15.7241   1480
15.7341   1542
15.7441   1587
15.7541   1561
15.7641   1501
15.7741   1490
15.7841   1506
15.7941   1439
15.8041   1397
15.8141   1428
15.8241   1373
15.8341   1322
15.8441   1245
15.8541   1158
15.8641   1114
15.8741   1054
15.8841    969
15.8941    983
15.9041    937
15.9141    874
15.9241    822
15.9341    789
15.9441    777
15.9541    756
15.9641    750
15.9741    717
15.9841    692
15.9941    648
16.0041    631
16.0141    652
16.0241    692
16.0341    662
16.0441    644
16.0541    631
16.0641    651
16.0741    628
16.0841    657
16.0941    679
16.1041    683
16.1141    682
16.1241    648
16.1341    660
16.1441    676
16.1541    668
16.1641    622
16.1741    599
16.1841    622
16.1941    684
16.2041    677
16.2141    661
16.2241    664
16.2341    661
16.2441    640
16.2541    631
16.2641    658
16.2741    704
16.2841    659
16.2941    629
16.3041    658
16.3141    658
16.3241    678
16.3341    696
16.3441    688
16.3541    667
16.3641    669
16.3741    643
16.3841    668
16.3941    679
16.4041    700
16.4141    696
16.4241    679
16.4341    692
16.4441    692
16.4541    684
16.4641    677
16.4741    677
16.4841    685
16.4941    701
16.5041    706
16.5141    684
16.5241    706
16.5341    702
16.5441    713
16.5541    723
16.5641    713
16.5741    713
16.5841    713
16.5941    731
16.6041    728
16.6141    711
16.6241    720
16.6341    723
16.6441    706
16.6541    721
16.6641    722
16.6741    708
16.6841    743
16.6941    750
16.7041    742
16.7141    729
16.7241    735
16.7341    725
16.7441    703
16.7541    696
16.7641    715
16.7741    741
16.7841    717
16.7941    675
16.8041    710
16.8141    728
16.8241    723
16.8341    708
16.8441    752
16.8541    757
16.8641    737
16.8741    721
16.8841    709
16.8941    707
16.9041    713
16.9141    724
16.9241    721
16.9341    700
16.9441    750
16.9541    730
16.9641    741
16.9741    756
16.9841    774
16.9941    788
17.0041    751
17.0141    758
17.0241    754
17.0341    742
17.0441    762
17.0541    713
17.0641    710
17.0741    728
17.0841    746
17.0941    720
17.1041    761
17.1141    771
17.1241    776
17.1341    790
17.1441    759
17.1541    766
17.1641    740
17.1741    784
17.1841    765
17.1941    748
17.2041    771
17.2141    798
17.2241    760
17.2341    795
17.2441    798
17.2541    802
17.2641    804
17.2741    804
17.2841    794
17.2941    779
17.3041    768
17.3141    788
17.3241    809
17.3341    814
17.3441    784
17.3541    800
17.3641    843
17.3741    840
17.3841    819
17.3941    766
17.4041    812
17.4141    802
17.4241    772
17.4341    772
17.4441    824
17.4541    827
17.4641    817
17.4741    840
17.4841    865
17.4941    816
17.5041    823
17.5141    853
17.5241    862
17.5341    867
17.5441    879
17.5541    891
17.5641    879
17.5741    867
17.5841    884
17.5941    920
17.6041    946
17.6141    976
17.6241    977
17.6341    975
17.6441    974
17.6541    980
17.6641   1029
17.6741    958
17.6841    980
17.6941    973
17.7041    993
17.7141    967
17.7241    990
17.7341    970
17.7441    990
17.7541   1004
17.7641    960
17.7741    942
17.7841    951
17.7941    934
17.8041    903
17.8141    900
17.8241    888
17.8341    895
17.8441    865
17.8541    893
17.8641    884
17.8741    854
17.8841    845
17.8941    905
17.9041    901
17.9141    863
17.9241    910
17.9341    858
17.9441    858
17.9541    873
17.9641    840
17.9741    886
17.9841    892
17.9941    880
18.0041    901
18.0141    886
18.0241    884
18.0341    897
18.0441    875
18.0541    865
18.0641    876
18.0741    898
18.0841    895
18.0941    861
18.1041    885
18.1141    827
18.1241    873
18.1341    865
18.1441    864
18.1541    908
18.1641    861
18.1741    916
18.1841    895
18.1941    902
18.2041    899
18.2141    868
18.2241    880
18.2341    922
18.2441    908
18.2541    867
18.2641    921
18.2741    901
18.2841    896
18.2941    903
18.3041    901
18.3141    901
18.3241    864
18.3341    870
18.3441    865
18.3541    846
18.3641    856
18.3741    925
18.3841    896
18.3941    923
18.4041    916
18.4141    912
18.4241    908
18.4341    888
18.4441    936
18.4541    905
18.4641    890
18.4741    883
18.4841    940
18.4941    924
18.5041    903
18.5141    948
18.5241    938
18.5341    909
18.5441    852
18.5541    882
18.5641    891
18.5741    900
18.5841    939
18.5941    910
18.6041    915
18.6141    959
18.6241    993
18.6341    936
18.6441    939
18.6541    884
18.6641    882
18.6741    914
18.6841    885
18.6941    884
18.7041    874
18.7141    895
18.7241    887
18.7341    901
18.7441    929
18.7541    954
18.7641    967
18.7741    912
18.7841    900
18.7941    880
18.8041    863
18.8141    899
18.8241    932
18.8341    926
18.8441    961
18.8541    928
18.8641    895
18.8741    944
18.8841    899
18.8941    917
18.9041    927
18.9141    984
18.9241    958
18.9341    956
18.9441    978
18.9541    932
18.9641    928
18.9741    920
18.9841    949
18.9941    922
19.0041    961
19.0141    964
19.0241    992
19.0341    996
19.0441    964
19.0541    952
19.0641    903
19.0741    957
19.0841    970
19.0941    902
19.1041    958
19.1141    973
19.1241    928
19.1341    947
19.1441    976
19.1541    963
19.1641    931
19.1741    950
19.1841    978
19.1941    975
19.2041    924
19.2141    979
19.2241    949
19.2341    950
19.2441    949
19.2541    964
19.2641    980
19.2741    959
19.2841    898
19.2941    959
19.3041    973
19.3141    957
19.3241   1006
19.3341    943
19.3441    977
19.3541    942
19.3641    979
19.3741    929
19.3841    941
19.3941    945
19.4041    945
19.4141    978
19.4241    951
19.4341    959
19.4441   1004
19.4541   1019
19.4641   1040
19.4741    977
19.4841    988
19.4941    980
19.5041    975
19.5141    993
19.5241    960
19.5341    997
19.5441    935
19.5541   1017
19.5641    969
19.5741    986
19.5841   1006
19.5941   1062
19.6041    968
19.6141   1014
19.6241    996
19.6341    990
19.6441   1023
19.6541   1019
19.6641    991
19.6741    996
19.6841    973
19.6941    951
19.7041   1012
19.7141    977
19.7241   1009
19.7341    940
19.7441    970
19.7541    987
19.7641    919
19.7741    950
19.7841   1013
19.7941    990
19.8041    986
19.8141   1009
19.8241    990
19.8341   1027
19.8441   1010
19.8541    999
19.8641    962
19.8741    964
19.8841    985
19.8941   1037
19.9041   1027
19.9141    976
19.9241    992
19.9341   1041
19.9441    958
19.9541    974
19.9641   1016
19.9741    931
19.9841    980
19.9941    995
20.0041    987
20.0141   1063
20.0241    980
20.0341   1061
20.0441   1013
20.0541   1040
20.0641    938
20.0741    973
20.0841    994
20.0941   1015
20.1041    977
20.1141   1000
20.1241    989
20.1341   1046
20.1441    979
20.1541    938
20.1641   1003
20.1741    969
20.1841    947
20.1941   1013
20.2041   1011
20.2141   1037
20.2241    970
20.2341    998
20.2441    965
20.2541   1028
20.2641   1057
20.2741   1049
20.2841    994
20.2941    998
20.3041   1044
20.3141   1008
20.3241   1004
20.3341   1025
20.3441   1071
20.3541   1009
20.3641    992
20.3741    999
20.3841   1030
20.3941    982
20.4041   1035
20.4141   1044
20.4241   1044
20.4341   1023
20.4441   1056
20.4541   1058
20.4641    989
20.4741    991
20.4841   1050
20.4941   1063
20.5041   1058
20.5141    991
20.5241   1008
20.5341    976
20.5441   1051
20.5541    987
20.5641    987
20.5741   1039
20.5841   1020
20.5941   1013
20.6041    984
20.6141    981
20.6241   1017
20.6341   1037
20.6441   1011
20.6541   1022
20.6641   1018
20.6741   1004
20.6841   1018
20.6941   1007
20.7041   1055
20.7141   1082
20.7241   1032
20.7341   1031
20.7441   1048
20.7541   1039
20.7641   1030
20.7741   1021
20.7841   1020
20.7941   1066
20.8041   1054
20.8141   1094
20.8241    985
20.8341   1051
20.8441   1113
20.8541   1139
20.8641   1058
20.8741   1129
20.8841   1138
20.8941   1144
20.9041   1166
20.9141   1199
20.9241   1233
20.9341   1260
20.9441   1254
20.9541   1280
20.9641   1283
20.9741   1241
20.9841   1331
20.9941   1322
21.0041   1375
21.0141   1372
21.0241   1376
21.0341   1396
21.0441   1392
21.0541   1427
21.0641   1425
21.0741   1444
21.0841   1485
21.0941   1510
21.1041   1477
21.1141   1565
21.1241   1526
21.1341   1482
21.1441   1500
21.1541   1511
21.1641   1538
21.1741   1421
21.1841   1476
21.1941   1514
21.2041   1465
21.2141   1432
21.2241   1397
21.2341   1348
21.2441   1290
21.2541   1298
21.2641   1299
21.2741   1267
21.2841   1249
21.2941   1182
21.3041   1210
21.3141   1173
21.3241   1105
21.3341   1165
21.3441   1150
21.3541   1140
21.3641   1124
21.3741   1068
21.3841   1121
21.3941   1054
21.4041   1082
21.4141   1065
21.4241    992
21.4341   1024
21.4441   1032
21.4541   1021
21.4641   1068
21.4741   1027
21.4841   1070
21.4941    996
21.5041   1033
21.5141   1030
21.5241   1087
21.5341   1053
21.5441   1012
21.5541    984
21.5641   1013
21.5741   1061
21.5841    997
21.5941    974
21.6041   1039
21.6141    996
21.6241    968
21.6341   1031
21.6441   1060
21.6541   1011
21.6641   1034
21.6741   1030
21.6841   1009
21.6941   1049
21.7041   1029
21.7141   1046
21.7241   1043
21.7341   1035
21.7441   1058
21.7541   1047
21.7641   1063
21.7741    997
21.7841   1000
21.7941   1052
21.8041   1078
21.8141   1040
21.8241   1051
21.8341   1020
21.8441   1019
21.8541   1002
21.8641   1035
21.8741   1002
21.8841   1040
21.8941    985
21.9041   1002
21.9141   1043
21.9241    944
21.9341   1007
21.9441   1038
21.9541   1028
21.9641   1069
21.9741   1051
21.9841   1038
21.9941   1020
22.0041   1021
22.0141   1015
22.0241    990
22.0341    938
22.0441    983
22.0541   1015
22.0641   1018
22.0741   1066
22.0841   1050
22.0941   1053
22.1041   1042
22.1141   1028
22.1241    962
22.1341   1072
22.1441   1039
22.1541   1053
22.1641   1054
22.1741    987
22.1841    985
22.1941   1002
22.2041   1028
22.2141   1040
22.2241    964
22.2341   1002
22.2441   1014
22.2541   1019
22.2641   1028
22.2741   1039
22.2841   1065
22.2941    965
22.3041    986
22.3141   1065
22.3241   1025
22.3341   1029
22.3441   1034
22.3541    954
22.3641   1062
22.3741   1034
22.3841   1054
22.3941    966
22.4041   1020
22.4141   1060
22.4241   1000
22.4341   1011
22.4441    975
22.4541   1037
22.4641    969
22.4741   1036
22.4841   1000
22.4941    994
22.5041   1017
22.5141   1001
22.5241    989
22.5341    995
22.5441   1016
22.5541   1010
22.5641    979
22.5741   1019
22.5841   1043
22.5941    978
22.6041   1003
22.6141    973
22.6241   1064
22.6341   1063
22.6441   1001
22.6541   1020
22.6641   1034
22.6741   1040
22.6841   1016
22.6941    993
22.7041   1041
22.7141   1022
22.7241   1033
22.7341   1007
22.7441    992
22.7541   1048
22.7641    946
22.7741   1011
22.7841    990
22.7941   1016
22.8041   1043
22.8141   1043
22.8241   1007
22.8341   1021
22.8441    985
22.8541   1012
22.8641    959
22.8741    933
22.8841    987
22.8941    981
22.9041    984
22.9141   1017
22.9241    981
22.9341   1015
22.9441    929
22.9541    971
22.9641    954
22.9741   1015
22.9841   1031
22.9941    997
23.0041    986
23.0141    988
23.0241    921
23.0341    959
23.0441    979
23.0541   1042
23.0641   1014
23.0741    945
23.0841   1035
23.0941    989
23.1041    980
23.1141    937
23.1241    994
23.1341   1000
23.1441    967
23.1541    985
23.1641    998
23.1741    985
23.1841    986
23.1941    998
23.2041    979
23.2141    989
23.2241    975
23.2341    987
23.2441    973
23.2541    920
23.2641   1034
23.2741    965
23.2841    940
23.2941   1021
23.3041    955
23.3141    977
23.3241    978
23.3341    968
23.3441    971
23.3541    999
23.3641   1037
23.3741    965
23.3841    974
23.3941    933
23.4041    981
23.4141   1004
23.4241    988
23.4341    919
23.4441   1000
23.4541    954
23.4641    941
23.4741   1002
23.4841    968
23.4941   1007
23.5041    933
23.5141    991
23.5241    980
23.5341    923
23.5441   1000
23.5541    905
23.5641    961
23.5741    994
23.5841    963
23.5941    997
23.6041    980
23.6141   1026
23.6241   1001
23.6341    995
23.6441   1017
23.6541    986
23.6641   1044
23.6741    990
23.6841   1027
23.6941    988
23.7041   1060
23.7141   1058
23.7241   1015
23.7341   1044
23.7441   1069
23.7541   1036
23.7641   1023
23.7741   1080
23.7841   1002
23.7941   1038
23.8041   1052
23.8141   1095
23.8241   1010
23.8341   1035
23.8441   1010
23.8541   1021
23.8641    965
23.8741   1014
23.8841   1006
23.8941    969
23.9041    984
23.9141    994
23.9241    968
23.9341   1048
23.9441    954
23.9541   1034
23.9641    994
23.9741    984
23.9841    901
23.9941    984
24.0041    993
24.0141    946
24.0241    930
24.0341    974
24.0441    951
24.0541    928
24.0641    939
24.0741    941
24.0841    973
24.0941    920
24.1041    928
24.1141    918
24.1241    916
24.1341    928
24.1441    928
24.1541    963
24.1641    894
24.1741    950
24.1841    895
24.1941    947
24.2041    929
24.2141    940
24.2241    909
24.2341    921
24.2441    902
24.2541    985
24.2641    979
24.2741    933
24.2841    907
24.2941    909
24.3041    898
24.3141    934
24.3241    937
24.3341    913
24.3441    937
24.3541    977
24.3641    914
24.3741    966
24.3841    971
24.3941    924
24.4041    909
24.4141    953
24.4241    887
24.4341    932
24.4441    926
24.4541    906
24.4641    878
24.4741    937
24.4841    888
24.4941    947
24.5041    877
24.5141    906
24.5241    892
24.5341    899
24.5441    941
24.5541    948
24.5641    946
24.5741    927
24.5841    901
24.5941    898
24.6041    892
24.6141    919
24.6241    873
24.6341    851
24.6441    888
24.6541    891
24.6641    909
24.6741    872
24.6841    926
24.6941    850
24.7041    860
24.7141    908
24.7241    893
24.7341    856
24.7441    920
24.7541    929
24.7641    898
24.7741    869
24.7841    862
24.7941    875
24.8041    903
24.8141    875
24.8241    876
24.8341    873
24.8441    900
24.8541    872
24.8641    933
24.8741    928
24.8841    919
24.8941    903
24.9041    871
24.9141    904
24.9241    869
24.9341    949
24.9441    883
24.9541    894
24.9641    896
24.9741    865
24.9841    910
24.9941    917
25.0041    895
25.0141    918
25.0241    879
25.0341    919
25.0441    904
25.0541    879
25.0641    883
25.0741    902
25.0841    958
25.0941    890
25.1041    875
25.1141    929
25.1241    918
25.1341    902
25.1441    897
25.1541    939
25.1641    953
25.1741    880
25.1841    903
25.1941    875
25.2041    966
25.2141    872
25.2241    935
25.2341    930
25.2441    933
25.2541    898
25.2641    889
25.2741    857
25.2841    856
25.2941    841
25.3041    920
25.3141    867
25.3241    858
25.3341    915
25.3441    871
25.3541    865
25.3641    880
25.3741    851
25.3841    902
25.3941    859
25.4041    892
25.4141    869
25.4241    857
25.4341    845
25.4441    829
25.4541    824
25.4641    871
25.4741    871
25.4841    859
25.4941    845
25.5041    808
25.5141    904
25.5241    831
25.5341    844
25.5441    854
25.5541    868
25.5641    829
25.5741    793
25.5841    883
25.5941    861
25.6041    829
25.6141    831
25.6241    822
25.6341    878
25.6441    830
25.6541    811
25.6641    760
25.6741    764
25.6841    841
25.6941    808
25.7041    843
25.7141    842
25.7241    854
25.7341    859
25.7441    793
25.7541    795
25.7641    871
25.7741    850
25.7841    811
25.7941    813
25.8041    773
25.8141    813
25.8241    807
25.8341    794
25.8441    833
25.8541    800
25.8641    800
25.8741    820
25.8841    835
25.8941    798
25.9041    813
25.9141    833
25.9241    820
25.9341    816
25.9441    819
25.9541    833
25.9641    785
25.9741    769
25.9841    838
25.9941    782
26.0041    791
26.0141    814
26.0241    776
26.0341    811
26.0441    806
26.0541    839
26.0641    805
26.0741    780
26.0841    784
26.0941    791
26.1041    796
26.1141    775
26.1241    778
26.1341    778
26.1441    824
26.1541    758
26.1641    827
26.1741    818
26.1841    788
26.1941    794
26.2041    780
26.2141    768
26.2241    774
26.2341    779
26.2441    821
26.2541    776
26.2641    806
26.2741    769
26.2841    764
26.2941    762
26.3041    754
26.3141    760
26.3241    816
26.3341    833
26.3441    813
26.3541    773
26.3641    778
26.3741    778
26.3841    764
26.3941    813
26.4041    756
26.4141    820
26.4241    764
26.4341    764
26.4441    783
26.4541    770
26.4641    769
26.4741    701
26.4841    782
26.4941    741
26.5041    803
26.5141    755
26.5241    760
26.5341    767
26.5441    704
26.5541    781
26.5641    767
26.5741    751
26.5841    746
26.5941    751
26.6041    720
26.6141    779
26.6241    766
26.6341    737
26.6441    762
26.6541    704
26.6641    759
26.6741    733
26.6841    754
26.6941    718
26.7041    723
26.7141    683
26.7241    721
26.7341    732
26.7441    753
26.7541    763
26.7641    726
26.7741    802
26.7841    739
26.7941    714
26.8041    798
26.8141    747
26.8241    727
26.8341    713
26.8441    734
26.8541    753
26.8641    721
26.8741    704
26.8841    724
26.8941    675
26.9041    729
26.9141    730
26.9241    726
26.9341    730
26.9441    708
26.9541    732
26.9641    717
26.9741    717
26.9841    692
26.9941    704
27.0041    740
27.0141    720
27.0241    716
27.0341    693
27.0441    745
27.0541    767
27.0641    709
27.0741    724
27.0841    711
27.0941    692
27.1041    733
27.1141    760
27.1241    735
27.1341    700
27.1441    684
27.1541    696
27.1641    743
27.1741    736
27.1841    723
27.1941    765
27.2041    735
27.2141    747
27.2241    706
27.2341    731
27.2441    683
27.2541    679
27.2641    686
27.2741    708
27.2841    681
27.2941    692
27.3041    727
27.3141    701
27.3241    658
27.3341    701
27.3441    702
27.3541    716
27.3641    710
27.3741    743
27.3841    723
27.3941    751
27.4041    688
27.4141    695
27.4241    682
27.4341    696
27.4441    717
27.4541    710
27.4641    683
27.4741    708
27.4841    656
27.4941    667
27.5041    667
27.5141    668
27.5241    676
27.5341    704
27.5441    711
27.5541    689
27.5641    656
27.5741    656
27.5841    709
27.5941    682
27.6041    698
27.6141    707
27.6241    678
27.6341    645
27.6441    683
27.6541    674
27.6641    703
27.6741    651
27.6841    650
27.6941    689
27.7041    629
27.7141    692
27.7241    669
27.7341    693
27.7441    703
27.7541    637
27.7641    624
27.7741    611
27.7841    719
27.7941    665
27.8041    677
27.8141    675
27.8241    636
27.8341    614
27.8441    641
27.8541    642
27.8641    634
27.8741    610
27.8841    677
27.8941    685
27.9041    683
27.9141    698
27.9241    631
27.9341    724
27.9441    662
27.9541    636
27.9641    648
27.9741    645
27.9841    682
27.9941    632
28.0041    619
28.0141    630
28.0241    618
28.0341    637
28.0441    631
28.0541    633
28.0641    639
28.0741    639
28.0841    624
28.0941    649
28.1041    619
28.1141    643
28.1241    641
28.1341    656
28.1441    648
28.1541    649
28.1641    650
28.1741    621
28.1841    632
28.1941    612
28.2041    635
28.2141    618
28.2241    634
28.2341    622
28.2441    624
28.2541    618
28.2641    645
28.2741    628
28.2841    589
28.2941    583
28.3041    632
28.3141    659
28.3241    632
28.3341    613
28.3441    614
28.3541    643
28.3641    637
28.3741    612
28.3841    643
28.3941    606
28.4041    615
28.4141    680
28.4241    611
28.4341    616
28.4441    622
28.4541    585
28.4641    641
28.4741    626
28.4841    598
28.4941    645
28.5041    621
28.5141    616
28.5241    642
28.5341    658
28.5441    578
28.5541    593
28.5641    580
28.5741    564
28.5841    594
28.5941    593
28.6041    610
28.6141    630
28.6241    618
28.6341    554
28.6441    583
28.6541    595
28.6641    553
28.6741    634
28.6841    613
28.6941    577
28.7041    597
28.7141    623
28.7241    610
28.7341    632
28.7441    585
28.7541    633
28.7641    607
28.7741    595
28.7841    653
28.7941    564
28.8041    591
28.8141    593
28.8241    552
28.8341    563
28.8441    615
28.8541    586
28.8641    604
28.8741    560
28.8841    586
28.8941    583
28.9041    587
28.9141    557
28.9241    547
28.9341    556
28.9441    602
28.9541    577
28.9641    585
28.9741    590
28.9841    607
28.9941    588
29.0041    572
29.0141    570
29.0241    590
29.0341    596
29.0441    547
29.0541    538
29.0641    573
29.0741    605
29.0841    578
29.0941    539
29.1041    571
29.1141    562
29.1241    534
29.1341    549
29.1441    566
29.1541    552
29.1641    503
29.1741    536
29.1841    541
29.1941    578
29.2041    587
29.2141    581
29.2241    547
29.2341    563
29.2441    589
29.2541    567
29.2641    551
29.2741    545
29.2841    549
29.2941    595
29.3041    554
29.3141    524
29.3241    533
29.3341    555
29.3441    519
29.3541    540
29.3641    504
29.3741    540
29.3841    559
29.3941    595
29.4041    523
29.4141    547
29.4241    529
29.4341    528
29.4441    523
29.4541    540
29.4641    538
29.4741    529
29.4841    558
29.4941    536
29.5041    547
29.5141    527
29.5241    500
29.5341    508
29.5441    531
29.5541    534
29.5641    545
29.5741    530
29.5841    527
29.5941    526
29.6041    481
29.6141    526
29.6241    536
29.6341    510
29.6441    498
29.6541    502
29.6641    522
29.6741    534
29.6841    542
29.6941    503
29.7041    523
29.7141    539
29.7241    496
29.7341    512
29.7441    506
29.7541    530
29.7641    509
29.7741    528
29.7841    518
29.7941    540
29.8041    534
29.8141    545
29.8241    509
29.8341    517
29.8441    513
29.8541    484
29.8641    502
29.8741    548
29.8841    483
29.8941    510
29.9041    544
29.9141    489
29.9241    489
29.9341    501
29.9441    492
29.9541    531
29.9641    525
29.9741    506
29.9841    538
29.9941    506
30.0041    521
30.0141    499
30.0241    504
30.0341    486
30.0441    486
30.0541    477
30.0641    473
30.0741    473
30.0841    511
30.0941    493
30.1041    467
30.1141    447
30.1241    475
30.1341    499
30.1441    449
30.1541    565
30.1641    495
30.1741    468
30.1841    513
30.1941    465
30.2041    477
30.2141    500
30.2241    461
30.2341    494
30.2441    490
30.2541    476
30.2641    463
30.2741    494
30.2841    424
30.2941    450
30.3041    460
30.3141    462
30.3241    463
30.3341    463
30.3441    466
30.3541    496
30.3641    474
30.3741    479
30.3841    475
30.3941    472
30.4041    456
30.4141    451
30.4241    441
30.4341    439
30.4441    453
30.4541    437
30.4641    447
30.4741    441
30.4841    484
30.4941    482
30.5041    441
30.5141    449
30.5241    440
30.5341    492
30.5441    445
30.5541    476
30.5641    437
30.5741    443
30.5841    430
30.5941    417
30.6041    463
30.6141    447
30.6241    452
30.6341    444
30.6441    474
30.6541    406
30.6641    435
30.6741    413
30.6841    439
30.6941    436
30.7041    460
30.7141    436
30.7241    436
30.7341    468
30.7441    400
30.7541    436
30.7641    460
30.7741    492
30.7841    455
30.7941    472
30.8041    440
30.8141    467
30.8241    416
30.8341    431
30.8441    453
30.8541    416
30.8641    433
30.8741    415
30.8841    423
30.8941    468
30.9041    417
30.9141    417
30.9241    432
30.9341    429
30.9441    435
30.9541    398
30.9641    483
30.9741    467
30.9841    395
30.9941    436
31.0041    390
31.0141    385
31.0241    418
31.0341    474
31.0441    418
31.0541    457
31.0641    444
31.0741    394
31.0841    422
31.0941    441
31.1041    420
31.1141    408
31.1241    403
31.1341    448
31.1441    441
31.1541    387
31.1641    405
31.1741    437
31.1841    422
31.1941    431
31.2041    421
31.2141    429
31.2241    432
31.2341    427
31.2441    412
31.2541    391
31.2641    411
31.2741    404
31.2841    399
31.2941    401
31.3041    437
31.3141    377
31.3241    417
31.3341    423
31.3441    400
31.3541    376
31.3641    403
31.3741    413
31.3841    385
31.3941    399
31.4041    389
31.4141    407
31.4241    438
31.4341    416
31.4441    394
31.4541    381
31.4641    391
31.4741    395
31.4841    397
31.4941    416
31.5041    342
31.5141    364
31.5241    412
31.5341    394
31.5441    413
31.5541    394
31.5641    372
31.5741    396
31.5841    408
31.5941    378
31.6041    419
31.6141    372
31.6241    373
31.6341    392
31.6441    374
31.6541    383
31.6641    369
31.6741    379
31.6841    354
31.6941    385
31.7041    385
31.7141    393
31.7241    367
31.7341    381
31.7441    371
31.7541    367
31.7641    361
31.7741    394
31.7841    389
31.7941    365
31.8041    397
31.8141    395
31.8241    354
31.8341    362
31.8441    390
31.8541    370
31.8641    395
31.8741    398
31.8841    392
31.8941    375
31.9041    380
31.9141    389
31.9241    384
31.9341    382
31.9441    378
31.9541    367
31.9641    400
31.9741    377
31.9841    408
31.9941    367
32.0041    389
32.0141    371
32.0241    372
32.0341    366
32.0441    360
32.0541    361
32.0641    382
32.0741    360
32.0841    401
32.0941    359
32.1041    360
32.1141    419
32.1241    381
32.1341    355
32.1441    398
32.1541    389
32.1641    374
32.1741    342
32.1841    371
32.1941    394
32.2041    353
32.2141    403
32.2241    343
32.2341    347
32.2441    366
32.2541    370
32.2641    384
32.2741    381
32.2841    361
32.2941    334
32.3041    352
32.3141    380
32.3241    361
32.3341    344
32.3441    331
32.3541    362
32.3641    348
32.3741    317
32.3841    332
32.3941    351
32.4041    367
32.4141    374
32.4241    365
32.4341    348
32.4441    392
32.4541    365
32.4641    308
32.4741    312
32.4841    326
32.4941    359
32.5041    326
32.5141    375
32.5241    334
32.5341    341
32.5441    320
32.5541    334
32.5641    331
32.5741    339
32.5841    322
32.5941    300
32.6041    295
32.6141    343
32.6241    312
32.6341    283
32.6441    333
32.6541    329
32.6641    343
32.6741    308
32.6841    334
32.6941    336
32.7041    339
32.7141    335
32.7241    313
32.7341    317
32.7441    331
32.7541    347
32.7641    315
32.7741    334
32.7841    299
32.7941    332
32.8041    322
32.8141    336
32.8241    317
32.8341    304
32.8441    352
32.8541    334
32.8641    284
32.8741    290
32.8841    311
32.8941    305
32.9041    316
32.9141    327
32.9241    323
32.9341    299
32.9441    312
32.9541    306
32.9641    317
32.9741    326
32.9841    313
32.9941    291
33.0041    302
33.0141    316
33.0241    304
33.0341    337
33.0441    293
33.0541    289
33.0641    293
33.0741    319
33.0841    296
33.0941    302
33.1041    288
33.1141    305
33.1241    312
33.1341    294
33.1441    301
33.1541    329
33.1641    287
33.1741    287
33.1841    314
33.1941    283
33.2041    298
33.2141    318
33.2241    292
33.2341    285
33.2441    279
33.2541    271
33.2641    287
33.2741    284
33.2841    316
33.2941    287
33.3041    262
33.3141    260
33.3241    303
33.3341    291
33.3441    284
33.3541    308
33.3641    304
33.3741    279
33.3841    282
33.3941    291
33.4041    292
33.4141    291
33.4241    310
33.4341    300
33.4441    290
33.4541    267
33.4641    317
33.4741    286
33.4841    262
33.4941    269
33.5041    279
33.5141    256
33.5241    256
33.5341    253
33.5441    280
33.5541    281
33.5641    306
33.5741    274
33.5841    283
33.5941    279
33.6041    289
33.6141    255
33.6241    306
33.6341    310
33.6441    274
33.6541    243
33.6641    284
33.6741    267
33.6841    276
33.6941    271
33.7041    271
33.7141    259
33.7241    279
33.7341    276
33.7441    287
33.7541    289
33.7641    285
33.7741    258
33.7841    272
33.7941    295
33.8041    265
33.8141    261
33.8241    267
33.8341    247
33.8441    255
33.8541    238
33.8641    246
33.8741    244
33.8841    249
33.8941    273
33.9041    287
33.9141    265
33.9241    254
33.9341    262
33.9441    261
33.9541    256
33.9641    238
33.9741    261
33.9841    263
33.9941    251
34.0041    247
34.0141    242
34.0241    259
34.0341    271
34.0441    251
34.0541    258
34.0641    236
34.0741    239
34.0841    227
34.0941    248
34.1041    261
34.1141    249
34.1241    225
34.1341    266
34.1441    251
34.1541    245
34.1641    253
34.1741    245
34.1841    250
34.1941    255
34.2041    238
34.2141    245
34.2241    241
34.2341    264
34.2441    279
34.2541    247
34.2641    268
34.2741    250
34.2841    243
34.2941    223
34.3041    237
34.3141    227
34.3241    250
34.3341    235
34.3441    266
34.3541    225
34.3641    231
34.3741    237
34.3841    233
34.3941    242
34.4041    209
34.4141    244
34.4241    255
34.4341    220
34.4441    237
34.4541    247
34.4641    226
34.4741    222
34.4841    262
34.4941    221
34.5041    238
34.5141    231
34.5241    251
34.5341    237
34.5441    214
34.5541    236
34.5641    251
34.5741    209
34.5841    234
34.5941    238
34.6041    228
34.6141    236
34.6241    224
34.6341    225
34.6441    219
34.6541    212
34.6641    200
34.6741    226
34.6841    217
34.6941    243
34.7041    223
34.7141    206
34.7241    218
34.7341    218
34.7441    206
34.7541    228
34.7641    223
34.7741    242
34.7841    236
34.7941    228
34.8041    272
34.8141    215
34.8241    232
34.8341    234
34.8441    241
34.8541    199
34.8641    228
34.8741    224
34.8841    233
34.8941    230
34.9041    212
34.9141    244
34.9241    224
34.9341    211
34.9441    207
34.9541    201
34.9641    208
34.9741    221
34.9841    209
34.9941    252
35.0041    218
35.0141    224
35.0241    207
35.0341    219
35.0441    218
35.0541    179
35.0641    213
35.0741    187
35.0841    190
35.0941    198
35.1041    200
35.1141    196
35.1241    206
35.1341    207
35.1441    209
35.1541    215
35.1641    195
35.1741    217
35.1841    197
35.1941    187
35.2041    210
35.2141    207
35.2241    192
35.2341    190
35.2441    198
35.2541    200
35.2641    209
35.2741    193
35.2841    185
35.2941    184
35.3041    199
35.3141    209
35.3241    194
35.3341    194
35.3441    189
35.3541    199
35.3641    227
35.3741    173
35.3841    189
35.3941    187
35.4041    207
35.4141    178
35.4241    200
35.4341    190
35.4441    178
35.4541    188
35.4641    191
35.4741    197
35.4841    209
35.4941    206
35.5041    196
35.5141    187
35.5241    212
35.5341    190
35.5441    198
35.5541    196
35.5641    196
35.5741    185
35.5841    166
35.5941    188
35.6041    189
35.6141    182
35.6241    215
35.6341    189
35.6441    200
35.6541    187
35.6641    150
35.6741    167
35.6841    182
35.6941    179
35.7041    187
35.7141    189
35.7241    195
35.7341    171
35.7441    205
35.7541    169
35.7641    188
35.7741    198
35.7841    186
35.7941    169
35.8041    166
35.8141    166
35.8241    174
35.8341    200
35.8441    178
35.8541    156
35.8641    196
35.8741    175
35.8841    166
35.8941    168
35.9041    178
35.9141    160
35.9241    188
35.9341    152
35.9441    172
35.9541    162
35.9641    166
35.9741    157
35.9841    169
35.9941    194
36.0041    167
36.0141    176
36.0241    167
36.0341    174
36.0441    185
36.0541    168
36.0641    164
36.0741    159
36.0841    175
36.0941    152
36.1041    172
36.1141    162
36.1241    191
36.1341    149
36.1441    157
36.1541    159
36.1641    151
36.1741    171
36.1841    172
36.1941    174
36.2041    167
36.2141    167
36.2241    160
36.2341    156
36.2441    173
36.2541    172
36.2641    172
36.2741    164
36.2841    175
36.2941    163
36.3041    172
36.3141    146
36.3241    154
36.3341    170
36.3441    151
36.3541    162
36.3641    156
36.3741    160
36.3841    152
36.3941    165
36.4041    152
36.4141    173
36.4241    145
36.4341    170
36.4441    170
36.4541    154
36.4641    164
36.4741    164
36.4841    139
36.4941    160
36.5041    134
36.5141    151
36.5241    144
36.5341    145
36.5441    128
36.5541    147
36.5641    121
36.5741    141
36.5841    145
36.5941    143
36.6041    153
36.6141    131
36.6241    153
36.6341    155
36.6441    156
36.6541    140
36.6641    174
36.6741    148
36.6841    167
36.6941    134
36.7041    149
36.7141    158
36.7241    130
36.7341    146
36.7441    132
36.7541    144
36.7641    146
36.7741    151
36.7841    155
36.7941    136
36.8041    163
36.8141    142
36.8241    146
36.8341    152
36.8441    129
36.8541    126
36.8641    124
36.8741    140
36.8841    134
36.8941    132
36.9041    121
36.9141    142
36.9241    150
36.9341    132
36.9441    139
36.9541    133
36.9641    134
36.9741    123
36.9841    147
36.9941    131
37.0041    156
37.0141    136
37.0241    125
37.0341    126
37.0441    117
37.0541    138
37.0641    143
37.0741    117
37.0841    125
37.0941    120
37.1041    134
37.1141    118
37.1241    127
37.1341    114
37.1441    144
37.1541    133
37.1641    112
37.1741    122
37.1841    123
37.1941    109
37.2041    127
37.2141    125
37.2241    131
37.2341    137
37.2441    103
37.2541    135
37.2641    130
37.2741    130
37.2841    139
37.2941    113
37.3041    125
37.3141    130
37.3241    127
37.3341    127
37.3441    112
37.3541    132
37.3641    125
37.3741    124
37.3841    115
37.3941    104
37.4041    152
37.4141    132
37.4241    110
37.4341    124
37.4441    107
37.4541    129
37.4641    126
37.4741    137
37.4841    127
37.4941    108
37.5041    100
37.5141    122
37.5241    111
37.5341    102
37.5441    107
37.5541    123
37.5641    121
37.5741    108
37.5841    114
37.5941    113
37.6041    125
37.6141    120
37.6241    107
37.6341    106
37.6441    115
37.6541    104
37.6641    101
37.6741    122
37.6841    102
37.6941    117
37.7041    105
37.7141     96
37.7241    109
37.7341    103
37.7441    112
37.7541    123
37.7641    116
37.7741    122
37.7841    104
37.7941    114
37.8041    103
37.8141    119
37.8241    114
37.8341    119
37.8441    116
37.8541    107
37.8641    124
37.8741    105
37.8841    104
37.8941    105
37.9041     82
37.9141    104
37.9241     90
37.9341    109
37.9441    109
37.9541    102
37.9641    104
37.9741    109
37.9841     96
37.9941     99
38.0041     96
38.0141    107
38.0241    102
38.0341     84
38.0441     99
38.0541     91
38.0641     81
38.0741     94
38.0841    107
38.0941     93
38.1041    107
38.1141    100
38.1241    117
38.1341    111
38.1441    103
38.1541    112
38.1641    103
38.1741     98
38.1841     90
38.1941    100
38.2041    108
38.2141     95
38.2241    101
38.2341     86
38.2441     99
38.2541     95
38.2641     95
38.2741     99
38.2841     95
38.2941     97
38.3041     87
38.3141     97
38.3241     91
38.3341     92
38.3441    101
38.3541     91
38.3641     72
38.3741    100
38.3841     96
38.3941     85
38.4041     89
38.4141     85
38.4241    101
38.4341     96
38.4441     84
38.4541     94
38.4641    120
38.4741     93
38.4841    101
38.4941     94
38.5041     83
38.5141     80
38.5241     88
38.5341    100
38.5441     93
38.5541     95
38.5641     81
38.5741     87
38.5841    102
38.5941     88
38.6041     85
38.6141     80
38.6241     93
38.6341     73
38.6441     81
38.6541     99
38.6641     85
38.6741     89
38.6841     77
38.6941     92
38.7041     96
38.7141     96
38.7241     86
38.7341     85
38.7441     95
38.7541     78
38.7641     87
38.7741     96
38.7841     77
38.7941     79
38.8041     84
38.8141     69
38.8241     82
38.8341     80
38.8441     68
38.8541     79
38.8641     99
38.8741     80
38.8841     86
38.8941     77
38.9041     74
38.9141     84
38.9241     87
38.9341     91
38.9441     76
38.9541     81
38.9641     82
38.9741     71
38.9841     83
38.9941     75
39.0041     66
39.0141     88
39.0241     85
39.0341     67
39.0441     91
39.0541     74
39.0641     91
39.0741     86
39.0841     60
39.0941     76
39.1041     72
39.1141     71
39.1241     80
39.1341     88
39.1441     75
39.1541     61
39.1641     72
39.1741     80
39.1841     71
39.1941     80
39.2041     72
39.2141     85
39.2241     74
39.2341     73
39.2441     68
39.2541     79
39.2641     62
39.2741     73
39.2841     61
39.2941     82
39.3041     70
39.3141     68
39.3241     80
39.3341     72
39.3441     74
39.3541     69
39.3641     66
39.3741     75
39.3841     84
39.3941     56
39.4041     61
39.4141     64
39.4241     81
39.4341     64
39.4441     72
39.4541     63
39.4641     73
39.4741     86
39.4841     50
39.4941     62
39.5041     69
39.5141     67
39.5241     74
39.5341     62
39.5441     70
39.5541     67
39.5641     58
39.5741     61
39.5841     61
39.5941     62
39.6041     63
39.6141     51
39.6241     60
39.6341     73
39.6441     62
39.6541     74
39.6641     54
39.6741     54
39.6841     68
39.6941     59
39.7041     77
39.7141     68
39.7241     51
39.7341     55
39.7441     64
39.7541     56
39.7641     65
39.7741     59
39.7841     62
39.7941     56
39.8041     57
39.8141     68
39.8241     53
39.8341     51
39.8441     45
39.8541     62
39.8641     55
39.8741     48
39.8841     63
39.8941     47
39.9041     61
39.9141     62
39.9241     62
39.9341     66
39.9441     56
39.9541     61
39.9641     67
39.9741     61
39.9841     60
39.9941     56
