Bruker Nano GmbH Berlin, Germany
Esprit 1.9

Date: 4/21/2021 2:36:41 PM
Real time: 20116
Life time: 18774
Pulse density: 98158


Detector type: XFlash 430
Window type: Custom type
Detector thickness: 0.45
Si dead layer:0.029

Calibration, lin.: 10
Calibration, abs.: -955.9
Mn FWHM: 137.05
Fano factor: 0.121
Channels: 4095

Energy Counts
-0.9559     0
-0.9459     0
-0.9359     0
-0.9259     0
-0.9159     0
-0.9059     0
-0.8959     0
-0.8859     0
-0.8759     0
-0.8659     0
-0.8559     0
-0.8459     0
-0.8359     0
-0.8259     0
-0.8159     0
-0.8059     0
-0.7959     0
-0.7859     0
-0.7759     0
-0.7659     0
-0.7559     0
-0.7459     0
-0.7359     0
-0.7259     0
-0.7159     0
-0.7059     0
-0.6959     0
-0.6859     0
-0.6759     0
-0.6659     0
-0.6559     0
-0.6459     0
-0.6359     0
-0.6259     0
-0.6159     0
-0.6059     0
-0.5959     0
-0.5859     0
-0.5759     0
-0.5659     0
-0.5559     0
-0.5459     0
-0.5359     0
-0.5259     0
-0.5159     0
-0.5059     0
-0.4959     0
-0.4859     0
-0.4759     0
-0.4659     0
-0.4559     0
-0.4459     0
-0.4359     0
-0.4259     0
-0.4159     0
-0.4059     0
-0.3959     0
-0.3859     0
-0.3759     0
-0.3659     0
-0.3559     0
-0.3459     0
-0.3359     0
-0.3259     0
-0.3159     0
-0.3059     0
-0.2959     0
-0.2859     0
-0.2759     0
-0.2659     0
-0.2559     0
-0.2459     0
-0.2359     0
-0.2259     0
-0.2159     0
-0.2059     0
-0.1959     0
-0.1859     0
-0.1759     0
-0.1659     0
-0.1559     0
-0.1459     0
-0.1359     0
-0.1259     1
-0.1159     1
-0.1059    14
-0.0959    51
-0.0859   210
-0.0759   727
-0.0659  2050
-0.0559  5532
-0.0459 11914
-0.0359 22402
-0.0259 35919
-0.0159 49107
-0.0059 57562
 0.0041 58076
 0.0141 49459
 0.0241 36647
 0.0341 23130
 0.0441 12740
 0.0541  5906
 0.0641  2352
 0.0741   827
 0.0841   260
 0.0941    66
 0.1041    25
 0.1141    19
 0.1241     5
 0.1341     5
 0.1441     8
 0.1541     5
 0.1641     4
 0.1741    17
 0.1841   153
 0.1941   364
 0.2041   310
 0.2141   291
 0.2241   316
 0.2341   309
 0.2441   311
 0.2541   317
 0.2641   297
 0.2741   302
 0.2841   295
 0.2941   307
 0.3041   315
 0.3141   287
 0.3241   308
 0.3341   287
 0.3441   298
 0.3541   297
 0.3641   295
 0.3741   279
 0.3841   274
 0.3941   271
 0.4041   271
 0.4141   257
 0.4241   252
 0.4341   262
 0.4441   272
 0.4541   268
 0.4641   245
 0.4741   244
 0.4841   259
 0.4941   264
 0.5041   253
 0.5141   252
 0.5241   256
 0.5341   239
 0.5441   252
 0.5541   256
 0.5641   265
 0.5741   252
 0.5841   260
 0.5941   251
 0.6041   236
 0.6141   231
 0.6241   234
 0.6341   243
 0.6441   237
 0.6541   227
 0.6641   226
 0.6741   231
 0.6841   240
 0.6941   226
 0.7041   213
 0.7141   219
 0.7241   225
 0.7341   210
 0.7441   200
 0.7541   219
 0.7641   223
 0.7741   217
 0.7841   219
 0.7941   210
 0.8041   226
 0.8141   224
 0.8241   217
 0.8341   219
 0.8441   201
 0.8541   190
 0.8641   196
 0.8741   199
 0.8841   206
 0.8941   225
 0.9041   208
 0.9141   203
 0.9241   211
 0.9341   222
 0.9441   215
 0.9541   210
 0.9641   214
 0.9741   214
 0.9841   220
 0.9941   206
 1.0041   195
 1.0141   196
 1.0241   210
 1.0341   189
 1.0441   180
 1.0541   184
 1.0641   174
 1.0741   200
 1.0841   175
 1.0941   183
 1.1041   203
 1.1141   210
 1.1241   201
 1.1341   178
 1.1441   194
 1.1541   185
 1.1641   182
 1.1741   165
 1.1841   189
 1.1941   182
 1.2041   191
 1.2141   192
 1.2241   174
 1.2341   176
 1.2441   189
 1.2541   164
 1.2641   197
 1.2741   209
 1.2841   199
 1.2941   178
 1.3041   187
 1.3141   191
 1.3241   177
 1.3341   165
 1.3441   181
 1.3541   184
 1.3641   180
 1.3741   187
 1.3841   177
 1.3941   162
 1.4041   171
 1.4141   160
 1.4241   158
 1.4341   205
 1.4441   198
 1.4541   191
 1.4641   168
 1.4741   158
 1.4841   168
 1.4941   190
 1.5041   184
 1.5141   188
 1.5241   171
 1.5341   160
 1.5441   172
 1.5541   157
 1.5641   183
 1.5741   181
 1.5841   162
 1.5941   169
 1.6041   157
 1.6141   176
 1.6241   179
 1.6341   184
 1.6441   191
 1.6541   214
 1.6641   239
 1.6741   320
 1.6841   383
 1.6941   413
 1.7041   556
 1.7141   650
 1.7241   719
 1.7341   767
 1.7441   729
 1.7541   700
 1.7641   668
 1.7741   551
 1.7841   467
 1.7941   364
 1.8041   326
 1.8141   304
 1.8241   271
 1.8341   241
 1.8441   201
 1.8541   183
 1.8641   195
 1.8741   209
 1.8841   185
 1.8941   185
 1.9041   183
 1.9141   172
 1.9241   179
 1.9341   187
 1.9441   196
 1.9541   202
 1.9641   181
 1.9741   189
 1.9841   196
 1.9941   220
 2.0041   213
 2.0141   229
 2.0241   229
 2.0341   220
 2.0441   199
 2.0541   190
 2.0641   179
 2.0741   195
 2.0841   165
 2.0941   183
 2.1041   149
 2.1141   156
 2.1241   176
 2.1341   135
 2.1441   175
 2.1541   158
 2.1641   154
 2.1741   142
 2.1841   141
 2.1941   156
 2.2041   142
 2.2141   137
 2.2241   148
 2.2341   141
 2.2441   153
 2.2541   138
 2.2641   149
 2.2741   137
 2.2841   145
 2.2941   149
 2.3041   138
 2.3141   147
 2.3241   163
 2.3341   139
 2.3441   163
 2.3541   146
 2.3641   145
 2.3741   149
 2.3841   137
 2.3941   147
 2.4041   154
 2.4141   157
 2.4241   155
 2.4341   120
 2.4441   132
 2.4541   159
 2.4641   125
 2.4741   130
 2.4841   144
 2.4941   139
 2.5041   142
 2.5141   137
 2.5241   128
 2.5341   134
 2.5441   152
 2.5541   131
 2.5641   158
 2.5741   150
 2.5841   123
 2.5941   154
 2.6041   133
 2.6141   160
 2.6241   142
 2.6341   132
 2.6441   122
 2.6541   153
 2.6641   145
 2.6741   133
 2.6841   138
 2.6941   121
 2.7041   114
 2.7141   113
 2.7241   123
 2.7341   124
 2.7441   149
 2.7541   118
 2.7641   118
 2.7741   147
 2.7841   134
 2.7941   123
 2.8041   139
 2.8141   126
 2.8241   131
 2.8341   153
 2.8441   136
 2.8541   149
 2.8641   135
 2.8741   122
 2.8841   135
 2.8941   142
 2.9041   111
 2.9141   127
 2.9241   138
 2.9341   137
 2.9441   138
 2.9541   136
 2.9641   132
 2.9741   124
 2.9841   136
 2.9941   135
 3.0041   113
 3.0141    97
 3.0241   110
 3.0341   152
 3.0441   130
 3.0541   122
 3.0641   112
 3.0741   117
 3.0841   114
 3.0941   116
 3.1041   114
 3.1141   118
 3.1241   104
 3.1341   110
 3.1441   110
 3.1541   112
 3.1641    86
 3.1741   109
 3.1841   127
 3.1941   132
 3.2041   121
 3.2141   141
 3.2241   162
 3.2341   180
 3.2441   152
 3.2541   197
 3.2641   236
 3.2741   249
 3.2841   300
 3.2941   318
 3.3041   330
 3.3141   287
 3.3241   342
 3.3341   342
 3.3441   290
 3.3541   270
 3.3641   209
 3.3741   208
 3.3841   172
 3.3941   153
 3.4041   146
 3.4141   130
 3.4241   111
 3.4341   110
 3.4441   105
 3.4541    96
 3.4641   105
 3.4741   107
 3.4841    94
 3.4941   102
 3.5041   104
 3.5141   114
 3.5241   128
 3.5341   133
 3.5441   154
 3.5541   165
 3.5641   168
 3.5741   216
 3.5841   266
 3.5941   305
 3.6041   372
 3.6141   438
 3.6241   551
 3.6341   656
 3.6441   827
 3.6541   955
 3.6641  1069
 3.6741  1084
 3.6841  1121
 3.6941  1150
 3.7041  1134
 3.7141  1028
 3.7241   908
 3.7341   776
 3.7441   653
 3.7541   517
 3.7641   421
 3.7741   334
 3.7841   252
 3.7941   190
 3.8041   149
 3.8141   115
 3.8241   114
 3.8341    95
 3.8441   105
 3.8541    99
 3.8641    90
 3.8741    90
 3.8841    84
 3.8941    91
 3.9041   125
 3.9141   122
 3.9241   135
 3.9341   144
 3.9441   146
 3.9541   150
 3.9641   149
 3.9741   204
 3.9841   215
 3.9941   214
 4.0041   234
 4.0141   233
 4.0241   207
 4.0341   217
 4.0441   189
 4.0541   187
 4.0641   149
 4.0741   158
 4.0841   140
 4.0941   134
 4.1041   103
 4.1141   106
 4.1241    85
 4.1341    82
 4.1441    88
 4.1541   108
 4.1641    81
 4.1741    79
 4.1841    97
 4.1941    85
 4.2041    74
 4.2141    76
 4.2241    77
 4.2341    69
 4.2441    58
 4.2541   101
 4.2641    79
 4.2741    80
 4.2841    73
 4.2941    78
 4.3041    82
 4.3141    90
 4.3241    82
 4.3341    73
 4.3441    80
 4.3541    88
 4.3641    95
 4.3741    90
 4.3841    96
 4.3941   107
 4.4041   136
 4.4141   177
 4.4241   192
 4.4341   232
 4.4441   248
 4.4541   262
 4.4641   297
 4.4741   331
 4.4841   370
 4.4941   371
 4.5041   364
 4.5141   381
 4.5241   355
 4.5341   363
 4.5441   319
 4.5541   279
 4.5641   240
 4.5741   218
 4.5841   192
 4.5941   156
 4.6041   140
 4.6141    91
 4.6241   122
 4.6341   102
 4.6441   114
 4.6541    94
 4.6641    83
 4.6741   100
 4.6841   104
 4.6941    96
 4.7041    88
 4.7141   102
 4.7241   102
 4.7341   107
 4.7441    91
 4.7541   103
 4.7641    92
 4.7741    94
 4.7841   104
 4.7941   113
 4.8041   101
 4.8141   122
 4.8241    99
 4.8341   123
 4.8441   139
 4.8541   144
 4.8641   130
 4.8741   136
 4.8841   152
 4.8941   164
 4.9041   159
 4.9141   163
 4.9241   160
 4.9341   151
 4.9441   150
 4.9541   175
 4.9641   171
 4.9741   135
 4.9841   127
 4.9941   136
 5.0041   133
 5.0141   126
 5.0241   113
 5.0341    96
 5.0441    98
 5.0541   105
 5.0641   107
 5.0741    94
 5.0841    96
 5.0941    75
 5.1041   114
 5.1141    99
 5.1241    85
 5.1341    98
 5.1441    93
 5.1541    89
 5.1641    89
 5.1741    87
 5.1841   106
 5.1941    95
 5.2041    88
 5.2141    92
 5.2241   105
 5.2341   106
 5.2441    94
 5.2541   105
 5.2641    96
 5.2741    85
 5.2841    98
 5.2941    94
 5.3041    86
 5.3141   108
 5.3241    91
 5.3341   113
 5.3441   107
 5.3541   114
 5.3641   124
 5.3741   101
 5.3841   106
 5.3941   105
 5.4041   120
 5.4141   121
 5.4241   122
 5.4341   140
 5.4441   133
 5.4541   127
 5.4641   102
 5.4741   121
 5.4841   118
 5.4941   110
 5.5041    98
 5.5141   122
 5.5241   100
 5.5341   114
 5.5441   106
 5.5541   118
 5.5641    95
 5.5741   105
 5.5841   100
 5.5941   103
 5.6041    83
 5.6141   102
 5.6241   109
 5.6341   110
 5.6441   108
 5.6541   120
 5.6641   113
 5.6741    93
 5.6841    89
 5.6941   111
 5.7041    91
 5.7141   132
 5.7241   143
 5.7341   155
 5.7441   168
 5.7541   190
 5.7641   225
 5.7741   304
 5.7841   401
 5.7941   497
 5.8041   585
 5.8141   684
 5.8241   899
 5.8341  1026
 5.8441  1263
 5.8541  1449
 5.8641  1589
 5.8741  1640
 5.8841  1723
 5.8941  1724
 5.9041  1635
 5.9141  1650
 5.9241  1469
 5.9341  1312
 5.9441  1245
 5.9541  1052
 5.9641   862
 5.9741   731
 5.9841   587
 5.9941   454
 6.0041   395
 6.0141   302
 6.0241   242
 6.0341   198
 6.0441   175
 6.0541   166
 6.0641   164
 6.0741   136
 6.0841   150
 6.0941   162
 6.1041   156
 6.1141   150
 6.1241   146
 6.1341   166
 6.1441   193
 6.1541   181
 6.1641   201
 6.1741   222
 6.1841   262
 6.1941   298
 6.2041   351
 6.2141   463
 6.2241   636
 6.2341   850
 6.2441  1149
 6.2541  1705
 6.2641  2246
 6.2741  3167
 6.2841  4350
 6.2941  5786
 6.3041  7451
 6.3141  9479
 6.3241 11706
 6.3341 14157
 6.3441 16650
 6.3541 19237
 6.3641 21312
 6.3741 23151
 6.3841 24473
 6.3941 25127
 6.4041 25278
 6.4141 24276
 6.4241 23166
 6.4341 21521
 6.4441 18915
 6.4541 16795
 6.4641 14217
 6.4741 11630
 6.4841  9467
 6.4941  7351
 6.5041  5828
 6.5141  4323
 6.5241  3068
 6.5341  2260
 6.5441  1661
 6.5541  1179
 6.5641   834
 6.5741   600
 6.5841   431
 6.5941   390
 6.6041   292
 6.6141   272
 6.6241   240
 6.6341   212
 6.6441   172
 6.6541   188
 6.6641   178
 6.6741   171
 6.6841   174
 6.6941   160
 6.7041   199
 6.7141   165
 6.7241   170
 6.7341   168
 6.7441   194
 6.7541   182
 6.7641   183
 6.7741   181
 6.7841   178
 6.7941   201
 6.8041   211
 6.8141   218
 6.8241   212
 6.8341   216
 6.8441   248
 6.8541   272
 6.8641   294
 6.8741   328
 6.8841   369
 6.8941   430
 6.9041   526
 6.9141   630
 6.9241   750
 6.9341   946
 6.9441  1129
 6.9541  1447
 6.9641  1724
 6.9741  2181
 6.9841  2353
 6.9941  2792
 7.0041  3150
 7.0141  3621
 7.0241  3769
 7.0341  3925
 7.0441  4189
 7.0541  4273
 7.0641  4163
 7.0741  4146
 7.0841  3842
 7.0941  3575
 7.1041  3108
 7.1141  2770
 7.1241  2292
 7.1341  1949
 7.1441  1672
 7.1541  1369
 7.1641  1122
 7.1741   825
 7.1841   670
 7.1941   510
 7.2041   422
 7.2141   358
 7.2241   320
 7.2341   253
 7.2441   257
 7.2541   240
 7.2641   227
 7.2741   190
 7.2841   196
 7.2941   202
 7.3041   223
 7.3141   221
 7.3241   216
 7.3341   246
 7.3441   242
 7.3541   222
 7.3641   243
 7.3741   271
 7.3841   256
 7.3941   239
 7.4041   261
 7.4141   280
 7.4241   260
 7.4341   252
 7.4441   246
 7.4541   258
 7.4641   239
 7.4741   250
 7.4841   224
 7.4941   230
 7.5041   212
 7.5141   195
 7.5241   204
 7.5341   164
 7.5441   169
 7.5541   200
 7.5641   171
 7.5741   185
 7.5841   182
 7.5941   190
 7.6041   199
 7.6141   203
 7.6241   203
 7.6341   194
 7.6441   197
 7.6541   211
 7.6641   201
 7.6741   210
 7.6841   195
 7.6941   203
 7.7041   244
 7.7141   193
 7.7241   225
 7.7341   240
 7.7441   217
 7.7541   260
 7.7641   248
 7.7741   262
 7.7841   293
 7.7941   301
 7.8041   260
 7.8141   269
 7.8241   268
 7.8341   252
 7.8441   267
 7.8541   273
 7.8641   282
 7.8741   282
 7.8841   272
 7.8941   275
 7.9041   317
 7.9141   329
 7.9241   340
 7.9341   396
 7.9441   396
 7.9541   408
 7.9641   424
 7.9741   514
 7.9841   546
 7.9941   579
 8.0041   595
 8.0141   636
 8.0241   701
 8.0341   730
 8.0441   781
 8.0541   807
 8.0641   906
 8.0741   947
 8.0841  1019
 8.0941  1007
 8.1041  1096
 8.1141  1157
 8.1241  1173
 8.1341  1228
 8.1441  1264
 8.1541  1287
 8.1641  1302
 8.1741  1374
 8.1841  1396
 8.1941  1361
 8.2041  1386
 8.2141  1379
 8.2241  1453
 8.2341  1455
 8.2441  1454
 8.2541  1495
 8.2641  1611
 8.2741  1687
 8.2841  1758
 8.2941  1831
 8.3041  1961
 8.3141  2109
 8.3241  2330
 8.3341  2381
 8.3441  2521
 8.3541  2746
 8.3641  2816
 8.3741  2965
 8.3841  2911
 8.3941  2927
 8.4041  2866
 8.4141  2670
 8.4241  2629
 8.4341  2377
 8.4441  2203
 8.4541  1975
 8.4641  1719
 8.4741  1492
 8.4841  1325
 8.4941  1117
 8.5041   951
 8.5141   816
 8.5241   708
 8.5341   573
 8.5441   513
 8.5541   480
 8.5641   410
 8.5741   373
 8.5841   416
 8.5941   417
 8.6041   368
 8.6141   393
 8.6241   385
 8.6341   376
 8.6441   398
 8.6541   383
 8.6641   376
 8.6741   409
 8.6841   369
 8.6941   360
 8.7041   382
 8.7141   361
 8.7241   363
 8.7341   351
 8.7441   323
 8.7541   327
 8.7641   315
 8.7741   302
 8.7841   319
 8.7941   311
 8.8041   309
 8.8141   283
 8.8241   265
 8.8341   285
 8.8441   313
 8.8541   313
 8.8641   306
 8.8741   312
 8.8841   334
 8.8941   304
 8.9041   343
 8.9141   335
 8.9241   326
 8.9341   318
 8.9441   330
 8.9541   340
 8.9641   352
 8.9741   363
 8.9841   360
 8.9941   368
 9.0041   354
 9.0141   370
 9.0241   372
 9.0341   404
 9.0441   407
 9.0541   413
 9.0641   418
 9.0741   444
 9.0841   465
 9.0941   456
 9.1041   461
 9.1141   485
 9.1241   493
 9.1341   529
 9.1441   591
 9.1541   557
 9.1641   599
 9.1741   632
 9.1841   650
 9.1941   676
 9.2041   724
 9.2141   734
 9.2241   758
 9.2341   819
 9.2441   838
 9.2541   921
 9.2641   930
 9.2741   951
 9.2841   992
 9.2941  1054
 9.3041  1064
 9.3141  1078
 9.3241  1120
 9.3341  1218
 9.3441  1210
 9.3541  1260
 9.3641  1281
 9.3741  1339
 9.3841  1363
 9.3941  1389
 9.4041  1405
 9.4141  1395
 9.4241  1407
 9.4341  1503
 9.4441  1511
 9.4541  1541
 9.4641  1466
 9.4741  1490
 9.4841  1594
 9.4941  1608
 9.5041  1682
 9.5141  1654
 9.5241  1696
 9.5341  1801
 9.5441  1873
 9.5541  2039
 9.5641  2149
 9.5741  2254
 9.5841  2384
 9.5941  2560
 9.6041  2653
 9.6141  2856
 9.6241  2905
 9.6341  3088
 9.6441  3211
 9.6541  3178
 9.6641  3211
 9.6741  3221
 9.6841  3156
 9.6941  3133
 9.7041  3027
 9.7141  2846
 9.7241  2665
 9.7341  2463
 9.7441  2295
 9.7541  2135
 9.7641  1978
 9.7741  1811
 9.7841  1641
 9.7941  1545
 9.8041  1472
 9.8141  1380
 9.8241  1406
 9.8341  1308
 9.8441  1283
 9.8541  1269
 9.8641  1296
 9.8741  1340
 9.8841  1344
 9.8941  1387
 9.9041  1470
 9.9141  1534
 9.9241  1574
 9.9341  1628
 9.9441  1638
 9.9541  1577
 9.9641  1569
 9.9741  1534
 9.9841  1489
 9.9941  1428
10.0041  1368
10.0141  1243
10.0241  1164
10.0341  1096
10.0441   950
10.0541   823
10.0641   708
10.0741   626
10.0841   572
10.0941   548
10.1041   466
10.1141   417
10.1241   425
10.1341   373
10.1441   338
10.1541   299
10.1641   284
10.1741   269
10.1841   248
10.1941   231
10.2041   221
10.2141   212
10.2241   224
10.2341   229
10.2441   214
10.2541   207
10.2641   212
10.2741   196
10.2841   177
10.2941   198
10.3041   182
10.3141   171
10.3241   177
10.3341   187
10.3441   177
10.3541   189
10.3641   195
10.3741   174
10.3841   173
10.3941   177
10.4041   185
10.4141   189
10.4241   190
10.4341   185
10.4441   190
10.4541   184
10.4641   193
10.4741   181
10.4841   184
10.4941   190
10.5041   201
10.5141   212
10.5241   215
10.5341   210
10.5441   219
10.5541   218
10.5641   202
10.5741   219
10.5841   227
10.5941   208
10.6041   211
10.6141   197
10.6241   215
10.6341   230
10.6441   210
10.6541   210
10.6641   214
10.6741   220
10.6841   242
10.6941   227
10.7041   227
10.7141   249
10.7241   212
10.7341   228
10.7441   235
10.7541   227
10.7641   249
10.7741   264
10.7841   258
10.7941   271
10.8041   305
10.8141   291
10.8241   271
10.8341   298
10.8441   277
10.8541   285
10.8641   292
10.8741   287
10.8841   297
10.8941   285
10.9041   304
10.9141   291
10.9241   303
10.9341   282
10.9441   312
10.9541   317
10.9641   333
10.9741   324
10.9841   303
10.9941   313
11.0041   320
11.0141   282
11.0241   286
11.0341   277
11.0441   272
11.0541   267
11.0641   272
11.0741   277
11.0841   283
11.0941   279
11.1041   281
11.1141   285
11.1241   286
11.1341   301
11.1441   319
11.1541   312
11.1641   310
11.1741   322
11.1841   315
11.1941   349
11.2041   378
11.2141   371
11.2241   374
11.2341   429
11.2441   464
11.2541   448
11.2641   445
11.2741   470
11.2841   439
11.2941   439
11.3041   438
11.3141   428
11.3241   427
11.3341   415
11.3441   381
11.3541   354
11.3641   356
11.3741   310
11.3841   282
11.3941   288
11.4041   280
11.4141   277
11.4241   244
11.4341   228
11.4441   226
11.4541   220
11.4641   240
11.4741   250
11.4841   233
11.4941   201
11.5041   195
11.5141   223
11.5241   209
11.5341   200
11.5441   217
11.5541   214
11.5641   212
11.5741   243
11.5841   249
11.5941   224
11.6041   220
11.6141   224
11.6241   229
11.6341   221
11.6441   220
11.6541   227
11.6641   213
11.6741   220
11.6841   216
11.6941   212
11.7041   208
11.7141   205
11.7241   198
11.7341   201
11.7441   208
11.7541   190
11.7641   189
11.7741   194
11.7841   175
11.7941   183
11.8041   177
11.8141   168
11.8241   175
11.8341   167
11.8441   174
11.8541   166
11.8641   163
11.8741   171
11.8841   177
11.8941   169
11.9041   170
11.9141   167
11.9241   168
11.9341   173
11.9441   153
11.9541   155
11.9641   158
11.9741   152
11.9841   151
11.9941   164
12.0041   164
12.0141   166
12.0241   163
12.0341   163
12.0441   163
12.0541   166
12.0641   156
12.0741   157
12.0841   152
12.0941   152
12.1041   156
12.1141   165
12.1241   160
12.1341   159
12.1441   160
12.1541   164
12.1641   159
12.1741   150
12.1841   159
12.1941   152
12.2041   162
12.2141   159
12.2241   159
12.2341   165
12.2441   175
12.2541   168
12.2641   154
12.2741   162
12.2841   169
12.2941   161
12.3041   165
12.3141   156
12.3241   161
12.3341   156
12.3441   152
12.3541   165
12.3641   177
12.3741   156
12.3841   148
12.3941   164
12.4041   150
12.4141   140
12.4241   148
12.4341   162
12.4441   153
12.4541   168
12.4641   173
12.4741   155
12.4841   158
12.4941   171
12.5041   164
12.5141   155
12.5241   166
12.5341   166
12.5441   173
12.5541   178
12.5641   178
12.5741   183
12.5841   178
12.5941   177
12.6041   177
12.6141   177
12.6241   176
12.6341   175
12.6441   169
12.6541   168
12.6641   153
12.6741   146
12.6841   175
12.6941   183
12.7041   171
12.7141   173
12.7241   175
12.7341   163
12.7441   171
12.7541   184
12.7641   183
12.7741   180
12.7841   180
12.7941   178
12.8041   173
12.8141   170
12.8241   179
12.8341   189
12.8441   188
12.8541   186
12.8641   185
12.8741   180
12.8841   177
12.8941   177
12.9041   178
12.9141   186
12.9241   197
12.9341   196
12.9441   186
12.9541   185
12.9641   205
12.9741   200
12.9841   180
12.9941   182
13.0041   180
13.0141   178
13.0241   191
13.0341   212
13.0441   222
13.0541   210
13.0641   187
13.0741   191
13.0841   191
13.0941   174
13.1041   188
13.1141   208
13.1241   204
13.1341   206
13.1441   206
13.1541   190
13.1641   200
13.1741   211
13.1841   214
13.1941   210
13.2041   213
13.2141   206
13.2241   225
13.2341   243
13.2441   249
13.2541   275
13.2641   269
13.2741   277
13.2841   287
13.2941   302
13.3041   308
13.3141   276
13.3241   306
13.3341   330
13.3441   305
13.3541   312
13.3641   365
13.3741   373
13.3841   344
13.3941   332
13.4041   330
13.4141   328
13.4241   326
13.4341   328
13.4441   319
13.4541   301
13.4641   295
13.4741   302
13.4841   277
13.4941   265
13.5041   259
13.5141   261
13.5241   249
13.5341   232
13.5441   229
13.5541   230
13.5641   234
13.5741   240
13.5841   233
13.5941   222
13.6041   239
13.6141   245
13.6241   234
13.6341   221
13.6441   202
13.6541   196
13.6641   211
13.6741   223
13.6841   217
13.6941   221
13.7041   222
13.7141   208
13.7241   207
13.7341   224
13.7441   224
13.7541   217
13.7641   219
13.7741   210
13.7841   207
13.7941   239
13.8041   242
13.8141   229
13.8241   232
13.8341   235
13.8441   239
13.8541   231
13.8641   227
13.8741   238
13.8841   243
13.8941   234
13.9041   232
13.9141   239
13.9241   238
13.9341   231
13.9441   240
13.9541   250
13.9641   274
13.9741   273
13.9841   264
13.9941   291
14.0041   310
14.0141   313
14.0241   303
14.0341   324
14.0441   343
14.0541   336
14.0641   343
14.0741   372
14.0841   374
14.0941   359
14.1041   381
14.1141   386
14.1241   409
14.1341   431
14.1441   401
14.1541   404
14.1641   408
14.1741   391
14.1841   410
14.1941   416
14.2041   386
14.2141   353
14.2241   348
14.2341   361
14.2441   351
14.2541   335
14.2641   328
14.2741   311
14.2841   313
14.2941   307
14.3041   295
14.3141   285
14.3241   267
14.3341   260
14.3441   247
14.3541   267
14.3641   269
14.3741   244
14.3841   248
14.3941   258
14.4041   271
14.4141   273
14.4241   266
14.4341   260
14.4441   252
14.4541   261
14.4641   281
14.4741   265
14.4841   260
14.4941   275
14.5041   282
14.5141   278
14.5241   278
14.5341   264
14.5441   247
14.5541   248
14.5641   249
14.5741   249
14.5841   269
14.5941   279
14.6041   263
14.6141   257
14.6241   258
14.6341   269
14.6441   267
14.6541   253
14.6641   249
14.6741   268
14.6841   276
14.6941   265
14.7041   286
14.7141   285
14.7241   271
14.7341   280
14.7441   272
14.7541   278
14.7641   285
14.7741   272
14.7841   292
14.7941   318
14.8041   300
14.8141   287
14.8241   306
14.8341   302
14.8441   291
14.8541   305
14.8641   321
14.8741   306
14.8841   333
14.8941   326
14.9041   328
14.9141   309
14.9241   308
14.9341   314
14.9441   327
14.9541   336
14.9641   333
14.9741   323
14.9841   324
14.9941   329
15.0041   329
15.0141   311
15.0241   319
15.0341   313
15.0441   301
15.0541   305
15.0641   310
15.0741   304
15.0841   295
15.0941   300
15.1041   290
15.1141   306
15.1241   311
15.1341   287
15.1441   300
15.1541   314
15.1641   305
15.1741   308
15.1841   308
15.1941   303
15.2041   302
15.2141   302
15.2241   305
15.2341   292
15.2441   300
15.2541   320
15.2641   299
15.2741   291
15.2841   291
15.2941   280
15.3041   299
15.3141   285
15.3241   286
15.3341   302
15.3441   297
15.3541   306
15.3641   315
15.3741   316
15.3841   342
15.3941   345
15.4041   305
15.4141   294
15.4241   318
15.4341   316
15.4441   314
15.4541   343
15.4641   321
15.4741   307
15.4841   322
15.4941   315
15.5041   319
15.5141   326
15.5241   346
15.5341   346
15.5441   345
15.5541   340
15.5641   354
15.5741   346
15.5841   348
15.5941   349
15.6041   358
15.6141   370
15.6241   363
15.6341   352
15.6441   370
15.6541   374
15.6641   386
15.6741   418
15.6841   421
15.6941   434
15.7041   461
15.7141   471
15.7241   464
15.7341   442
15.7441   461
15.7541   479
15.7641   484
15.7741   455
15.7841   470
15.7941   453
15.8041   461
15.8141   469
15.8241   463
15.8341   440
15.8441   403
15.8541   413
15.8641   420
15.8741   388
15.8841   395
15.8941   407
15.9041   391
15.9141   385
15.9241   379
15.9341   375
15.9441   365
15.9541   379
15.9641   384
15.9741   368
15.9841   356
15.9941   369
16.0041   373
16.0141   355
16.0241   360
16.0341   357
16.0441   365
16.0541   380
16.0641   357
16.0741   344
16.0841   371
16.0941   346
16.1041   353
16.1141   379
16.1241   372
16.1341   331
16.1441   335
16.1541   362
16.1641   368
16.1741   360
16.1841   355
16.1941   362
16.2041   354
16.2141   357
16.2241   352
16.2341   339
16.2441   341
16.2541   354
16.2641   380
16.2741   379
16.2841   357
16.2941   349
16.3041   365
16.3141   371
16.3241   371
16.3341   349
16.3441   365
16.3541   362
16.3641   364
16.3741   375
16.3841   347
16.3941   352
16.4041   353
16.4141   372
16.4241   366
16.4341   366
16.4441   370
16.4541   364
16.4641   372
16.4741   383
16.4841   387
16.4941   378
16.5041   380
16.5141   383
16.5241   388
16.5341   373
16.5441   375
16.5541   369
16.5641   353
16.5741   376
16.5841   394
16.5941   371
16.6041   359
16.6141   363
16.6241   382
16.6341   413
16.6441   409
16.6541   380
16.6641   393
16.6741   398
16.6841   397
16.6941   385
16.7041   380
16.7141   405
16.7241   401
16.7341   370
16.7441   369
16.7541   390
16.7641   390
16.7741   425
16.7841   401
16.7941   389
16.8041   395
16.8141   399
16.8241   411
16.8341   399
16.8441   401
16.8541   396
16.8641   401
16.8741   400
16.8841   404
16.8941   390
16.9041   383
16.9141   375
16.9241   391
16.9341   414
16.9441   432
16.9541   390
16.9641   382
16.9741   411
16.9841   422
16.9941   426
17.0041   407
17.0141   411
17.0241   425
17.0341   419
17.0441   414
17.0541   430
17.0641   423
17.0741   427
17.0841   412
17.0941   414
17.1041   437
17.1141   410
17.1241   403
17.1341   411
17.1441   422
17.1541   436
17.1641   417
17.1741   421
17.1841   415
17.1941   430
17.2041   419
17.2141   426
17.2241   416
17.2341   415
17.2441   441
17.2541   453
17.2641   392
17.2741   406
17.2841   436
17.2941   422
17.3041   415
17.3141   426
17.3241   443
17.3341   435
17.3441   437
17.3541   440
17.3641   442
17.3741   422
17.3841   442
17.3941   429
17.4041   435
17.4141   423
17.4241   428
17.4341   447
17.4441   418
17.4541   417
17.4641   448
17.4741   450
17.4841   448
17.4941   467
17.5041   433
17.5141   449
17.5241   442
17.5341   431
17.5441   465
17.5541   426
17.5641   395
17.5741   440
17.5841   437
17.5941   469
17.6041   472
17.6141   476
17.6241   485
17.6341   490
17.6441   491
17.6541   516
17.6641   479
17.6741   474
17.6841   476
17.6941   459
17.7041   460
17.7141   476
17.7241   476
17.7341   458
17.7441   466
17.7541   450
17.7641   491
17.7741   473
17.7841   455
17.7941   450
17.8041   470
17.8141   454
17.8241   453
17.8341   457
17.8441   429
17.8541   439
17.8641   450
17.8741   434
17.8841   475
17.8941   445
17.9041   446
17.9141   488
17.9241   482
17.9341   454
17.9441   455
17.9541   467
17.9641   457
17.9741   497
17.9841   473
17.9941   443
18.0041   446
18.0141   463
18.0241   460
18.0341   471
18.0441   487
18.0541   473
18.0641   481
18.0741   468
18.0841   446
18.0941   427
18.1041   461
18.1141   482
18.1241   458
18.1341   458
18.1441   495
18.1541   461
18.1641   472
18.1741   496
18.1841   504
18.1941   484
18.2041   488
18.2141   474
18.2241   490
18.2341   507
18.2441   491
18.2541   488
18.2641   523
18.2741   489
18.2841   505
18.2941   502
18.3041   498
18.3141   534
18.3241   487
18.3341   482
18.3441   476
18.3541   462
18.3641   485
18.3741   512
18.3841   510
18.3941   492
18.4041   472
18.4141   478
18.4241   488
18.4341   504
18.4441   516
18.4541   535
18.4641   460
18.4741   496
18.4841   502
18.4941   471
18.5041   488
18.5141   459
18.5241   457
18.5341   455
18.5441   494
18.5541   517
18.5641   488
18.5741   481
18.5841   490
18.5941   499
18.6041   491
18.6141   514
18.6241   503
18.6341   505
18.6441   491
18.6541   490
18.6641   483
18.6741   514
18.6841   529
18.6941   516
18.7041   521
18.7141   483
18.7241   468
18.7341   465
18.7441   512
18.7541   518
18.7641   497
18.7741   519
18.7841   500
18.7941   524
18.8041   522
18.8141   486
18.8241   499
18.8341   511
18.8441   491
18.8541   508
18.8641   522
18.8741   539
18.8841   528
18.8941   517
18.9041   506
18.9141   574
18.9241   523
18.9341   504
18.9441   531
18.9541   539
18.9641   523
18.9741   523
18.9841   525
18.9941   535
19.0041   499
19.0141   520
19.0241   497
19.0341   519
19.0441   510
19.0541   500
19.0641   518
19.0741   538
19.0841   549
19.0941   533
19.1041   512
19.1141   523
19.1241   499
19.1341   512
19.1441   551
19.1541   550
19.1641   522
19.1741   518
19.1841   525
19.1941   556
19.2041   547
19.2141   530
19.2241   551
19.2341   553
19.2441   536
19.2541   548
19.2641   565
19.2741   536
19.2841   546
19.2941   521
19.3041   524
19.3141   540
19.3241   533
19.3341   542
19.3441   553
19.3541   521
19.3641   515
19.3741   512
19.3841   517
19.3941   538
19.4041   548
19.4141   529
19.4241   554
19.4341   532
19.4441   561
19.4541   542
19.4641   534
19.4741   543
19.4841   529
19.4941   521
19.5041   516
19.5141   518
19.5241   511
19.5341   530
19.5441   530
19.5541   547
19.5641   535
19.5741   521
19.5841   537
19.5941   569
19.6041   542
19.6141   518
19.6241   545
19.6341   529
19.6441   544
19.6541   521
19.6641   527
19.6741   524
19.6841   531
19.6941   521
19.7041   560
19.7141   551
19.7241   557
19.7341   574
19.7441   531
19.7541   530
19.7641   541
19.7741   542
19.7841   535
19.7941   536
19.8041   560
19.8141   537
19.8241   520
19.8341   557
19.8441   541
19.8541   551
19.8641   540
19.8741   543
19.8841   552
19.8941   558
19.9041   537
19.9141   544
19.9241   527
19.9341   541
19.9441   538
19.9541   566
19.9641   554
19.9741   549
19.9841   521
19.9941   561
20.0041   556
20.0141   555
20.0241   537
20.0341   585
20.0441   563
20.0541   558
20.0641   563
20.0741   569
20.0841   554
20.0941   546
20.1041   522
20.1141   554
20.1241   548
20.1341   533
20.1441   566
20.1541   560
20.1641   612
20.1741   563
20.1841   544
20.1941   570
20.2041   553
20.2141   576
20.2241   561
20.2341   562
20.2441   566
20.2541   579
20.2641   545
20.2741   554
20.2841   571
20.2941   567
20.3041   560
20.3141   549
20.3241   564
20.3341   551
20.3441   536
20.3541   538
20.3641   564
20.3741   568
20.3841   543
20.3941   596
20.4041   574
20.4141   566
20.4241   587
20.4341   541
20.4441   545
20.4541   577
20.4641   560
20.4741   560
20.4841   579
20.4941   558
20.5041   541
20.5141   604
20.5241   597
20.5341   559
20.5441   584
20.5541   544
20.5641   578
20.5741   607
20.5841   558
20.5941   555
20.6041   572
20.6141   592
20.6241   582
20.6341   558
20.6441   555
20.6541   547
20.6641   546
20.6741   572
20.6841   554
20.6941   556
20.7041   613
20.7141   605
20.7241   581
20.7341   565
20.7441   591
20.7541   612
20.7641   592
20.7741   553
20.7841   572
20.7941   597
20.8041   592
20.8141   570
20.8241   598
20.8341   604
20.8441   641
20.8541   556
20.8641   604
20.8741   622
20.8841   636
20.8941   619
20.9041   623
20.9141   633
20.9241   651
20.9341   707
20.9441   669
20.9541   699
20.9641   710
20.9741   718
20.9841   736
20.9941   736
21.0041   814
21.0141   797
21.0241   743
21.0341   827
21.0441   791
21.0541   817
21.0641   846
21.0741   787
21.0841   858
21.0941   868
21.1041   873
21.1141   846
21.1241   871
21.1341   833
21.1441   866
21.1541   863
21.1641   830
21.1741   833
21.1841   850
21.1941   810
21.2041   812
21.2141   829
21.2241   826
21.2341   772
21.2441   764
21.2541   770
21.2641   758
21.2741   738
21.2841   697
21.2941   741
21.3041   690
21.3141   615
21.3241   661
21.3341   660
21.3441   655
21.3541   600
21.3641   597
21.3741   625
21.3841   606
21.3941   612
21.4041   583
21.4141   615
21.4241   580
21.4341   583
21.4441   591
21.4541   598
21.4641   574
21.4741   546
21.4841   575
21.4941   558
21.5041   584
21.5141   579
21.5241   570
21.5341   574
21.5441   591
21.5541   525
21.5641   557
21.5741   577
21.5841   542
21.5941   584
21.6041   594
21.6141   568
21.6241   572
21.6341   530
21.6441   540
21.6541   599
21.6641   540
21.6741   578
21.6841   581
21.6941   582
21.7041   568
21.7141   583
21.7241   551
21.7341   575
21.7441   541
21.7541   558
21.7641   569
21.7741   568
21.7841   537
21.7941   546
21.8041   584
21.8141   547
21.8241   563
21.8341   603
21.8441   570
21.8541   566
21.8641   563
21.8741   575
21.8841   554
21.8941   552
21.9041   564
21.9141   582
21.9241   610
21.9341   569
21.9441   555
21.9541   594
21.9641   589
21.9741   568
21.9841   573
21.9941   566
22.0041   570
22.0141   572
22.0241   533
22.0341   566
22.0441   532
22.0541   588
22.0641   616
22.0741   561
22.0841   600
22.0941   583
22.1041   545
22.1141   582
22.1241   553
22.1341   573
22.1441   583
22.1541   559
22.1641   587
22.1741   551
22.1841   544
22.1941   551
22.2041   602
22.2141   574
22.2241   557
22.2341   601
22.2441   586
22.2541   570
22.2641   542
22.2741   568
22.2841   604
22.2941   559
22.3041   551
22.3141   596
22.3241   597
22.3341   523
22.3441   580
22.3541   568
22.3641   560
22.3741   553
22.3841   573
22.3941   578
22.4041   560
22.4141   530
22.4241   561
22.4341   587
22.4441   583
22.4541   580
22.4641   550
22.4741   590
22.4841   576
22.4941   578
22.5041   586
22.5141   602
22.5241   569
22.5341   531
22.5441   524
22.5541   551
22.5641   529
22.5741   568
22.5841   562
22.5941   572
22.6041   560
22.6141   583
22.6241   574
22.6341   551
22.6441   548
22.6541   559
22.6641   536
22.6741   548
22.6841   558
22.6941   547
22.7041   574
22.7141   581
22.7241   550
22.7341   511
22.7441   513
22.7541   594
22.7641   518
22.7741   602
22.7841   572
22.7941   570
22.8041   631
22.8141   545
22.8241   605
22.8341   541
22.8441   560
22.8541   535
22.8641   573
22.8741   570
22.8841   572
22.8941   566
22.9041   551
22.9141   588
22.9241   560
22.9341   571
22.9441   563
22.9541   528
22.9641   608
22.9741   552
22.9841   578
22.9941   600
23.0041   532
23.0141   521
23.0241   596
23.0341   534
23.0441   529
23.0541   532
23.0641   544
23.0741   533
23.0841   529
23.0941   589
23.1041   596
23.1141   533
23.1241   544
23.1341   547
23.1441   568
23.1541   568
23.1641   547
23.1741   517
23.1841   566
23.1941   518
23.2041   561
23.2141   541
23.2241   558
23.2341   537
23.2441   549
23.2541   533
23.2641   560
23.2741   555
23.2841   511
23.2941   559
23.3041   533
23.3141   552
23.3241   585
23.3341   559
23.3441   538
23.3541   550
23.3641   538
23.3741   575
23.3841   548
23.3941   482
23.4041   513
23.4141   558
23.4241   535
23.4341   539
23.4441   556
23.4541   529
23.4641   565
23.4741   582
23.4841   559
23.4941   539
23.5041   556
23.5141   563
23.5241   563
23.5341   547
23.5441   546
23.5541   477
23.5641   540
23.5741   557
23.5841   566
23.5941   602
23.6041   604
23.6141   507
23.6241   557
23.6341   549
23.6441   562
23.6541   550
23.6641   542
23.6741   560
23.6841   586
23.6941   519
23.7041   578
23.7141   596
23.7241   576
23.7341   602
23.7441   598
23.7541   560
23.7641   607
23.7741   576
23.7841   548
23.7941   577
23.8041   585
23.8141   592
23.8241   567
23.8341   554
23.8441   622
23.8541   598
23.8641   590
23.8741   528
23.8841   506
23.8941   549
23.9041   566
23.9141   572
23.9241   551
23.9341   566
23.9441   586
23.9541   581
23.9641   538
23.9741   522
23.9841   519
23.9941   513
24.0041   525
24.0141   535
24.0241   516
24.0341   549
24.0441   512
24.0541   556
24.0641   509
24.0741   538
24.0841   528
24.0941   510
24.1041   517
24.1141   548
24.1241   563
24.1341   536
24.1441   548
24.1541   538
24.1641   511
24.1741   519
24.1841   502
24.1941   513
24.2041   509
24.2141   528
24.2241   526
24.2341   537
24.2441   529
24.2541   512
24.2641   553
24.2741   514
24.2841   537
24.2941   549
24.3041   539
24.3141   515
24.3241   558
24.3341   508
24.3441   514
24.3541   532
24.3641   551
24.3741   531
24.3841   498
24.3941   538
24.4041   539
24.4141   535
24.4241   511
24.4341   483
24.4441   507
24.4541   478
24.4641   533
24.4741   476
24.4841   545
24.4941   524
24.5041   485
24.5141   515
24.5241   530
24.5341   493
24.5441   510
24.5541   539
24.5641   500
24.5741   535
24.5841   514
24.5941   517
24.6041   545
24.6141   490
24.6241   487
24.6341   474
24.6441   534
24.6541   503
24.6641   518
24.6741   487
24.6841   491
24.6941   543
24.7041   509
24.7141   513
24.7241   513
24.7341   502
24.7441   489
24.7541   506
24.7641   463
24.7741   544
24.7841   496
24.7941   517
24.8041   507
24.8141   499
24.8241   511
24.8341   541
24.8441   515
24.8541   484
24.8641   475
24.8741   527
24.8841   480
24.8941   513
24.9041   474
24.9141   488
24.9241   497
24.9341   525
24.9441   499
24.9541   520
24.9641   501
24.9741   503
24.9841   510
24.9941   521
25.0041   513
25.0141   495
25.0241   514
25.0341   479
25.0441   469
25.0541   493
25.0641   461
25.0741   485
25.0841   505
25.0941   526
25.1041   506
25.1141   506
25.1241   484
25.1341   504
25.1441   497
25.1541   511
25.1641   504
25.1741   502
25.1841   529
25.1941   488
25.2041   506
25.2141   514
25.2241   461
25.2341   490
25.2441   531
25.2541   509
25.2641   476
25.2741   505
25.2841   499
25.2941   519
25.3041   496
25.3141   508
25.3241   485
25.3341   483
25.3441   496
25.3541   518
25.3641   539
25.3741   496
25.3841   522
25.3941   483
25.4041   492
25.4141   479
25.4241   471
25.4341   475
25.4441   472
25.4541   468
25.4641   458
25.4741   457
25.4841   466
25.4941   483
25.5041   470
25.5141   446
25.5241   442
25.5341   465
25.5441   464
25.5541   476
25.5641   497
25.5741   474
25.5841   521
25.5941   485
25.6041   437
25.6141   447
25.6241   453
25.6341   454
25.6441   465
25.6541   477
25.6641   476
25.6741   447
25.6841   443
25.6941   477
25.7041   450
25.7141   469
25.7241   480
25.7341   440
25.7441   458
25.7541   437
25.7641   478
25.7741   470
25.7841   446
25.7941   456
25.8041   500
25.8141   471
25.8241   465
25.8341   464
25.8441   466
25.8541   468
25.8641   440
25.8741   471
25.8841   490
25.8941   450
25.9041   431
25.9141   465
25.9241   448
25.9341   453
25.9441   442
25.9541   465
25.9641   491
25.9741   449
25.9841   461
25.9941   455
26.0041   476
26.0141   456
26.0241   455
26.0341   432
26.0441   462
26.0541   499
26.0641   453
26.0741   402
26.0841   441
26.0941   436
26.1041   439
26.1141   461
26.1241   463
26.1341   444
26.1441   461
26.1541   430
26.1641   454
26.1741   470
26.1841   461
26.1941   452
26.2041   463
26.2141   416
26.2241   437
26.2341   445
26.2441   468
26.2541   462
26.2641   463
26.2741   476
26.2841   455
26.2941   456
26.3041   456
26.3141   442
26.3241   459
26.3341   433
26.3441   443
26.3541   449
26.3641   432
26.3741   460
26.3841   407
26.3941   442
26.4041   437
26.4141   446
26.4241   390
26.4341   412
26.4441   438
26.4541   478
26.4641   458
26.4741   451
26.4841   453
26.4941   432
26.5041   450
26.5141   409
26.5241   401
26.5341   423
26.5441   430
26.5541   416
26.5641   424
26.5741   425
26.5841   377
26.5941   449
26.6041   416
26.6141   438
26.6241   458
26.6341   425
26.6441   425
26.6541   424
26.6641   440
26.6741   441
26.6841   421
26.6941   405
26.7041   422
26.7141   428
26.7241   472
26.7341   433
26.7441   446
26.7541   384
26.7641   435
26.7741   399
26.7841   409
26.7941   421
26.8041   413
26.8141   442
26.8241   416
26.8341   435
26.8441   435
26.8541   420
26.8641   423
26.8741   413
26.8841   414
26.8941   398
26.9041   408
26.9141   422
26.9241   409
26.9341   389
26.9441   394
26.9541   416
26.9641   377
26.9741   387
26.9841   400
26.9941   437
27.0041   424
27.0141   435
27.0241   394
27.0341   411
27.0441   438
27.0541   413
27.0641   400
27.0741   389
27.0841   423
27.0941   463
27.1041   417
27.1141   405
27.1241   422
27.1341   393
27.1441   403
27.1541   426
27.1641   411
27.1741   412
27.1841   386
27.1941   373
27.2041   411
27.2141   403
27.2241   389
27.2341   387
27.2441   374
27.2541   433
27.2641   403
27.2741   388
27.2841   412
27.2941   369
27.3041   395
27.3141   415
27.3241   399
27.3341   414
27.3441   402
27.3541   391
27.3641   380
27.3741   405
27.3841   411
27.3941   399
27.4041   382
27.4141   392
27.4241   383
27.4341   398
27.4441   399
27.4541   391
27.4641   381
27.4741   433
27.4841   375
27.4941   397
27.5041   416
27.5141   401
27.5241   388
27.5341   364
27.5441   394
27.5541   378
27.5641   377
27.5741   370
27.5841   372
27.5941   385
27.6041   390
27.6141   393
27.6241   378
27.6341   378
27.6441   355
27.6541   406
27.6641   352
27.6741   398
27.6841   385
27.6941   378
27.7041   365
27.7141   368
27.7241   347
27.7341   388
27.7441   379
27.7541   402
27.7641   387
27.7741   368
27.7841   366
27.7941   358
27.8041   362
27.8141   415
27.8241   352
27.8341   393
27.8441   355
27.8541   384
27.8641   386
27.8741   378
27.8841   359
27.8941   390
27.9041   345
27.9141   342
27.9241   365
27.9341   373
27.9441   372
27.9541   336
27.9641   399
27.9741   370
27.9841   334
27.9941   343
28.0041   349
28.0141   353
28.0241   370
28.0341   348
28.0441   369
28.0541   365
28.0641   405
28.0741   354
28.0841   358
28.0941   387
28.1041   332
28.1141   348
28.1241   381
28.1341   340
28.1441   358
28.1541   322
28.1641   352
28.1741   374
28.1841   394
28.1941   386
28.2041   352
28.2141   383
28.2241   376
28.2341   356
28.2441   348
28.2541   350
28.2641   355
28.2741   399
28.2841   343
28.2941   317
28.3041   355
28.3141   356
28.3241   305
28.3341   371
28.3441   353
28.3541   350
28.3641   359
28.3741   324
28.3841   350
28.3941   336
28.4041   346
28.4141   372
28.4241   334
28.4341   325
28.4441   329
28.4541   363
28.4641   354
28.4741   361
28.4841   366
28.4941   357
28.5041   362
28.5141   342
28.5241   331
28.5341   350
28.5441   352
28.5541   344
28.5641   341
28.5741   363
28.5841   345
28.5941   355
28.6041   356
28.6141   352
28.6241   345
28.6341   364
28.6441   348
28.6541   325
28.6641   373
28.6741   328
28.6841   358
28.6941   353
28.7041   365
28.7141   372
28.7241   342
28.7341   342
28.7441   348
28.7541   343
28.7641   303
28.7741   359
28.7841   339
28.7941   329
28.8041   345
28.8141   329
28.8241   329
28.8341   341
28.8441   336
28.8541   328
28.8641   322
28.8741   328
28.8841   331
28.8941   342
28.9041   346
28.9141   331
28.9241   321
28.9341   316
28.9441   330
28.9541   321
28.9641   349
28.9741   328
28.9841   326
28.9941   335
29.0041   349
29.0141   335
29.0241   326
29.0341   354
29.0441   349
29.0541   327
29.0641   328
29.0741   310
29.0841   355
29.0941   330
29.1041   331
29.1141   334
29.1241   325
29.1341   338
29.1441   315
29.1541   322
29.1641   294
29.1741   303
29.1841   328
29.1941   316
29.2041   306
29.2141   317
29.2241   318
29.2341   317
29.2441   324
29.2541   294
29.2641   283
29.2741   316
29.2841   301
29.2941   291
29.3041   286
29.3141   299
29.3241   296
29.3341   335
29.3441   301
29.3541   311
29.3641   292
29.3741   312
29.3841   328
29.3941   291
29.4041   319
29.4141   298
29.4241   289
29.4341   287
29.4441   318
29.4541   304
29.4641   305
29.4741   322
29.4841   312
29.4941   329
29.5041   316
29.5141   317
29.5241   301
29.5341   315
29.5441   297
29.5541   311
29.5641   297
29.5741   315
29.5841   304
29.5941   313
29.6041   311
29.6141   292
29.6241   281
29.6341   275
29.6441   297
29.6541   285
29.6641   296
29.6741   293
29.6841   275
29.6941   286
29.7041   283
29.7141   284
29.7241   266
29.7341   282
29.7441   287
29.7541   292
29.7641   312
29.7741   297
29.7841   307
29.7941   277
29.8041   264
29.8141   319
29.8241   282
29.8341   273
29.8441   275
29.8541   285
29.8641   306
29.8741   300
29.8841   313
29.8941   268
29.9041   265
29.9141   251
29.9241   266
29.9341   298
29.9441   292
29.9541   287
29.9641   289
29.9741   288
29.9841   277
29.9941   278
30.0041   276
30.0141   269
30.0241   283
30.0341   293
30.0441   281
30.0541   259
30.0641   267
30.0741   238
30.0841   283
30.0941   285
30.1041   285
30.1141   283
30.1241   261
30.1341   291
30.1441   263
30.1541   276
30.1641   259
30.1741   284
30.1841   274
30.1941   295
30.2041   311
30.2141   282
30.2241   248
30.2341   270
30.2441   276
30.2541   280
30.2641   288
30.2741   276
30.2841   279
30.2941   263
30.3041   271
30.3141   239
30.3241   237
30.3341   255
30.3441   236
30.3541   287
30.3641   278
30.3741   275
30.3841   281
30.3941   278
30.4041   290
30.4141   258
30.4241   275
30.4341   238
30.4441   274
30.4541   256
30.4641   256
30.4741   274
30.4841   272
30.4941   260
30.5041   264
30.5141   260
30.5241   259
30.5341   254
30.5441   279
30.5541   236
30.5641   283
30.5741   273
30.5841   246
30.5941   250
30.6041   280
30.6141   243
30.6241   256
30.6341   264
30.6441   260
30.6541   242
30.6641   258
30.6741   262
30.6841   233
30.6941   252
30.7041   252
30.7141   269
30.7241   250
30.7341   259
30.7441   234
30.7541   260
30.7641   268
30.7741   264
30.7841   247
30.7941   252
30.8041   256
30.8141   253
30.8241   228
30.8341   253
30.8441   241
30.8541   271
30.8641   247
30.8741   249
30.8841   241
30.8941   228
30.9041   253
30.9141   218
30.9241   253
30.9341   245
30.9441   259
30.9541   250
30.9641   228
30.9741   243
30.9841   224
30.9941   246
31.0041   239
31.0141   269
31.0241   219
31.0341   248
31.0441   237
31.0541   251
31.0641   247
31.0741   242
31.0841   217
31.0941   248
31.1041   225
31.1141   242
31.1241   246
31.1341   230
31.1441   221
31.1541   240
31.1641   233
31.1741   227
31.1841   225
31.1941   213
31.2041   211
31.2141   243
31.2241   222
31.2341   225
31.2441   228
31.2541   228
31.2641   244
31.2741   236
31.2841   228
31.2941   273
31.3041   241
31.3141   249
31.3241   214
31.3341   262
31.3441   201
31.3541   214
31.3641   245
31.3741   230
31.3841   229
31.3941   209
31.4041   257
31.4141   210
31.4241   237
31.4341   239
31.4441   235
31.4541   246
31.4641   247
31.4741   234
31.4841   225
31.4941   192
31.5041   222
31.5141   217
31.5241   246
31.5341   203
31.5441   223
31.5541   249
31.5641   217
31.5741   233
31.5841   230
31.5941   252
31.6041   260
31.6141   219
31.6241   227
31.6341   243
31.6441   255
31.6541   240
31.6641   200
31.6741   229
31.6841   245
31.6941   241
31.7041   237
31.7141   230
31.7241   231
31.7341   229
31.7441   251
31.7541   250
31.7641   218
31.7741   222
31.7841   236
31.7941   218
31.8041   213
31.8141   231
31.8241   267
31.8341   252
31.8441   203
31.8541   209
31.8641   208
31.8741   238
31.8841   221
31.8941   197
31.9041   223
31.9141   209
31.9241   226
31.9341   217
31.9441   218
31.9541   215
31.9641   223
31.9741   213
31.9841   211
31.9941   203
32.0041   220
32.0141   233
32.0241   227
32.0341   228
32.0441   228
32.0541   214
32.0641   257
32.0741   206
32.0841   210
32.0941   204
32.1041   202
32.1141   224
32.1241   243
32.1341   254
32.1441   247
32.1541   214
32.1641   228
32.1741   222
32.1841   213
32.1941   248
32.2041   247
32.2141   240
32.2241   215
32.2341   225
32.2441   238
32.2541   210
32.2641   218
32.2741   193
32.2841   195
32.2941   210
32.3041   235
32.3141   213
32.3241   218
32.3341   232
32.3441   198
32.3541   211
32.3641   233
32.3741   200
32.3841   210
32.3941   214
32.4041   199
32.4141   191
32.4241   182
32.4341   203
32.4441   181
32.4541   208
32.4641   190
32.4741   195
32.4841   198
32.4941   180
32.5041   159
32.5141   198
32.5241   180
32.5341   194
32.5441   170
32.5541   197
32.5641   171
32.5741   185
32.5841   178
32.5941   190
32.6041   182
32.6141   177
32.6241   172
32.6341   160
32.6441   188
32.6541   208
32.6641   188
32.6741   201
32.6841   183
32.6941   177
32.7041   191
32.7141   194
32.7241   193
32.7341   170
32.7441   200
32.7541   190
32.7641   194
32.7741   185
32.7841   171
32.7941   188
32.8041   200
32.8141   200
32.8241   187
32.8341   177
32.8441   183
32.8541   180
32.8641   181
32.8741   169
32.8841   180
32.8941   177
32.9041   158
32.9141   181
32.9241   186
32.9341   180
32.9441   173
32.9541   175
32.9641   173
32.9741   180
32.9841   186
32.9941   161
33.0041   162
33.0141   189
33.0241   184
33.0341   158
33.0441   175
33.0541   167
33.0641   157
33.0741   195
33.0841   180
33.0941   158
33.1041   183
33.1141   172
33.1241   153
33.1341   183
33.1441   174
33.1541   173
33.1641   156
33.1741   153
33.1841   171
33.1941   190
33.2041   166
33.2141   160
33.2241   170
33.2341   167
33.2441   160
33.2541   165
33.2641   187
33.2741   154
33.2841   188
33.2941   165
33.3041   158
33.3141   178
33.3241   187
33.3341   161
33.3441   159
33.3541   165
33.3641   178
33.3741   163
33.3841   186
33.3941   159
33.4041   149
33.4141   172
33.4241   146
33.4341   164
33.4441   168
33.4541   167
33.4641   143
33.4741   155
33.4841   174
33.4941   161
33.5041   137
33.5141   169
33.5241   172
33.5341   160
33.5441   165
33.5541   171
33.5641   165
33.5741   158
33.5841   139
33.5941   161
33.6041   153
33.6141   155
33.6241   186
33.6341   158
33.6441   126
33.6541   170
33.6641   156
33.6741   153
33.6841   163
33.6941   153
33.7041   149
33.7141   148
33.7241   135
33.7341   134
33.7441   142
33.7541   143
33.7641   147
33.7741   154
33.7841   147
33.7941   167
33.8041   163
33.8141   140
33.8241   141
33.8341   165
33.8441   171
33.8541   157
33.8641   148
33.8741   130
33.8841   132
33.8941   136
33.9041   136
33.9141   135
33.9241   159
33.9341   156
33.9441   121
33.9541   157
33.9641   140
33.9741   171
33.9841   150
33.9941   147
34.0041   125
34.0141   134
34.0241   143
34.0341   144
34.0441   129
34.0541   148
34.0641   163
34.0741   149
34.0841   153
34.0941   147
34.1041   165
34.1141   144
34.1241   131
34.1341   136
34.1441   130
34.1541   134
34.1641   153
34.1741   161
34.1841   141
34.1941   132
34.2041   121
34.2141   145
34.2241   146
34.2341   138
34.2441   137
34.2541   126
34.2641   142
34.2741   124
34.2841   123
34.2941   143
34.3041   140
34.3141   143
34.3241   138
34.3341   141
34.3441   145
34.3541   137
34.3641   129
34.3741   156
34.3841   130
34.3941   129
34.4041   135
34.4141   130
34.4241   130
34.4341   132
34.4441   113
34.4541   128
34.4641   131
34.4741   125
34.4841   137
34.4941   141
34.5041   136
34.5141   116
34.5241   127
34.5341   138
34.5441   131
34.5541   124
34.5641   121
34.5741   107
34.5841   140
34.5941   147
34.6041   120
34.6141   130
34.6241   125
34.6341   142
34.6441   128
34.6541   154
34.6641   131
34.6741   137
34.6841   147
34.6941   135
34.7041   141
34.7141   135
34.7241   135
34.7341   122
34.7441   120
34.7541   117
34.7641   134
34.7741   134
34.7841   114
34.7941   123
34.8041   123
34.8141   127
34.8241   133
34.8341   125
34.8441   132
34.8541   111
34.8641   110
34.8741   112
34.8841   133
34.8941   128
34.9041   105
34.9141   124
34.9241   109
34.9341   139
34.9441   114
34.9541   126
34.9641   120
34.9741   114
34.9841   142
34.9941   119
35.0041   120
35.0141   105
35.0241   115
35.0341   123
35.0441   117
35.0541   114
35.0641   111
35.0741   128
35.0841   114
35.0941   126
35.1041   127
35.1141   140
35.1241   102
35.1341   107
35.1441   119
35.1541   125
35.1641   129
35.1741   129
35.1841   117
35.1941   108
35.2041   113
35.2141   124
35.2241   123
35.2341   119
35.2441   129
35.2541   100
35.2641   114
35.2741   119
35.2841   109
35.2941   114
35.3041   118
35.3141    98
35.3241   118
35.3341   100
35.3441   108
35.3541   114
35.3641   115
35.3741   118
35.3841   110
35.3941   111
35.4041   116
35.4141   102
35.4241   108
35.4341   114
35.4441   117
35.4541   105
35.4641   107
35.4741   110
35.4841   111
35.4941   121
35.5041   114
35.5141   101
35.5241   107
35.5341   107
35.5441    99
35.5541   103
35.5641   105
35.5741   104
35.5841   101
35.5941   102
35.6041   113
35.6141   114
35.6241    91
35.6341   101
35.6441    95
35.6541   110
35.6641   101
35.6741   103
35.6841   110
35.6941    98
35.7041   111
35.7141   115
35.7241    99
35.7341    91
35.7441    96
35.7541    97
35.7641   111
35.7741   105
35.7841   113
35.7941   105
35.8041    92
35.8141   107
35.8241   105
35.8341   102
35.8441   102
35.8541   104
35.8641   108
35.8741    96
35.8841    84
35.8941   102
35.9041   102
35.9141   105
35.9241   104
35.9341    88
35.9441    92
35.9541   113
35.9641   101
35.9741    94
35.9841    96
35.9941    74
36.0041    77
36.0141   110
36.0241   107
36.0341    78
36.0441    96
36.0541   107
36.0641   105
36.0741   104
36.0841   107
36.0941    90
36.1041    81
36.1141   101
36.1241    85
36.1341   102
36.1441   105
36.1541    93
36.1641    90
36.1741    95
36.1841    97
36.1941    87
36.2041   100
36.2141   102
36.2241    85
36.2341    83
36.2441    98
36.2541    87
36.2641    97
36.2741   100
36.2841    96
36.2941    92
36.3041   110
36.3141    95
36.3241    92
36.3341    95
36.3441   102
36.3541    88
36.3641    96
36.3741    85
36.3841   102
36.3941   118
36.4041   109
36.4141    92
36.4241   100
36.4341    82
36.4441    89
36.4541    99
36.4641    83
36.4741    97
36.4841    93
36.4941    91
36.5041    87
36.5141    83
36.5241   103
36.5341   109
36.5441    91
36.5541    95
36.5641    66
36.5741    85
36.5841    86
36.5941    85
36.6041    78
36.6141    96
36.6241    90
36.6341    78
36.6441    74
36.6541    79
36.6641    86
36.6741    76
36.6841    84
36.6941    74
36.7041    89
36.7141    85
36.7241    85
36.7341    92
36.7441    73
36.7541    79
36.7641    86
36.7741    73
36.7841    90
36.7941    77
36.8041    81
36.8141    77
36.8241    77
36.8341    71
36.8441    93
36.8541    95
36.8641    72
36.8741    69
36.8841    96
36.8941    64
36.9041    72
36.9141    91
36.9241    77
36.9341    79
36.9441    85
36.9541    84
36.9641    80
36.9741    79
36.9841    79
36.9941    67
37.0041    63
37.0141    68
37.0241    77
37.0341    72
37.0441    75
37.0541    74
37.0641    76
37.0741    80
37.0841    79
37.0941    82
37.1041    73
37.1141    92
37.1241    82
37.1341    74
37.1441    80
37.1541    66
37.1641    70
37.1741    77
37.1841    71
37.1941    75
37.2041    70
37.2141    82
37.2241    68
37.2341    66
37.2441    71
37.2541    91
37.2641    73
37.2741    83
37.2841    68
37.2941    81
37.3041    73
37.3141    72
37.3241    72
37.3341    77
37.3441    73
37.3541    71
37.3641    55
37.3741    59
37.3841    82
37.3941    51
37.4041    69
37.4141    70
37.4241    66
37.4341    53
37.4441    58
37.4541    81
37.4641    54
37.4741    65
37.4841    73
37.4941    66
37.5041    59
37.5141    70
37.5241    66
37.5341    67
37.5441    47
37.5541    73
37.5641    62
37.5741    78
37.5841    73
37.5941    61
37.6041    46
37.6141    71
37.6241    58
37.6341    68
37.6441    68
37.6541    65
37.6641    68
37.6741    68
37.6841    64
37.6941    70
37.7041    72
37.7141    55
37.7241    51
37.7341    71
37.7441    66
37.7541    60
37.7641    66
37.7741    62
37.7841    75
37.7941    65
37.8041    55
37.8141    51
37.8241    56
37.8341    59
37.8441    58
37.8541    48
37.8641    58
37.8741    66
37.8841    74
37.8941    65
37.9041    50
37.9141    47
37.9241    61
37.9341    62
37.9441    63
37.9541    55
37.9641    65
37.9741    72
37.9841    64
37.9941    67
38.0041    62
38.0141    61
38.0241    56
38.0341    57
38.0441    61
38.0541    64
38.0641    77
38.0741    65
38.0841    49
38.0941    54
38.1041    65
38.1141    56
38.1241    51
38.1341    56
38.1441    49
38.1541    69
38.1641    58
38.1741    60
38.1841    54
38.1941    58
38.2041    44
38.2141    56
38.2241    59
38.2341    54
38.2441    57
38.2541    53
38.2641    54
38.2741    61
38.2841    61
38.2941    55
38.3041    46
38.3141    51
38.3241    49
38.3341    63
38.3441    72
38.3541    55
38.3641    46
38.3741    49
38.3841    45
38.3941    62
38.4041    65
38.4141    46
38.4241    53
38.4341    33
38.4441    43
38.4541    56
38.4641    50
38.4741    46
38.4841    39
38.4941    60
38.5041    37
38.5141    48
38.5241    50
38.5341    61
38.5441    51
38.5541    44
38.5641    45
38.5741    41
38.5841    42
38.5941    51
38.6041    53
38.6141    53
38.6241    54
38.6341    50
38.6441    48
38.6541    43
38.6641    45
38.6741    46
38.6841    67
38.6941    44
38.7041    43
38.7141    52
38.7241    41
38.7341    56
38.7441    52
38.7541    54
38.7641    47
38.7741    38
38.7841    42
38.7941    45
38.8041    41
38.8141    45
38.8241    50
38.8341    53
38.8441    39
38.8541    41
38.8641    34
38.8741    44
38.8841    52
38.8941    41
38.9041    54
38.9141    44
38.9241    57
38.9341    46
38.9441    40
38.9541    51
38.9641    37
38.9741    45
38.9841    55
38.9941    37
39.0041    51
39.0141    33
39.0241    44
39.0341    38
39.0441    48
39.0541    44
39.0641    49
39.0741    53
39.0841    40
39.0941    43
39.1041    52
39.1141    46
39.1241    45
39.1341    46
39.1441    39
39.1541    52
39.1641    34
39.1741    53
39.1841    45
39.1941    47
39.2041    44
39.2141    31
39.2241    38
39.2341    42
39.2441    45
39.2541    53
39.2641    37
39.2741    49
39.2841    32
39.2941    34
39.3041    46
39.3141    40
39.3241    31
39.3341    38
39.3441    33
39.3541    36
39.3641    48
39.3741    47
39.3841    35
39.3941    33
39.4041    38
39.4141    35
39.4241    34
39.4341    37
39.4441    48
39.4541    47
39.4641    40
39.4741    33
39.4841    35
39.4941    33
39.5041    32
39.5141    39
39.5241    28
39.5341    43
39.5441    47
39.5541    37
39.5641    34
39.5741    32
39.5841    39
39.5941    30
39.6041    38
39.6141    36
39.6241    33
39.6341    36
39.6441    38
39.6541    43
39.6641    49
39.6741    28
39.6841    46
39.6941    29
39.7041    32
39.7141    47
39.7241    35
39.7341    34
39.7441    43
39.7541    46
39.7641    40
39.7741    34
39.7841    33
39.7941    29
39.8041    34
39.8141    40
39.8241    43
39.8341    32
39.8441    35
39.8541    32
39.8641    34
39.8741    31
39.8841    29
39.8941    36
39.9041    36
39.9141    26
39.9241    31
39.9341    28
39.9441    35
39.9541    39
39.9641    33
39.9741    29
39.9841    30
