Bruker Nano GmbH Berlin, Germany
Esprit 1.9

Date: 4/21/2021 2:28:00 PM
Real time: 18191
Life time: 16806
Pulse density: 111831


Detector type: XFlash 430
Window type: Custom type
Detector thickness: 0.45
Si dead layer:0.029

Calibration, lin.: 10
Calibration, abs.: -955.9
Mn FWHM: 137.05
Fano factor: 0.121
Channels: 4095

Energy Counts
-0.9559     0
-0.9459     0
-0.9359     0
-0.9259     0
-0.9159     0
-0.9059     0
-0.8959     0
-0.8859     0
-0.8759     0
-0.8659     0
-0.8559     0
-0.8459     0
-0.8359     0
-0.8259     0
-0.8159     0
-0.8059     0
-0.7959     0
-0.7859     0
-0.7759     0
-0.7659     0
-0.7559     0
-0.7459     0
-0.7359     0
-0.7259     0
-0.7159     0
-0.7059     0
-0.6959     0
-0.6859     0
-0.6759     0
-0.6659     0
-0.6559     0
-0.6459     0
-0.6359     0
-0.6259     0
-0.6159     0
-0.6059     0
-0.5959     0
-0.5859     0
-0.5759     0
-0.5659     0
-0.5559     0
-0.5459     0
-0.5359     0
-0.5259     0
-0.5159     0
-0.5059     0
-0.4959     0
-0.4859     0
-0.4759     0
-0.4659     0
-0.4559     0
-0.4459     0
-0.4359     0
-0.4259     0
-0.4159     0
-0.4059     0
-0.3959     0
-0.3859     0
-0.3759     0
-0.3659     0
-0.3559     0
-0.3459     0
-0.3359     0
-0.3259     0
-0.3159     0
-0.3059     0
-0.2959     0
-0.2859     0
-0.2759     0
-0.2659     0
-0.2559     0
-0.2459     0
-0.2359     0
-0.2259     0
-0.2159     0
-0.2059     0
-0.1959     0
-0.1859     0
-0.1759     0
-0.1659     0
-0.1559     0
-0.1459     0
-0.1359     0
-0.1259     1
-0.1159     7
-0.1059    11
-0.0959    46
-0.0859   186
-0.0759   603
-0.0659  1895
-0.0559  4904
-0.0459 10564
-0.0359 20196
-0.0259 31809
-0.0159 43798
-0.0059 51510
 0.0041 51651
 0.0141 44546
 0.0241 32958
 0.0341 21057
 0.0441 11437
 0.0541  5316
 0.0641  2196
 0.0741   735
 0.0841   232
 0.0941    78
 0.1041    28
 0.1141     6
 0.1241     6
 0.1341     6
 0.1441     5
 0.1541     9
 0.1641     6
 0.1741     2
 0.1841   162
 0.1941   348
 0.2041   296
 0.2141   309
 0.2241   287
 0.2341   285
 0.2441   290
 0.2541   315
 0.2641   337
 0.2741   289
 0.2841   286
 0.2941   299
 0.3041   278
 0.3141   289
 0.3241   287
 0.3341   297
 0.3441   288
 0.3541   268
 0.3641   279
 0.3741   288
 0.3841   274
 0.3941   285
 0.4041   301
 0.4141   309
 0.4241   265
 0.4341   280
 0.4441   273
 0.4541   270
 0.4641   265
 0.4741   262
 0.4841   249
 0.4941   261
 0.5041   266
 0.5141   263
 0.5241   249
 0.5341   240
 0.5441   253
 0.5541   250
 0.5641   233
 0.5741   237
 0.5841   242
 0.5941   218
 0.6041   221
 0.6141   230
 0.6241   227
 0.6341   223
 0.6441   237
 0.6541   257
 0.6641   246
 0.6741   216
 0.6841   235
 0.6941   239
 0.7041   221
 0.7141   222
 0.7241   227
 0.7341   236
 0.7441   233
 0.7541   210
 0.7641   218
 0.7741   215
 0.7841   221
 0.7941   213
 0.8041   223
 0.8141   216
 0.8241   206
 0.8341   202
 0.8441   225
 0.8541   219
 0.8641   216
 0.8741   211
 0.8841   197
 0.8941   193
 0.9041   203
 0.9141   215
 0.9241   197
 0.9341   189
 0.9441   193
 0.9541   194
 0.9641   207
 0.9741   177
 0.9841   189
 0.9941   217
 1.0041   231
 1.0141   202
 1.0241   195
 1.0341   197
 1.0441   209
 1.0541   225
 1.0641   206
 1.0741   194
 1.0841   194
 1.0941   198
 1.1041   182
 1.1141   193
 1.1241   194
 1.1341   180
 1.1441   194
 1.1541   179
 1.1641   209
 1.1741   191
 1.1841   188
 1.1941   180
 1.2041   194
 1.2141   193
 1.2241   181
 1.2341   172
 1.2441   174
 1.2541   182
 1.2641   181
 1.2741   188
 1.2841   188
 1.2941   157
 1.3041   164
 1.3141   173
 1.3241   168
 1.3341   165
 1.3441   171
 1.3541   180
 1.3641   153
 1.3741   193
 1.3841   179
 1.3941   168
 1.4041   170
 1.4141   162
 1.4241   183
 1.4341   155
 1.4441   166
 1.4541   202
 1.4641   188
 1.4741   158
 1.4841   156
 1.4941   161
 1.5041   176
 1.5141   186
 1.5241   173
 1.5341   163
 1.5441   162
 1.5541   193
 1.5641   171
 1.5741   162
 1.5841   175
 1.5941   170
 1.6041   143
 1.6141   176
 1.6241   199
 1.6341   182
 1.6441   189
 1.6541   199
 1.6641   236
 1.6741   271
 1.6841   356
 1.6941   438
 1.7041   528
 1.7141   578
 1.7241   603
 1.7341   614
 1.7441   680
 1.7541   606
 1.7641   566
 1.7741   479
 1.7841   411
 1.7941   362
 1.8041   291
 1.8141   240
 1.8241   223
 1.8341   242
 1.8441   219
 1.8541   207
 1.8641   193
 1.8741   180
 1.8841   175
 1.8941   184
 1.9041   194
 1.9141   185
 1.9241   169
 1.9341   181
 1.9441   177
 1.9541   208
 1.9641   191
 1.9741   215
 1.9841   208
 1.9941   188
 2.0041   217
 2.0141   226
 2.0241   246
 2.0341   195
 2.0441   183
 2.0541   196
 2.0641   165
 2.0741   168
 2.0841   184
 2.0941   185
 2.1041   184
 2.1141   166
 2.1241   153
 2.1341   154
 2.1441   160
 2.1541   172
 2.1641   173
 2.1741   155
 2.1841   150
 2.1941   154
 2.2041   169
 2.2141   143
 2.2241   119
 2.2341   148
 2.2441   141
 2.2541   146
 2.2641   149
 2.2741   148
 2.2841   130
 2.2941   148
 2.3041   144
 2.3141   131
 2.3241   136
 2.3341   153
 2.3441   136
 2.3541   124
 2.3641   149
 2.3741   133
 2.3841   142
 2.3941   134
 2.4041   149
 2.4141   151
 2.4241   166
 2.4341   150
 2.4441   153
 2.4541   155
 2.4641   129
 2.4741   139
 2.4841   131
 2.4941   156
 2.5041   136
 2.5141   124
 2.5241   134
 2.5341   132
 2.5441   136
 2.5541   128
 2.5641   113
 2.5741   136
 2.5841   142
 2.5941   149
 2.6041   131
 2.6141   152
 2.6241   124
 2.6341   141
 2.6441   138
 2.6541   125
 2.6641   143
 2.6741   129
 2.6841   140
 2.6941   117
 2.7041   110
 2.7141   126
 2.7241   133
 2.7341   140
 2.7441   142
 2.7541   137
 2.7641   112
 2.7741   126
 2.7841   120
 2.7941   129
 2.8041   130
 2.8141   164
 2.8241   123
 2.8341   137
 2.8441   143
 2.8541   139
 2.8641   112
 2.8741   124
 2.8841   147
 2.8941   121
 2.9041   115
 2.9141   106
 2.9241   125
 2.9341   122
 2.9441   127
 2.9541   110
 2.9641   123
 2.9741   124
 2.9841   120
 2.9941   133
 3.0041   119
 3.0141   129
 3.0241   126
 3.0341    97
 3.0441   127
 3.0541   119
 3.0641   113
 3.0741   102
 3.0841   107
 3.0941    94
 3.1041   117
 3.1141   125
 3.1241   104
 3.1341    92
 3.1441   124
 3.1541    96
 3.1641   106
 3.1741   114
 3.1841   107
 3.1941    99
 3.2041   112
 3.2141   125
 3.2241   134
 3.2341   124
 3.2441   166
 3.2541   205
 3.2641   214
 3.2741   234
 3.2841   201
 3.2941   233
 3.3041   273
 3.3141   286
 3.3241   261
 3.3341   245
 3.3441   241
 3.3541   223
 3.3641   179
 3.3741   180
 3.3841   142
 3.3941   138
 3.4041   115
 3.4141   109
 3.4241   100
 3.4341    86
 3.4441    92
 3.4541   110
 3.4641   115
 3.4741   102
 3.4841   111
 3.4941    99
 3.5041   118
 3.5141   111
 3.5241    98
 3.5341   122
 3.5441   102
 3.5541   148
 3.5641   172
 3.5741   221
 3.5841   259
 3.5941   296
 3.6041   358
 3.6141   450
 3.6241   536
 3.6341   660
 3.6441   785
 3.6541   950
 3.6641  1093
 3.6741  1119
 3.6841  1114
 3.6941  1212
 3.7041  1150
 3.7141  1038
 3.7241  1015
 3.7341   780
 3.7441   696
 3.7541   548
 3.7641   426
 3.7741   305
 3.7841   254
 3.7941   179
 3.8041   152
 3.8141   148
 3.8241   106
 3.8341   107
 3.8441    88
 3.8541    81
 3.8641    82
 3.8741    87
 3.8841   100
 3.8941   100
 3.9041   107
 3.9141   109
 3.9241   130
 3.9341   142
 3.9441   139
 3.9541   181
 3.9641   171
 3.9741   197
 3.9841   208
 3.9941   250
 4.0041   231
 4.0141   268
 4.0241   254
 4.0341   214
 4.0441   199
 4.0541   197
 4.0641   204
 4.0741   151
 4.0841   136
 4.0941   118
 4.1041   122
 4.1141    92
 4.1241    99
 4.1341    93
 4.1441    81
 4.1541    90
 4.1641    75
 4.1741    82
 4.1841    69
 4.1941    88
 4.2041    71
 4.2141    80
 4.2241    76
 4.2341    70
 4.2441    80
 4.2541    64
 4.2641    71
 4.2741    89
 4.2841    73
 4.2941    75
 4.3041    88
 4.3141    90
 4.3241    81
 4.3341    72
 4.3441    78
 4.3541    82
 4.3641    81
 4.3741    77
 4.3841   113
 4.3941   116
 4.4041   127
 4.4141   157
 4.4241   188
 4.4341   236
 4.4441   245
 4.4541   286
 4.4641   355
 4.4741   378
 4.4841   440
 4.4941   456
 4.5041   455
 4.5141   434
 4.5241   424
 4.5341   420
 4.5441   371
 4.5541   326
 4.5641   297
 4.5741   256
 4.5841   206
 4.5941   152
 4.6041   162
 4.6141   115
 4.6241    97
 4.6341   119
 4.6441   104
 4.6541    82
 4.6641   101
 4.6741    88
 4.6841    90
 4.6941   101
 4.7041    82
 4.7141    82
 4.7241    87
 4.7341    75
 4.7441    93
 4.7541    88
 4.7641    94
 4.7741    97
 4.7841    93
 4.7941    99
 4.8041   114
 4.8141   114
 4.8241   127
 4.8341   134
 4.8441   133
 4.8541   137
 4.8641   120
 4.8741   146
 4.8841   168
 4.8941   170
 4.9041   177
 4.9141   156
 4.9241   179
 4.9341   140
 4.9441   159
 4.9541   154
 4.9641   148
 4.9741   139
 4.9841   143
 4.9941   117
 5.0041   113
 5.0141   110
 5.0241   111
 5.0341   104
 5.0441    95
 5.0541    90
 5.0641   106
 5.0741    90
 5.0841    86
 5.0941    82
 5.1041    83
 5.1141    74
 5.1241    97
 5.1341   104
 5.1441    92
 5.1541    88
 5.1641    87
 5.1741    96
 5.1841   101
 5.1941    86
 5.2041    95
 5.2141    93
 5.2241   101
 5.2341   101
 5.2441    92
 5.2541    95
 5.2641    80
 5.2741    99
 5.2841    87
 5.2941   103
 5.3041   113
 5.3141    91
 5.3241   109
 5.3341    91
 5.3441    94
 5.3541   133
 5.3641   113
 5.3741   131
 5.3841   137
 5.3941   115
 5.4041   147
 5.4141   145
 5.4241   129
 5.4341   150
 5.4441   130
 5.4541   119
 5.4641   115
 5.4741   107
 5.4841   110
 5.4941   121
 5.5041    99
 5.5141    97
 5.5241    99
 5.5341    92
 5.5441    96
 5.5541   105
 5.5641    98
 5.5741    82
 5.5841   101
 5.5941    90
 5.6041   110
 5.6141    80
 5.6241    89
 5.6341    79
 5.6441    86
 5.6541    83
 5.6641    97
 5.6741    87
 5.6841   102
 5.6941   121
 5.7041   115
 5.7141   111
 5.7241   142
 5.7341   172
 5.7441   171
 5.7541   209
 5.7641   245
 5.7741   325
 5.7841   452
 5.7941   609
 5.8041   690
 5.8141   901
 5.8241  1104
 5.8341  1246
 5.8441  1523
 5.8541  1734
 5.8641  1875
 5.8741  2053
 5.8841  2123
 5.8941  2105
 5.9041  2153
 5.9141  2074
 5.9241  1885
 5.9341  1689
 5.9441  1484
 5.9541  1342
 5.9641  1013
 5.9741   952
 5.9841   768
 5.9941   584
 6.0041   484
 6.0141   354
 6.0241   291
 6.0341   256
 6.0441   224
 6.0541   180
 6.0641   155
 6.0741   145
 6.0841   135
 6.0941   167
 6.1041   154
 6.1141   170
 6.1241   177
 6.1341   155
 6.1441   165
 6.1541   189
 6.1641   204
 6.1741   220
 6.1841   270
 6.1941   287
 6.2041   389
 6.2141   525
 6.2241   692
 6.2341   915
 6.2441  1315
 6.2541  1761
 6.2641  2456
 6.2741  3510
 6.2841  4724
 6.2941  6221
 6.3041  8141
 6.3141 10350
 6.3241 12509
 6.3341 15201
 6.3441 18011
 6.3541 20587
 6.3641 22992
 6.3741 24707
 6.3841 26156
 6.3941 27026
 6.4041 26857
 6.4141 26123
 6.4241 24798
 6.4341 22724
 6.4441 20287
 6.4541 17795
 6.4641 14992
 6.4741 12493
 6.4841 10057
 6.4941  8122
 6.5041  5989
 6.5141  4525
 6.5241  3447
 6.5341  2465
 6.5441  1762
 6.5541  1244
 6.5641   926
 6.5741   650
 6.5841   495
 6.5941   362
 6.6041   276
 6.6141   252
 6.6241   200
 6.6341   187
 6.6441   167
 6.6541   168
 6.6641   171
 6.6741   161
 6.6841   173
 6.6941   158
 6.7041   162
 6.7141   146
 6.7241   159
 6.7341   171
 6.7441   172
 6.7541   159
 6.7641   169
 6.7741   199
 6.7841   172
 6.7941   193
 6.8041   180
 6.8141   213
 6.8241   191
 6.8341   226
 6.8441   250
 6.8541   285
 6.8641   303
 6.8741   303
 6.8841   395
 6.8941   440
 6.9041   523
 6.9141   679
 6.9241   833
 6.9341   997
 6.9441  1271
 6.9541  1496
 6.9641  1916
 6.9741  2208
 6.9841  2588
 6.9941  3088
 7.0041  3441
 7.0141  3668
 7.0241  4102
 7.0341  4408
 7.0441  4469
 7.0541  4469
 7.0641  4585
 7.0741  4325
 7.0841  4129
 7.0941  3723
 7.1041  3359
 7.1141  2950
 7.1241  2441
 7.1341  2148
 7.1441  1799
 7.1541  1359
 7.1641  1159
 7.1741   916
 7.1841   639
 7.1941   587
 7.2041   430
 7.2141   374
 7.2241   302
 7.2341   252
 7.2441   235
 7.2541   189
 7.2641   172
 7.2741   189
 7.2841   190
 7.2941   199
 7.3041   209
 7.3141   200
 7.3241   212
 7.3341   207
 7.3441   207
 7.3541   253
 7.3641   228
 7.3741   214
 7.3841   223
 7.3941   253
 7.4041   294
 7.4141   281
 7.4241   277
 7.4341   296
 7.4441   294
 7.4541   283
 7.4641   272
 7.4741   286
 7.4841   281
 7.4941   234
 7.5041   226
 7.5141   251
 7.5241   232
 7.5341   216
 7.5441   212
 7.5541   205
 7.5641   194
 7.5741   178
 7.5841   168
 7.5941   182
 7.6041   164
 7.6141   192
 7.6241   179
 7.6341   189
 7.6441   177
 7.6541   157
 7.6641   206
 7.6741   185
 7.6841   202
 7.6941   207
 7.7041   205
 7.7141   212
 7.7241   188
 7.7341   223
 7.7441   205
 7.7541   201
 7.7641   221
 7.7741   199
 7.7841   224
 7.7941   235
 7.8041   246
 7.8141   223
 7.8241   223
 7.8341   257
 7.8441   246
 7.8541   277
 7.8641   243
 7.8741   272
 7.8841   264
 7.8941   273
 7.9041   274
 7.9141   290
 7.9241   315
 7.9341   352
 7.9441   383
 7.9541   347
 7.9641   390
 7.9741   414
 7.9841   443
 7.9941   506
 8.0041   530
 8.0141   560
 8.0241   613
 8.0341   643
 8.0441   726
 8.0541   778
 8.0641   854
 8.0741   860
 8.0841   886
 8.0941   957
 8.1041   990
 8.1141  1057
 8.1241  1113
 8.1341  1113
 8.1441  1112
 8.1541  1165
 8.1641  1181
 8.1741  1210
 8.1841  1308
 8.1941  1260
 8.2041  1223
 8.2141  1192
 8.2241  1285
 8.2341  1314
 8.2441  1424
 8.2541  1413
 8.2641  1487
 8.2741  1530
 8.2841  1615
 8.2941  1692
 8.3041  1900
 8.3141  2042
 8.3241  2153
 8.3341  2198
 8.3441  2351
 8.3541  2484
 8.3641  2610
 8.3741  2703
 8.3841  2646
 8.3941  2769
 8.4041  2729
 8.4141  2614
 8.4241  2525
 8.4341  2349
 8.4441  2179
 8.4541  1929
 8.4641  1685
 8.4741  1450
 8.4841  1326
 8.4941  1111
 8.5041   891
 8.5141   736
 8.5241   679
 8.5341   607
 8.5441   556
 8.5541   484
 8.5641   469
 8.5741   449
 8.5841   475
 8.5941   447
 8.6041   421
 8.6141   433
 8.6241   422
 8.6341   433
 8.6441   436
 8.6541   414
 8.6641   424
 8.6741   391
 8.6841   408
 8.6941   348
 8.7041   361
 8.7141   337
 8.7241   334
 8.7341   331
 8.7441   314
 8.7541   313
 8.7641   293
 8.7741   307
 8.7841   289
 8.7941   268
 8.8041   251
 8.8141   282
 8.8241   252
 8.8341   271
 8.8441   283
 8.8541   269
 8.8641   287
 8.8741   284
 8.8841   276
 8.8941   247
 8.9041   291
 8.9141   290
 8.9241   282
 8.9341   292
 8.9441   294
 8.9541   283
 8.9641   283
 8.9741   323
 8.9841   313
 8.9941   304
 9.0041   322
 9.0141   337
 9.0241   352
 9.0341   378
 9.0441   373
 9.0541   356
 9.0641   313
 9.0741   401
 9.0841   409
 9.0941   419
 9.1041   412
 9.1141   419
 9.1241   454
 9.1341   470
 9.1441   496
 9.1541   485
 9.1641   508
 9.1741   547
 9.1841   598
 9.1941   572
 9.2041   611
 9.2141   625
 9.2241   711
 9.2341   731
 9.2441   766
 9.2541   787
 9.2641   853
 9.2741   896
 9.2841   918
 9.2941   948
 9.3041  1003
 9.3141   989
 9.3241  1020
 9.3341  1092
 9.3441  1154
 9.3541  1159
 9.3641  1134
 9.3741  1178
 9.3841  1225
 9.3941  1244
 9.4041  1227
 9.4141  1241
 9.4241  1321
 9.4341  1356
 9.4441  1281
 9.4541  1277
 9.4641  1339
 9.4741  1408
 9.4841  1420
 9.4941  1360
 9.5041  1398
 9.5141  1397
 9.5241  1460
 9.5341  1553
 9.5441  1657
 9.5541  1693
 9.5641  1781
 9.5741  1882
 9.5841  1983
 9.5941  2076
 9.6041  2317
 9.6141  2321
 9.6241  2470
 9.6341  2581
 9.6441  2566
 9.6541  2602
 9.6641  2621
 9.6741  2663
 9.6841  2552
 9.6941  2506
 9.7041  2547
 9.7141  2329
 9.7241  2179
 9.7341  2028
 9.7441  1865
 9.7541  1786
 9.7641  1708
 9.7741  1485
 9.7841  1385
 9.7941  1296
 9.8041  1330
 9.8141  1209
 9.8241  1169
 9.8341  1130
 9.8441  1106
 9.8541  1107
 9.8641  1146
 9.8741  1146
 9.8841  1125
 9.8941  1214
 9.9041  1187
 9.9141  1187
 9.9241  1231
 9.9341  1238
 9.9441  1261
 9.9541  1265
 9.9641  1229
 9.9741  1254
 9.9841  1243
 9.9941  1130
10.0041  1044
10.0141  1007
10.0241   903
10.0341   815
10.0441   765
10.0541   678
10.0641   605
10.0741   547
10.0841   486
10.0941   423
10.1041   405
10.1141   337
10.1241   328
10.1341   304
10.1441   284
10.1541   266
10.1641   260
10.1741   237
10.1841   219
10.1941   204
10.2041   206
10.2141   196
10.2241   206
10.2341   200
10.2441   194
10.2541   170
10.2641   160
10.2741   181
10.2841   170
10.2941   166
10.3041   172
10.3141   185
10.3241   169
10.3341   167
10.3441   179
10.3541   176
10.3641   154
10.3741   139
10.3841   142
10.3941   146
10.4041   148
10.4141   160
10.4241   165
10.4341   164
10.4441   159
10.4541   155
10.4641   180
10.4741   177
10.4841   188
10.4941   181
10.5041   186
10.5141   195
10.5241   207
10.5341   187
10.5441   173
10.5541   191
10.5641   197
10.5741   188
10.5841   195
10.5941   190
10.6041   191
10.6141   180
10.6241   187
10.6341   179
10.6441   171
10.6541   179
10.6641   193
10.6741   182
10.6841   197
10.6941   197
10.7041   204
10.7141   212
10.7241   221
10.7341   204
10.7441   213
10.7541   212
10.7641   225
10.7741   235
10.7841   221
10.7941   231
10.8041   243
10.8141   262
10.8241   265
10.8341   253
10.8441   264
10.8541   265
10.8641   296
10.8741   280
10.8841   290
10.8941   307
10.9041   293
10.9141   303
10.9241   283
10.9341   268
10.9441   280
10.9541   286
10.9641   269
10.9741   273
10.9841   283
10.9941   288
11.0041   272
11.0141   287
11.0241   301
11.0341   278
11.0441   274
11.0541   266
11.0641   249
11.0741   253
11.0841   269
11.0941   259
11.1041   253
11.1141   251
11.1241   251
11.1341   263
11.1441   270
11.1541   261
11.1641   246
11.1741   287
11.1841   313
11.1941   309
11.2041   337
11.2141   343
11.2241   384
11.2341   384
11.2441   363
11.2541   402
11.2641   406
11.2741   394
11.2841   390
11.2941   378
11.3041   402
11.3141   371
11.3241   338
11.3341   353
11.3441   347
11.3541   320
11.3641   315
11.3741   317
11.3841   281
11.3941   235
11.4041   245
11.4141   241
11.4241   226
11.4341   221
11.4441   224
11.4541   216
11.4641   215
11.4741   218
11.4841   196
11.4941   173
11.5041   191
11.5141   186
11.5241   204
11.5341   220
11.5441   200
11.5541   206
11.5641   201
11.5741   195
11.5841   215
11.5941   218
11.6041   205
11.6141   200
11.6241   217
11.6341   191
11.6441   210
11.6541   232
11.6641   219
11.6741   214
11.6841   203
11.6941   207
11.7041   207
11.7141   203
11.7241   186
11.7341   190
11.7441   191
11.7541   178
11.7641   166
11.7741   170
11.7841   173
11.7941   158
11.8041   165
11.8141   157
11.8241   153
11.8341   158
11.8441   147
11.8541   161
11.8641   174
11.8741   177
11.8841   184
11.8941   178
11.9041   154
11.9141   156
11.9241   169
11.9341   183
11.9441   193
11.9541   170
11.9641   164
11.9741   169
11.9841   178
11.9941   174
12.0041   159
12.0141   169
12.0241   177
12.0341   175
12.0441   181
12.0541   185
12.0641   158
12.0741   147
12.0841   171
12.0941   159
12.1041   162
12.1141   166
12.1241   178
12.1341   176
12.1441   166
12.1541   145
12.1641   142
12.1741   136
12.1841   149
12.1941   161
12.2041   166
12.2141   167
12.2241   172
12.2341   150
12.2441   156
12.2541   158
12.2641   142
12.2741   153
12.2841   157
12.2941   145
12.3041   157
12.3141   145
12.3241   152
12.3341   168
12.3441   163
12.3541   167
12.3641   154
12.3741   144
12.3841   153
12.3941   151
12.4041   144
12.4141   144
12.4241   149
12.4341   143
12.4441   150
12.4541   152
12.4641   162
12.4741   170
12.4841   171
12.4941   154
12.5041   159
12.5141   166
12.5241   170
12.5341   167
12.5441   160
12.5541   156
12.5641   162
12.5741   169
12.5841   162
12.5941   168
12.6041   187
12.6141   184
12.6241   158
12.6341   161
12.6441   171
12.6541   176
12.6641   183
12.6741   181
12.6841   170
12.6941   168
12.7041   175
12.7141   182
12.7241   189
12.7341   190
12.7441   185
12.7541   180
12.7641   179
12.7741   177
12.7841   169
12.7941   165
12.8041   173
12.8141   180
12.8241   177
12.8341   172
12.8441   175
12.8541   183
12.8641   186
12.8741   183
12.8841   178
12.8941   174
12.9041   178
12.9141   182
12.9241   174
12.9341   168
12.9441   174
12.9541   179
12.9641   178
12.9741   180
12.9841   188
12.9941   191
13.0041   190
13.0141   188
13.0241   191
13.0341   191
13.0441   195
13.0541   192
13.0641   173
13.0741   180
13.0841   180
13.0941   166
13.1041   171
13.1141   183
13.1241   183
13.1341   186
13.1441   194
13.1541   184
13.1641   192
13.1741   201
13.1841   196
13.1941   196
13.2041   195
13.2141   199
13.2241   211
13.2341   226
13.2441   248
13.2541   251
13.2641   246
13.2741   252
13.2841   278
13.2941   280
13.3041   274
13.3141   285
13.3241   307
13.3341   312
13.3441   307
13.3541   308
13.3641   303
13.3741   303
13.3841   311
13.3941   315
13.4041   315
13.4141   315
13.4241   309
13.4341   298
13.4441   294
13.4541   298
13.4641   296
13.4741   277
13.4841   261
13.4941   259
13.5041   257
13.5141   245
13.5241   231
13.5341   225
13.5441   227
13.5541   226
13.5641   224
13.5741   225
13.5841   220
13.5941   211
13.6041   214
13.6141   225
13.6241   232
13.6341   235
13.6441   213
13.6541   205
13.6641   210
13.6741   210
13.6841   209
13.6941   211
13.7041   223
13.7141   216
13.7241   195
13.7341   202
13.7441   222
13.7541   232
13.7641   238
13.7741   225
13.7841   219
13.7941   213
13.8041   215
13.8141   248
13.8241   243
13.8341   225
13.8441   228
13.8541   222
13.8641   233
13.8741   247
13.8841   233
13.8941   224
13.9041   230
13.9141   229
13.9241   228
13.9341   237
13.9441   238
13.9541   225
13.9641   244
13.9741   263
13.9841   262
13.9941   253
14.0041   261
14.0141   285
14.0241   293
14.0341   286
14.0441   291
14.0541   318
14.0641   329
14.0741   322
14.0841   319
14.0941   332
14.1041   346
14.1141   345
14.1241   361
14.1341   350
14.1441   334
14.1541   352
14.1641   366
14.1741   360
14.1841   334
14.1941   345
14.2041   344
14.2141   321
14.2241   304
14.2341   309
14.2441   321
14.2541   314
14.2641   301
14.2741   285
14.2841   295
14.2941   303
14.3041   292
14.3141   265
14.3241   244
14.3341   262
14.3441   263
14.3541   255
14.3641   268
14.3741   271
14.3841   259
14.3941   257
14.4041   269
14.4141   248
14.4241   236
14.4341   263
14.4441   268
14.4541   255
14.4641   259
14.4741   268
14.4841   260
14.4941   270
14.5041   286
14.5141   282
14.5241   288
14.5341   293
14.5441   297
14.5541   298
14.5641   274
14.5741   260
14.5841   267
14.5941   266
14.6041   259
14.6141   265
14.6241   258
14.6341   273
14.6441   277
14.6541   260
14.6641   272
14.6741   288
14.6841   291
14.6941   279
14.7041   287
14.7141   279
14.7241   274
14.7341   283
14.7441   296
14.7541   297
14.7641   303
14.7741   312
14.7841   306
14.7941   295
14.8041   299
14.8141   294
14.8241   311
14.8341   313
14.8441   313
14.8541   330
14.8641   326
14.8741   341
14.8841   330
14.8941   331
14.9041   336
14.9141   325
14.9241   350
14.9341   350
14.9441   324
14.9541   326
14.9641   336
14.9741   337
14.9841   340
14.9941   322
15.0041   322
15.0141   336
15.0241   324
15.0341   318
15.0441   331
15.0541   320
15.0641   311
15.0741   319
15.0841   299
15.0941   299
15.1041   314
15.1141   303
15.1241   287
15.1341   303
15.1441   314
15.1541   319
15.1641   321
15.1741   317
15.1841   322
15.1941   314
15.2041   321
15.2141   322
15.2241   313
15.2341   297
15.2441   313
15.2541   323
15.2641   288
15.2741   284
15.2841   289
15.2941   305
15.3041   320
15.3141   318
15.3241   332
15.3341   318
15.3441   325
15.3541   318
15.3641   319
15.3741   329
15.3841   314
15.3941   317
15.4041   349
15.4141   353
15.4241   337
15.4341   331
15.4441   344
15.4541   341
15.4641   324
15.4741   319
15.4841   356
15.4941   383
15.5041   350
15.5141   332
15.5241   347
15.5341   369
15.5441   381
15.5541   401
15.5641   419
15.5741   424
15.5841   428
15.5941   453
15.6041   486
15.6141   503
15.6241   520
15.6341   534
15.6441   556
15.6541   575
15.6641   591
15.6741   609
15.6841   631
15.6941   649
15.7041   683
15.7141   694
15.7241   707
15.7341   697
15.7441   755
15.7541   772
15.7641   750
15.7741   699
15.7841   686
15.7941   685
15.8041   698
15.8141   675
15.8241   626
15.8341   608
15.8441   581
15.8541   583
15.8641   539
15.8741   520
15.8841   527
15.8941   497
15.9041   474
15.9141   471
15.9241   445
15.9341   432
15.9441   428
15.9541   412
15.9641   389
15.9741   402
15.9841   387
15.9941   374
16.0041   402
16.0141   383
16.0241   367
16.0341   366
16.0441   388
16.0541   382
16.0641   360
16.0741   369
16.0841   354
16.0941   367
16.1041   388
16.1141   371
16.1241   374
16.1341   403
16.1441   419
16.1541   411
16.1641   397
16.1741   389
16.1841   381
16.1941   395
16.2041   383
16.2141   405
16.2241   416
16.2341   414
16.2441   407
16.2541   398
16.2641   397
16.2741   381
16.2841   398
16.2941   411
16.3041   383
16.3141   397
16.3241   404
16.3341   412
16.3441   404
16.3541   374
16.3641   383
16.3741   398
16.3841   389
16.3941   384
16.4041   387
16.4141   386
16.4241   410
16.4341   408
16.4441   417
16.4541   422
16.4641   413
16.4741   397
16.4841   400
16.4941   408
16.5041   422
16.5141   438
16.5241   438
16.5341   438
16.5441   414
16.5541   415
16.5641   414
16.5741   405
16.5841   407
16.5941   433
16.6041   429
16.6141   400
16.6241   406
16.6341   381
16.6441   380
16.6541   415
16.6641   430
16.6741   405
16.6841   416
16.6941   446
16.7041   429
16.7141   428
16.7241   421
16.7341   442
16.7441   440
16.7541   427
16.7641   425
16.7741   430
16.7841   435
16.7941   443
16.8041   473
16.8141   444
16.8241   462
16.8341   466
16.8441   429
16.8541   425
16.8641   434
16.8741   430
16.8841   432
16.8941   398
16.9041   420
16.9141   449
16.9241   444
16.9341   432
16.9441   420
16.9541   427
16.9641   437
16.9741   465
16.9841   444
16.9941   410
17.0041   436
17.0141   470
17.0241   465
17.0341   447
17.0441   431
17.0541   450
17.0641   473
17.0741   473
17.0841   452
17.0941   462
17.1041   466
17.1141   456
17.1241   434
17.1341   449
17.1441   468
17.1541   471
17.1641   478
17.1741   433
17.1841   428
17.1941   454
17.2041   437
17.2141   435
17.2241   458
17.2341   454
17.2441   480
17.2541   483
17.2641   428
17.2741   431
17.2841   454
17.2941   473
17.3041   459
17.3141   463
17.3241   429
17.3341   443
17.3441   459
17.3541   480
17.3641   463
17.3741   503
17.3841   505
17.3941   469
17.4041   477
17.4141   484
17.4241   454
17.4341   493
17.4441   462
17.4541   479
17.4641   484
17.4741   489
17.4841   487
17.4941   499
17.5041   496
17.5141   523
17.5241   526
17.5341   489
17.5441   505
17.5541   488
17.5641   515
17.5741   534
17.5841   533
17.5941   525
17.6041   529
17.6141   539
17.6241   542
17.6341   571
17.6441   500
17.6541   530
17.6641   551
17.6741   501
17.6841   572
17.6941   572
17.7041   551
17.7141   553
17.7241   536
17.7341   546
17.7441   522
17.7541   522
17.7641   523
17.7741   537
17.7841   543
17.7941   502
17.8041   512
17.8141   522
17.8241   492
17.8341   491
17.8441   504
17.8541   508
17.8641   504
17.8741   527
17.8841   518
17.8941   482
17.9041   489
17.9141   522
17.9241   511
17.9341   504
17.9441   522
17.9541   478
17.9641   503
17.9741   511
17.9841   516
17.9941   525
18.0041   527
18.0141   533
18.0241   522
18.0341   538
18.0441   506
18.0541   523
18.0641   530
18.0741   496
18.0841   524
18.0941   528
18.1041   491
18.1141   534
18.1241   538
18.1341   525
18.1441   538
18.1541   532
18.1641   554
18.1741   531
18.1841   546
18.1941   507
18.2041   533
18.2141   525
18.2241   513
18.2341   507
18.2441   522
18.2541   527
18.2641   502
18.2741   560
18.2841   551
18.2941   524
18.3041   504
18.3141   501
18.3241   529
18.3341   553
18.3441   508
18.3541   534
18.3641   510
18.3741   508
18.3841   523
18.3941   535
18.4041   522
18.4141   504
18.4241   498
18.4341   582
18.4441   534
18.4541   537
18.4641   541
18.4741   575
18.4841   550
18.4941   525
18.5041   542
18.5141   522
18.5241   519
18.5341   558
18.5441   544
18.5541   543
18.5641   523
18.5741   508
18.5841   514
18.5941   557
18.6041   554
18.6141   578
18.6241   539
18.6341   534
18.6441   563
18.6541   502
18.6641   527
18.6741   531
18.6841   540
18.6941   523
18.7041   526
18.7141   522
18.7241   547
18.7341   506
18.7441   545
18.7541   539
18.7641   553
18.7741   563
18.7841   579
18.7941   553
18.8041   547
18.8141   565
18.8241   551
18.8341   559
18.8441   545
18.8541   518
18.8641   530
18.8741   528
18.8841   583
18.8941   534
18.9041   515
18.9141   566
18.9241   529
18.9341   536
18.9441   551
18.9541   544
18.9641   522
18.9741   537
18.9841   533
18.9941   538
19.0041   574
19.0141   600
19.0241   559
19.0341   547
19.0441   586
19.0541   572
19.0641   566
19.0741   535
19.0841   560
19.0941   550
19.1041   532
19.1141   522
19.1241   530
19.1341   545
19.1441   560
19.1541   536
19.1641   558
19.1741   580
19.1841   594
19.1941   597
19.2041   589
19.2141   588
19.2241   598
19.2341   569
19.2441   561
19.2541   538
19.2641   549
19.2741   544
19.2841   528
19.2941   583
19.3041   570
19.3141   551
19.3241   577
19.3341   583
19.3441   622
19.3541   579
19.3641   566
19.3741   566
19.3841   573
19.3941   578
19.4041   580
19.4141   584
19.4241   568
19.4341   558
19.4441   565
19.4541   590
19.4641   591
19.4741   566
19.4841   590
19.4941   573
19.5041   570
19.5141   565
19.5241   573
19.5341   579
19.5441   612
19.5541   539
19.5641   557
19.5741   562
19.5841   588
19.5941   570
19.6041   581
19.6141   561
19.6241   559
19.6341   582
19.6441   591
19.6541   585
19.6641   602
19.6741   589
19.6841   546
19.6941   578
19.7041   560
19.7141   587
19.7241   537
19.7341   601
19.7441   588
19.7541   603
19.7641   578
19.7741   581
19.7841   562
19.7941   573
19.8041   591
19.8141   551
19.8241   550
19.8341   561
19.8441   590
19.8541   618
19.8641   563
19.8741   580
19.8841   600
19.8941   596
19.9041   537
19.9141   570
19.9241   606
19.9341   584
19.9441   583
19.9541   622
19.9641   581
19.9741   618
19.9841   588
19.9941   582
20.0041   615
20.0141   625
20.0241   613
20.0341   589
20.0441   601
20.0541   582
20.0641   602
20.0741   634
20.0841   619
20.0941   564
20.1041   566
20.1141   601
20.1241   575
20.1341   569
20.1441   634
20.1541   597
20.1641   571
20.1741   570
20.1841   597
20.1941   600
20.2041   578
20.2141   587
20.2241   608
20.2341   629
20.2441   585
20.2541   586
20.2641   555
20.2741   597
20.2841   594
20.2941   585
20.3041   619
20.3141   610
20.3241   592
20.3341   580
20.3441   569
20.3541   585
20.3641   571
20.3741   623
20.3841   626
20.3941   570
20.4041   568
20.4141   603
20.4241   622
20.4341   589
20.4441   573
20.4541   569
20.4641   586
20.4741   589
20.4841   603
20.4941   636
20.5041   588
20.5141   602
20.5241   640
20.5341   594
20.5441   602
20.5541   628
20.5641   599
20.5741   608
20.5841   624
20.5941   577
20.6041   580
20.6141   597
20.6241   559
20.6341   613
20.6441   621
20.6541   612
20.6641   562
20.6741   568
20.6841   597
20.6941   591
20.7041   626
20.7141   589
20.7241   615
20.7341   598
20.7441   624
20.7541   609
20.7641   630
20.7741   568
20.7841   612
20.7941   612
20.8041   675
20.8141   637
20.8241   635
20.8341   612
20.8441   634
20.8541   643
20.8641   623
20.8741   636
20.8841   677
20.8941   677
20.9041   688
20.9141   706
20.9241   728
20.9341   642
20.9441   722
20.9541   735
20.9641   710
20.9741   767
20.9841   744
20.9941   771
21.0041   790
21.0141   836
21.0241   812
21.0341   806
21.0441   826
21.0541   861
21.0641   825
21.0741   835
21.0841   862
21.0941   894
21.1041   855
21.1141   898
21.1241   871
21.1341   901
21.1441   884
21.1541   852
21.1641   824
21.1741   868
21.1841   842
21.1941   832
21.2041   889
21.2141   810
21.2241   823
21.2341   800
21.2441   797
21.2541   806
21.2641   771
21.2741   744
21.2841   762
21.2941   741
21.3041   687
21.3141   674
21.3241   640
21.3341   613
21.3441   642
21.3541   669
21.3641   630
21.3741   608
21.3841   647
21.3941   634
21.4041   626
21.4141   620
21.4241   620
21.4341   595
21.4441   618
21.4541   614
21.4641   643
21.4741   587
21.4841   616
21.4941   602
21.5041   625
21.5141   582
21.5241   638
21.5341   630
21.5441   617
21.5541   610
21.5641   602
21.5741   592
21.5841   587
21.5941   625
21.6041   620
21.6141   602
21.6241   596
21.6341   619
21.6441   597
21.6541   577
21.6641   595
21.6741   599
21.6841   586
21.6941   561
21.7041   592
21.7141   539
21.7241   612
21.7341   641
21.7441   584
21.7541   620
21.7641   564
21.7741   606
21.7841   586
21.7941   579
21.8041   607
21.8141   596
21.8241   555
21.8341   590
21.8441   614
21.8541   612
21.8641   636
21.8741   588
21.8841   645
21.8941   605
21.9041   604
21.9141   635
21.9241   582
21.9341   572
21.9441   610
21.9541   603
21.9641   633
21.9741   612
21.9841   584
21.9941   638
22.0041   632
22.0141   617
22.0241   587
22.0341   601
22.0441   580
22.0541   583
22.0641   595
22.0741   577
22.0841   630
22.0941   605
22.1041   610
22.1141   592
22.1241   583
22.1341   595
22.1441   623
22.1541   562
22.1641   599
22.1741   621
22.1841   617
22.1941   618
22.2041   604
22.2141   580
22.2241   596
22.2341   608
22.2441   624
22.2541   561
22.2641   572
22.2741   595
22.2841   619
22.2941   620
22.3041   611
22.3141   570
22.3241   599
22.3341   565
22.3441   601
22.3541   618
22.3641   555
22.3741   566
22.3841   579
22.3941   586
22.4041   589
22.4141   603
22.4241   624
22.4341   610
22.4441   606
22.4541   569
22.4641   580
22.4741   592
22.4841   559
22.4941   616
22.5041   618
22.5141   594
22.5241   636
22.5341   576
22.5441   596
22.5541   578
22.5641   593
22.5741   542
22.5841   646
22.5941   613
22.6041   616
22.6141   573
22.6241   562
22.6341   565
22.6441   605
22.6541   590
22.6641   607
22.6741   624
22.6841   597
22.6941   567
22.7041   583
22.7141   569
22.7241   563
22.7341   564
22.7441   588
22.7541   539
22.7641   623
22.7741   617
22.7841   548
22.7941   628
22.8041   558
22.8141   600
22.8241   548
22.8341   589
22.8441   597
22.8541   531
22.8641   570
22.8741   558
22.8841   578
22.8941   591
22.9041   582
22.9141   585
22.9241   617
22.9341   530
22.9441   543
22.9541   543
22.9641   558
22.9741   556
22.9841   570
22.9941   598
23.0041   598
23.0141   541
23.0241   575
23.0341   553
23.0441   591
23.0541   539
23.0641   601
23.0741   552
23.0841   592
23.0941   582
23.1041   579
23.1141   621
23.1241   566
23.1341   558
23.1441   590
23.1541   581
23.1641   595
23.1741   611
23.1841   562
23.1941   645
23.2041   561
23.2141   579
23.2241   570
23.2341   593
23.2441   545
23.2541   596
23.2641   569
23.2741   561
23.2841   582
23.2941   558
23.3041   585
23.3141   623
23.3241   581
23.3341   622
23.3441   528
23.3541   582
23.3641   572
23.3741   621
23.3841   535
23.3941   578
23.4041   584
23.4141   543
23.4241   557
23.4341   564
23.4441   534
23.4541   583
23.4641   590
23.4741   591
23.4841   557
23.4941   585
23.5041   558
23.5141   571
23.5241   570
23.5341   581
23.5441   587
23.5541   541
23.5641   540
23.5741   583
23.5841   599
23.5941   569
23.6041   567
23.6141   583
23.6241   543
23.6341   581
23.6441   559
23.6541   623
23.6641   587
23.6741   570
23.6841   561
23.6941   589
23.7041   610
23.7141   586
23.7241   605
23.7341   608
23.7441   580
23.7541   592
23.7641   557
23.7741   616
23.7841   618
23.7941   577
23.8041   610
23.8141   610
23.8241   605
23.8341   596
23.8441   538
23.8541   619
23.8641   597
23.8741   585
23.8841   610
23.8941   580
23.9041   593
23.9141   624
23.9241   566
23.9341   561
23.9441   588
23.9541   560
23.9641   560
23.9741   554
23.9841   526
23.9941   534
24.0041   534
24.0141   572
24.0241   525
24.0341   572
24.0441   552
24.0541   500
24.0641   546
24.0741   529
24.0841   505
24.0941   558
24.1041   565
24.1141   568
24.1241   558
24.1341   561
24.1441   547
24.1541   539
24.1641   546
24.1741   541
24.1841   504
24.1941   540
24.2041   548
24.2141   515
24.2241   576
24.2341   580
24.2441   569
24.2541   544
24.2641   544
24.2741   546
24.2841   567
24.2941   523
24.3041   546
24.3141   527
24.3241   511
24.3341   541
24.3441   490
24.3541   544
24.3641   560
24.3741   520
24.3841   549
24.3941   538
24.4041   526
24.4141   538
24.4241   500
24.4341   565
24.4441   542
24.4541   556
24.4641   554
24.4741   532
24.4841   482
24.4941   503
24.5041   518
24.5141   548
24.5241   498
24.5341   543
24.5441   513
24.5541   497
24.5641   545
24.5741   550
24.5841   529
24.5941   495
24.6041   522
24.6141   501
24.6241   500
24.6341   485
24.6441   511
24.6541   534
24.6641   471
24.6741   525
24.6841   516
24.6941   510
24.7041   514
24.7141   522
24.7241   522
24.7341   515
24.7441   547
24.7541   494
24.7641   530
24.7741   482
24.7841   522
24.7941   498
24.8041   514
24.8141   536
24.8241   546
24.8341   529
24.8441   551
24.8541   549
24.8641   491
24.8741   534
24.8841   509
24.8941   488
24.9041   505
24.9141   497
24.9241   496
24.9341   512
24.9441   539
24.9541   506
24.9641   487
24.9741   533
24.9841   511
24.9941   499
25.0041   461
25.0141   534
25.0241   503
25.0341   515
25.0441   538
25.0541   527
25.0641   541
25.0741   543
25.0841   507
25.0941   492
25.1041   524
25.1141   505
25.1241   493
25.1341   555
25.1441   541
25.1541   538
25.1641   503
25.1741   477
25.1841   515
25.1941   561
25.2041   496
25.2141   520
25.2241   518
25.2341   534
25.2441   526
25.2541   517
25.2641   503
25.2741   523
25.2841   528
25.2941   503
25.3041   534
25.3141   472
25.3241   532
25.3341   486
25.3441   520
25.3541   506
25.3641   521
25.3741   489
25.3841   487
25.3941   462
25.4041   508
25.4141   517
25.4241   512
25.4341   477
25.4441   519
25.4541   476
25.4641   475
25.4741   468
25.4841   523
25.4941   539
25.5041   528
25.5141   494
25.5241   507
25.5341   492
25.5441   474
25.5541   519
25.5641   494
25.5741   496
25.5841   482
25.5941   510
25.6041   456
25.6141   469
25.6241   494
25.6341   465
25.6441   444
25.6541   480
25.6641   456
25.6741   491
25.6841   489
25.6941   457
25.7041   508
25.7141   480
25.7241   485
25.7341   458
25.7441   493
25.7541   477
25.7641   493
25.7741   478
25.7841   444
25.7941   466
25.8041   460
25.8141   484
25.8241   497
25.8341   516
25.8441   448
25.8541   505
25.8641   461
25.8741   492
25.8841   443
25.8941   451
25.9041   463
25.9141   438
25.9241   480
25.9341   448
25.9441   431
25.9541   441
25.9641   453
25.9741   456
25.9841   469
25.9941   453
26.0041   523
26.0141   476
26.0241   479
26.0341   460
26.0441   453
26.0541   459
26.0641   479
26.0741   473
26.0841   439
26.0941   500
26.1041   454
26.1141   464
26.1241   466
26.1341   460
26.1441   472
26.1541   494
26.1641   458
26.1741   409
26.1841   399
26.1941   452
26.2041   448
26.2141   458
26.2241   443
26.2341   497
26.2441   466
26.2541   431
26.2641   447
26.2741   459
26.2841   481
26.2941   425
26.3041   502
26.3141   465
26.3241   452
26.3341   460
26.3441   454
26.3541   454
26.3641   433
26.3741   428
26.3841   444
26.3941   445
26.4041   449
26.4141   460
26.4241   432
26.4341   473
26.4441   444
26.4541   436
26.4641   428
26.4741   456
26.4841   446
26.4941   406
26.5041   431
26.5141   464
26.5241   405
26.5341   420
26.5441   449
26.5541   471
26.5641   472
26.5741   449
26.5841   437
26.5941   427
26.6041   440
26.6141   407
26.6241   420
26.6341   426
26.6441   446
26.6541   423
26.6641   439
26.6741   440
26.6841   433
26.6941   430
26.7041   415
26.7141   442
26.7241   405
26.7341   437
26.7441   441
26.7541   411
26.7641   406
26.7741   394
26.7841   425
26.7941   411
26.8041   433
26.8141   426
26.8241   435
26.8341   418
26.8441   415
26.8541   401
26.8641   439
26.8741   446
26.8841   413
26.8941   409
26.9041   425
26.9141   432
26.9241   392
26.9341   439
26.9441   425
26.9541   387
26.9641   441
26.9741   418
26.9841   409
26.9941   413
27.0041   419
27.0141   410
27.0241   397
27.0341   424
27.0441   425
27.0541   411
27.0641   419
27.0741   439
27.0841   398
27.0941   393
27.1041   422
27.1141   405
27.1241   405
27.1341   400
27.1441   378
27.1541   423
27.1641   396
27.1741   390
27.1841   388
27.1941   458
27.2041   439
27.2141   414
27.2241   395
27.2341   393
27.2441   395
27.2541   383
27.2641   428
27.2741   425
27.2841   405
27.2941   377
27.3041   410
27.3141   398
27.3241   415
27.3341   425
27.3441   360
27.3541   385
27.3641   383
27.3741   399
27.3841   381
27.3941   404
27.4041   416
27.4141   415
27.4241   406
27.4341   403
27.4441   384
27.4541   424
27.4641   404
27.4741   386
27.4841   438
27.4941   436
27.5041   406
27.5141   405
27.5241   410
27.5341   396
27.5441   400
27.5541   405
27.5641   375
27.5741   384
27.5841   406
27.5941   408
27.6041   380
27.6141   439
27.6241   404
27.6341   400
27.6441   388
27.6541   384
27.6641   385
27.6741   371
27.6841   410
27.6941   404
27.7041   389
27.7141   389
27.7241   369
27.7341   394
27.7441   396
27.7541   408
27.7641   391
27.7741   357
27.7841   325
27.7941   375
27.8041   382
27.8141   358
27.8241   384
27.8341   380
27.8441   394
27.8541   351
27.8641   387
27.8741   380
27.8841   367
27.8941   397
27.9041   368
27.9141   349
27.9241   375
27.9341   379
27.9441   371
27.9541   383
27.9641   385
27.9741   361
27.9841   383
27.9941   362
28.0041   350
28.0141   362
28.0241   361
28.0341   376
28.0441   385
28.0541   383
28.0641   373
28.0741   376
28.0841   390
28.0941   340
28.1041   360
28.1141   348
28.1241   352
28.1341   331
28.1441   355
28.1541   348
28.1641   379
28.1741   371
28.1841   365
28.1941   318
28.2041   377
28.2141   340
28.2241   354
28.2341   364
28.2441   351
28.2541   358
28.2641   315
28.2741   342
28.2841   379
28.2941   388
28.3041   370
28.3141   367
28.3241   365
28.3341   361
28.3441   356
28.3541   336
28.3641   352
28.3741   350
28.3841   369
28.3941   354
28.4041   329
28.4141   345
28.4241   382
28.4341   345
28.4441   350
28.4541   350
28.4641   360
28.4741   395
28.4841   343
28.4941   347
28.5041   372
28.5141   327
28.5241   321
28.5341   321
28.5441   350
28.5541   338
28.5641   339
28.5741   337
28.5841   320
28.5941   301
28.6041   334
28.6141   325
28.6241   363
28.6341   343
28.6441   342
28.6541   326
28.6641   348
28.6741   357
28.6841   319
28.6941   330
28.7041   343
28.7141   328
28.7241   327
28.7341   315
28.7441   347
28.7541   355
28.7641   312
28.7741   301
28.7841   334
28.7941   369
28.8041   367
28.8141   340
28.8241   316
28.8341   333
28.8441   343
28.8541   331
28.8641   346
28.8741   326
28.8841   322
28.8941   308
28.9041   357
28.9141   333
28.9241   320
28.9341   332
28.9441   310
28.9541   312
28.9641   311
28.9741   295
28.9841   346
28.9941   359
29.0041   314
29.0141   310
29.0241   295
29.0341   315
29.0441   327
29.0541   337
29.0641   326
29.0741   329
29.0841   348
29.0941   340
29.1041   322
29.1141   304
29.1241   334
29.1341   324
29.1441   326
29.1541   316
29.1641   315
29.1741   321
29.1841   293
29.1941   330
29.2041   316
29.2141   323
29.2241   302
29.2341   306
29.2441   314
29.2541   303
29.2641   311
29.2741   307
29.2841   284
29.2941   302
29.3041   310
29.3141   304
29.3241   313
29.3341   305
29.3441   294
29.3541   292
29.3641   324
29.3741   322
29.3841   294
29.3941   287
29.4041   328
29.4141   277
29.4241   270
29.4341   302
29.4441   325
29.4541   319
29.4641   296
29.4741   287
29.4841   273
29.4941   306
29.5041   330
29.5141   332
29.5241   294
29.5341   334
29.5441   293
29.5541   296
29.5641   308
29.5741   304
29.5841   314
29.5941   281
29.6041   286
29.6141   304
29.6241   323
29.6341   290
29.6441   299
29.6541   303
29.6641   312
29.6741   295
29.6841   306
29.6941   319
29.7041   328
29.7141   312
29.7241   324
29.7341   288
29.7441   288
29.7541   322
29.7641   292
29.7741   299
29.7841   296
29.7941   306
29.8041   293
29.8141   288
29.8241   320
29.8341   294
29.8441   267
29.8541   290
29.8641   276
29.8741   312
29.8841   278
29.8941   282
29.9041   307
29.9141   290
29.9241   261
29.9341   296
29.9441   318
29.9541   269
29.9641   258
29.9741   298
29.9841   281
29.9941   312
30.0041   282
30.0141   281
30.0241   296
30.0341   322
30.0441   266
30.0541   294
30.0641   280
30.0741   304
30.0841   301
30.0941   290
30.1041   277
30.1141   286
30.1241   255
30.1341   263
30.1441   277
30.1541   288
30.1641   273
30.1741   287
30.1841   258
30.1941   278
30.2041   284
30.2141   291
30.2241   269
30.2341   264
30.2441   267
30.2541   282
30.2641   274
30.2741   292
30.2841   254
30.2941   261
30.3041   273
30.3141   258
30.3241   273
30.3341   268
30.3441   259
30.3541   294
30.3641   262
30.3741   254
30.3841   248
30.3941   258
30.4041   269
30.4141   267
30.4241   265
30.4341   262
30.4441   283
30.4541   274
30.4641   261
30.4741   253
30.4841   255
30.4941   258
30.5041   237
30.5141   258
30.5241   271
30.5341   242
30.5441   233
30.5541   263
30.5641   264
30.5741   268
30.5841   257
30.5941   255
30.6041   266
30.6141   266
30.6241   258
30.6341   292
30.6441   253
30.6541   240
30.6641   233
30.6741   243
30.6841   272
30.6941   252
30.7041   282
30.7141   258
30.7241   266
30.7341   268
30.7441   222
30.7541   254
30.7641   244
30.7741   228
30.7841   236
30.7941   244
30.8041   257
30.8141   245
30.8241   249
30.8341   249
30.8441   285
30.8541   285
30.8641   261
30.8741   252
30.8841   252
30.8941   249
30.9041   281
30.9141   288
30.9241   249
30.9341   238
30.9441   273
30.9541   243
30.9641   227
30.9741   235
30.9841   259
30.9941   257
31.0041   257
31.0141   253
31.0241   259
31.0341   266
31.0441   243
31.0541   217
31.0641   202
31.0741   221
31.0841   235
31.0941   236
31.1041   259
31.1141   244
31.1241   214
31.1341   237
31.1441   244
31.1541   238
31.1641   234
31.1741   231
31.1841   267
31.1941   229
31.2041   247
31.2141   253
31.2241   224
31.2341   236
31.2441   253
31.2541   219
31.2641   226
31.2741   239
31.2841   236
31.2941   218
31.3041   231
31.3141   232
31.3241   227
31.3341   264
31.3441   225
31.3541   215
31.3641   229
31.3741   204
31.3841   208
31.3941   209
31.4041   223
31.4141   237
31.4241   219
31.4341   227
31.4441   196
31.4541   225
31.4641   230
31.4741   225
31.4841   216
31.4941   219
31.5041   238
31.5141   234
31.5241   222
31.5341   196
31.5441   215
31.5541   196
31.5641   196
31.5741   220
31.5841   229
31.5941   211
31.6041   213
31.6141   215
31.6241   226
31.6341   215
31.6441   227
31.6541   216
31.6641   211
31.6741   217
31.6841   231
31.6941   240
31.7041   231
31.7141   227
31.7241   206
31.7341   213
31.7441   252
31.7541   244
31.7641   228
31.7741   232
31.7841   215
31.7941   214
31.8041   232
31.8141   205
31.8241   222
31.8341   219
31.8441   228
31.8541   232
31.8641   251
31.8741   233
31.8841   230
31.8941   243
31.9041   224
31.9141   221
31.9241   219
31.9341   187
31.9441   222
31.9541   200
31.9641   199
31.9741   218
31.9841   201
31.9941   180
32.0041   214
32.0141   202
32.0241   222
32.0341   214
32.0441   211
32.0541   236
32.0641   211
32.0741   235
32.0841   219
32.0941   216
32.1041   217
32.1141   236
32.1241   224
32.1341   189
32.1441   217
32.1541   214
32.1641   215
32.1741   210
32.1841   221
32.1941   188
32.2041   191
32.2141   206
32.2241   220
32.2341   224
32.2441   213
32.2541   238
32.2641   228
32.2741   216
32.2841   218
32.2941   191
32.3041   206
32.3141   187
32.3241   196
32.3341   204
32.3441   211
32.3541   223
32.3641   194
32.3741   174
32.3841   192
32.3941   197
32.4041   184
32.4141   194
32.4241   182
32.4341   188
32.4441   186
32.4541   184
32.4641   189
32.4741   183
32.4841   181
32.4941   175
32.5041   188
32.5141   176
32.5241   217
32.5341   198
32.5441   174
32.5541   154
32.5641   190
32.5741   197
32.5841   181
32.5941   172
32.6041   195
32.6141   184
32.6241   165
32.6341   165
32.6441   182
32.6541   199
32.6641   190
32.6741   165
32.6841   174
32.6941   171
32.7041   173
32.7141   185
32.7241   181
32.7341   190
32.7441   182
32.7541   217
32.7641   161
32.7741   198
32.7841   185
32.7941   179
32.8041   178
32.8141   173
32.8241   191
32.8341   176
32.8441   153
32.8541   181
32.8641   198
32.8741   176
32.8841   190
32.8941   182
32.9041   175
32.9141   172
32.9241   181
32.9341   188
32.9441   163
32.9541   178
32.9641   194
32.9741   188
32.9841   170
32.9941   177
33.0041   153
33.0141   182
33.0241   154
33.0341   174
33.0441   172
33.0541   185
33.0641   188
33.0741   165
33.0841   164
33.0941   162
33.1041   164
33.1141   180
33.1241   155
33.1341   174
33.1441   192
33.1541   169
33.1641   165
33.1741   178
33.1841   168
33.1941   176
33.2041   157
33.2141   170
33.2241   175
33.2341   170
33.2441   159
33.2541   176
33.2641   163
33.2741   171
33.2841   204
33.2941   173
33.3041   146
33.3141   158
33.3241   157
33.3341   172
33.3441   154
33.3541   163
33.3641   152
33.3741   140
33.3841   152
33.3941   170
33.4041   164
33.4141   160
33.4241   155
33.4341   152
33.4441   156
33.4541   166
33.4641   148
33.4741   160
33.4841   166
33.4941   164
33.5041   151
33.5141   160
33.5241   166
33.5341   162
33.5441   146
33.5541   154
33.5641   151
33.5741   172
33.5841   167
33.5941   158
33.6041   173
33.6141   164
33.6241   176
33.6341   141
33.6441   138
33.6541   158
33.6641   150
33.6741   153
33.6841   141
33.6941   154
33.7041   175
33.7141   143
33.7241   149
33.7341   154
33.7441   156
33.7541   161
33.7641   139
33.7741   140
33.7841   158
33.7941   157
33.8041   147
33.8141   142
33.8241   154
33.8341   161
33.8441   151
33.8541   139
33.8641   144
33.8741   155
33.8841   146
33.8941   149
33.9041   160
33.9141   130
33.9241   147
33.9341   145
33.9441   142
33.9541   143
33.9641   128
33.9741   142
33.9841   144
33.9941   152
34.0041   125
34.0141   165
34.0241   129
34.0341   131
34.0441   157
34.0541   116
34.0641   148
34.0741   144
34.0841   152
34.0941   167
34.1041   143
34.1141   147
34.1241   138
34.1341   144
34.1441   125
34.1541   149
34.1641   146
34.1741   149
34.1841   128
34.1941   137
34.2041   145
34.2141   143
34.2241   146
34.2341   143
34.2441   143
34.2541   136
34.2641   142
34.2741   137
34.2841   140
34.2941   127
34.3041   109
34.3141   138
34.3241   122
34.3341   134
34.3441   124
34.3541   122
34.3641   135
34.3741   137
34.3841   135
34.3941   140
34.4041   107
34.4141   133
34.4241   147
34.4341   141
34.4441   120
34.4541   129
34.4641   118
34.4741   107
34.4841   119
34.4941   133
34.5041   132
34.5141   146
34.5241   125
34.5341   113
34.5441   124
34.5541   135
34.5641   128
34.5741   129
34.5841   144
34.5941   122
34.6041   136
34.6141   127
34.6241   147
34.6341   126
34.6441   130
34.6541   131
34.6641   125
34.6741   138
34.6841   121
34.6941   141
34.7041   130
34.7141   106
34.7241   132
34.7341   124
34.7441   124
34.7541   120
34.7641   115
34.7741   118
34.7841   115
34.7941   120
34.8041   129
34.8141   123
34.8241    99
34.8341   138
34.8441   113
34.8541   137
34.8641   134
34.8741   127
34.8841   134
34.8941   142
34.9041   110
34.9141   112
34.9241   125
34.9341   129
34.9441   114
34.9541   114
34.9641   120
34.9741   127
34.9841   133
34.9941   135
35.0041   125
35.0141   119
35.0241   128
35.0341   119
35.0441   109
35.0541   123
35.0641   109
35.0741    96
35.0841   128
35.0941   137
35.1041   110
35.1141   100
35.1241   112
35.1341   122
35.1441   105
35.1541    95
35.1641   107
35.1741   131
35.1841   118
35.1941   103
35.2041   103
35.2141   126
35.2241   115
35.2341   110
35.2441   119
35.2541   113
35.2641    95
35.2741   102
35.2841   109
35.2941   104
35.3041   120
35.3141   107
35.3241   102
35.3341   109
35.3441   105
35.3541   116
35.3641    96
35.3741   115
35.3841   110
35.3941   104
35.4041    96
35.4141   112
35.4241   115
35.4341   124
35.4441   119
35.4541   115
35.4641    97
35.4741    95
35.4841   117
35.4941   104
35.5041   129
35.5141   122
35.5241   103
35.5341   111
35.5441   119
35.5541   103
35.5641    97
35.5741   107
35.5841    95
35.5941    87
35.6041   115
35.6141    93
35.6241   108
35.6341    89
35.6441   101
35.6541   115
35.6641   106
35.6741   105
35.6841   117
35.6941    98
35.7041    99
35.7141    97
35.7241   106
35.7341    95
35.7441    91
35.7541    97
35.7641   103
35.7741    96
35.7841    97
35.7941    98
35.8041    97
35.8141    87
35.8241    91
35.8341   106
35.8441    94
35.8541    95
35.8641   102
35.8741   100
35.8841   113
35.8941    95
35.9041   115
35.9141    98
35.9241    89
35.9341    74
35.9441    97
35.9541    86
35.9641   101
35.9741    97
35.9841    90
35.9941   102
36.0041   101
36.0141    90
36.0241    83
36.0341    87
36.0441    90
36.0541    92
36.0641    99
36.0741   103
36.0841   105
36.0941   126
36.1041    84
36.1141   102
36.1241   101
36.1341    80
36.1441    86
36.1541   100
36.1641    91
36.1741    91
36.1841   100
36.1941    99
36.2041    86
36.2141   102
36.2241   106
36.2341   120
36.2441    80
36.2541    92
36.2641    86
36.2741    97
36.2841   102
36.2941    84
36.3041    86
36.3141    94
36.3241    94
36.3341    89
36.3441    94
36.3541    86
36.3641    84
36.3741    83
36.3841    95
36.3941    77
36.4041    71
36.4141    85
36.4241    78
36.4341    78
36.4441    83
36.4541    75
36.4641    97
36.4741   105
36.4841    92
36.4941    85
36.5041    88
36.5141    82
36.5241    81
36.5341    76
36.5441    85
36.5541    92
36.5641    74
36.5741    80
36.5841    74
36.5941    96
36.6041    70
36.6141    82
36.6241    79
36.6341    61
36.6441    74
36.6541    84
36.6641    97
36.6741    99
36.6841    74
36.6941    82
36.7041    79
36.7141    95
36.7241    72
36.7341    77
36.7441    85
36.7541    85
36.7641    94
36.7741    90
36.7841    81
36.7941    75
36.8041    74
36.8141    80
36.8241    90
36.8341    78
36.8441    85
36.8541    77
36.8641    70
36.8741    82
36.8841    79
36.8941    69
36.9041    80
36.9141    74
36.9241    80
36.9341    83
36.9441    68
36.9541    70
36.9641    80
36.9741    89
36.9841    72
36.9941    93
37.0041    79
37.0141    62
37.0241    77
37.0341    73
37.0441    74
37.0541    73
37.0641    73
37.0741    50
37.0841    69
37.0941    71
37.1041    75
37.1141    68
37.1241    67
37.1341    67
37.1441    80
37.1541    77
37.1641    67
37.1741    81
37.1841    74
37.1941    60
37.2041    78
37.2141    73
37.2241    74
37.2341    86
37.2441    70
37.2541    71
37.2641    77
37.2741    62
37.2841    68
37.2941    65
37.3041    74
37.3141    68
37.3241    65
37.3341    51
37.3441    61
37.3541    65
37.3641    74
37.3741    71
37.3841    76
37.3941    76
37.4041    70
37.4141    51
37.4241    59
37.4341    76
37.4441    63
37.4541    71
37.4641    81
37.4741    69
37.4841    73
37.4941    75
37.5041    70
37.5141    84
37.5241    65
37.5341    64
37.5441    80
37.5541    67
37.5641    64
37.5741    57
37.5841    72
37.5941    76
37.6041    72
37.6141    75
37.6241    51
37.6341    48
37.6441    65
37.6541    77
37.6641    67
37.6741    68
37.6841    66
37.6941    62
37.7041    71
37.7141    65
37.7241    66
37.7341    79
37.7441    65
37.7541    59
37.7641    66
37.7741    66
37.7841    66
37.7941    64
37.8041    68
37.8141    61
37.8241    60
37.8341    54
37.8441    64
37.8541    60
37.8641    54
37.8741    54
37.8841    55
37.8941    69
37.9041    63
37.9141    69
37.9241    55
37.9341    76
37.9441    65
37.9541    50
37.9641    46
37.9741    64
37.9841    66
37.9941    62
38.0041    59
38.0141    60
38.0241    61
38.0341    55
38.0441    42
38.0541    55
38.0641    47
38.0741    53
38.0841    58
38.0941    48
38.1041    42
38.1141    63
38.1241    55
38.1341    64
38.1441    57
38.1541    67
38.1641    74
38.1741    50
38.1841    57
38.1941    67
38.2041    59
38.2141    52
38.2241    58
38.2341    53
38.2441    62
38.2541    50
38.2641    49
38.2741    50
38.2841    58
38.2941    53
38.3041    52
38.3141    58
38.3241    50
38.3341    55
38.3441    65
38.3541    56
38.3641    51
38.3741    66
38.3841    46
38.3941    47
38.4041    46
38.4141    46
38.4241    54
38.4341    43
38.4441    60
38.4541    47
38.4641    47
38.4741    46
38.4841    44
38.4941    41
38.5041    49
38.5141    45
38.5241    48
38.5341    60
38.5441    35
38.5541    52
38.5641    41
38.5741    29
38.5841    48
38.5941    44
38.6041    51
38.6141    53
38.6241    53
38.6341    48
38.6441    44
38.6541    38
38.6641    62
38.6741    47
38.6841    48
38.6941    48
38.7041    37
38.7141    40
38.7241    44
38.7341    47
38.7441    46
38.7541    52
38.7641    54
38.7741    45
38.7841    47
38.7941    46
38.8041    40
38.8141    48
38.8241    43
38.8341    40
38.8441    49
38.8541    49
38.8641    44
38.8741    46
38.8841    35
38.8941    37
38.9041    48
38.9141    56
38.9241    44
38.9341    53
38.9441    43
38.9541    42
38.9641    45
38.9741    39
38.9841    46
38.9941    50
39.0041    43
39.0141    55
39.0241    43
39.0341    37
39.0441    47
39.0541    24
39.0641    25
39.0741    36
39.0841    49
39.0941    44
39.1041    31
39.1141    39
39.1241    50
39.1341    37
39.1441    44
39.1541    43
39.1641    43
39.1741    37
39.1841    36
39.1941    34
39.2041    32
39.2141    37
39.2241    35
39.2341    43
39.2441    38
39.2541    44
39.2641    39
39.2741    39
39.2841    40
39.2941    32
39.3041    43
39.3141    38
39.3241    42
39.3341    34
39.3441    44
39.3541    41
39.3641    29
39.3741    37
39.3841    43
39.3941    37
39.4041    35
39.4141    28
39.4241    44
39.4341    38
39.4441    31
39.4541    43
39.4641    29
39.4741    32
39.4841    49
39.4941    56
39.5041    24
39.5141    26
39.5241    38
39.5341    35
39.5441    34
39.5541    32
39.5641    31
39.5741    32
39.5841    48
39.5941    36
39.6041    35
39.6141    29
39.6241    30
39.6341    27
39.6441    29
39.6541    37
39.6641    41
39.6741    33
39.6841    23
39.6941    34
39.7041    28
39.7141    33
39.7241    37
39.7341    27
39.7441    44
39.7541    35
39.7641    26
39.7741    37
39.7841    28
39.7941    25
39.8041    24
39.8141    39
39.8241    31
39.8341    26
39.8441    23
39.8541    24
39.8641    25
39.8741    39
39.8841    28
39.8941    22
39.9041    21
39.9141    28
39.9241    25
39.9341    33
39.9441    34
39.9541    35
39.9641    29
39.9741    28
39.9841    33
