Bruker Nano GmbH Berlin, Germany
Esprit 1.9

Date: 4/1/2021 4:21:27 PM
Real time: 24044
Life time: 22614
Pulse density: 87693


Detector type: XFlash 430
Window type: Custom type
Detector thickness: 0.45
Si dead layer:0.029

Calibration, lin.: 10
Calibration, abs.: -955.9
Mn FWHM: 137.05
Fano factor: 0.121
Channels: 4095

Energy Counts
-0.9559     0
-0.9459     0
-0.9359     0
-0.9259     0
-0.9159     0
-0.9059     0
-0.8959     0
-0.8859     0
-0.8759     0
-0.8659     0
-0.8559     0
-0.8459     0
-0.8359     0
-0.8259     0
-0.8159     0
-0.8059     0
-0.7959     0
-0.7859     0
-0.7759     0
-0.7659     0
-0.7559     0
-0.7459     0
-0.7359     0
-0.7259     0
-0.7159     0
-0.7059     0
-0.6959     0
-0.6859     0
-0.6759     0
-0.6659     0
-0.6559     0
-0.6459     0
-0.6359     0
-0.6259     0
-0.6159     0
-0.6059     0
-0.5959     0
-0.5859     0
-0.5759     0
-0.5659     0
-0.5559     0
-0.5459     0
-0.5359     0
-0.5259     0
-0.5159     0
-0.5059     0
-0.4959     0
-0.4859     0
-0.4759     0
-0.4659     0
-0.4559     0
-0.4459     0
-0.4359     0
-0.4259     0
-0.4159     0
-0.4059     0
-0.3959     0
-0.3859     0
-0.3759     0
-0.3659     0
-0.3559     0
-0.3459     0
-0.3359     0
-0.3259     0
-0.3159     0
-0.3059     0
-0.2959     0
-0.2859     0
-0.2759     0
-0.2659     0
-0.2559     0
-0.2459     0
-0.2359     0
-0.2259     0
-0.2159     0
-0.2059     0
-0.1959     0
-0.1859     0
-0.1759     0
-0.1659     0
-0.1559     0
-0.1459     0
-0.1359     0
-0.1259     2
-0.1159     5
-0.1059    16
-0.0959    69
-0.0859   272
-0.0759   841
-0.0659  2610
-0.0559  6514
-0.0459 14473
-0.0359 26786
-0.0259 43050
-0.0159 58825
-0.0059 69636
 0.0041 69971
 0.0141 59835
 0.0241 44034
 0.0341 28328
 0.0441 15183
 0.0541  6971
 0.0641  2768
 0.0741   983
 0.0841   283
 0.0941    77
 0.1041    27
 0.1141    13
 0.1241     7
 0.1341    11
 0.1441     3
 0.1541     6
 0.1641     2
 0.1741    22
 0.1841   211
 0.1941   401
 0.2041   373
 0.2141   365
 0.2241   379
 0.2341   365
 0.2441   333
 0.2541   340
 0.2641   368
 0.2741   340
 0.2841   352
 0.2941   370
 0.3041   357
 0.3141   345
 0.3241   342
 0.3341   331
 0.3441   353
 0.3541   353
 0.3641   326
 0.3741   310
 0.3841   331
 0.3941   336
 0.4041   303
 0.4141   302
 0.4241   329
 0.4341   298
 0.4441   282
 0.4541   287
 0.4641   329
 0.4741   319
 0.4841   314
 0.4941   315
 0.5041   317
 0.5141   314
 0.5241   303
 0.5341   319
 0.5441   303
 0.5541   305
 0.5641   314
 0.5741   277
 0.5841   275
 0.5941   279
 0.6041   272
 0.6141   265
 0.6241   288
 0.6341   289
 0.6441   271
 0.6541   277
 0.6641   276
 0.6741   275
 0.6841   267
 0.6941   275
 0.7041   260
 0.7141   261
 0.7241   260
 0.7341   249
 0.7441   247
 0.7541   242
 0.7641   259
 0.7741   246
 0.7841   262
 0.7941   255
 0.8041   237
 0.8141   255
 0.8241   254
 0.8341   241
 0.8441   258
 0.8541   278
 0.8641   244
 0.8741   245
 0.8841   247
 0.8941   257
 0.9041   240
 0.9141   232
 0.9241   239
 0.9341   242
 0.9441   255
 0.9541   225
 0.9641   208
 0.9741   216
 0.9841   242
 0.9941   240
 1.0041   252
 1.0141   233
 1.0241   223
 1.0341   218
 1.0441   238
 1.0541   231
 1.0641   229
 1.0741   216
 1.0841   247
 1.0941   242
 1.1041   215
 1.1141   220
 1.1241   233
 1.1341   226
 1.1441   209
 1.1541   205
 1.1641   221
 1.1741   221
 1.1841   214
 1.1941   230
 1.2041   209
 1.2141   207
 1.2241   225
 1.2341   224
 1.2441   196
 1.2541   197
 1.2641   207
 1.2741   202
 1.2841   233
 1.2941   229
 1.3041   226
 1.3141   208
 1.3241   187
 1.3341   201
 1.3441   209
 1.3541   217
 1.3641   209
 1.3741   200
 1.3841   204
 1.3941   212
 1.4041   198
 1.4141   212
 1.4241   222
 1.4341   221
 1.4441   228
 1.4541   182
 1.4641   213
 1.4741   222
 1.4841   217
 1.4941   236
 1.5041   210
 1.5141   219
 1.5241   218
 1.5341   194
 1.5441   215
 1.5541   201
 1.5641   205
 1.5741   192
 1.5841   192
 1.5941   208
 1.6041   195
 1.6141   196
 1.6241   197
 1.6341   230
 1.6441   241
 1.6541   257
 1.6641   286
 1.6741   365
 1.6841   466
 1.6941   532
 1.7041   643
 1.7141   769
 1.7241   875
 1.7341   898
 1.7441   892
 1.7541   849
 1.7641   731
 1.7741   644
 1.7841   547
 1.7941   465
 1.8041   409
 1.8141   361
 1.8241   321
 1.8341   277
 1.8441   269
 1.8541   267
 1.8641   231
 1.8741   223
 1.8841   216
 1.8941   212
 1.9041   206
 1.9141   203
 1.9241   170
 1.9341   200
 1.9441   217
 1.9541   233
 1.9641   232
 1.9741   219
 1.9841   248
 1.9941   250
 2.0041   263
 2.0141   268
 2.0241   248
 2.0341   251
 2.0441   226
 2.0541   235
 2.0641   196
 2.0741   198
 2.0841   192
 2.0941   210
 2.1041   200
 2.1141   200
 2.1241   189
 2.1341   202
 2.1441   187
 2.1541   200
 2.1641   192
 2.1741   187
 2.1841   193
 2.1941   194
 2.2041   167
 2.2141   169
 2.2241   174
 2.2341   172
 2.2441   182
 2.2541   182
 2.2641   184
 2.2741   166
 2.2841   138
 2.2941   186
 2.3041   169
 2.3141   171
 2.3241   167
 2.3341   170
 2.3441   168
 2.3541   183
 2.3641   157
 2.3741   154
 2.3841   185
 2.3941   163
 2.4041   144
 2.4141   159
 2.4241   152
 2.4341   145
 2.4441   166
 2.4541   162
 2.4641   159
 2.4741   172
 2.4841   166
 2.4941   167
 2.5041   178
 2.5141   159
 2.5241   155
 2.5341   162
 2.5441   158
 2.5541   162
 2.5641   157
 2.5741   166
 2.5841   155
 2.5941   164
 2.6041   165
 2.6141   140
 2.6241   166
 2.6341   172
 2.6441   156
 2.6541   168
 2.6641   155
 2.6741   123
 2.6841   143
 2.6941   144
 2.7041   157
 2.7141   166
 2.7241   153
 2.7341   167
 2.7441   162
 2.7541   149
 2.7641   180
 2.7741   154
 2.7841   143
 2.7941   171
 2.8041   153
 2.8141   171
 2.8241   174
 2.8341   149
 2.8441   137
 2.8541   154
 2.8641   149
 2.8741   160
 2.8841   162
 2.8941   157
 2.9041   126
 2.9141   156
 2.9241   127
 2.9341   139
 2.9441   124
 2.9541   154
 2.9641   164
 2.9741   147
 2.9841   145
 2.9941   155
 3.0041   137
 3.0141   142
 3.0241   131
 3.0341   151
 3.0441   125
 3.0541   162
 3.0641   144
 3.0741   144
 3.0841   134
 3.0941   124
 3.1041   134
 3.1141   137
 3.1241   125
 3.1341   155
 3.1441   139
 3.1541   131
 3.1641   140
 3.1741   139
 3.1841   146
 3.1941   154
 3.2041   161
 3.2141   182
 3.2241   186
 3.2341   212
 3.2441   272
 3.2541   329
 3.2641   390
 3.2741   435
 3.2841   526
 3.2941   530
 3.3041   546
 3.3141   532
 3.3241   568
 3.3341   545
 3.3441   488
 3.3541   466
 3.3641   349
 3.3741   288
 3.3841   276
 3.3941   206
 3.4041   179
 3.4141   146
 3.4241   149
 3.4341   130
 3.4441   139
 3.4541   127
 3.4641   139
 3.4741   134
 3.4841   135
 3.4941   135
 3.5041   140
 3.5141   151
 3.5241   151
 3.5341   185
 3.5441   174
 3.5541   205
 3.5641   256
 3.5741   303
 3.5841   348
 3.5941   385
 3.6041   508
 3.6141   683
 3.6241   820
 3.6341   944
 3.6441  1092
 3.6541  1274
 3.6641  1411
 3.6741  1562
 3.6841  1684
 3.6941  1602
 3.7041  1526
 3.7141  1452
 3.7241  1294
 3.7341  1053
 3.7441   904
 3.7541   767
 3.7641   559
 3.7741   405
 3.7841   304
 3.7941   253
 3.8041   187
 3.8141   163
 3.8241   155
 3.8341   132
 3.8441   116
 3.8541   123
 3.8641    91
 3.8741   102
 3.8841    99
 3.8941   133
 3.9041   136
 3.9141   132
 3.9241   162
 3.9341   174
 3.9441   200
 3.9541   218
 3.9641   256
 3.9741   301
 3.9841   289
 3.9941   324
 4.0041   302
 4.0141   337
 4.0241   316
 4.0341   318
 4.0441   265
 4.0541   252
 4.0641   226
 4.0741   183
 4.0841   156
 4.0941   152
 4.1041   140
 4.1141   114
 4.1241   119
 4.1341   116
 4.1441   106
 4.1541    89
 4.1641    82
 4.1741    95
 4.1841    97
 4.1941    85
 4.2041    82
 4.2141    75
 4.2241    84
 4.2341    96
 4.2441    77
 4.2541   105
 4.2641    82
 4.2741    91
 4.2841    92
 4.2941    93
 4.3041    92
 4.3141    90
 4.3241   108
 4.3341   110
 4.3441    93
 4.3541    88
 4.3641   124
 4.3741   114
 4.3841   123
 4.3941   139
 4.4041   190
 4.4141   204
 4.4241   241
 4.4341   279
 4.4441   326
 4.4541   352
 4.4641   390
 4.4741   488
 4.4841   480
 4.4941   493
 4.5041   481
 4.5141   475
 4.5241   466
 4.5341   399
 4.5441   417
 4.5541   388
 4.5641   311
 4.5741   240
 4.5841   207
 4.5941   185
 4.6041   164
 4.6141   138
 4.6241   146
 4.6341   144
 4.6441   105
 4.6541    94
 4.6641   100
 4.6741   103
 4.6841    98
 4.6941   120
 4.7041   120
 4.7141    90
 4.7241   124
 4.7341    98
 4.7441   123
 4.7541   110
 4.7641   118
 4.7741   123
 4.7841   121
 4.7941   148
 4.8041   165
 4.8141   153
 4.8241   154
 4.8341   163
 4.8441   170
 4.8541   176
 4.8641   183
 4.8741   191
 4.8841   186
 4.8941   179
 4.9041   194
 4.9141   204
 4.9241   188
 4.9341   208
 4.9441   193
 4.9541   180
 4.9641   167
 4.9741   181
 4.9841   153
 4.9941   133
 5.0041   141
 5.0141   129
 5.0241   128
 5.0341   106
 5.0441   110
 5.0541   125
 5.0641   114
 5.0741   109
 5.0841   114
 5.0941   103
 5.1041   121
 5.1141   109
 5.1241   107
 5.1341   114
 5.1441   121
 5.1541   118
 5.1641   130
 5.1741   125
 5.1841   135
 5.1941   123
 5.2041   110
 5.2141   115
 5.2241   101
 5.2341   112
 5.2441   123
 5.2541   135
 5.2641   121
 5.2741   121
 5.2841   139
 5.2941   136
 5.3041   135
 5.3141   155
 5.3241   152
 5.3341   173
 5.3441   205
 5.3541   196
 5.3641   225
 5.3741   235
 5.3841   266
 5.3941   248
 5.4041   270
 5.4141   294
 5.4241   275
 5.4341   258
 5.4441   248
 5.4541   254
 5.4641   199
 5.4741   209
 5.4841   180
 5.4941   162
 5.5041   172
 5.5141   165
 5.5241   140
 5.5341   136
 5.5441   122
 5.5541   125
 5.5641   133
 5.5741   110
 5.5841    90
 5.5941   126
 5.6041    97
 5.6141   107
 5.6241   124
 5.6341   100
 5.6441   119
 5.6541   112
 5.6641   131
 5.6741   122
 5.6841   124
 5.6941   149
 5.7041   129
 5.7141   111
 5.7241   138
 5.7341   177
 5.7441   158
 5.7541   147
 5.7641   182
 5.7741   194
 5.7841   236
 5.7941   268
 5.8041   275
 5.8141   335
 5.8241   409
 5.8341   446
 5.8441   487
 5.8541   617
 5.8641   580
 5.8741   618
 5.8841   646
 5.8941   629
 5.9041   671
 5.9141   638
 5.9241   595
 5.9341   601
 5.9441   507
 5.9541   479
 5.9641   399
 5.9741   345
 5.9841   307
 5.9941   260
 6.0041   217
 6.0141   210
 6.0241   196
 6.0341   160
 6.0441   156
 6.0541   172
 6.0641   156
 6.0741   146
 6.0841   159
 6.0941   138
 6.1041   160
 6.1141   154
 6.1241   153
 6.1341   167
 6.1441   172
 6.1541   190
 6.1641   223
 6.1741   192
 6.1841   247
 6.1941   259
 6.2041   332
 6.2141   437
 6.2241   527
 6.2341   716
 6.2441   934
 6.2541  1346
 6.2641  1842
 6.2741  2502
 6.2841  3374
 6.2941  4319
 6.3041  5689
 6.3141  7157
 6.3241  8848
 6.3341 10625
 6.3441 12345
 6.3541 14198
 6.3641 15942
 6.3741 16820
 6.3841 17867
 6.3941 18266
 6.4041 18109
 6.4141 17684
 6.4241 16663
 6.4341 15383
 6.4441 13428
 6.4541 11914
 6.4641 10068
 6.4741  8240
 6.4841  6809
 6.4941  5194
 6.5041  3884
 6.5141  2876
 6.5241  2207
 6.5341  1580
 6.5441  1175
 6.5541   818
 6.5641   578
 6.5741   477
 6.5841   338
 6.5941   276
 6.6041   234
 6.6141   203
 6.6241   190
 6.6341   188
 6.6441   174
 6.6541   174
 6.6641   176
 6.6741   188
 6.6841   177
 6.6941   160
 6.7041   171
 6.7141   177
 6.7241   186
 6.7341   180
 6.7441   186
 6.7541   183
 6.7641   188
 6.7741   197
 6.7841   212
 6.7941   179
 6.8041   200
 6.8141   215
 6.8241   233
 6.8341   233
 6.8441   239
 6.8541   248
 6.8641   250
 6.8741   284
 6.8841   319
 6.8941   415
 6.9041   458
 6.9141   563
 6.9241   659
 6.9341   800
 6.9441   865
 6.9541  1117
 6.9641  1363
 6.9741  1586
 6.9841  1874
 6.9941  2048
 7.0041  2330
 7.0141  2605
 7.0241  2750
 7.0341  2993
 7.0441  3111
 7.0541  3092
 7.0641  3111
 7.0741  2910
 7.0841  2743
 7.0941  2580
 7.1041  2252
 7.1141  1973
 7.1241  1744
 7.1341  1494
 7.1441  1220
 7.1541  1004
 7.1641   839
 7.1741   652
 7.1841   531
 7.1941   470
 7.2041   386
 7.2141   340
 7.2241   305
 7.2341   284
 7.2441   265
 7.2541   223
 7.2641   253
 7.2741   258
 7.2841   272
 7.2941   244
 7.3041   268
 7.3141   295
 7.3241   313
 7.3341   324
 7.3441   359
 7.3541   337
 7.3641   372
 7.3741   394
 7.3841   440
 7.3941   476
 7.4041   502
 7.4141   509
 7.4241   517
 7.4341   519
 7.4441   531
 7.4541   556
 7.4641   556
 7.4741   537
 7.4841   538
 7.4941   515
 7.5041   546
 7.5141   465
 7.5241   403
 7.5341   407
 7.5441   419
 7.5541   384
 7.5641   296
 7.5741   309
 7.5841   278
 7.5941   287
 7.6041   234
 7.6141   276
 7.6241   259
 7.6341   275
 7.6441   226
 7.6541   287
 7.6641   250
 7.6741   242
 7.6841   264
 7.6941   255
 7.7041   258
 7.7141   255
 7.7241   245
 7.7341   290
 7.7441   328
 7.7541   261
 7.7641   285
 7.7741   327
 7.7841   281
 7.7941   307
 7.8041   295
 7.8141   296
 7.8241   311
 7.8341   309
 7.8441   299
 7.8541   359
 7.8641   348
 7.8741   386
 7.8841   324
 7.8941   365
 7.9041   404
 7.9141   424
 7.9241   451
 7.9341   484
 7.9441   488
 7.9541   510
 7.9641   520
 7.9741   577
 7.9841   651
 7.9941   678
 8.0041   760
 8.0141   804
 8.0241   841
 8.0341   859
 8.0441   936
 8.0541  1032
 8.0641  1143
 8.0741  1158
 8.0841  1239
 8.0941  1254
 8.1041  1336
 8.1141  1368
 8.1241  1429
 8.1341  1484
 8.1441  1593
 8.1541  1516
 8.1641  1631
 8.1741  1673
 8.1841  1696
 8.1941  1753
 8.2041  1815
 8.2141  1830
 8.2241  1827
 8.2341  1984
 8.2441  2069
 8.2541  2218
 8.2641  2331
 8.2741  2508
 8.2841  2752
 8.2941  3015
 8.3041  3320
 8.3141  3555
 8.3241  3938
 8.3341  4208
 8.3441  4546
 8.3541  4827
 8.3641  4923
 8.3741  5189
 8.3841  5119
 8.3941  5104
 8.4041  4901
 8.4141  4688
 8.4241  4325
 8.4341  3988
 8.4441  3625
 8.4541  3300
 8.4641  2843
 8.4741  2462
 8.4841  2115
 8.4941  1780
 8.5041  1455
 8.5141  1160
 8.5241  1000
 8.5341   841
 8.5441   709
 8.5541   604
 8.5641   551
 8.5741   467
 8.5841   448
 8.5941   458
 8.6041   427
 8.6141   437
 8.6241   376
 8.6341   409
 8.6441   387
 8.6541   427
 8.6641   425
 8.6741   439
 8.6841   421
 8.6941   414
 8.7041   359
 8.7141   409
 8.7241   392
 8.7341   383
 8.7441   355
 8.7541   341
 8.7641   360
 8.7741   375
 8.7841   368
 8.7941   377
 8.8041   363
 8.8141   368
 8.8241   370
 8.8341   372
 8.8441   376
 8.8541   365
 8.8641   381
 8.8741   356
 8.8841   367
 8.8941   365
 8.9041   387
 8.9141   410
 8.9241   406
 8.9341   388
 8.9441   393
 8.9541   396
 8.9641   367
 8.9741   438
 8.9841   458
 8.9941   436
 9.0041   448
 9.0141   458
 9.0241   431
 9.0341   435
 9.0441   467
 9.0541   485
 9.0641   500
 9.0741   494
 9.0841   510
 9.0941   521
 9.1041   524
 9.1141   582
 9.1241   608
 9.1341   620
 9.1441   675
 9.1541   668
 9.1641   726
 9.1741   728
 9.1841   702
 9.1941   766
 9.2041   802
 9.2141   887
 9.2241   950
 9.2341   942
 9.2441  1081
 9.2541  1100
 9.2641  1131
 9.2741  1158
 9.2841  1157
 9.2941  1254
 9.3041  1333
 9.3141  1306
 9.3241  1382
 9.3341  1448
 9.3441  1465
 9.3541  1456
 9.3641  1568
 9.3741  1567
 9.3841  1583
 9.3941  1596
 9.4041  1629
 9.4141  1651
 9.4241  1694
 9.4341  1711
 9.4441  1712
 9.4541  1724
 9.4641  1720
 9.4741  1750
 9.4841  1837
 9.4941  1860
 9.5041  1872
 9.5141  1912
 9.5241  2008
 9.5341  2146
 9.5441  2163
 9.5541  2226
 9.5641  2433
 9.5741  2492
 9.5841  2690
 9.5941  2795
 9.6041  2998
 9.6141  3051
 9.6241  3218
 9.6341  3311
 9.6441  3509
 9.6541  3495
 9.6641  3510
 9.6741  3516
 9.6841  3500
 9.6941  3348
 9.7041  3189
 9.7141  3049
 9.7241  2897
 9.7341  2708
 9.7441  2485
 9.7541  2292
 9.7641  2122
 9.7741  1963
 9.7841  1832
 9.7941  1735
 9.8041  1633
 9.8141  1485
 9.8241  1409
 9.8341  1433
 9.8441  1419
 9.8541  1399
 9.8641  1456
 9.8741  1475
 9.8841  1405
 9.8941  1527
 9.9041  1502
 9.9141  1569
 9.9241  1627
 9.9341  1615
 9.9441  1630
 9.9541  1609
 9.9641  1600
 9.9741  1555
 9.9841  1532
 9.9941  1445
10.0041  1357
10.0141  1260
10.0241  1159
10.0341  1041
10.0441   947
10.0541   842
10.0641   783
10.0741   693
10.0841   625
10.0941   552
10.1041   503
10.1141   456
10.1241   403
10.1341   386
10.1441   363
10.1541   337
10.1641   330
10.1741   321
10.1841   293
10.1941   307
10.2041   281
10.2141   268
10.2241   280
10.2341   273
10.2441   230
10.2541   244
10.2641   232
10.2741   229
10.2841   232
10.2941   209
10.3041   192
10.3141   207
10.3241   210
10.3341   225
10.3441   205
10.3541   209
10.3641   204
10.3741   211
10.3841   215
10.3941   200
10.4041   212
10.4141   220
10.4241   220
10.4341   235
10.4441   234
10.4541   225
10.4641   226
10.4741   237
10.4841   247
10.4941   258
10.5041   270
10.5141   244
10.5241   247
10.5341   260
10.5441   276
10.5541   277
10.5641   270
10.5741   267
10.5841   279
10.5941   259
10.6041   261
10.6141   247
10.6241   262
10.6341   270
10.6441   254
10.6541   283
10.6641   280
10.6741   248
10.6841   264
10.6941   281
10.7041   268
10.7141   271
10.7241   262
10.7341   263
10.7441   287
10.7541   292
10.7641   285
10.7741   289
10.7841   283
10.7941   291
10.8041   327
10.8141   339
10.8241   334
10.8341   323
10.8441   312
10.8541   322
10.8641   331
10.8741   379
10.8841   367
10.8941   377
10.9041   372
10.9141   344
10.9241   368
10.9341   370
10.9441   339
10.9541   345
10.9641   373
10.9741   361
10.9841   352
10.9941   361
11.0041   357
11.0141   354
11.0241   343
11.0341   333
11.0441   343
11.0541   320
11.0641   324
11.0741   326
11.0841   315
11.0941   329
11.1041   313
11.1141   324
11.1241   311
11.1341   321
11.1441   360
11.1541   335
11.1641   332
11.1741   377
11.1841   408
11.1941   435
11.2041   459
11.2141   442
11.2241   445
11.2341   456
11.2441   472
11.2541   508
11.2641   525
11.2741   531
11.2841   524
11.2941   530
11.3041   527
11.3141   525
11.3241   496
11.3341   479
11.3441   431
11.3541   436
11.3641   420
11.3741   376
11.3841   351
11.3941   328
11.4041   317
11.4141   338
11.4241   327
11.4341   290
11.4441   266
11.4541   262
11.4641   263
11.4741   241
11.4841   260
11.4941   249
11.5041   255
11.5141   248
11.5241   237
11.5341   236
11.5441   247
11.5541   245
11.5641   249
11.5741   267
11.5841   257
11.5941   269
11.6041   282
11.6141   280
11.6241   283
11.6341   280
11.6441   284
11.6541   250
11.6641   260
11.6741   279
11.6841   269
11.6941   250
11.7041   242
11.7141   230
11.7241   242
11.7341   225
11.7441   220
11.7541   206
11.7641   197
11.7741   212
11.7841   220
11.7941   218
11.8041   188
11.8141   186
11.8241   187
11.8341   206
11.8441   206
11.8541   202
11.8641   190
11.8741   178
11.8841   180
11.8941   186
11.9041   199
11.9141   201
11.9241   204
11.9341   192
11.9441   187
11.9541   179
11.9641   186
11.9741   187
11.9841   184
11.9941   182
12.0041   179
12.0141   208
12.0241   195
12.0341   163
12.0441   195
12.0541   208
12.0641   204
12.0741   191
12.0841   192
12.0941   184
12.1041   174
12.1141   191
12.1241   191
12.1341   180
12.1441   179
12.1541   184
12.1641   190
12.1741   184
12.1841   174
12.1941   186
12.2041   185
12.2141   199
12.2241   190
12.2341   182
12.2441   179
12.2541   172
12.2641   178
12.2741   182
12.2841   189
12.2941   176
12.3041   183
12.3141   175
12.3241   185
12.3341   175
12.3441   181
12.3541   181
12.3641   183
12.3741   176
12.3841   177
12.3941   169
12.4041   184
12.4141   192
12.4241   189
12.4341   180
12.4441   184
12.4541   175
12.4641   184
12.4741   200
12.4841   195
12.4941   184
12.5041   195
12.5141   210
12.5241   207
12.5341   193
12.5441   204
12.5541   207
12.5641   210
12.5741   214
12.5841   202
12.5941   207
12.6041   188
12.6141   199
12.6241   215
12.6341   228
12.6441   236
12.6541   222
12.6641   243
12.6741   232
12.6841   206
12.6941   218
12.7041   225
12.7141   211
12.7241   200
12.7341   209
12.7441   206
12.7541   206
12.7641   212
12.7741   210
12.7841   209
12.7941   209
12.8041   207
12.8141   209
12.8241   214
12.8341   214
12.8441   214
12.8541   214
12.8641   212
12.8741   213
12.8841   216
12.8941   213
12.9041   208
12.9141   203
12.9241   204
12.9341   207
12.9441   209
12.9541   210
12.9641   215
12.9741   216
12.9841   217
12.9941   223
13.0041   229
13.0141   225
13.0241   216
13.0341   217
13.0441   232
13.0541   233
13.0641   226
13.0741   225
13.0841   221
13.0941   223
13.1041   235
13.1141   224
13.1241   226
13.1341   237
13.1441   244
13.1541   256
13.1641   265
13.1741   264
13.1841   259
13.1941   264
13.2041   287
13.2141   307
13.2241   315
13.2341   332
13.2441   356
13.2541   388
13.2641   431
13.2741   453
13.2841   482
13.2941   493
13.3041   495
13.3141   512
13.3241   539
13.3341   586
13.3441   583
13.3541   599
13.3641   657
13.3741   645
13.3841   580
13.3941   583
13.4041   593
13.4141   581
13.4241   558
13.4341   541
13.4441   524
13.4541   494
13.4641   457
13.4741   447
13.4841   425
13.4941   404
13.5041   378
13.5141   340
13.5241   328
13.5341   299
13.5441   290
13.5541   282
13.5641   277
13.5741   267
13.5841   255
13.5941   252
13.6041   239
13.6141   253
13.6241   283
13.6341   268
13.6441   257
13.6541   275
13.6641   287
13.6741   280
13.6841   272
13.6941   255
13.7041   246
13.7141   276
13.7241   269
13.7341   258
13.7441   267
13.7541   249
13.7641   251
13.7741   259
13.7841   259
13.7941   272
13.8041   279
13.8141   274
13.8241   271
13.8341   286
13.8441   296
13.8541   283
13.8641   272
13.8741   275
13.8841   295
13.8941   307
13.9041   297
13.9141   307
13.9241   328
13.9341   336
13.9441   342
13.9541   352
13.9641   392
13.9741   425
13.9841   451
13.9941   486
14.0041   522
14.0141   552
14.0241   570
14.0341   608
14.0441   651
14.0541   668
14.0641   712
14.0741   820
14.0841   855
14.0941   897
14.1041   934
14.1141   950
14.1241   980
14.1341   956
14.1441   979
14.1541   977
14.1641   955
14.1741   970
14.1841   959
14.1941   905
14.2041   855
14.2141   802
14.2241   733
14.2341   705
14.2441   679
14.2541   625
14.2641   569
14.2741   509
14.2841   469
14.2941   445
14.3041   440
14.3141   407
14.3241   373
14.3341   375
14.3441   356
14.3541   333
14.3641   326
14.3741   319
14.3841   323
14.3941   315
14.4041   314
14.4141   309
14.4241   299
14.4341   303
14.4441   285
14.4541   273
14.4641   275
14.4741   297
14.4841   313
14.4941   311
14.5041   317
14.5141   316
14.5241   313
14.5341   304
14.5441   298
14.5541   289
14.5641   292
14.5741   295
14.5841   303
14.5941   311
14.6041   299
14.6141   285
14.6241   290
14.6341   283
14.6441   289
14.6541   320
14.6641   323
14.6741   307
14.6841   294
14.6941   321
14.7041   358
14.7141   338
14.7241   318
14.7341   317
14.7441   314
14.7541   316
14.7641   326
14.7741   333
14.7841   346
14.7941   355
14.8041   359
14.8141   356
14.8241   348
14.8341   342
14.8441   361
14.8541   367
14.8641   371
14.8741   385
14.8841   385
14.8941   408
14.9041   409
14.9141   402
14.9241   381
14.9341   378
14.9441   388
14.9541   394
14.9641   398
14.9741   419
14.9841   399
14.9941   387
15.0041   399
15.0141   394
15.0241   393
15.0341   361
15.0441   370
15.0541   373
15.0641   365
15.0741   354
15.0841   365
15.0941   363
15.1041   346
15.1141   330
15.1241   351
15.1341   375
15.1441   367
15.1541   346
15.1641   326
15.1741   328
15.1841   341
15.1941   352
15.2041   340
15.2141   328
15.2241   343
15.2341   344
15.2441   332
15.2541   343
15.2641   331
15.2741   330
15.2841   352
15.2941   327
15.3041   314
15.3141   326
15.3241   342
15.3341   326
15.3441   321
15.3541   336
15.3641   347
15.3741   362
15.3841   348
15.3941   344
15.4041   332
15.4141   348
15.4241   349
15.4341   325
15.4441   343
15.4541   361
15.4641   372
15.4741   366
15.4841   361
15.4941   356
15.5041   380
15.5141   362
15.5241   352
15.5341   353
15.5441   376
15.5541   390
15.5641   406
15.5741   409
15.5841   403
15.5941   431
15.6041   435
15.6141   424
15.6241   460
15.6341   477
15.6441   472
15.6541   515
15.6641   544
15.6741   566
15.6841   597
15.6941   577
15.7041   585
15.7141   590
15.7241   617
15.7341   613
15.7441   634
15.7541   704
15.7641   662
15.7741   647
15.7841   649
15.7941   671
15.8041   684
15.8141   632
15.8241   610
15.8341   596
15.8441   582
15.8541   599
15.8641   603
15.8741   585
15.8841   555
15.8941   541
15.9041   529
15.9141   509
15.9241   499
15.9341   491
15.9441   478
15.9541   472
15.9641   456
15.9741   427
15.9841   422
15.9941   436
16.0041   431
16.0141   415
16.0241   430
16.0341   433
16.0441   410
16.0541   403
16.0641   382
16.0741   380
16.0841   394
16.0941   399
16.1041   401
16.1141   403
16.1241   424
16.1341   413
16.1441   422
16.1541   427
16.1641   407
16.1741   383
16.1841   398
16.1941   409
16.2041   410
16.2141   418
16.2241   410
16.2341   411
16.2441   419
16.2541   431
16.2641   437
16.2741   416
16.2841   413
16.2941   418
16.3041   410
16.3141   409
16.3241   408
16.3341   426
16.3441   444
16.3541   424
16.3641   429
16.3741   431
16.3841   400
16.3941   396
16.4041   405
16.4141   411
16.4241   428
16.4341   434
16.4441   451
16.4541   451
16.4641   455
16.4741   449
16.4841   435
16.4941   431
16.5041   452
16.5141   435
16.5241   434
16.5341   423
16.5441   439
16.5541   442
16.5641   466
16.5741   443
16.5841   438
16.5941   448
16.6041   457
16.6141   435
16.6241   441
16.6341   478
16.6441   461
16.6541   428
16.6641   448
16.6741   436
16.6841   428
16.6941   457
16.7041   481
16.7141   441
16.7241   417
16.7341   446
16.7441   472
16.7541   451
16.7641   457
16.7741   452
16.7841   435
16.7941   443
16.8041   451
16.8141   450
16.8241   453
16.8341   443
16.8441   454
16.8541   445
16.8641   443
16.8741   439
16.8841   426
16.8941   433
16.9041   446
16.9141   476
16.9241   460
16.9341   449
16.9441   448
16.9541   462
16.9641   476
16.9741   471
16.9841   467
16.9941   477
17.0041   454
17.0141   444
17.0241   473
17.0341   475
17.0441   455
17.0541   465
17.0641   475
17.0741   469
17.0841   458
17.0941   461
17.1041   460
17.1141   474
17.1241   440
17.1341   463
17.1441   467
17.1541   460
17.1641   446
17.1741   449
17.1841   467
17.1941   469
17.2041   476
17.2141   495
17.2241   480
17.2341   468
17.2441   486
17.2541   475
17.2641   488
17.2741   492
17.2841   483
17.2941   483
17.3041   466
17.3141   465
17.3241   477
17.3341   503
17.3441   489
17.3541   495
17.3641   478
17.3741   476
17.3841   489
17.3941   497
17.4041   514
17.4141   518
17.4241   497
17.4341   517
17.4441   487
17.4541   483
17.4641   487
17.4741   502
17.4841   507
17.4941   527
17.5041   506
17.5141   527
17.5241   496
17.5341   531
17.5441   542
17.5541   552
17.5641   535
17.5741   531
17.5841   538
17.5941   571
17.6041   529
17.6141   488
17.6241   514
17.6341   578
17.6441   528
17.6541   536
17.6641   577
17.6741   526
17.6841   550
17.6941   563
17.7041   518
17.7141   535
17.7241   545
17.7341   544
17.7441   559
17.7541   549
17.7641   525
17.7741   521
17.7841   565
17.7941   531
17.8041   548
17.8141   523
17.8241   527
17.8341   562
17.8441   537
17.8541   559
17.8641   542
17.8741   560
17.8841   556
17.8941   532
17.9041   503
17.9141   517
17.9241   507
17.9341   516
17.9441   526
17.9541   508
17.9641   536
17.9741   521
17.9841   543
17.9941   528
18.0041   518
18.0141   513
18.0241   530
18.0341   537
18.0441   544
18.0541   538
18.0641   517
18.0741   564
18.0841   557
18.0941   526
18.1041   530
18.1141   560
18.1241   559
18.1341   545
18.1441   552
18.1541   539
18.1641   548
18.1741   546
18.1841   544
18.1941   556
18.2041   547
18.2141   572
18.2241   579
18.2341   550
18.2441   525
18.2541   549
18.2641   567
18.2741   559
18.2841   534
18.2941   543
18.3041   539
18.3141   569
18.3241   557
18.3341   537
18.3441   544
18.3541   563
18.3641   541
18.3741   525
18.3841   560
18.3941   585
18.4041   565
18.4141   560
18.4241   574
18.4341   595
18.4441   570
18.4541   568
18.4641   547
18.4741   533
18.4841   548
18.4941   575
18.5041   578
18.5141   560
18.5241   549
18.5341   560
18.5441   542
18.5541   581
18.5641   564
18.5741   573
18.5841   549
18.5941   565
18.6041   564
18.6141   582
18.6241   587
18.6341   578
18.6441   602
18.6541   584
18.6641   566
18.6741   582
18.6841   584
18.6941   594
18.7041   584
18.7141   587
18.7241   532
18.7341   558
18.7441   550
18.7541   590
18.7641   577
18.7741   576
18.7841   577
18.7941   574
18.8041   601
18.8141   586
18.8241   586
18.8341   589
18.8441   567
18.8541   586
18.8641   593
18.8741   590
18.8841   583
18.8941   577
18.9041   619
18.9141   579
18.9241   610
18.9341   608
18.9441   577
18.9541   595
18.9641   593
18.9741   563
18.9841   597
18.9941   577
19.0041   571
19.0141   576
19.0241   571
19.0341   584
19.0441   605
19.0541   564
19.0641   581
19.0741   604
19.0841   586
19.0941   587
19.1041   568
19.1141   611
19.1241   583
19.1341   618
19.1441   614
19.1541   580
19.1641   583
19.1741   612
19.1841   606
19.1941   601
19.2041   582
19.2141   590
19.2241   591
19.2341   579
19.2441   605
19.2541   589
19.2641   618
19.2741   611
19.2841   622
19.2941   593
19.3041   620
19.3141   619
19.3241   603
19.3341   623
19.3441   610
19.3541   615
19.3641   612
19.3741   584
19.3841   582
19.3941   617
19.4041   623
19.4141   608
19.4241   629
19.4341   591
19.4441   591
19.4541   600
19.4641   612
19.4741   599
19.4841   621
19.4941   610
19.5041   618
19.5141   620
19.5241   601
19.5341   614
19.5441   599
19.5541   610
19.5641   627
19.5741   657
19.5841   630
19.5941   602
19.6041   636
19.6141   625
19.6241   644
19.6341   645
19.6441   610
19.6541   601
19.6641   619
19.6741   650
19.6841   588
19.6941   616
19.7041   627
19.7141   624
19.7241   609
19.7341   579
19.7441   610
19.7541   632
19.7641   614
19.7741   659
19.7841   625
19.7941   609
19.8041   629
19.8141   604
19.8241   631
19.8341   618
19.8441   604
19.8541   638
19.8641   645
19.8741   618
19.8841   602
19.8941   642
19.9041   617
19.9141   625
19.9241   656
19.9341   615
19.9441   636
19.9541   640
19.9641   658
19.9741   613
19.9841   608
19.9941   641
20.0041   643
20.0141   640
20.0241   663
20.0341   636
20.0441   612
20.0541   625
20.0641   620
20.0741   596
20.0841   613
20.0941   655
20.1041   646
20.1141   649
20.1241   661
20.1341   643
20.1441   655
20.1541   623
20.1641   618
20.1741   647
20.1841   679
20.1941   611
20.2041   644
20.2141   638
20.2241   633
20.2341   640
20.2441   657
20.2541   637
20.2641   604
20.2741   607
20.2841   643
20.2941   648
20.3041   671
20.3141   651
20.3241   669
20.3341   650
20.3441   661
20.3541   711
20.3641   661
20.3741   649
20.3841   622
20.3941   652
20.4041   639
20.4141   645
20.4241   638
20.4341   628
20.4441   690
20.4541   641
20.4641   629
20.4741   615
20.4841   655
20.4941   637
20.5041   612
20.5141   618
20.5241   624
20.5341   661
20.5441   668
20.5541   636
20.5641   662
20.5741   634
20.5841   640
20.5941   620
20.6041   640
20.6141   644
20.6241   650
20.6341   670
20.6441   680
20.6541   685
20.6641   649
20.6741   611
20.6841   614
20.6941   669
20.7041   638
20.7141   660
20.7241   676
20.7341   674
20.7441   653
20.7541   673
20.7641   670
20.7741   639
20.7841   653
20.7941   691
20.8041   685
20.8141   682
20.8241   663
20.8341   730
20.8441   663
20.8541   698
20.8641   695
20.8741   769
20.8841   745
20.8941   721
20.9041   752
20.9141   763
20.9241   744
20.9341   732
20.9441   817
20.9541   829
20.9641   843
20.9741   816
20.9841   889
20.9941   893
21.0041   851
21.0141   906
21.0241   948
21.0341   900
21.0441   939
21.0541   911
21.0641   935
21.0741   955
21.0841   954
21.0941   986
21.1041  1006
21.1141   985
21.1241   948
21.1341   947
21.1441   963
21.1541   961
21.1641   980
21.1741   938
21.1841   949
21.1941   959
21.2041   968
21.2141   943
21.2241   935
21.2341   910
21.2441   841
21.2541   844
21.2641   851
21.2741   815
21.2841   809
21.2941   799
21.3041   785
21.3141   780
21.3241   783
21.3341   822
21.3441   754
21.3541   704
21.3641   714
21.3741   668
21.3841   650
21.3941   684
21.4041   692
21.4141   686
21.4241   711
21.4341   660
21.4441   696
21.4541   652
21.4641   649
21.4741   658
21.4841   680
21.4941   676
21.5041   687
21.5141   674
21.5241   663
21.5341   722
21.5441   676
21.5541   656
21.5641   665
21.5741   626
21.5841   647
21.5941   663
21.6041   652
21.6141   682
21.6241   660
21.6341   637
21.6441   686
21.6541   655
21.6641   690
21.6741   658
21.6841   646
21.6941   638
21.7041   652
21.7141   619
21.7241   643
21.7341   710
21.7441   679
21.7541   688
21.7641   698
21.7741   652
21.7841   654
21.7941   647
21.8041   682
21.8141   663
21.8241   656
21.8341   651
21.8441   657
21.8541   645
21.8641   659
21.8741   649
21.8841   658
21.8941   707
21.9041   624
21.9141   670
21.9241   674
21.9341   642
21.9441   637
21.9541   624
21.9641   670
21.9741   661
21.9841   661
21.9941   684
22.0041   648
22.0141   709
22.0241   628
22.0341   663
22.0441   639
22.0541   633
22.0641   669
22.0741   657
22.0841   626
22.0941   661
22.1041   650
22.1141   669
22.1241   662
22.1341   657
22.1441   626
22.1541   678
22.1641   648
22.1741   614
22.1841   652
22.1941   646
22.2041   648
22.2141   654
22.2241   679
22.2341   663
22.2441   700
22.2541   636
22.2641   644
22.2741   692
22.2841   659
22.2941   661
22.3041   628
22.3141   695
22.3241   665
22.3341   641
22.3441   653
22.3541   665
22.3641   660
22.3741   647
22.3841   610
22.3941   643
22.4041   651
22.4141   644
22.4241   648
22.4341   643
22.4441   662
22.4541   638
22.4641   685
22.4741   619
22.4841   652
22.4941   659
22.5041   672
22.5141   693
22.5241   666
22.5341   649
22.5441   650
22.5541   584
22.5641   703
22.5741   632
22.5841   652
22.5941   650
22.6041   615
22.6141   679
22.6241   672
22.6341   680
22.6441   642
22.6541   686
22.6641   670
22.6741   641
22.6841   643
22.6941   660
22.7041   636
22.7141   603
22.7241   686
22.7341   626
22.7441   620
22.7541   683
22.7641   645
22.7741   624
22.7841   638
22.7941   646
22.8041   650
22.8141   613
22.8241   669
22.8341   641
22.8441   655
22.8541   617
22.8641   668
22.8741   698
22.8841   622
22.8941   634
22.9041   615
22.9141   622
22.9241   648
22.9341   620
22.9441   615
22.9541   642
22.9641   623
22.9741   625
22.9841   654
22.9941   645
23.0041   635
23.0141   620
23.0241   625
23.0341   664
23.0441   653
23.0541   659
23.0641   673
23.0741   664
23.0841   692
23.0941   624
23.1041   643
23.1141   624
23.1241   670
23.1341   610
23.1441   604
23.1541   627
23.1641   658
23.1741   645
23.1841   619
23.1941   631
23.2041   645
23.2141   655
23.2241   622
23.2341   627
23.2441   608
23.2541   642
23.2641   640
23.2741   629
23.2841   640
23.2941   603
23.3041   633
23.3141   590
23.3241   641
23.3341   617
23.3441   621
23.3541   635
23.3641   590
23.3741   609
23.3841   643
23.3941   698
23.4041   603
23.4141   614
23.4241   645
23.4341   665
23.4441   629
23.4541   624
23.4641   620
23.4741   661
23.4841   644
23.4941   649
23.5041   635
23.5141   596
23.5241   584
23.5341   651
23.5441   653
23.5541   676
23.5641   643
23.5741   626
23.5841   627
23.5941   593
23.6041   658
23.6141   682
23.6241   647
23.6341   635
23.6441   657
23.6541   684
23.6641   593
23.6741   618
23.6841   642
23.6941   685
23.7041   656
23.7141   649
23.7241   709
23.7341   694
23.7441   675
23.7541   629
23.7641   624
23.7741   725
23.7841   678
23.7941   650
23.8041   669
23.8141   678
23.8241   659
23.8341   685
23.8441   652
23.8541   680
23.8641   692
23.8741   713
23.8841   637
23.8941   670
23.9041   653
23.9141   643
23.9241   657
23.9341   687
23.9441   664
23.9541   689
23.9641   661
23.9741   660
23.9841   649
23.9941   616
24.0041   645
24.0141   626
24.0241   619
24.0341   647
24.0441   626
24.0541   636
24.0641   657
24.0741   599
24.0841   575
24.0941   627
24.1041   629
24.1141   571
24.1241   695
24.1341   580
24.1441   638
24.1541   610
24.1641   663
24.1741   612
24.1841   578
24.1941   643
24.2041   615
24.2141   604
24.2241   634
24.2341   661
24.2441   635
24.2541   599
24.2641   626
24.2741   656
24.2841   605
24.2941   609
24.3041   614
24.3141   616
24.3241   560
24.3341   595
24.3441   573
24.3541   607
24.3641   564
24.3741   581
24.3841   602
24.3941   626
24.4041   593
24.4141   594
24.4241   636
24.4341   621
24.4441   581
24.4541   608
24.4641   580
24.4741   587
24.4841   590
24.4941   570
24.5041   621
24.5141   589
24.5241   638
24.5341   583
24.5441   608
24.5541   594
24.5641   589
24.5741   617
24.5841   581
24.5941   577
24.6041   578
24.6141   579
24.6241   656
24.6341   573
24.6441   574
24.6541   557
24.6641   600
24.6741   567
24.6841   597
24.6941   646
24.7041   585
24.7141   627
24.7241   587
24.7341   629
24.7441   594
24.7541   554
24.7641   573
24.7741   590
24.7841   574
24.7941   602
24.8041   596
24.8141   606
24.8241   576
24.8341   598
24.8441   597
24.8541   570
24.8641   570
24.8741   606
24.8841   595
24.8941   602
24.9041   614
24.9141   577
24.9241   593
24.9341   576
24.9441   578
24.9541   612
24.9641   594
24.9741   596
24.9841   581
24.9941   574
25.0041   584
25.0141   593
25.0241   585
25.0341   579
25.0441   617
25.0541   602
25.0641   605
25.0741   600
25.0841   623
25.0941   617
25.1041   584
25.1141   587
25.1241   559
25.1341   589
25.1441   594
25.1541   612
25.1641   574
25.1741   611
25.1841   573
25.1941   553
25.2041   560
25.2141   581
25.2241   549
25.2341   594
25.2441   621
25.2541   623
25.2641   627
25.2741   610
25.2841   597
25.2941   611
25.3041   572
25.3141   570
25.3241   559
25.3341   583
25.3441   575
25.3541   567
25.3641   573
25.3741   592
25.3841   574
25.3941   610
25.4041   535
25.4141   562
25.4241   514
25.4341   578
25.4441   562
25.4541   537
25.4641   586
25.4741   589
25.4841   526
25.4941   535
25.5041   543
25.5141   575
25.5241   552
25.5341   568
25.5441   564
25.5541   528
25.5641   554
25.5741   561
25.5841   538
25.5941   578
25.6041   577
25.6141   554
25.6241   542
25.6341   565
25.6441   555
25.6541   502
25.6641   521
25.6741   533
25.6841   531
25.6941   550
25.7041   520
25.7141   527
25.7241   540
25.7341   531
25.7441   546
25.7541   541
25.7641   553
25.7741   528
25.7841   531
25.7941   512
25.8041   541
25.8141   541
25.8241   506
25.8341   520
25.8441   544
25.8541   578
25.8641   557
25.8741   528
25.8841   538
25.8941   557
25.9041   523
25.9141   535
25.9241   513
25.9341   540
25.9441   513
25.9541   526
25.9641   540
25.9741   507
25.9841   535
25.9941   514
26.0041   553
26.0141   572
26.0241   542
26.0341   511
26.0441   558
26.0541   486
26.0641   526
26.0741   511
26.0841   517
26.0941   569
26.1041   515
26.1141   501
26.1241   567
26.1341   527
26.1441   534
26.1541   544
26.1641   501
26.1741   543
26.1841   547
26.1941   546
26.2041   510
26.2141   524
26.2241   509
26.2341   545
26.2441   525
26.2541   520
26.2641   524
26.2741   551
26.2841   476
26.2941   533
26.3041   500
26.3141   500
26.3241   506
26.3341   525
26.3441   498
26.3541   524
26.3641   554
26.3741   549
26.3841   503
26.3941   515
26.4041   509
26.4141   526
26.4241   536
26.4341   536
26.4441   521
26.4541   519
26.4641   515
26.4741   468
26.4841   516
26.4941   532
26.5041   506
26.5141   505
26.5241   486
26.5341   488
26.5441   508
26.5541   496
26.5641   496
26.5741   507
26.5841   524
26.5941   510
26.6041   468
26.6141   507
26.6241   490
26.6341   482
26.6441   526
26.6541   525
26.6641   522
26.6741   512
26.6841   522
26.6941   472
26.7041   516
26.7141   489
26.7241   525
26.7341   502
26.7441   486
26.7541   473
26.7641   498
26.7741   532
26.7841   508
26.7941   517
26.8041   476
26.8141   475
26.8241   492
26.8341   480
26.8441   527
26.8541   522
26.8641   476
26.8741   490
26.8841   469
26.8941   480
26.9041   487
26.9141   457
26.9241   520
26.9341   455
26.9441   470
26.9541   458
26.9641   484
26.9741   534
26.9841   496
26.9941   490
27.0041   476
27.0141   473
27.0241   503
27.0341   501
27.0441   443
27.0541   505
27.0641   490
27.0741   490
27.0841   481
27.0941   492
27.1041   500
27.1141   508
27.1241   485
27.1341   477
27.1441   486
27.1541   448
27.1641   460
27.1741   464
27.1841   471
27.1941   467
27.2041   492
27.2141   469
27.2241   506
27.2341   505
27.2441   441
27.2541   498
27.2641   469
27.2741   471
27.2841   430
27.2941   487
27.3041   451
27.3141   445
27.3241   484
27.3341   445
27.3441   510
27.3541   463
27.3641   442
27.3741   474
27.3841   447
27.3941   477
27.4041   490
27.4141   472
27.4241   513
27.4341   470
27.4441   502
27.4541   509
27.4641   488
27.4741   450
27.4841   439
27.4941   480
27.5041   455
27.5141   473
27.5241   469
27.5341   469
27.5441   459
27.5541   421
27.5641   432
27.5741   462
27.5841   448
27.5941   475
27.6041   468
27.6141   420
27.6241   502
27.6341   456
27.6441   468
27.6541   465
27.6641   460
27.6741   432
27.6841   413
27.6941   448
27.7041   472
27.7141   424
27.7241   457
27.7341   480
27.7441   445
27.7541   437
27.7641   443
27.7741   440
27.7841   405
27.7941   448
27.8041   453
27.8141   439
27.8241   416
27.8341   422
27.8441   443
27.8541   429
27.8641   404
27.8741   455
27.8841   425
27.8941   422
27.9041   454
27.9141   461
27.9241   418
27.9341   478
27.9441   423
27.9541   445
27.9641   459
27.9741   428
27.9841   438
27.9941   419
28.0041   437
28.0141   414
28.0241   402
28.0341   431
28.0441   435
28.0541   453
28.0641   383
28.0741   406
28.0841   433
28.0941   450
28.1041   432
28.1141   436
28.1241   405
28.1341   450
28.1441   443
28.1541   405
28.1641   423
28.1741   408
28.1841   371
28.1941   415
28.2041   402
28.2141   433
28.2241   438
28.2341   406
28.2441   417
28.2541   451
28.2641   392
28.2741   426
28.2841   393
28.2941   423
28.3041   393
28.3141   429
28.3241   413
28.3341   405
28.3441   417
28.3541   412
28.3641   433
28.3741   438
28.3841   422
28.3941   424
28.4041   425
28.4141   411
28.4241   425
28.4341   425
28.4441   466
28.4541   418
28.4641   401
28.4741   408
28.4841   420
28.4941   415
28.5041   384
28.5141   389
28.5241   432
28.5341   380
28.5441   410
28.5541   394
28.5641   436
28.5741   431
28.5841   425
28.5941   411
28.6041   391
28.6141   397
28.6241   416
28.6341   412
28.6441   427
28.6541   412
28.6641   384
28.6741   371
28.6841   420
28.6941   380
28.7041   387
28.7141   418
28.7241   422
28.7341   383
28.7441   385
28.7541   418
28.7641   401
28.7741   397
28.7841   401
28.7941   391
28.8041   373
28.8141   412
28.8241   402
28.8341   384
28.8441   375
28.8541   356
28.8641   362
28.8741   395
28.8841   392
28.8941   373
28.9041   381
28.9141   402
28.9241   384
28.9341   414
28.9441   363
28.9541   364
28.9641   412
28.9741   387
28.9841   380
28.9941   396
29.0041   378
29.0141   376
29.0241   380
29.0341   400
29.0441   384
29.0541   406
29.0641   372
29.0741   366
29.0841   370
29.0941   409
29.1041   368
29.1141   385
29.1241   371
29.1341   359
29.1441   370
29.1541   409
29.1641   359
29.1741   368
29.1841   378
29.1941   359
29.2041   380
29.2141   386
29.2241   351
29.2341   373
29.2441   334
29.2541   394
29.2641   371
29.2741   355
29.2841   378
29.2941   358
29.3041   374
29.3141   380
29.3241   401
29.3341   368
29.3441   386
29.3541   392
29.3641   363
29.3741   359
29.3841   382
29.3941   350
29.4041   412
29.4141   346
29.4241   357
29.4341   379
29.4441   363
29.4541   370
29.4641   400
29.4741   364
29.4841   372
29.4941   381
29.5041   358
29.5141   367
29.5241   373
29.5341   360
29.5441   383
29.5541   370
29.5641   378
29.5741   346
29.5841   372
29.5941   356
29.6041   329
29.6141   377
29.6241   359
29.6341   331
29.6441   347
29.6541   349
29.6641   358
29.6741   349
29.6841   346
29.6941   362
29.7041   362
29.7141   344
29.7241   342
29.7341   346
29.7441   336
29.7541   329
29.7641   347
29.7741   345
29.7841   353
29.7941   357
29.8041   348
29.8141   369
29.8241   361
29.8341   325
29.8441   373
29.8541   349
29.8641   359
29.8741   342
29.8841   314
29.8941   339
29.9041   307
29.9141   326
29.9241   323
29.9341   352
29.9441   360
29.9541   311
29.9641   349
29.9741   358
29.9841   333
29.9941   323
30.0041   329
30.0141   306
30.0241   309
30.0341   364
30.0441   332
30.0541   326
30.0641   344
30.0741   356
30.0841   339
30.0941   351
30.1041   322
30.1141   312
30.1241   326
30.1341   328
30.1441   342
30.1541   338
30.1641   349
30.1741   333
30.1841   314
30.1941   341
30.2041   331
30.2141   360
30.2241   314
30.2341   308
30.2441   314
30.2541   300
30.2641   326
30.2741   295
30.2841   300
30.2941   303
30.3041   334
30.3141   345
30.3241   298
30.3341   301
30.3441   317
30.3541   311
30.3641   315
30.3741   366
30.3841   317
30.3941   294
30.4041   318
30.4141   308
30.4241   274
30.4341   315
30.4441   317
30.4541   297
30.4641   340
30.4741   341
30.4841   357
30.4941   312
30.5041   285
30.5141   315
30.5241   302
30.5341   295
30.5441   309
30.5541   324
30.5641   289
30.5741   333
30.5841   295
30.5941   285
30.6041   294
30.6141   318
30.6241   280
30.6341   304
30.6441   335
30.6541   288
30.6641   303
30.6741   308
30.6841   317
30.6941   276
30.7041   322
30.7141   320
30.7241   312
30.7341   305
30.7441   307
30.7541   286
30.7641   286
30.7741   323
30.7841   299
30.7941   265
30.8041   320
30.8141   318
30.8241   311
30.8341   329
30.8441   300
30.8541   320
30.8641   308
30.8741   272
30.8841   297
30.8941   318
30.9041   262
30.9141   277
30.9241   281
30.9341   298
30.9441   280
30.9541   278
30.9641   337
30.9741   299
30.9841   279
30.9941   298
31.0041   307
31.0141   286
31.0241   290
31.0341   319
31.0441   253
31.0541   282
31.0641   246
31.0741   270
31.0841   298
31.0941   275
31.1041   285
31.1141   285
31.1241   288
31.1341   261
31.1441   272
31.1541   294
31.1641   294
31.1741   284
31.1841   288
31.1941   268
31.2041   256
31.2141   297
31.2241   322
31.2341   295
31.2441   269
31.2541   262
31.2641   273
31.2741   269
31.2841   263
31.2941   305
31.3041   273
31.3141   257
31.3241   261
31.3341   269
31.3441   258
31.3541   268
31.3641   281
31.3741   280
31.3841   284
31.3941   272
31.4041   248
31.4141   282
31.4241   280
31.4341   252
31.4441   265
31.4541   284
31.4641   274
31.4741   284
31.4841   282
31.4941   239
31.5041   263
31.5141   280
31.5241   262
31.5341   253
31.5441   257
31.5541   281
31.5641   280
31.5741   252
31.5841   278
31.5941   252
31.6041   281
31.6141   275
31.6241   259
31.6341   284
31.6441   266
31.6541   260
31.6641   297
31.6741   277
31.6841   270
31.6941   266
31.7041   273
31.7141   286
31.7241   271
31.7341   261
31.7441   278
31.7541   270
31.7641   288
31.7741   270
31.7841   269
31.7941   263
31.8041   304
31.8141   277
31.8241   268
31.8341   289
31.8441   296
31.8541   299
31.8641   298
31.8741   266
31.8841   239
31.8941   275
31.9041   279
31.9141   282
31.9241   267
31.9341   272
31.9441   275
31.9541   256
31.9641   293
31.9741   274
31.9841   239
31.9941   283
32.0041   269
32.0141   269
32.0241   252
32.0341   253
32.0441   285
32.0541   285
32.0641   254
32.0741   270
32.0841   284
32.0941   303
32.1041   283
32.1141   269
32.1241   279
32.1341   275
32.1441   295
32.1541   287
32.1641   291
32.1741   276
32.1841   253
32.1941   294
32.2041   300
32.2141   300
32.2241   295
32.2341   283
32.2441   299
32.2541   280
32.2641   262
32.2741   286
32.2841   286
32.2941   275
32.3041   268
32.3141   253
32.3241   250
32.3341   254
32.3441   246
32.3541   260
32.3641   240
32.3741   254
32.3841   270
32.3941   241
32.4041   238
32.4141   223
32.4241   255
32.4341   232
32.4441   236
32.4541   222
32.4641   227
32.4741   237
32.4841   258
32.4941   259
32.5041   243
32.5141   204
32.5241   218
32.5341   238
32.5441   225
32.5541   232
32.5641   215
32.5741   209
32.5841   212
32.5941   227
32.6041   192
32.6141   245
32.6241   224
32.6341   237
32.6441   234
32.6541   233
32.6641   205
32.6741   204
32.6841   241
32.6941   212
32.7041   242
32.7141   235
32.7241   224
32.7341   230
32.7441   199
32.7541   212
32.7641   200
32.7741   214
32.7841   203
32.7941   195
32.8041   230
32.8141   218
32.8241   236
32.8341   187
32.8441   232
32.8541   211
32.8641   197
32.8741   217
32.8841   213
32.8941   190
32.9041   203
32.9141   216
32.9241   233
32.9341   198
32.9441   214
32.9541   194
32.9641   199
32.9741   220
32.9841   238
32.9941   205
33.0041   184
33.0141   194
33.0241   217
33.0341   215
33.0441   203
33.0541   194
33.0641   205
33.0741   214
33.0841   195
33.0941   198
33.1041   191
33.1141   221
33.1241   198
33.1341   165
33.1441   195
33.1541   177
33.1641   191
33.1741   220
33.1841   190
33.1941   205
33.2041   197
33.2141   212
33.2241   225
33.2341   199
33.2441   224
33.2541   194
33.2641   201
33.2741   190
33.2841   212
33.2941   211
33.3041   203
33.3141   217
33.3241   212
33.3341   206
33.3441   227
33.3541   189
33.3641   203
33.3741   205
33.3841   185
33.3941   204
33.4041   199
33.4141   198
33.4241   205
33.4341   199
33.4441   210
33.4541   205
33.4641   174
33.4741   185
33.4841   197
33.4941   192
33.5041   192
33.5141   180
33.5241   206
33.5341   169
33.5441   184
33.5541   218
33.5641   192
33.5741   195
33.5841   198
33.5941   191
33.6041   205
33.6141   183
33.6241   188
33.6341   191
33.6441   171
33.6541   177
33.6641   199
33.6741   174
33.6841   183
33.6941   161
33.7041   202
33.7141   196
33.7241   178
33.7341   196
33.7441   172
33.7541   180
33.7641   195
33.7741   181
33.7841   185
33.7941   208
33.8041   188
33.8141   165
33.8241   188
33.8341   174
33.8441   183
33.8541   170
33.8641   180
33.8741   173
33.8841   191
33.8941   176
33.9041   155
33.9141   177
33.9241   164
33.9341   172
33.9441   160
33.9541   171
33.9641   165
33.9741   174
33.9841   164
33.9941   176
34.0041   168
34.0141   160
34.0241   171
34.0341   169
34.0441   146
34.0541   165
34.0641   172
34.0741   172
34.0841   163
34.0941   171
34.1041   149
34.1141   156
34.1241   180
34.1341   166
34.1441   171
34.1541   150
34.1641   153
34.1741   169
34.1841   162
34.1941   173
34.2041   160
34.2141   180
34.2241   177
34.2341   175
34.2441   184
34.2541   145
34.2641   157
34.2741   171
34.2841   153
34.2941   159
34.3041   164
34.3141   174
34.3241   165
34.3341   159
34.3441   152
34.3541   153
34.3641   170
34.3741   163
34.3841   170
34.3941   155
34.4041   161
34.4141   160
34.4241   191
34.4341   143
34.4441   143
34.4541   158
34.4641   166
34.4741   151
34.4841   140
34.4941   137
34.5041   148
34.5141   199
34.5241   160
34.5341   144
34.5441   154
34.5541   150
34.5641   132
34.5741   148
34.5841   136
34.5941   158
34.6041   167
34.6141   131
34.6241   153
34.6341   139
34.6441   158
34.6541   172
34.6641   155
34.6741   159
34.6841   136
34.6941   142
34.7041   148
34.7141   170
34.7241   144
34.7341   152
34.7441   176
34.7541   130
34.7641   146
34.7741   139
34.7841   137
34.7941   152
34.8041   141
34.8141   165
34.8241   145
34.8341   153
34.8441   153
34.8541   148
34.8641   158
34.8741   120
34.8841   141
34.8941   153
34.9041   127
34.9141   135
34.9241   150
34.9341   147
34.9441   153
34.9541   124
34.9641   141
34.9741   141
34.9841   141
34.9941   158
35.0041   125
35.0141   145
35.0241   145
35.0341   154
35.0441   136
35.0541   145
35.0641   134
35.0741   129
35.0841   129
35.0941   146
35.1041   136
35.1141   141
35.1241   153
35.1341   144
35.1441   148
35.1541   132
35.1641   142
35.1741   132
35.1841   130
35.1941   154
35.2041   158
35.2141   154
35.2241   127
35.2341   145
35.2441   130
35.2541   138
35.2641   133
35.2741   115
35.2841   124
35.2941   114
35.3041   149
35.3141   135
35.3241   124
35.3341   137
35.3441   139
35.3541   134
35.3641   118
35.3741   123
35.3841   127
35.3941   143
35.4041   124
35.4141   135
35.4241   145
35.4341   146
35.4441   127
35.4541   134
35.4641   118
35.4741   126
35.4841   146
35.4941   137
35.5041   125
35.5141   133
35.5241   135
35.5341   127
35.5441   146
35.5541   110
35.5641   150
35.5741   147
35.5841   116
35.5941   119
35.6041   122
35.6141   113
35.6241   123
35.6341   126
35.6441   137
35.6541   119
35.6641   123
35.6741   114
35.6841   105
35.6941   112
35.7041   121
35.7141   119
35.7241   151
35.7341   132
35.7441   121
35.7541   129
35.7641   130
35.7741   110
35.7841   129
35.7941    93
35.8041   123
35.8141   117
35.8241   116
35.8341   129
35.8441   127
35.8541   122
35.8641   115
35.8741   121
35.8841   127
35.8941   107
35.9041   118
35.9141   126
35.9241   113
35.9341   103
35.9441   108
35.9541   119
35.9641   118
35.9741   105
35.9841   114
35.9941   115
36.0041   126
36.0141   116
36.0241   124
36.0341   113
36.0441   109
36.0541   125
36.0641   105
36.0741   132
36.0841   113
36.0941   103
36.1041   101
36.1141   119
36.1241    99
36.1341   118
36.1441   134
36.1541   101
36.1641   118
36.1741   100
36.1841   119
36.1941   130
36.2041   114
36.2141   107
36.2241   119
36.2341   116
36.2441   115
36.2541   122
36.2641   118
36.2741   124
36.2841    99
36.2941   119
36.3041   130
36.3141   106
36.3241   100
36.3341    97
36.3441    94
36.3541   119
36.3641   130
36.3741   115
36.3841   117
36.3941   113
36.4041   116
36.4141   121
36.4241   113
36.4341   113
36.4441   121
36.4541   105
36.4641   104
36.4741    96
36.4841   119
36.4941   111
36.5041    87
36.5141   110
36.5241    99
36.5341   105
36.5441   116
36.5541   108
36.5641   114
36.5741   128
36.5841   103
36.5941   116
36.6041    96
36.6141   109
36.6241   113
36.6341    98
36.6441    81
36.6541    97
36.6641   111
36.6741   103
36.6841   111
36.6941    83
36.7041    87
36.7141   105
36.7241    95
36.7341   101
36.7441   100
36.7541   103
36.7641   100
36.7741   106
36.7841    97
36.7941   102
36.8041    74
36.8141    99
36.8241    91
36.8341    86
36.8441    78
36.8541    82
36.8641    88
36.8741   111
36.8841    74
36.8941    96
36.9041    90
36.9141    84
36.9241    97
36.9341    89
36.9441    97
36.9541   111
36.9641    96
36.9741    89
36.9841   102
36.9941    79
37.0041    95
37.0141    89
37.0241    86
37.0341    78
37.0441    97
37.0541    82
37.0641    81
37.0741    89
37.0841    91
37.0941    96
37.1041   119
37.1141    77
37.1241    91
37.1341    89
37.1441    96
37.1541    80
37.1641    83
37.1741    82
37.1841    95
37.1941    91
37.2041    97
37.2141    80
37.2241    84
37.2341    86
37.2441    83
37.2541    70
37.2641    81
37.2741    85
37.2841    84
37.2941    76
37.3041    80
37.3141    82
37.3241    76
37.3341    71
37.3441    76
37.3541    72
37.3641    85
37.3741    86
37.3841    84
37.3941    81
37.4041    94
37.4141    64
37.4241    93
37.4341    67
37.4441    87
37.4541    82
37.4641    69
37.4741    78
37.4841    87
37.4941    76
37.5041    74
37.5141    83
37.5241    81
37.5341    71
37.5441    75
37.5541    82
37.5641    81
37.5741    71
37.5841    65
37.5941    81
37.6041    83
37.6141    80
37.6241    74
37.6341    80
37.6441    80
37.6541    83
37.6641    76
37.6741    87
37.6841    67
37.6941    93
37.7041    94
37.7141    56
37.7241    77
37.7341    63
37.7441    70
37.7541    56
37.7641    65
37.7741    67
37.7841    64
37.7941    75
37.8041    81
37.8141    74
37.8241    61
37.8341    68
37.8441    89
37.8541    71
37.8641    82
37.8741    62
37.8841    57
37.8941    65
37.9041    68
37.9141    76
37.9241    94
37.9341    81
37.9441    76
37.9541    59
37.9641    76
37.9741    71
37.9841    71
37.9941    70
38.0041    72
38.0141    84
38.0241    64
38.0341    79
38.0441    62
38.0541    72
38.0641    66
38.0741    85
38.0841    66
38.0941    62
38.1041    82
38.1141    68
38.1241    52
38.1341    62
38.1441    65
38.1541    66
38.1641    69
38.1741    70
38.1841    66
38.1941    61
38.2041    59
38.2141    47
38.2241    59
38.2341    63
38.2441    59
38.2541    74
38.2641    54
38.2741    56
38.2841    70
38.2941    50
38.3041    71
38.3141    69
38.3241    56
38.3341    78
38.3441    62
38.3541    60
38.3641    72
38.3741    70
38.3841    64
38.3941    68
38.4041    68
38.4141    76
38.4241    62
38.4341    66
38.4441    71
38.4541    69
38.4641    51
38.4741    66
38.4841    76
38.4941    50
38.5041    62
38.5141    65
38.5241    46
38.5341    61
38.5441    64
38.5541    61
38.5641    63
38.5741    56
38.5841    53
38.5941    51
38.6041    64
38.6141    58
38.6241    66
38.6341    54
38.6441    51
38.6541    49
38.6641    60
38.6741    78
38.6841    53
38.6941    61
38.7041    61
38.7141    54
38.7241    73
38.7341    56
38.7441    51
38.7541    55
38.7641    56
38.7741    56
38.7841    51
38.7941    57
38.8041    59
38.8141    50
38.8241    63
38.8341    65
38.8441    67
38.8541    52
38.8641    53
38.8741    50
38.8841    44
38.8941    56
38.9041    51
38.9141    58
38.9241    53
38.9341    55
38.9441    63
38.9541    51
38.9641    53
38.9741    58
38.9841    57
38.9941    53
39.0041    51
39.0141    45
39.0241    46
39.0341    52
39.0441    64
39.0541    50
39.0641    59
39.0741    63
39.0841    51
39.0941    53
39.1041    50
39.1141    49
39.1241    50
39.1341    44
39.1441    47
39.1541    58
39.1641    64
39.1741    56
39.1841    45
39.1941    50
39.2041    55
39.2141    46
39.2241    43
39.2341    58
39.2441    57
39.2541    53
39.2641    50
39.2741    55
39.2841    40
39.2941    48
39.3041    29
39.3141    47
39.3241    39
39.3341    40
39.3441    37
39.3541    44
39.3641    31
39.3741    30
39.3841    49
39.3941    38
39.4041    51
39.4141    40
39.4241    52
39.4341    55
39.4441    36
39.4541    42
39.4641    49
39.4741    50
39.4841    43
39.4941    36
39.5041    44
39.5141    56
39.5241    43
39.5341    38
39.5441    46
39.5541    49
39.5641    33
39.5741    50
39.5841    45
39.5941    43
39.6041    42
39.6141    35
39.6241    49
39.6341    30
39.6441    47
39.6541    47
39.6641    41
39.6741    34
39.6841    39
39.6941    38
39.7041    40
39.7141    42
39.7241    37
39.7341    44
39.7441    39
39.7541    36
39.7641    32
39.7741    32
39.7841    41
39.7941    41
39.8041    36
39.8141    39
39.8241    49
39.8341    29
39.8441    53
39.8541    35
39.8641    41
39.8741    37
39.8841    43
39.8941    39
39.9041    28
39.9141    42
39.9241    46
39.9341    36
39.9441    28
39.9541    37
39.9641    33
39.9741    38
39.9841    48
