Bruker Nano GmbH Berlin, Germany
Esprit 1.9

Date: 4/21/2021 2:22:18 PM
Real time: 11420
Life time: 10423
Pulse density: 134374


Detector type: XFlash 430
Window type: Custom type
Detector thickness: 0.45
Si dead layer:0.029

Calibration, lin.: 10
Calibration, abs.: -955.9
Mn FWHM: 137.05
Fano factor: 0.121
Channels: 4095

Energy Counts
-0.9559     0
-0.9459     0
-0.9359     0
-0.9259     0
-0.9159     0
-0.9059     0
-0.8959     0
-0.8859     0
-0.8759     0
-0.8659     0
-0.8559     0
-0.8459     0
-0.8359     0
-0.8259     0
-0.8159     0
-0.8059     0
-0.7959     0
-0.7859     0
-0.7759     0
-0.7659     0
-0.7559     0
-0.7459     0
-0.7359     0
-0.7259     0
-0.7159     0
-0.7059     0
-0.6959     0
-0.6859     0
-0.6759     0
-0.6659     0
-0.6559     0
-0.6459     0
-0.6359     0
-0.6259     0
-0.6159     0
-0.6059     0
-0.5959     0
-0.5859     0
-0.5759     0
-0.5659     0
-0.5559     0
-0.5459     0
-0.5359     0
-0.5259     0
-0.5159     0
-0.5059     0
-0.4959     0
-0.4859     0
-0.4759     0
-0.4659     0
-0.4559     0
-0.4459     0
-0.4359     0
-0.4259     0
-0.4159     0
-0.4059     0
-0.3959     0
-0.3859     0
-0.3759     0
-0.3659     0
-0.3559     0
-0.3459     0
-0.3359     0
-0.3259     0
-0.3159     0
-0.3059     0
-0.2959     0
-0.2859     0
-0.2759     0
-0.2659     0
-0.2559     0
-0.2459     0
-0.2359     0
-0.2259     0
-0.2159     0
-0.2059     0
-0.1959     0
-0.1859     0
-0.1759     0
-0.1659     0
-0.1559     0
-0.1459     0
-0.1359     0
-0.1259     0
-0.1159     1
-0.1059    11
-0.0959    27
-0.0859   104
-0.0759   390
-0.0659  1290
-0.0559  3085
-0.0459  6557
-0.0359 12422
-0.0259 19678
-0.0159 27175
-0.0059 32255
 0.0041 32117
 0.0141 27731
 0.0241 20308
 0.0341 12868
 0.0441  6920
 0.0541  3278
 0.0641  1335
 0.0741   484
 0.0841   136
 0.0941    43
 0.1041     9
 0.1141     5
 0.1241     4
 0.1341     5
 0.1441     4
 0.1541     6
 0.1641     3
 0.1741    14
 0.1841    88
 0.1941   182
 0.2041   179
 0.2141   144
 0.2241   156
 0.2341   153
 0.2441   150
 0.2541   148
 0.2641   158
 0.2741   164
 0.2841   139
 0.2941   137
 0.3041   157
 0.3141   151
 0.3241   143
 0.3341   148
 0.3441   144
 0.3541   150
 0.3641   148
 0.3741   158
 0.3841   150
 0.3941   157
 0.4041   141
 0.4141   140
 0.4241   130
 0.4341   130
 0.4441   127
 0.4541   130
 0.4641   135
 0.4741   145
 0.4841   147
 0.4941   131
 0.5041   118
 0.5141   140
 0.5241   143
 0.5341   118
 0.5441   120
 0.5541   131
 0.5641   124
 0.5741   138
 0.5841   139
 0.5941   136
 0.6041   141
 0.6141   125
 0.6241   120
 0.6341   123
 0.6441   134
 0.6541   134
 0.6641   122
 0.6741   128
 0.6841   130
 0.6941   124
 0.7041   127
 0.7141   121
 0.7241   122
 0.7341   123
 0.7441   125
 0.7541   134
 0.7641   124
 0.7741   130
 0.7841   136
 0.7941   126
 0.8041   110
 0.8141   104
 0.8241   113
 0.8341   114
 0.8441   111
 0.8541   120
 0.8641   109
 0.8741   100
 0.8841   111
 0.8941   112
 0.9041   104
 0.9141   104
 0.9241   113
 0.9341   107
 0.9441    99
 0.9541   108
 0.9641   114
 0.9741   117
 0.9841   112
 0.9941   116
 1.0041   109
 1.0141   108
 1.0241   106
 1.0341   107
 1.0441    95
 1.0541   107
 1.0641   114
 1.0741   123
 1.0841   119
 1.0941   107
 1.1041   113
 1.1141   106
 1.1241    91
 1.1341   109
 1.1441   102
 1.1541   101
 1.1641   100
 1.1741   105
 1.1841    92
 1.1941    94
 1.2041    94
 1.2141   104
 1.2241    86
 1.2341   114
 1.2441   106
 1.2541    97
 1.2641    85
 1.2741    88
 1.2841    91
 1.2941   110
 1.3041   100
 1.3141   100
 1.3241    98
 1.3341    91
 1.3441    79
 1.3541   109
 1.3641   108
 1.3741   108
 1.3841    95
 1.3941   101
 1.4041    95
 1.4141   104
 1.4241    93
 1.4341   100
 1.4441    84
 1.4541    84
 1.4641    88
 1.4741    94
 1.4841    98
 1.4941    84
 1.5041    89
 1.5141    89
 1.5241   101
 1.5341   107
 1.5441    90
 1.5541   101
 1.5641    92
 1.5741    89
 1.5841    94
 1.5941    94
 1.6041    96
 1.6141    98
 1.6241    87
 1.6341   101
 1.6441   107
 1.6541    98
 1.6641   135
 1.6741   173
 1.6841   191
 1.6941   257
 1.7041   330
 1.7141   365
 1.7241   412
 1.7341   445
 1.7441   451
 1.7541   385
 1.7641   360
 1.7741   323
 1.7841   264
 1.7941   218
 1.8041   213
 1.8141   174
 1.8241   142
 1.8341   128
 1.8441   118
 1.8541   125
 1.8641   107
 1.8741   109
 1.8841   104
 1.8941    96
 1.9041    90
 1.9141    81
 1.9241    95
 1.9341    99
 1.9441   114
 1.9541   118
 1.9641   103
 1.9741   129
 1.9841   141
 1.9941   123
 2.0041   112
 2.0141   105
 2.0241   123
 2.0341   129
 2.0441   108
 2.0541   102
 2.0641   111
 2.0741   100
 2.0841    90
 2.0941    90
 2.1041    99
 2.1141    88
 2.1241    92
 2.1341    89
 2.1441    97
 2.1541    92
 2.1641    84
 2.1741    94
 2.1841    86
 2.1941    83
 2.2041    83
 2.2141    81
 2.2241    87
 2.2341    91
 2.2441    77
 2.2541    73
 2.2641    87
 2.2741    87
 2.2841    94
 2.2941    92
 2.3041    77
 2.3141    80
 2.3241    80
 2.3341    94
 2.3441    78
 2.3541    87
 2.3641    81
 2.3741    85
 2.3841    69
 2.3941    72
 2.4041    95
 2.4141    87
 2.4241    71
 2.4341    98
 2.4441    76
 2.4541    75
 2.4641    76
 2.4741    79
 2.4841    82
 2.4941    86
 2.5041    78
 2.5141    74
 2.5241    77
 2.5341    81
 2.5441    81
 2.5541    66
 2.5641    82
 2.5741    79
 2.5841    89
 2.5941    70
 2.6041    60
 2.6141    90
 2.6241    77
 2.6341    73
 2.6441    83
 2.6541    93
 2.6641    68
 2.6741    80
 2.6841    84
 2.6941    89
 2.7041    78
 2.7141    73
 2.7241    87
 2.7341    63
 2.7441    80
 2.7541    73
 2.7641    74
 2.7741    85
 2.7841    88
 2.7941    92
 2.8041    77
 2.8141    87
 2.8241    67
 2.8341    88
 2.8441    91
 2.8541    81
 2.8641    74
 2.8741    76
 2.8841    74
 2.8941    74
 2.9041    59
 2.9141    76
 2.9241    72
 2.9341    63
 2.9441    84
 2.9541    67
 2.9641    73
 2.9741    81
 2.9841    72
 2.9941    62
 3.0041    77
 3.0141    64
 3.0241    67
 3.0341    69
 3.0441    67
 3.0541    63
 3.0641    64
 3.0741    76
 3.0841    58
 3.0941    69
 3.1041    66
 3.1141    60
 3.1241    45
 3.1341    66
 3.1441    55
 3.1541    48
 3.1641    56
 3.1741    70
 3.1841    71
 3.1941    69
 3.2041    66
 3.2141    69
 3.2241    65
 3.2341    78
 3.2441    68
 3.2541    93
 3.2641    88
 3.2741    86
 3.2841   108
 3.2941   102
 3.3041   103
 3.3141    95
 3.3241    95
 3.3341    81
 3.3441    86
 3.3541    99
 3.3641    80
 3.3741    77
 3.3841    72
 3.3941    68
 3.4041    59
 3.4141    68
 3.4241    46
 3.4341    61
 3.4441    65
 3.4541    49
 3.4641    68
 3.4741    61
 3.4841    65
 3.4941    60
 3.5041    64
 3.5141    68
 3.5241    75
 3.5341    55
 3.5441    75
 3.5541    94
 3.5641   120
 3.5741   136
 3.5841   161
 3.5941   227
 3.6041   271
 3.6141   348
 3.6241   472
 3.6341   540
 3.6441   728
 3.6541   827
 3.6641   879
 3.6741   984
 3.6841  1062
 3.6941  1002
 3.7041   971
 3.7141   958
 3.7241   815
 3.7341   742
 3.7441   583
 3.7541   466
 3.7641   388
 3.7741   274
 3.7841   218
 3.7941   146
 3.8041   111
 3.8141    97
 3.8241    83
 3.8341    64
 3.8441    72
 3.8541    76
 3.8641    62
 3.8741    58
 3.8841    76
 3.8941    76
 3.9041    86
 3.9141    87
 3.9241   113
 3.9341    97
 3.9441   105
 3.9541   152
 3.9641   154
 3.9741   171
 3.9841   215
 3.9941   213
 4.0041   220
 4.0141   208
 4.0241   196
 4.0341   194
 4.0441   203
 4.0541   172
 4.0641   185
 4.0741   119
 4.0841   100
 4.0941   110
 4.1041    75
 4.1141    62
 4.1241    60
 4.1341    57
 4.1441    64
 4.1541    59
 4.1641    51
 4.1741    59
 4.1841    51
 4.1941    54
 4.2041    44
 4.2141    44
 4.2241    36
 4.2341    46
 4.2441    53
 4.2541    62
 4.2641    64
 4.2741    58
 4.2841    48
 4.2941    53
 4.3041    47
 4.3141    55
 4.3241    59
 4.3341    51
 4.3441    48
 4.3541    57
 4.3641    77
 4.3741    80
 4.3841   117
 4.3941   130
 4.4041   153
 4.4141   209
 4.4241   265
 4.4341   374
 4.4441   410
 4.4541   516
 4.4641   587
 4.4741   690
 4.4841   766
 4.4941   830
 4.5041   859
 4.5141   849
 4.5241   840
 4.5341   752
 4.5441   693
 4.5541   649
 4.5641   496
 4.5741   401
 4.5841   303
 4.5941   243
 4.6041   178
 4.6141   172
 4.6241   112
 4.6341    82
 4.6441   116
 4.6541    99
 4.6641    66
 4.6741    76
 4.6841    74
 4.6941    67
 4.7041    60
 4.7141    73
 4.7241    59
 4.7341    70
 4.7441    62
 4.7541    55
 4.7641    58
 4.7741    47
 4.7841    58
 4.7941    79
 4.8041    69
 4.8141    77
 4.8241    79
 4.8341    84
 4.8441   100
 4.8541   103
 4.8641   151
 4.8741   171
 4.8841   180
 4.8941   194
 4.9041   224
 4.9141   214
 4.9241   235
 4.9341   218
 4.9441   250
 4.9541   223
 4.9641   205
 4.9741   202
 4.9841   175
 4.9941   157
 5.0041   130
 5.0141   125
 5.0241   109
 5.0341    97
 5.0441    89
 5.0541    76
 5.0641    60
 5.0741    58
 5.0841    51
 5.0941    47
 5.1041    72
 5.1141    46
 5.1241    57
 5.1341    61
 5.1441    45
 5.1541    63
 5.1641    57
 5.1741    55
 5.1841    64
 5.1941    46
 5.2041    56
 5.2141    72
 5.2241    64
 5.2341    54
 5.2441    78
 5.2541    68
 5.2641    69
 5.2741    61
 5.2841    62
 5.2941    72
 5.3041    66
 5.3141    50
 5.3241    63
 5.3341    75
 5.3441    62
 5.3541    77
 5.3641    90
 5.3741    85
 5.3841    73
 5.3941    80
 5.4041    72
 5.4141    95
 5.4241    83
 5.4341    82
 5.4441    82
 5.4541    81
 5.4641    81
 5.4741    61
 5.4841    61
 5.4941    73
 5.5041    66
 5.5141    64
 5.5241    69
 5.5341    80
 5.5441    65
 5.5541    69
 5.5641    62
 5.5741    71
 5.5841    73
 5.5941    50
 5.6041    54
 5.6141    60
 5.6241    59
 5.6341    69
 5.6441    70
 5.6541    63
 5.6641    57
 5.6741    68
 5.6841    77
 5.6941    62
 5.7041    77
 5.7141    79
 5.7241    94
 5.7341    79
 5.7441    87
 5.7541   106
 5.7641   105
 5.7741   129
 5.7841   165
 5.7941   196
 5.8041   217
 5.8141   293
 5.8241   359
 5.8341   384
 5.8441   474
 5.8541   486
 5.8641   548
 5.8741   578
 5.8841   667
 5.8941   610
 5.9041   629
 5.9141   584
 5.9241   560
 5.9341   498
 5.9441   452
 5.9541   424
 5.9641   328
 5.9741   284
 5.9841   228
 5.9941   221
 6.0041   154
 6.0141   144
 6.0241   113
 6.0341   136
 6.0441   133
 6.0541   127
 6.0641   103
 6.0741   124
 6.0841   113
 6.0941   142
 6.1041   127
 6.1141   145
 6.1241   137
 6.1341   152
 6.1441   177
 6.1541   172
 6.1641   207
 6.1741   237
 6.1841   294
 6.1941   351
 6.2041   484
 6.2141   663
 6.2241   927
 6.2341  1261
 6.2441  1824
 6.2541  2495
 6.2641  3610
 6.2741  5044
 6.2841  6786
 6.2941  8942
 6.3041 11838
 6.3141 14779
 6.3241 18381
 6.3341 22288
 6.3441 26279
 6.3541 29982
 6.3641 33440
 6.3741 35770
 6.3841 38078
 6.3941 39004
 6.4041 39124
 6.4141 37648
 6.4241 35665
 6.4341 32646
 6.4441 29194
 6.4541 25529
 6.4641 21376
 6.4741 17775
 6.4841 14109
 6.4941 11113
 6.5041  8320
 6.5141  6189
 6.5241  4495
 6.5341  3170
 6.5441  2184
 6.5541  1521
 6.5641  1020
 6.5741   722
 6.5841   508
 6.5941   348
 6.6041   271
 6.6141   201
 6.6241   187
 6.6341   176
 6.6441   152
 6.6541   133
 6.6641   146
 6.6741   148
 6.6841   132
 6.6941   134
 6.7041   140
 6.7141   161
 6.7241   150
 6.7341   135
 6.7441   161
 6.7541   177
 6.7641   157
 6.7741   180
 6.7841   169
 6.7941   190
 6.8041   212
 6.8141   210
 6.8241   226
 6.8341   212
 6.8441   246
 6.8541   270
 6.8641   380
 6.8741   364
 6.8841   483
 6.8941   575
 6.9041   726
 6.9141   846
 6.9241  1107
 6.9341  1383
 6.9441  1685
 6.9541  2128
 6.9641  2632
 6.9741  3274
 6.9841  3672
 6.9941  4264
 7.0041  4928
 7.0141  5416
 7.0241  5802
 7.0341  6400
 7.0441  6513
 7.0541  6459
 7.0641  6476
 7.0741  6119
 7.0841  5811
 7.0941  5303
 7.1041  4824
 7.1141  4122
 7.1241  3627
 7.1341  3007
 7.1441  2452
 7.1541  1892
 7.1641  1517
 7.1741  1207
 7.1841   850
 7.1941   659
 7.2041   504
 7.2141   337
 7.2241   302
 7.2341   239
 7.2441   189
 7.2541   152
 7.2641   133
 7.2741   141
 7.2841   144
 7.2941   132
 7.3041   105
 7.3141   134
 7.3241   118
 7.3341   135
 7.3441   127
 7.3541   133
 7.3641   160
 7.3741   147
 7.3841   138
 7.3941   143
 7.4041   130
 7.4141   146
 7.4241   171
 7.4341   167
 7.4441   153
 7.4541   143
 7.4641   131
 7.4741   151
 7.4841   138
 7.4941   121
 7.5041   134
 7.5141   134
 7.5241   135
 7.5341   116
 7.5441   115
 7.5541    98
 7.5641   101
 7.5741   107
 7.5841   100
 7.5941   102
 7.6041   101
 7.6141   105
 7.6241    92
 7.6341   109
 7.6441   124
 7.6541   101
 7.6641   106
 7.6741   105
 7.6841   105
 7.6941   120
 7.7041   108
 7.7141   107
 7.7241   106
 7.7341   122
 7.7441   114
 7.7541   123
 7.7641   147
 7.7741   145
 7.7841   113
 7.7941   152
 7.8041   116
 7.8141   149
 7.8241   135
 7.8341   139
 7.8441   133
 7.8541   145
 7.8641   186
 7.8741   159
 7.8841   166
 7.8941   159
 7.9041   180
 7.9141   190
 7.9241   205
 7.9341   229
 7.9441   254
 7.9541   242
 7.9641   276
 7.9741   288
 7.9841   296
 7.9941   318
 8.0041   345
 8.0141   421
 8.0241   392
 8.0341   405
 8.0441   459
 8.0541   492
 8.0641   482
 8.0741   531
 8.0841   580
 8.0941   604
 8.1041   571
 8.1141   627
 8.1241   673
 8.1341   656
 8.1441   713
 8.1541   711
 8.1641   651
 8.1741   721
 8.1841   729
 8.1941   740
 8.2041   761
 8.2141   754
 8.2241   770
 8.2341   773
 8.2441   743
 8.2541   809
 8.2641   867
 8.2741   973
 8.2841   964
 8.2941  1066
 8.3041  1130
 8.3141  1198
 8.3241  1317
 8.3341  1427
 8.3441  1502
 8.3541  1581
 8.3641  1653
 8.3741  1701
 8.3841  1665
 8.3941  1715
 8.4041  1680
 8.4141  1663
 8.4241  1499
 8.4341  1417
 8.4441  1269
 8.4541  1155
 8.4641   982
 8.4741   867
 8.4841   807
 8.4941   656
 8.5041   556
 8.5141   480
 8.5241   423
 8.5341   375
 8.5441   325
 8.5541   246
 8.5641   282
 8.5741   253
 8.5841   244
 8.5941   220
 8.6041   234
 8.6141   263
 8.6241   229
 8.6341   235
 8.6441   230
 8.6541   251
 8.6641   231
 8.6741   231
 8.6841   220
 8.6941   211
 8.7041   233
 8.7141   193
 8.7241   172
 8.7341   206
 8.7441   177
 8.7541   190
 8.7641   181
 8.7741   162
 8.7841   175
 8.7941   166
 8.8041   157
 8.8141   170
 8.8241   167
 8.8341   149
 8.8441   142
 8.8541   174
 8.8641   156
 8.8741   167
 8.8841   172
 8.8941   166
 8.9041   148
 8.9141   168
 8.9241   158
 8.9341   171
 8.9441   164
 8.9541   164
 8.9641   177
 8.9741   216
 8.9841   172
 8.9941   173
 9.0041   185
 9.0141   189
 9.0241   193
 9.0341   184
 9.0441   207
 9.0541   166
 9.0641   193
 9.0741   248
 9.0841   215
 9.0941   224
 9.1041   224
 9.1141   233
 9.1241   246
 9.1341   269
 9.1441   283
 9.1541   277
 9.1641   281
 9.1741   327
 9.1841   296
 9.1941   326
 9.2041   346
 9.2141   391
 9.2241   392
 9.2341   406
 9.2441   419
 9.2541   450
 9.2641   469
 9.2741   478
 9.2841   507
 9.2941   557
 9.3041   525
 9.3141   544
 9.3241   560
 9.3341   585
 9.3441   606
 9.3541   590
 9.3641   600
 9.3741   622
 9.3841   652
 9.3941   702
 9.4041   670
 9.4141   713
 9.4241   701
 9.4341   751
 9.4441   731
 9.4541   705
 9.4641   749
 9.4741   773
 9.4841   734
 9.4941   771
 9.5041   825
 9.5141   861
 9.5241   876
 9.5341   860
 9.5441   926
 9.5541   944
 9.5641  1005
 9.5741  1070
 9.5841  1160
 9.5941  1195
 9.6041  1239
 9.6141  1322
 9.6241  1380
 9.6341  1442
 9.6441  1450
 9.6541  1488
 9.6641  1516
 9.6741  1556
 9.6841  1512
 9.6941  1449
 9.7041  1401
 9.7141  1355
 9.7241  1203
 9.7341  1193
 9.7441  1083
 9.7541  1010
 9.7641   910
 9.7741   819
 9.7841   829
 9.7941   754
 9.8041   712
 9.8141   669
 9.8241   617
 9.8341   620
 9.8441   572
 9.8541   570
 9.8641   611
 9.8741   623
 9.8841   615
 9.8941   580
 9.9041   638
 9.9141   624
 9.9241   613
 9.9341   599
 9.9441   642
 9.9541   649
 9.9641   638
 9.9741   635
 9.9841   600
 9.9941   578
10.0041   551
10.0141   523
10.0241   493
10.0341   427
10.0441   386
10.0541   315
10.0641   311
10.0741   282
10.0841   281
10.0941   241
10.1041   211
10.1141   191
10.1241   162
10.1341   161
10.1441   155
10.1541   150
10.1641   154
10.1741   128
10.1841   118
10.1941   118
10.2041   126
10.2141   116
10.2241   112
10.2341   108
10.2441   101
10.2541   107
10.2641    96
10.2741    83
10.2841    91
10.2941   104
10.3041    94
10.3141    94
10.3241    99
10.3341    95
10.3441    85
10.3541    82
10.3641    96
10.3741    71
10.3841    83
10.3941    97
10.4041   107
10.4141    81
10.4241    79
10.4341    78
10.4441    81
10.4541    81
10.4641    80
10.4741    80
10.4841    90
10.4941    83
10.5041    93
10.5141    98
10.5241   101
10.5341    90
10.5441    86
10.5541    96
10.5641   109
10.5741    90
10.5841    91
10.5941    86
10.6041    90
10.6141    91
10.6241   111
10.6341   105
10.6441    99
10.6541    98
10.6641    97
10.6741   100
10.6841    89
10.6941    85
10.7041   104
10.7141   113
10.7241   105
10.7341   110
10.7441   119
10.7541   110
10.7641   113
10.7741   119
10.7841   124
10.7941   141
10.8041   141
10.8141   134
10.8241   143
10.8341   139
10.8441   137
10.8541   140
10.8641   143
10.8741   135
10.8841   138
10.8941   151
10.9041   162
10.9141   164
10.9241   163
10.9341   142
10.9441   133
10.9541   145
10.9641   146
10.9741   152
10.9841   166
10.9941   162
11.0041   151
11.0141   139
11.0241   135
11.0341   123
11.0441   136
11.0541   128
11.0641   133
11.0741   129
11.0841   133
11.0941   144
11.1041   141
11.1141   131
11.1241   117
11.1341   128
11.1441   128
11.1541   137
11.1641   143
11.1741   171
11.1841   168
11.1941   172
11.2041   179
11.2141   213
11.2241   230
11.2341   207
11.2441   185
11.2541   189
11.2641   214
11.2741   235
11.2841   226
11.2941   213
11.3041   224
11.3141   230
11.3241   228
11.3341   218
11.3441   201
11.3541   181
11.3641   181
11.3741   173
11.3841   166
11.3941   144
11.4041   129
11.4141   117
11.4241   117
11.4341   117
11.4441   116
11.4541   114
11.4641   102
11.4741   108
11.4841    90
11.4941   102
11.5041   100
11.5141    96
11.5241   100
11.5341   105
11.5441   102
11.5541    97
11.5641   101
11.5741   108
11.5841   104
11.5941   100
11.6041   107
11.6141   112
11.6241   110
11.6341   105
11.6441   113
11.6541   112
11.6641    99
11.6741   111
11.6841   110
11.6941   101
11.7041   100
11.7141   112
11.7241   102
11.7341    91
11.7441    85
11.7541    86
11.7641    91
11.7741    86
11.7841    86
11.7941    89
11.8041    93
11.8141    83
11.8241    75
11.8341    69
11.8441    67
11.8541    78
11.8641    85
11.8741    76
11.8841    66
11.8941    66
11.9041    72
11.9141    74
11.9241    80
11.9341    79
11.9441    79
11.9541    72
11.9641    92
11.9741    80
11.9841    73
11.9941    64
12.0041    68
12.0141    75
12.0241    81
12.0341    71
12.0441    75
12.0541    82
12.0641    90
12.0741    82
12.0841    79
12.0941    88
12.1041    74
12.1141    74
12.1241    76
12.1341    73
12.1441    69
12.1541    77
12.1641    70
12.1741    84
12.1841    88
12.1941    86
12.2041    82
12.2141    80
12.2241    76
12.2341    72
12.2441    71
12.2541    77
12.2641    78
12.2741    66
12.2841    68
12.2941    75
12.3041    70
12.3141    70
12.3241    75
12.3341    65
12.3441    66
12.3541    68
12.3641    65
12.3741    87
12.3841    78
12.3941    73
12.4041    82
12.4141    74
12.4241    73
12.4341    79
12.4441    79
12.4541    75
12.4641    74
12.4741    70
12.4841    72
12.4941    84
12.5041    94
12.5141    88
12.5241    78
12.5341    79
12.5441    77
12.5541    78
12.5641    85
12.5741    79
12.5841    75
12.5941    78
12.6041    72
12.6141    78
12.6241    83
12.6341    75
12.6441    70
12.6541    72
12.6641    78
12.6741    81
12.6841    79
12.6941    81
12.7041    87
12.7141    88
12.7241    82
12.7341    77
12.7441    74
12.7541    75
12.7641    80
12.7741    78
12.7841    70
12.7941    73
12.8041    83
12.8141    82
12.8241    74
12.8341    76
12.8441    87
12.8541    94
12.8641    87
12.8741    76
12.8841    78
12.8941    85
12.9041    83
12.9141    82
12.9241    87
12.9341    92
12.9441    88
12.9541    80
12.9641    77
12.9741    75
12.9841    73
12.9941    76
13.0041    74
13.0141    79
13.0241    93
13.0341    90
13.0441    79
13.0541    80
13.0641    79
13.0741    84
13.0841    88
13.0941    87
13.1041    87
13.1141    80
13.1241    89
13.1341    89
13.1441    83
13.1541    89
13.1641    91
13.1741    92
13.1841    95
13.1941    91
13.2041    93
13.2141    87
13.2241    85
13.2341    94
13.2441    98
13.2541    99
13.2641    96
13.2741   106
13.2841   113
13.2941   115
13.3041   124
13.3141   132
13.3241   137
13.3341   133
13.3441   126
13.3541   124
13.3641   128
13.3741   130
13.3841   131
13.3941   134
13.4041   131
13.4141   124
13.4241   121
13.4341   124
13.4441   128
13.4541   125
13.4641   123
13.4741   122
13.4841   116
13.4941   110
13.5041   109
13.5141   107
13.5241   110
13.5341   113
13.5441   107
13.5541   102
13.5641   100
13.5741    97
13.5841    95
13.5941    94
13.6041    92
13.6141    91
13.6241    92
13.6341    91
13.6441    90
13.6541    90
13.6641    95
13.6741    98
13.6841    93
13.6941    91
13.7041    95
13.7141    98
13.7241    97
13.7341    95
13.7441    98
13.7541   103
13.7641   106
13.7741   105
13.7841   103
13.7941   101
13.8041   102
13.8141   102
13.8241    97
13.8341   101
13.8441    99
13.8541    99
13.8641   106
13.8741   101
13.8841    96
13.8941   104
13.9041   107
13.9141   105
13.9241   104
13.9341   111
13.9441   121
13.9541   129
13.9641   140
13.9741   151
13.9841   152
13.9941   170
14.0041   193
14.0141   210
14.0241   216
14.0341   221
14.0441   231
14.0541   248
14.0641   269
14.0741   287
14.0841   302
14.0941   306
14.1041   317
14.1141   332
14.1241   340
14.1341   351
14.1441   371
14.1541   364
14.1641   341
14.1741   324
14.1841   325
14.1941   332
14.2041   313
14.2141   299
14.2241   290
14.2341   261
14.2441   232
14.2541   208
14.2641   207
14.2741   187
14.2841   178
14.2941   185
14.3041   159
14.3141   137
14.3241   128
14.3341   133
14.3441   140
14.3541   121
14.3641   105
14.3741   109
14.3841   113
14.3941   116
14.4041   116
14.4141   117
14.4241   113
14.4341   109
14.4441   114
14.4541   102
14.4641    99
14.4741   112
14.4841   108
14.4941   105
14.5041   114
14.5141   119
14.5241   116
14.5341   114
14.5441   116
14.5541   119
14.5641   130
14.5741   129
14.5841   108
14.5941   103
14.6041   104
14.6141   106
14.6241    97
14.6341   100
14.6441   105
14.6541    97
14.6641   105
14.6741   105
14.6841   115
14.6941   118
14.7041   100
14.7141   115
14.7241   124
14.7341   112
14.7441   111
14.7541   135
14.7641   143
14.7741   130
14.7841   122
14.7941   115
14.8041   127
14.8141   142
14.8241   138
14.8341   141
14.8441   143
14.8541   122
14.8641   117
14.8741   131
14.8841   147
14.8941   150
14.9041   151
14.9141   160
14.9241   168
14.9341   166
14.9441   155
14.9541   159
14.9641   166
14.9741   157
14.9841   151
14.9941   151
15.0041   141
15.0141   150
15.0241   159
15.0341   141
15.0441   136
15.0541   129
15.0641   125
15.0741   129
15.0841   131
15.0941   131
15.1041   128
15.1141   116
15.1241   104
15.1341   107
15.1441   119
15.1541   115
15.1641   118
15.1741   124
15.1841   122
15.1941   117
15.2041   119
15.2141   126
15.2241   122
15.2341   128
15.2441   129
15.2541   117
15.2641   119
15.2741   126
15.2841   115
15.2941   122
15.3041   125
15.3141   126
15.3241   129
15.3341   119
15.3441   126
15.3541   126
15.3641   124
15.3741   112
15.3841   105
15.3941   116
15.4041   121
15.4141   129
15.4241   140
15.4341   142
15.4441   122
15.4541   119
15.4641   132
15.4741   137
15.4841   121
15.4941   121
15.5041   124
15.5141   123
15.5241   128
15.5341   119
15.5441   146
15.5541   168
15.5641   164
15.5741   165
15.5841   174
15.5941   186
15.6041   202
15.6141   206
15.6241   246
15.6341   268
15.6441   263
15.6541   252
15.6641   251
15.6741   245
15.6841   273
15.6941   292
15.7041   309
15.7141   333
15.7241   358
15.7341   343
15.7441   337
15.7541   355
15.7641   370
15.7741   347
15.7841   334
15.7941   348
15.8041   325
15.8141   317
15.8241   328
15.8341   297
15.8441   291
15.8541   295
15.8641   264
15.8741   261
15.8841   249
15.8941   229
15.9041   209
15.9141   201
15.9241   200
15.9341   203
15.9441   172
15.9541   173
15.9641   173
15.9741   170
15.9841   159
15.9941   152
16.0041   147
16.0141   150
16.0241   144
16.0341   138
16.0441   145
16.0541   131
16.0641   130
16.0741   130
16.0841   141
16.0941   156
16.1041   147
16.1141   146
16.1241   150
16.1341   146
16.1441   149
16.1541   132
16.1641   130
16.1741   131
16.1841   135
16.1941   149
16.2041   157
16.2141   139
16.2241   125
16.2341   132
16.2441   138
16.2541   125
16.2641   154
16.2741   147
16.2841   145
16.2941   136
16.3041   129
16.3141   135
16.3241   145
16.3341   135
16.3441   135
16.3541   157
16.3641   155
16.3741   146
16.3841   135
16.3941   135
16.4041   145
16.4141   148
16.4241   151
16.4341   141
16.4441   137
16.4541   144
16.4641   149
16.4741   136
16.4841   137
16.4941   148
16.5041   142
16.5141   141
16.5241   131
16.5341   146
16.5441   155
16.5541   160
16.5641   165
16.5741   145
16.5841   146
16.5941   157
16.6041   145
16.6141   146
16.6241   141
16.6341   154
16.6441   160
16.6541   147
16.6641   149
16.6741   159
16.6841   165
16.6941   167
16.7041   175
16.7141   160
16.7241   151
16.7341   159
16.7441   141
16.7541   148
16.7641   160
16.7741   167
16.7841   166
16.7941   165
16.8041   150
16.8141   140
16.8241   154
16.8341   159
16.8441   143
16.8541   154
16.8641   155
16.8741   135
16.8841   143
16.8941   153
16.9041   151
16.9141   157
16.9241   162
16.9341   146
16.9441   163
16.9541   161
16.9641   154
16.9741   142
16.9841   154
16.9941   160
17.0041   172
17.0141   153
17.0241   156
17.0341   166
17.0441   180
17.0541   174
17.0641   166
17.0741   153
17.0841   144
17.0941   147
17.1041   148
17.1141   156
17.1241   162
17.1341   168
17.1441   164
17.1541   152
17.1641   145
17.1741   150
17.1841   153
17.1941   165
17.2041   155
17.2141   162
17.2241   157
17.2341   160
17.2441   155
17.2541   170
17.2641   147
17.2741   159
17.2841   167
17.2941   166
17.3041   168
17.3141   183
17.3241   167
17.3341   142
17.3441   165
17.3541   163
17.3641   166
17.3741   156
17.3841   157
17.3941   158
17.4041   129
17.4141   149
17.4241   173
17.4341   161
17.4441   166
17.4541   169
17.4641   168
17.4741   169
17.4841   184
17.4941   183
17.5041   202
17.5141   185
17.5241   169
17.5341   179
17.5441   159
17.5541   170
17.5641   195
17.5741   182
17.5841   174
17.5941   191
17.6041   187
17.6141   180
17.6241   194
17.6341   197
17.6441   201
17.6541   189
17.6641   173
17.6741   191
17.6841   187
17.6941   171
17.7041   183
17.7141   210
17.7241   195
17.7341   191
17.7441   186
17.7541   193
17.7641   199
17.7741   187
17.7841   175
17.7941   190
17.8041   192
17.8141   184
17.8241   181
17.8341   207
17.8441   178
17.8541   178
17.8641   191
17.8741   174
17.8841   193
17.8941   200
17.9041   183
17.9141   178
17.9241   170
17.9341   179
17.9441   186
17.9541   158
17.9641   173
17.9741   182
17.9841   201
17.9941   195
18.0041   175
18.0141   171
18.0241   169
18.0341   177
18.0441   177
18.0541   184
18.0641   169
18.0741   178
18.0841   178
18.0941   175
18.1041   166
18.1141   170
18.1241   168
18.1341   172
18.1441   160
18.1541   188
18.1641   191
18.1741   185
18.1841   186
18.1941   186
18.2041   192
18.2141   186
18.2241   182
18.2341   174
18.2441   175
18.2541   173
18.2641   173
18.2741   188
18.2841   165
18.2941   171
18.3041   171
18.3141   187
18.3241   191
18.3341   176
18.3441   170
18.3541   171
18.3641   184
18.3741   177
18.3841   170
18.3941   176
18.4041   188
18.4141   174
18.4241   192
18.4341   192
18.4441   194
18.4541   197
18.4641   192
18.4741   193
18.4841   205
18.4941   187
18.5041   168
18.5141   180
18.5241   189
18.5341   187
18.5441   190
18.5541   210
18.5641   206
18.5741   185
18.5841   174
18.5941   183
18.6041   187
18.6141   191
18.6241   197
18.6341   182
18.6441   190
18.6541   183
18.6641   198
18.6741   186
18.6841   185
18.6941   182
18.7041   196
18.7141   201
18.7241   192
18.7341   201
18.7441   196
18.7541   199
18.7641   202
18.7741   200
18.7841   194
18.7941   168
18.8041   185
18.8141   191
18.8241   178
18.8341   210
18.8441   214
18.8541   201
18.8641   197
18.8741   187
18.8841   185
18.8941   200
18.9041   208
18.9141   198
18.9241   194
18.9341   181
18.9441   209
18.9541   202
18.9641   209
18.9741   224
18.9841   200
18.9941   201
19.0041   197
19.0141   187
19.0241   193
19.0341   201
19.0441   187
19.0541   203
19.0641   200
19.0741   175
19.0841   193
19.0941   223
19.1041   223
19.1141   203
19.1241   184
19.1341   176
19.1441   202
19.1541   192
19.1641   209
19.1741   199
19.1841   221
19.1941   210
19.2041   197
19.2141   197
19.2241   191
19.2341   206
19.2441   210
19.2541   222
19.2641   214
19.2741   216
19.2841   222
19.2941   208
19.3041   221
19.3141   200
19.3241   221
19.3341   230
19.3441   212
19.3541   214
19.3641   233
19.3741   207
19.3841   205
19.3941   199
19.4041   184
19.4141   217
19.4241   220
19.4341   218
19.4441   211
19.4541   218
19.4641   205
19.4741   212
19.4841   214
19.4941   219
19.5041   201
19.5141   200
19.5241   209
19.5341   196
19.5441   194
19.5541   198
19.5641   218
19.5741   217
19.5841   205
19.5941   220
19.6041   213
19.6141   215
19.6241   213
19.6341   213
19.6441   219
19.6541   237
19.6641   230
19.6741   204
19.6841   225
19.6941   232
19.7041   202
19.7141   205
19.7241   212
19.7341   213
19.7441   191
19.7541   204
19.7641   231
19.7741   209
19.7841   205
19.7941   195
19.8041   228
19.8141   232
19.8241   218
19.8341   215
19.8441   221
19.8541   205
19.8641   257
19.8741   210
19.8841   207
19.8941   218
19.9041   217
19.9141   195
19.9241   213
19.9341   236
19.9441   224
19.9541   186
19.9641   212
19.9741   237
19.9841   214
19.9941   217
20.0041   245
20.0141   211
20.0241   215
20.0341   221
20.0441   214
20.0541   236
20.0641   235
20.0741   220
20.0841   206
20.0941   237
20.1041   218
20.1141   225
20.1241   217
20.1341   218
20.1441   215
20.1541   228
20.1641   230
20.1741   215
20.1841   216
20.1941   248
20.2041   221
20.2141   213
20.2241   226
20.2341   221
20.2441   214
20.2541   232
20.2641   219
20.2741   224
20.2841   219
20.2941   231
20.3041   229
20.3141   210
20.3241   230
20.3341   223
20.3441   237
20.3541   235
20.3641   221
20.3741   222
20.3841   234
20.3941   194
20.4041   205
20.4141   230
20.4241   243
20.4341   215
20.4441   221
20.4541   236
20.4641   241
20.4741   244
20.4841   231
20.4941   239
20.5041   219
20.5141   236
20.5241   256
20.5341   254
20.5441   234
20.5541   234
20.5641   238
20.5741   229
20.5841   230
20.5941   214
20.6041   218
20.6141   251
20.6241   236
20.6341   230
20.6441   246
20.6541   227
20.6641   213
20.6741   238
20.6841   246
20.6941   249
20.7041   225
20.7141   239
20.7241   224
20.7341   237
20.7441   282
20.7541   235
20.7641   229
20.7741   236
20.7841   240
20.7941   247
20.8041   250
20.8141   240
20.8241   267
20.8341   262
20.8441   234
20.8541   257
20.8641   278
20.8741   247
20.8841   257
20.8941   264
20.9041   272
20.9141   281
20.9241   299
20.9341   299
20.9441   310
20.9541   326
20.9641   321
20.9741   354
20.9841   321
20.9941   325
21.0041   376
21.0141   361
21.0241   341
21.0341   366
21.0441   369
21.0541   378
21.0641   339
21.0741   392
21.0841   388
21.0941   397
21.1041   361
21.1141   375
21.1241   402
21.1341   377
21.1441   388
21.1541   360
21.1641   426
21.1741   404
21.1841   394
21.1941   406
21.2041   389
21.2141   386
21.2241   376
21.2341   343
21.2441   314
21.2541   336
21.2641   323
21.2741   348
21.2841   299
21.2941   316
21.3041   317
21.3141   283
21.3241   294
21.3341   290
21.3441   286
21.3541   278
21.3641   242
21.3741   257
21.3841   257
21.3941   289
21.4041   240
21.4141   268
21.4241   255
21.4341   244
21.4441   233
21.4541   236
21.4641   226
21.4741   232
21.4841   218
21.4941   269
21.5041   234
21.5141   240
21.5241   237
21.5341   250
21.5441   242
21.5541   242
21.5641   238
21.5741   260
21.5841   248
21.5941   229
21.6041   238
21.6141   237
21.6241   245
21.6341   245
21.6441   249
21.6541   252
21.6641   233
21.6741   240
21.6841   234
21.6941   218
21.7041   237
21.7141   241
21.7241   269
21.7341   249
21.7441   240
21.7541   273
21.7641   253
21.7741   239
21.7841   248
21.7941   249
21.8041   257
21.8141   242
21.8241   228
21.8341   256
21.8441   238
21.8541   236
21.8641   234
21.8741   268
21.8841   243
21.8941   231
21.9041   263
21.9141   240
21.9241   234
21.9341   225
21.9441   238
21.9541   220
21.9641   252
21.9741   247
21.9841   251
21.9941   231
22.0041   252
22.0141   266
22.0241   257
22.0341   232
22.0441   224
22.0541   264
22.0641   253
22.0741   239
22.0841   266
22.0941   228
22.1041   242
22.1141   239
22.1241   264
22.1341   242
22.1441   238
22.1541   226
22.1641   234
22.1741   243
22.1841   232
22.1941   263
22.2041   261
22.2141   232
22.2241   250
22.2341   268
22.2441   241
22.2541   245
22.2641   269
22.2741   227
22.2841   243
22.2941   248
22.3041   231
22.3141   227
22.3241   256
22.3341   249
22.3441   259
22.3541   247
22.3641   262
22.3741   261
22.3841   247
22.3941   239
22.4041   255
22.4141   237
22.4241   241
22.4341   255
22.4441   240
22.4541   266
22.4641   248
22.4741   221
22.4841   252
22.4941   248
22.5041   236
22.5141   272
22.5241   245
22.5341   271
22.5441   272
22.5541   286
22.5641   246
22.5741   233
22.5841   235
22.5941   260
22.6041   263
22.6141   245
22.6241   255
22.6341   257
22.6441   258
22.6541   237
22.6641   208
22.6741   204
22.6841   252
22.6941   262
22.7041   265
22.7141   247
22.7241   242
22.7341   255
22.7441   215
22.7541   257
22.7641   234
22.7741   234
22.7841   230
22.7941   259
22.8041   217
22.8141   270
22.8241   240
22.8341   271
22.8441   245
22.8541   250
22.8641   270
22.8741   253
22.8841   283
22.8941   254
22.9041   251
22.9141   225
22.9241   238
22.9341   246
22.9441   246
22.9541   226
22.9641   292
22.9741   258
22.9841   255
22.9941   249
23.0041   237
23.0141   236
23.0241   233
23.0341   251
23.0441   239
23.0541   240
23.0641   241
23.0741   253
23.0841   241
23.0941   258
23.1041   230
23.1141   263
23.1241   261
23.1341   238
23.1441   225
23.1541   223
23.1641   238
23.1741   251
23.1841   244
23.1941   290
23.2041   228
23.2141   230
23.2241   259
23.2341   241
23.2441   267
23.2541   248
23.2641   224
23.2741   242
23.2841   242
23.2941   239
23.3041   246
23.3141   268
23.3241   286
23.3341   281
23.3441   229
23.3541   271
23.3641   236
23.3741   259
23.3841   260
23.3941   266
23.4041   242
23.4141   265
23.4241   235
23.4341   251
23.4441   264
23.4541   258
23.4641   249
23.4741   232
23.4841   255
23.4941   277
23.5041   245
23.5141   255
23.5241   255
23.5341   233
23.5441   217
23.5541   254
23.5641   251
23.5741   245
23.5841   262
23.5941   232
23.6041   275
23.6141   239
23.6241   264
23.6341   274
23.6441   254
23.6541   281
23.6641   254
23.6741   251
23.6841   285
23.6941   269
23.7041   239
23.7141   285
23.7241   290
23.7341   276
23.7441   264
23.7541   296
23.7641   286
23.7741   251
23.7841   270
23.7941   303
23.8041   273
23.8141   263
23.8241   326
23.8341   279
23.8441   279
23.8541   278
23.8641   261
23.8741   251
23.8841   260
23.8941   286
23.9041   256
23.9141   257
23.9241   252
23.9341   271
23.9441   254
23.9541   248
23.9641   266
23.9741   298
23.9841   284
23.9941   239
24.0041   272
24.0141   254
24.0241   245
24.0341   248
24.0441   214
24.0541   243
24.0641   257
24.0741   273
24.0841   252
24.0941   257
24.1041   229
24.1141   238
24.1241   248
24.1341   260
24.1441   249
24.1541   245
24.1641   246
24.1741   255
24.1841   268
24.1941   258
24.2041   260
24.2141   248
24.2241   227
24.2341   260
24.2441   234
24.2541   216
24.2641   234
24.2741   225
24.2841   267
24.2941   259
24.3041   272
24.3141   261
24.3241   260
24.3341   255
24.3441   265
24.3541   265
24.3641   255
24.3741   245
24.3841   238
24.3941   261
24.4041   249
24.4141   282
24.4241   256
24.4341   278
24.4441   257
24.4541   282
24.4641   248
24.4741   227
24.4841   282
24.4941   233
24.5041   235
24.5141   266
24.5241   236
24.5341   250
24.5441   261
24.5541   258
24.5641   228
24.5741   254
24.5841   239
24.5941   255
24.6041   230
24.6141   214
24.6241   235
24.6341   226
24.6441   231
24.6541   253
24.6641   245
24.6741   239
24.6841   245
24.6941   237
24.7041   245
24.7141   251
24.7241   261
24.7341   261
24.7441   241
24.7541   242
24.7641   250
24.7741   227
24.7841   238
24.7941   244
24.8041   232
24.8141   248
24.8241   222
24.8341   234
24.8441   213
24.8541   221
24.8641   247
24.8741   230
24.8841   263
24.8941   252
24.9041   249
24.9141   210
24.9241   253
24.9341   259
24.9441   228
24.9541   271
24.9641   233
24.9741   227
24.9841   264
24.9941   242
25.0041   241
25.0141   250
25.0241   240
25.0341   232
25.0441   268
25.0541   236
25.0641   234
25.0741   234
25.0841   255
25.0941   268
25.1041   232
25.1141   254
25.1241   252
25.1341   257
25.1441   227
25.1541   246
25.1641   226
25.1741   265
25.1841   231
25.1941   256
25.2041   263
25.2141   257
25.2241   234
25.2341   262
25.2441   240
25.2541   251
25.2641   237
25.2741   231
25.2841   254
25.2941   237
25.3041   239
25.3141   251
25.3241   224
25.3341   239
25.3441   222
25.3541   249
25.3641   272
25.3741   252
25.3841   231
25.3941   247
25.4041   216
25.4141   221
25.4241   238
25.4341   239
25.4441   231
25.4541   266
25.4641   221
25.4741   248
25.4841   238
25.4941   221
25.5041   224
25.5141   210
25.5241   234
25.5341   238
25.5441   222
25.5541   226
25.5641   240
25.5741   234
25.5841   235
25.5941   235
25.6041   233
25.6141   208
25.6241   231
25.6341   221
25.6441   250
25.6541   216
25.6641   239
25.6741   214
25.6841   219
25.6941   243
25.7041   236
25.7141   217
25.7241   224
25.7341   256
25.7441   233
25.7541   248
25.7641   235
25.7741   228
25.7841   246
25.7941   237
25.8041   217
25.8141   207
25.8241   206
25.8341   230
25.8441   226
25.8541   227
25.8641   231
25.8741   223
25.8841   219
25.8941   235
25.9041   237
25.9141   237
25.9241   233
25.9341   237
25.9441   233
25.9541   223
25.9641   230
25.9741   199
25.9841   232
25.9941   245
26.0041   243
26.0141   214
26.0241   220
26.0341   235
26.0441   222
26.0541   243
26.0641   242
26.0741   239
26.0841   237
26.0941   250
26.1041   234
26.1141   245
26.1241   257
26.1341   236
26.1441   213
26.1541   224
26.1641   215
26.1741   210
26.1841   244
26.1941   228
26.2041   240
26.2141   204
26.2241   215
26.2341   235
26.2441   239
26.2541   229
26.2641   246
26.2741   229
26.2841   227
26.2941   217
26.3041   213
26.3141   251
26.3241   215
26.3341   253
26.3441   253
26.3541   224
26.3641   248
26.3741   215
26.3841   229
26.3941   213
26.4041   219
26.4141   227
26.4241   233
26.4341   223
26.4441   232
26.4541   224
26.4641   214
26.4741   222
26.4841   219
26.4941   224
26.5041   240
26.5141   246
26.5241   246
26.5341   225
26.5441   192
26.5541   245
26.5641   222
26.5741   210
26.5841   227
26.5941   218
26.6041   217
26.6141   236
26.6241   208
26.6341   210
26.6441   214
26.6541   235
26.6641   232
26.6741   203
26.6841   234
26.6941   228
26.7041   223
26.7141   226
26.7241   206
26.7341   226
26.7441   236
26.7541   215
26.7641   204
26.7741   212
26.7841   222
26.7941   213
26.8041   222
26.8141   237
26.8241   213
26.8341   234
26.8441   196
26.8541   205
26.8641   214
26.8741   212
26.8841   224
26.8941   202
26.9041   216
26.9141   235
26.9241   225
26.9341   218
26.9441   194
26.9541   218
26.9641   209
26.9741   222
26.9841   212
26.9941   220
27.0041   198
27.0141   168
27.0241   199
27.0341   195
27.0441   192
27.0541   210
27.0641   199
27.0741   220
27.0841   189
27.0941   212
27.1041   205
27.1141   219
27.1241   218
27.1341   213
27.1441   206
27.1541   205
27.1641   211
27.1741   207
27.1841   205
27.1941   220
27.2041   187
27.2141   218
27.2241   206
27.2341   209
27.2441   205
27.2541   214
27.2641   223
27.2741   232
27.2841   194
27.2941   209
27.3041   220
27.3141   190
27.3241   193
27.3341   196
27.3441   196
27.3541   184
27.3641   187
27.3741   225
27.3841   233
27.3941   198
27.4041   197
27.4141   202
27.4241   208
27.4341   210
27.4441   226
27.4541   194
27.4641   192
27.4741   206
27.4841   214
27.4941   196
27.5041   189
27.5141   213
27.5241   204
27.5341   211
27.5441   229
27.5541   189
27.5641   219
27.5741   194
27.5841   229
27.5941   197
27.6041   184
27.6141   196
27.6241   198
27.6341   183
27.6441   206
27.6541   213
27.6641   186
27.6741   175
27.6841   196
27.6941   177
27.7041   167
27.7141   198
27.7241   204
27.7341   190
27.7441   190
27.7541   212
27.7641   215
27.7741   220
27.7841   198
27.7941   213
27.8041   202
27.8141   191
27.8241   193
27.8341   197
27.8441   200
27.8541   193
27.8641   193
27.8741   180
27.8841   194
27.8941   211
27.9041   181
27.9141   185
27.9241   202
27.9341   218
27.9441   188
27.9541   192
27.9641   200
27.9741   185
27.9841   210
27.9941   181
28.0041   198
28.0141   174
28.0241   189
28.0341   204
28.0441   193
28.0541   186
28.0641   194
28.0741   186
28.0841   159
28.0941   187
28.1041   182
28.1141   184
28.1241   191
28.1341   179
28.1441   181
28.1541   184
28.1641   197
28.1741   165
28.1841   197
28.1941   185
28.2041   197
28.2141   191
28.2241   196
28.2341   197
28.2441   197
28.2541   170
28.2641   187
28.2741   180
28.2841   179
28.2941   214
28.3041   180
28.3141   179
28.3241   176
28.3341   188
28.3441   193
28.3541   185
28.3641   180
28.3741   188
28.3841   189
28.3941   188
28.4041   175
28.4141   191
28.4241   173
28.4341   178
28.4441   188
28.4541   189
28.4641   194
28.4741   177
28.4841   202
28.4941   165
28.5041   185
28.5141   201
28.5241   207
28.5341   168
28.5441   174
28.5541   187
28.5641   174
28.5741   196
28.5841   175
28.5941   180
28.6041   189
28.6141   163
28.6241   179
28.6341   198
28.6441   164
28.6541   165
28.6641   156
28.6741   192
28.6841   193
28.6941   193
28.7041   182
28.7141   190
28.7241   163
28.7341   176
28.7441   183
28.7541   180
28.7641   167
28.7741   151
28.7841   154
28.7941   167
28.8041   168
28.8141   164
28.8241   187
28.8341   196
28.8441   197
28.8541   175
28.8641   199
28.8741   174
28.8841   179
28.8941   161
28.9041   164
28.9141   194
28.9241   145
28.9341   161
28.9441   193
28.9541   149
28.9641   173
28.9741   173
28.9841   180
28.9941   180
29.0041   158
29.0141   172
29.0241   177
29.0341   171
29.0441   166
29.0541   194
29.0641   168
29.0741   156
29.0841   162
29.0941   184
29.1041   152
29.1141   178
29.1241   184
29.1341   161
29.1441   156
29.1541   170
29.1641   158
29.1741   180
29.1841   175
29.1941   163
29.2041   163
29.2141   167
29.2241   167
29.2341   152
29.2441   166
29.2541   174
29.2641   157
29.2741   165
29.2841   158
29.2941   167
29.3041   173
29.3141   164
29.3241   166
29.3341   184
29.3441   151
29.3541   174
29.3641   169
29.3741   186
29.3841   162
29.3941   158
29.4041   174
29.4141   159
29.4241   208
29.4341   184
29.4441   185
29.4541   162
29.4641   160
29.4741   163
29.4841   138
29.4941   139
29.5041   157
29.5141   159
29.5241   171
29.5341   157
29.5441   165
29.5541   162
29.5641   160
29.5741   171
29.5841   155
29.5941   166
29.6041   176
29.6141   152
29.6241   151
29.6341   170
29.6441   155
29.6541   160
29.6641   168
29.6741   182
29.6841   171
29.6941   177
29.7041   154
29.7141   149
29.7241   156
29.7341   164
29.7441   154
29.7541   182
29.7641   145
29.7741   148
29.7841   168
29.7941   164
29.8041   163
29.8141   153
29.8241   154
29.8341   176
29.8441   162
29.8541   158
29.8641   150
29.8741   146
29.8841   148
29.8941   144
29.9041   158
29.9141   147
29.9241   152
29.9341   137
29.9441   169
29.9541   170
29.9641   143
29.9741   153
29.9841   169
29.9941   150
30.0041   151
30.0141   163
30.0241   164
30.0341   143
30.0441   168
30.0541   163
30.0641   142
30.0741   164
30.0841   165
30.0941   136
30.1041   153
30.1141   165
30.1241   149
30.1341   147
30.1441   153
30.1541   162
30.1641   158
30.1741   154
30.1841   159
30.1941   137
30.2041   146
30.2141   122
30.2241   142
30.2341   159
30.2441   124
30.2541   144
30.2641   152
30.2741   143
30.2841   168
30.2941   149
30.3041   172
30.3141   140
30.3241   150
30.3341   154
30.3441   150
30.3541   158
30.3641   156
30.3741   129
30.3841   145
30.3941   150
30.4041   156
30.4141   158
30.4241   158
30.4341   171
30.4441   156
30.4541   150
30.4641   144
30.4741   126
30.4841   132
30.4941   135
30.5041   147
30.5141   129
30.5241   134
30.5341   142
30.5441   164
30.5541   151
30.5641   141
30.5741   164
30.5841   160
30.5941   153
30.6041   136
30.6141   135
30.6241   135
30.6341   134
30.6441   134
30.6541   141
30.6641   121
30.6741   133
30.6841   131
30.6941   147
30.7041   132
30.7141   148
30.7241   129
30.7341   136
30.7441   136
30.7541   138
30.7641   142
30.7741   155
30.7841   160
30.7941   131
30.8041   144
30.8141   148
30.8241   132
30.8341   132
30.8441   124
30.8541   138
30.8641   150
30.8741   152
30.8841   133
30.8941   126
30.9041   126
30.9141   146
30.9241   136
30.9341   152
30.9441   151
30.9541   139
30.9641   138
30.9741   134
30.9841   141
30.9941   164
31.0041   125
31.0141   126
31.0241   128
31.0341   150
31.0441   134
31.0541   146
31.0641   144
31.0741   140
31.0841   119
31.0941   129
31.1041   139
31.1141   104
31.1241   120
31.1341   138
31.1441   138
31.1541   126
31.1641   142
31.1741   120
31.1841    91
31.1941   121
31.2041   138
31.2141   141
31.2241   125
31.2341   132
31.2441   133
31.2541   120
31.2641   128
31.2741   130
31.2841   131
31.2941   109
31.3041   114
31.3141   132
31.3241   127
31.3341   143
31.3441   145
31.3541   129
31.3641   151
31.3741   137
31.3841   119
31.3941   131
31.4041   135
31.4141   122
31.4241   131
31.4341   129
31.4441   131
31.4541   121
31.4641   127
31.4741   134
31.4841   135
31.4941   139
31.5041   137
31.5141   133
31.5241   117
31.5341   123
31.5441   143
31.5541   126
31.5641   132
31.5741   137
31.5841   124
31.5941   140
31.6041   116
31.6141   124
31.6241   113
31.6341   132
31.6441   117
31.6541   111
31.6641   103
31.6741   121
31.6841   141
31.6941   133
31.7041   156
31.7141   125
31.7241   136
31.7341   138
31.7441   149
31.7541   158
31.7641   129
31.7741   130
31.7841   107
31.7941   120
31.8041   122
31.8141   127
31.8241   133
31.8341   113
31.8441   142
31.8541   131
31.8641   124
31.8741   126
31.8841   146
31.8941   133
31.9041   113
31.9141   112
31.9241   139
31.9341   123
31.9441   131
31.9541   121
31.9641   127
31.9741   138
31.9841   123
31.9941   143
32.0041   139
32.0141   130
32.0241   123
32.0341   122
32.0441   137
32.0541   127
32.0641   110
32.0741   130
32.0841   128
32.0941   105
32.1041   129
32.1141   127
32.1241   121
32.1341   125
32.1441   136
32.1541   117
32.1641   128
32.1741   125
32.1841   120
32.1941   110
32.2041   110
32.2141   100
32.2241   121
32.2341   113
32.2441   125
32.2541   127
32.2641   134
32.2741   123
32.2841   118
32.2941   114
32.3041   113
32.3141   115
32.3241   112
32.3341    89
32.3441   106
32.3541    97
32.3641    90
32.3741   111
32.3841   116
32.3941   107
32.4041   110
32.4141    98
32.4241   106
32.4341   123
32.4441   110
32.4541   104
32.4641   118
32.4741   107
32.4841   107
32.4941   103
32.5041   105
32.5141    95
32.5241   110
32.5341   114
32.5441   118
32.5541   113
32.5641   126
32.5741   106
32.5841    99
32.5941   127
32.6041   109
32.6141   106
32.6241    95
32.6341   106
32.6441   119
32.6541    98
32.6641   108
32.6741   105
32.6841   114
32.6941    93
32.7041   116
32.7141   115
32.7241   107
32.7341    99
32.7441   106
32.7541   117
32.7641    95
32.7741   108
32.7841    98
32.7941    94
32.8041   109
32.8141   104
32.8241   124
32.8341    97
32.8441   119
32.8541    99
32.8641   106
32.8741   101
32.8841   105
32.8941   102
32.9041    98
32.9141    97
32.9241    86
32.9341   108
32.9441   105
32.9541    95
32.9641    97
32.9741   117
32.9841    91
32.9941   116
33.0041   103
33.0141    98
33.0241    80
33.0341    88
33.0441    84
33.0541    92
33.0641   101
33.0741    98
33.0841    92
33.0941    85
33.1041   105
33.1141    99
33.1241   109
33.1341   106
33.1441   104
33.1541   100
33.1641   107
33.1741   108
33.1841   102
33.1941    87
33.2041    97
33.2141    98
33.2241   102
33.2341   100
33.2441    99
33.2541    97
33.2641    96
33.2741    98
33.2841   107
33.2941   105
33.3041    88
33.3141    91
33.3241   102
33.3341    97
33.3441    96
33.3541   107
33.3641    99
33.3741    91
33.3841    75
33.3941   100
33.4041    95
33.4141    95
33.4241    92
33.4341    93
33.4441   105
33.4541    88
33.4641    83
33.4741    90
33.4841    88
33.4941    99
33.5041   105
33.5141    89
33.5241    98
33.5341    93
33.5441    86
33.5541    97
33.5641    91
33.5741    88
33.5841   110
33.5941    90
33.6041    90
33.6141    93
33.6241    93
33.6341    83
33.6441    91
33.6541    99
33.6641    96
33.6741    84
33.6841    92
33.6941    76
33.7041    97
33.7141    93
33.7241    78
33.7341    92
33.7441   106
33.7541    99
33.7641    96
33.7741    99
33.7841   105
33.7941    81
33.8041    80
33.8141    80
33.8241    89
33.8341    91
33.8441    83
33.8541    89
33.8641    87
33.8741    80
33.8841    77
33.8941    88
33.9041    92
33.9141    86
33.9241    99
33.9341    89
33.9441   100
33.9541    76
33.9641    91
33.9741    76
33.9841    90
33.9941    94
34.0041    85
34.0141    92
34.0241    84
34.0341    78
34.0441    82
34.0541    81
34.0641    76
34.0741    74
34.0841    89
34.0941    84
34.1041    83
34.1141    94
34.1241    80
34.1341    82
34.1441   103
34.1541    81
34.1641    66
34.1741    81
34.1841    86
34.1941    69
34.2041    88
34.2141    83
34.2241    73
34.2341    69
34.2441    91
34.2541    91
34.2641    86
34.2741    88
34.2841    84
34.2941    88
34.3041    76
34.3141    71
34.3241    81
34.3341    95
34.3441    90
34.3541    87
34.3641    85
34.3741    64
34.3841    82
34.3941    85
34.4041    73
34.4141    82
34.4241    69
34.4341    69
34.4441    64
34.4541    80
34.4641    77
34.4741    65
34.4841    74
34.4941    91
34.5041    84
34.5141    63
34.5241    96
34.5341   101
34.5441    74
34.5541    72
34.5641    73
34.5741    84
34.5841    78
34.5941    84
34.6041    75
34.6141    58
34.6241    68
34.6341    78
34.6441    75
34.6541    78
34.6641    72
34.6741    83
34.6841    68
34.6941    65
34.7041    67
34.7141    81
34.7241    86
34.7341    68
34.7441    63
34.7541    79
34.7641    89
34.7741    78
34.7841    77
34.7941    89
34.8041    83
34.8141    89
34.8241    85
34.8341    71
34.8441    84
34.8541    71
34.8641    63
34.8741    78
34.8841    69
34.8941    89
34.9041    94
34.9141    87
34.9241    79
34.9341    81
34.9441    65
34.9541    66
34.9641    65
34.9741    64
34.9841    58
34.9941    67
35.0041    62
35.0141    79
35.0241    72
35.0341    74
35.0441    58
35.0541    65
35.0641    74
35.0741    71
35.0841    74
35.0941    77
35.1041    75
35.1141    80
35.1241    78
35.1341    86
35.1441    66
35.1541    90
35.1641    77
35.1741    73
35.1841    75
35.1941    70
35.2041    45
35.2141    71
35.2241    71
35.2341    70
35.2441    74
35.2541    61
35.2641    67
35.2741    73
35.2841    59
35.2941    60
35.3041    58
35.3141    74
35.3241    73
35.3341    53
35.3441    55
35.3541    56
35.3641    60
35.3741    62
35.3841    68
35.3941    56
35.4041    56
35.4141    70
35.4241    62
35.4341    72
35.4441    81
35.4541    77
35.4641    66
35.4741    56
35.4841    71
35.4941    74
35.5041    70
35.5141    64
35.5241    64
35.5341    70
35.5441    67
35.5541    86
35.5641    64
35.5741    68
35.5841    86
35.5941    61
35.6041    63
35.6141    52
35.6241    62
35.6341    62
35.6441    61
35.6541    62
35.6641    66
35.6741    78
35.6841    61
35.6941    67
35.7041    63
35.7141    62
35.7241    63
35.7341    64
35.7441    66
35.7541    68
35.7641    63
35.7741    55
35.7841    59
35.7941    59
35.8041    65
35.8141    72
35.8241    72
35.8341    66
35.8441    62
35.8541    69
35.8641    59
35.8741    68
35.8841    62
35.8941    58
35.9041    56
35.9141    54
35.9241    71
35.9341    55
35.9441    53
35.9541    60
35.9641    62
35.9741    52
35.9841    70
35.9941    56
36.0041    50
36.0141    57
36.0241    50
36.0341    62
36.0441    65
36.0541    58
36.0641    61
36.0741    49
36.0841    52
36.0941    59
36.1041    60
36.1141    56
36.1241    56
36.1341    69
36.1441    58
36.1541    60
36.1641    51
36.1741    66
36.1841    54
36.1941    57
36.2041    61
36.2141    57
36.2241    52
36.2341    42
36.2441    47
36.2541    50
36.2641    57
36.2741    60
36.2841    53
36.2941    53
36.3041    69
36.3141    59
36.3241    47
36.3341    49
36.3441    50
36.3541    48
36.3641    53
36.3741    67
36.3841    62
36.3941    62
36.4041    53
36.4141    57
36.4241    53
36.4341    50
36.4441    37
36.4541    50
36.4641    47
36.4741    50
36.4841    45
36.4941    50
36.5041    63
36.5141    57
36.5241    49
36.5341    52
36.5441    51
36.5541    54
36.5641    48
36.5741    62
36.5841    56
36.5941    63
36.6041    36
36.6141    44
36.6241    47
36.6341    40
36.6441    52
36.6541    63
36.6641    44
36.6741    47
36.6841    50
36.6941    65
36.7041    53
36.7141    50
36.7241    53
36.7341    50
36.7441    36
36.7541    44
36.7641    50
36.7741    47
36.7841    61
36.7941    47
36.8041    50
36.8141    48
36.8241    46
36.8341    51
36.8441    43
36.8541    41
36.8641    51
36.8741    47
36.8841    51
36.8941    53
36.9041    45
36.9141    43
36.9241    46
36.9341    62
36.9441    50
36.9541    35
36.9641    50
36.9741    55
36.9841    33
36.9941    56
37.0041    56
37.0141    50
37.0241    52
37.0341    48
37.0441    44
37.0541    51
37.0641    44
37.0741    42
37.0841    39
37.0941    41
37.1041    40
37.1141    47
37.1241    35
37.1341    49
37.1441    45
37.1541    34
37.1641    46
37.1741    41
37.1841    52
37.1941    44
37.2041    41
37.2141    42
37.2241    46
37.2341    48
37.2441    45
37.2541    29
37.2641    49
37.2741    36
37.2841    32
37.2941    45
37.3041    46
37.3141    40
37.3241    42
37.3341    47
37.3441    40
37.3541    48
37.3641    51
37.3741    26
37.3841    33
37.3941    44
37.4041    53
37.4141    38
37.4241    50
37.4341    45
37.4441    38
37.4541    50
37.4641    38
37.4741    33
37.4841    43
37.4941    37
37.5041    28
37.5141    41
37.5241    51
37.5341    41
37.5441    46
37.5541    50
37.5641    38
37.5741    33
37.5841    35
37.5941    46
37.6041    37
37.6141    40
37.6241    47
37.6341    42
37.6441    24
37.6541    50
37.6641    32
37.6741    34
37.6841    29
37.6941    37
37.7041    41
37.7141    44
37.7241    44
37.7341    42
37.7441    35
37.7541    41
37.7641    45
37.7741    31
37.7841    32
37.7941    43
37.8041    38
37.8141    33
37.8241    39
37.8341    33
37.8441    50
37.8541    41
37.8641    39
37.8741    40
37.8841    46
37.8941    37
37.9041    48
37.9141    30
37.9241    28
37.9341    48
37.9441    38
37.9541    34
37.9641    35
37.9741    30
37.9841    44
37.9941    36
38.0041    34
38.0141    40
38.0241    51
38.0341    36
38.0441    37
38.0541    34
38.0641    35
38.0741    41
38.0841    42
38.0941    28
38.1041    19
38.1141    26
38.1241    28
38.1341    32
38.1441    28
38.1541    31
38.1641    31
38.1741    37
38.1841    27
38.1941    28
38.2041    26
38.2141    39
38.2241    36
38.2341    35
38.2441    28
38.2541    36
38.2641    35
38.2741    41
38.2841    26
38.2941    22
38.3041    47
38.3141    28
38.3241    29
38.3341    39
38.3441    26
38.3541    29
38.3641    31
38.3741    36
38.3841    31
38.3941    31
38.4041    29
38.4141    31
38.4241    31
38.4341    38
38.4441    33
38.4541    22
38.4641    35
38.4741    32
38.4841    26
38.4941    23
38.5041    33
38.5141    33
38.5241    40
38.5341    24
38.5441    30
38.5541    31
38.5641    32
38.5741    38
38.5841    27
38.5941    35
38.6041    20
38.6141    27
38.6241    32
38.6341    29
38.6441    26
38.6541    33
38.6641    23
38.6741    33
38.6841    30
38.6941    24
38.7041    27
38.7141    35
38.7241    38
38.7341    37
38.7441    23
38.7541    32
38.7641    38
38.7741    25
38.7841    36
38.7941    31
38.8041    27
38.8141    31
38.8241    34
38.8341    27
38.8441    25
38.8541    23
38.8641    32
38.8741    18
38.8841    26
38.8941    32
38.9041    31
38.9141    32
38.9241    24
38.9341    17
38.9441    19
38.9541    21
38.9641    28
38.9741    32
38.9841    21
38.9941    32
39.0041    22
39.0141    22
39.0241    27
39.0341    23
39.0441    33
39.0541    35
39.0641    27
39.0741    31
39.0841    21
39.0941    34
39.1041    20
39.1141    22
39.1241    27
39.1341    30
39.1441    22
39.1541    28
39.1641    25
39.1741    31
39.1841    17
39.1941    29
39.2041    35
39.2141    22
39.2241    22
39.2341    22
39.2441    15
39.2541    25
39.2641    24
39.2741    32
39.2841    15
39.2941    33
39.3041    28
39.3141    17
39.3241    28
39.3341    17
39.3441    20
39.3541    24
39.3641    27
39.3741    20
39.3841    23
39.3941    27
39.4041    24
39.4141    28
39.4241    25
39.4341    24
39.4441    17
39.4541    22
39.4641    19
39.4741    32
39.4841    22
39.4941    21
39.5041    26
39.5141    19
39.5241    18
39.5341    24
39.5441    27
39.5541    26
39.5641    29
39.5741    20
39.5841    21
39.5941    25
39.6041    20
39.6141    28
39.6241    22
39.6341    24
39.6441    19
39.6541    23
39.6641    28
39.6741    24
39.6841    16
39.6941    23
39.7041    22
39.7141    26
39.7241    26
39.7341    26
39.7441    21
39.7541    21
39.7641    17
39.7741    16
39.7841    17
39.7941    17
39.8041    18
39.8141    11
39.8241    14
39.8341    24
39.8441    18
39.8541    18
39.8641    13
39.8741    17
39.8841    18
39.8941    26
39.9041    13
39.9141    11
39.9241    23
39.9341    15
39.9441    18
39.9541    15
39.9641    27
39.9741    21
39.9841    18
