Bruker Nano GmbH Berlin, Germany
Esprit 1.9

Date: 5/14/2021 3:50:45 PM
Real time: 10886
Life time: 9955
Pulse density: 132880


Detector type: XFlash 430
Window type: Custom type
Detector thickness: 0.45
Si dead layer:0.029

Calibration, lin.: 10
Calibration, abs.: -955.9
Mn FWHM: 137.05
Fano factor: 0.121
Channels: 4095

Energy Counts
-0.9559     0
-0.9459     0
-0.9359     0
-0.9259     0
-0.9159     0
-0.9059     0
-0.8959     0
-0.8859     0
-0.8759     0
-0.8659     0
-0.8559     0
-0.8459     0
-0.8359     0
-0.8259     0
-0.8159     0
-0.8059     0
-0.7959     0
-0.7859     0
-0.7759     0
-0.7659     0
-0.7559     0
-0.7459     0
-0.7359     0
-0.7259     0
-0.7159     0
-0.7059     0
-0.6959     0
-0.6859     0
-0.6759     0
-0.6659     0
-0.6559     0
-0.6459     0
-0.6359     0
-0.6259     0
-0.6159     0
-0.6059     0
-0.5959     0
-0.5859     0
-0.5759     0
-0.5659     0
-0.5559     0
-0.5459     0
-0.5359     0
-0.5259     0
-0.5159     0
-0.5059     0
-0.4959     0
-0.4859     0
-0.4759     0
-0.4659     0
-0.4559     0
-0.4459     0
-0.4359     0
-0.4259     0
-0.4159     0
-0.4059     0
-0.3959     0
-0.3859     0
-0.3759     0
-0.3659     0
-0.3559     0
-0.3459     0
-0.3359     0
-0.3259     0
-0.3159     0
-0.3059     0
-0.2959     0
-0.2859     0
-0.2759     0
-0.2659     0
-0.2559     0
-0.2459     0
-0.2359     0
-0.2259     0
-0.2159     0
-0.2059     0
-0.1959     0
-0.1859     0
-0.1759     0
-0.1659     0
-0.1559     0
-0.1459     0
-0.1359     0
-0.1259     2
-0.1159     0
-0.1059     7
-0.0959    30
-0.0859   126
-0.0759   380
-0.0659  1232
-0.0559  2927
-0.0459  6363
-0.0359 11778
-0.0259 18818
-0.0159 26104
-0.0059 30396
 0.0041 30625
 0.0141 26183
 0.0241 19580
 0.0341 12417
 0.0441  6779
 0.0541  3205
 0.0641  1250
 0.0741   422
 0.0841   135
 0.0941    36
 0.1041     8
 0.1141     4
 0.1241     5
 0.1341     3
 0.1441     3
 0.1541     3
 0.1641     3
 0.1741     2
 0.1841    78
 0.1941   179
 0.2041   163
 0.2141   172
 0.2241   148
 0.2341   169
 0.2441   155
 0.2541   180
 0.2641   155
 0.2741   156
 0.2841   158
 0.2941   158
 0.3041   151
 0.3141   156
 0.3241   136
 0.3341   140
 0.3441   176
 0.3541   168
 0.3641   148
 0.3741   123
 0.3841   134
 0.3941   146
 0.4041   138
 0.4141   144
 0.4241   155
 0.4341   139
 0.4441   135
 0.4541   147
 0.4641   144
 0.4741   144
 0.4841   129
 0.4941   121
 0.5041   128
 0.5141   140
 0.5241   150
 0.5341   133
 0.5441   129
 0.5541   128
 0.5641   120
 0.5741   106
 0.5841   112
 0.5941   118
 0.6041   123
 0.6141   133
 0.6241   133
 0.6341   131
 0.6441   130
 0.6541   132
 0.6641   125
 0.6741   113
 0.6841   129
 0.6941   132
 0.7041   126
 0.7141   125
 0.7241   119
 0.7341   112
 0.7441   108
 0.7541   112
 0.7641   114
 0.7741   123
 0.7841   114
 0.7941   102
 0.8041   117
 0.8141   131
 0.8241   122
 0.8341   119
 0.8441   120
 0.8541   112
 0.8641   109
 0.8741   107
 0.8841   119
 0.8941   110
 0.9041   118
 0.9141   123
 0.9241   105
 0.9341   106
 0.9441   103
 0.9541    99
 0.9641   102
 0.9741   106
 0.9841   111
 0.9941   117
 1.0041   103
 1.0141    94
 1.0241    92
 1.0341   107
 1.0441    97
 1.0541    87
 1.0641    93
 1.0741    95
 1.0841   111
 1.0941    97
 1.1041   103
 1.1141   113
 1.1241   123
 1.1341    98
 1.1441    88
 1.1541   100
 1.1641   101
 1.1741   106
 1.1841    84
 1.1941    99
 1.2041   101
 1.2141    86
 1.2241    96
 1.2341    98
 1.2441   112
 1.2541   111
 1.2641   115
 1.2741    95
 1.2841    99
 1.2941    93
 1.3041    89
 1.3141    91
 1.3241   104
 1.3341    88
 1.3441   103
 1.3541   100
 1.3641    95
 1.3741    89
 1.3841    90
 1.3941    96
 1.4041    89
 1.4141    98
 1.4241    95
 1.4341    92
 1.4441    84
 1.4541    88
 1.4641    85
 1.4741    98
 1.4841    91
 1.4941    90
 1.5041   102
 1.5141    97
 1.5241    98
 1.5341    89
 1.5441    92
 1.5541    98
 1.5641    91
 1.5741    92
 1.5841    78
 1.5941    94
 1.6041    93
 1.6141    93
 1.6241    82
 1.6341    83
 1.6441   105
 1.6541   110
 1.6641   136
 1.6741   174
 1.6841   204
 1.6941   236
 1.7041   301
 1.7141   380
 1.7241   452
 1.7341   436
 1.7441   423
 1.7541   381
 1.7641   358
 1.7741   313
 1.7841   261
 1.7941   229
 1.8041   187
 1.8141   160
 1.8241   135
 1.8341   134
 1.8441   122
 1.8541   108
 1.8641    99
 1.8741   101
 1.8841   104
 1.8941   108
 1.9041    92
 1.9141   100
 1.9241    98
 1.9341   107
 1.9441    86
 1.9541    91
 1.9641   109
 1.9741   110
 1.9841   106
 1.9941   121
 2.0041   137
 2.0141   128
 2.0241   121
 2.0341   105
 2.0441   114
 2.0541   106
 2.0641   107
 2.0741    96
 2.0841    89
 2.0941    92
 2.1041    91
 2.1141    91
 2.1241    88
 2.1341    94
 2.1441    94
 2.1541    92
 2.1641    83
 2.1741    77
 2.1841    78
 2.1941    65
 2.2041    93
 2.2141    95
 2.2241    92
 2.2341    84
 2.2441    81
 2.2541    89
 2.2641    81
 2.2741    96
 2.2841    85
 2.2941    79
 2.3041    81
 2.3141    97
 2.3241    68
 2.3341    70
 2.3441    78
 2.3541    86
 2.3641    84
 2.3741    86
 2.3841    81
 2.3941    82
 2.4041    77
 2.4141    81
 2.4241    55
 2.4341    62
 2.4441    68
 2.4541    80
 2.4641    67
 2.4741    77
 2.4841    74
 2.4941    80
 2.5041    82
 2.5141    66
 2.5241    68
 2.5341    91
 2.5441    75
 2.5541    69
 2.5641    76
 2.5741    55
 2.5841    68
 2.5941    67
 2.6041    82
 2.6141    78
 2.6241    86
 2.6341    68
 2.6441    68
 2.6541    59
 2.6641    69
 2.6741    80
 2.6841    71
 2.6941    68
 2.7041    80
 2.7141    74
 2.7241    62
 2.7341    76
 2.7441    68
 2.7541    82
 2.7641    72
 2.7741    75
 2.7841    50
 2.7941    90
 2.8041    76
 2.8141    83
 2.8241    95
 2.8341    84
 2.8441    74
 2.8541    76
 2.8641    75
 2.8741    68
 2.8841    75
 2.8941    59
 2.9041    86
 2.9141    64
 2.9241    71
 2.9341    65
 2.9441    75
 2.9541    73
 2.9641    78
 2.9741    67
 2.9841    66
 2.9941    63
 3.0041    84
 3.0141    76
 3.0241    69
 3.0341    70
 3.0441    59
 3.0541    67
 3.0641    61
 3.0741    66
 3.0841    76
 3.0941    44
 3.1041    53
 3.1141    56
 3.1241    61
 3.1341    63
 3.1441    66
 3.1541    74
 3.1641    58
 3.1741    51
 3.1841    51
 3.1941    57
 3.2041    73
 3.2141    68
 3.2241    60
 3.2341    92
 3.2441    76
 3.2541    76
 3.2641    83
 3.2741   106
 3.2841    98
 3.2941   108
 3.3041   117
 3.3141    91
 3.3241   108
 3.3341    96
 3.3441    94
 3.3541    92
 3.3641    95
 3.3741    70
 3.3841    62
 3.3941    55
 3.4041    72
 3.4141    58
 3.4241    61
 3.4341    66
 3.4441    59
 3.4541    57
 3.4641    53
 3.4741    44
 3.4841    49
 3.4941    68
 3.5041    56
 3.5141    73
 3.5241    70
 3.5341    69
 3.5441    69
 3.5541    89
 3.5641   115
 3.5741   137
 3.5841   158
 3.5941   221
 3.6041   271
 3.6141   366
 3.6241   432
 3.6341   584
 3.6441   686
 3.6541   781
 3.6641   919
 3.6741   952
 3.6841  1009
 3.6941   977
 3.7041   965
 3.7141   855
 3.7241   790
 3.7341   704
 3.7441   527
 3.7541   444
 3.7641   335
 3.7741   257
 3.7841   206
 3.7941   124
 3.8041   101
 3.8141    85
 3.8241    67
 3.8341    74
 3.8441    57
 3.8541    56
 3.8641    55
 3.8741    58
 3.8841    62
 3.8941    61
 3.9041    71
 3.9141    80
 3.9241    86
 3.9341   104
 3.9441    99
 3.9541   129
 3.9641   147
 3.9741   166
 3.9841   164
 3.9941   208
 4.0041   212
 4.0141   233
 4.0241   219
 4.0341   196
 4.0441   177
 4.0541   162
 4.0641   141
 4.0741   114
 4.0841   125
 4.0941   102
 4.1041    75
 4.1141    71
 4.1241    60
 4.1341    54
 4.1441    60
 4.1541    48
 4.1641    54
 4.1741    38
 4.1841    52
 4.1941    42
 4.2041    38
 4.2141    37
 4.2241    48
 4.2341    41
 4.2441    45
 4.2541    50
 4.2641    44
 4.2741    45
 4.2841    46
 4.2941    47
 4.3041    47
 4.3141    38
 4.3241    48
 4.3341    53
 4.3441    43
 4.3541    50
 4.3641    55
 4.3741    79
 4.3841    86
 4.3941   114
 4.4041   150
 4.4141   170
 4.4241   225
 4.4341   313
 4.4441   345
 4.4541   425
 4.4641   530
 4.4741   587
 4.4841   626
 4.4941   667
 4.5041   693
 4.5141   660
 4.5241   640
 4.5341   603
 4.5441   536
 4.5541   476
 4.5641   409
 4.5741   291
 4.5841   220
 4.5941   182
 4.6041   189
 4.6141   158
 4.6241   104
 4.6341    74
 4.6441    50
 4.6541    49
 4.6641    52
 4.6741    40
 4.6841    68
 4.6941    52
 4.7041    48
 4.7141    56
 4.7241    78
 4.7341    60
 4.7441    59
 4.7541    55
 4.7641    52
 4.7741    60
 4.7841    58
 4.7941    74
 4.8041    81
 4.8141    94
 4.8241    92
 4.8341   107
 4.8441   128
 4.8541   114
 4.8641   114
 4.8741   122
 4.8841   131
 4.8941   183
 4.9041   200
 4.9141   204
 4.9241   185
 4.9341   164
 4.9441   191
 4.9541   193
 4.9641   166
 4.9741   162
 4.9841   162
 4.9941   128
 5.0041   124
 5.0141   109
 5.0241    89
 5.0341    95
 5.0441    81
 5.0541    66
 5.0641    59
 5.0741    60
 5.0841    49
 5.0941    63
 5.1041    54
 5.1141    57
 5.1241    56
 5.1341    57
 5.1441    58
 5.1541    58
 5.1641    49
 5.1741    64
 5.1841    56
 5.1941    65
 5.2041    63
 5.2141    48
 5.2241    39
 5.2341    54
 5.2441    61
 5.2541    59
 5.2641    67
 5.2741    77
 5.2841    48
 5.2941    62
 5.3041    69
 5.3141    55
 5.3241    59
 5.3341    62
 5.3441    72
 5.3541    57
 5.3641    73
 5.3741    81
 5.3841    82
 5.3941    94
 5.4041    88
 5.4141    82
 5.4241   103
 5.4341    77
 5.4441    74
 5.4541    82
 5.4641    81
 5.4741    89
 5.4841    69
 5.4941    74
 5.5041    74
 5.5141    62
 5.5241    71
 5.5341    68
 5.5441    68
 5.5541    69
 5.5641    62
 5.5741    70
 5.5841    61
 5.5941    51
 5.6041    56
 5.6141    64
 5.6241    50
 5.6341    72
 5.6441    58
 5.6541    72
 5.6641    60
 5.6741    63
 5.6841    72
 5.6941    66
 5.7041    70
 5.7141    80
 5.7241    68
 5.7341    89
 5.7441    88
 5.7541    80
 5.7641   107
 5.7741   112
 5.7841   134
 5.7941   170
 5.8041   186
 5.8141   222
 5.8241   291
 5.8341   354
 5.8441   368
 5.8541   391
 5.8641   428
 5.8741   456
 5.8841   480
 5.8941   461
 5.9041   493
 5.9141   480
 5.9241   441
 5.9341   380
 5.9441   357
 5.9541   325
 5.9641   284
 5.9741   247
 5.9841   229
 5.9941   176
 6.0041   152
 6.0141   129
 6.0241   107
 6.0341   116
 6.0441   123
 6.0541    93
 6.0641   104
 6.0741   115
 6.0841    96
 6.0941   121
 6.1041   106
 6.1141   132
 6.1241   119
 6.1341   143
 6.1441   172
 6.1541   172
 6.1641   194
 6.1741   222
 6.1841   243
 6.1941   312
 6.2041   397
 6.2141   611
 6.2241   794
 6.2341  1131
 6.2441  1573
 6.2541  2251
 6.2641  3116
 6.2741  4273
 6.2841  5791
 6.2941  7917
 6.3041 10043
 6.3141 12874
 6.3241 15908
 6.3341 19259
 6.3441 22474
 6.3541 25362
 6.3641 28718
 6.3741 30710
 6.3841 32637
 6.3941 33629
 6.4041 33405
 6.4141 32325
 6.4241 30159
 6.4341 27743
 6.4441 25048
 6.4541 21464
 6.4641 18254
 6.4741 14683
 6.4841 12067
 6.4941  9424
 6.5041  7208
 6.5141  5253
 6.5241  3930
 6.5341  2692
 6.5441  1849
 6.5541  1329
 6.5641   890
 6.5741   633
 6.5841   456
 6.5941   313
 6.6041   216
 6.6141   181
 6.6241   165
 6.6341   148
 6.6441   135
 6.6541   131
 6.6641   145
 6.6741   136
 6.6841   140
 6.6941   150
 6.7041   152
 6.7141   149
 6.7241   134
 6.7341   125
 6.7441   145
 6.7541   129
 6.7641   153
 6.7741   159
 6.7841   176
 6.7941   158
 6.8041   194
 6.8141   168
 6.8241   177
 6.8341   216
 6.8441   244
 6.8541   262
 6.8641   282
 6.8741   383
 6.8841   388
 6.8941   501
 6.9041   639
 6.9141   779
 6.9241   954
 6.9341  1227
 6.9441  1519
 6.9541  1868
 6.9641  2344
 6.9741  2782
 6.9841  3181
 6.9941  3698
 7.0041  4202
 7.0141  4638
 7.0241  4951
 7.0341  5410
 7.0441  5592
 7.0541  5703
 7.0641  5418
 7.0741  5327
 7.0841  5151
 7.0941  4637
 7.1041  4229
 7.1141  3515
 7.1241  2978
 7.1341  2492
 7.1441  2125
 7.1541  1667
 7.1641  1348
 7.1741  1027
 7.1841   766
 7.1941   539
 7.2041   428
 7.2141   332
 7.2241   275
 7.2341   185
 7.2441   166
 7.2541   147
 7.2641   128
 7.2741   126
 7.2841   123
 7.2941   114
 7.3041   122
 7.3141   136
 7.3241   126
 7.3341   151
 7.3441   146
 7.3541   137
 7.3641   141
 7.3741   149
 7.3841   133
 7.3941   164
 7.4041   148
 7.4141   162
 7.4241   166
 7.4341   159
 7.4441   151
 7.4541   168
 7.4641   149
 7.4741   145
 7.4841   154
 7.4941   152
 7.5041   156
 7.5141   136
 7.5241   111
 7.5341   120
 7.5441   111
 7.5541   113
 7.5641    94
 7.5741   107
 7.5841   112
 7.5941   106
 7.6041   116
 7.6141    92
 7.6241   113
 7.6341   100
 7.6441    88
 7.6541   103
 7.6641    97
 7.6741   113
 7.6841   112
 7.6941   101
 7.7041   103
 7.7141   121
 7.7241   107
 7.7341   119
 7.7441   137
 7.7541   115
 7.7641   112
 7.7741   119
 7.7841   121
 7.7941   113
 7.8041   124
 7.8141   124
 7.8241   142
 7.8341   135
 7.8441   150
 7.8541   143
 7.8641   157
 7.8741   144
 7.8841   148
 7.8941   160
 7.9041   190
 7.9141   198
 7.9241   189
 7.9341   207
 7.9441   231
 7.9541   233
 7.9641   247
 7.9741   231
 7.9841   294
 7.9941   313
 8.0041   329
 8.0141   364
 8.0241   395
 8.0341   369
 8.0441   408
 8.0541   405
 8.0641   513
 8.0741   521
 8.0841   518
 8.0941   574
 8.1041   589
 8.1141   624
 8.1241   634
 8.1341   645
 8.1441   636
 8.1541   668
 8.1641   681
 8.1741   658
 8.1841   661
 8.1941   705
 8.2041   716
 8.2141   679
 8.2241   741
 8.2341   745
 8.2441   790
 8.2541   808
 8.2641   821
 8.2741   872
 8.2841   863
 8.2941  1004
 8.3041  1074
 8.3141  1216
 8.3241  1211
 8.3341  1425
 8.3441  1563
 8.3541  1538
 8.3641  1616
 8.3741  1638
 8.3841  1679
 8.3941  1654
 8.4041  1621
 8.4141  1616
 8.4241  1455
 8.4341  1385
 8.4441  1177
 8.4541  1122
 8.4641  1029
 8.4741   932
 8.4841   819
 8.4941   649
 8.5041   541
 8.5141   466
 8.5241   398
 8.5341   393
 8.5441   318
 8.5541   281
 8.5641   242
 8.5741   260
 8.5841   256
 8.5941   249
 8.6041   257
 8.6141   218
 8.6241   212
 8.6341   223
 8.6441   235
 8.6541   240
 8.6641   237
 8.6741   244
 8.6841   213
 8.6941   214
 8.7041   208
 8.7141   206
 8.7241   180
 8.7341   176
 8.7441   160
 8.7541   161
 8.7641   149
 8.7741   135
 8.7841   155
 8.7941   160
 8.8041   158
 8.8141   173
 8.8241   156
 8.8341   136
 8.8441   147
 8.8541   161
 8.8641   164
 8.8741   168
 8.8841   159
 8.8941   170
 8.9041   167
 8.9141   156
 8.9241   153
 8.9341   155
 8.9441   151
 8.9541   182
 8.9641   177
 8.9741   164
 8.9841   161
 8.9941   161
 9.0041   164
 9.0141   180
 9.0241   176
 9.0341   169
 9.0441   188
 9.0541   198
 9.0641   208
 9.0741   225
 9.0841   217
 9.0941   217
 9.1041   217
 9.1141   256
 9.1241   278
 9.1341   267
 9.1441   273
 9.1541   282
 9.1641   245
 9.1741   313
 9.1841   322
 9.1941   309
 9.2041   321
 9.2141   385
 9.2241   406
 9.2341   407
 9.2441   397
 9.2541   453
 9.2641   470
 9.2741   475
 9.2841   528
 9.2941   507
 9.3041   530
 9.3141   573
 9.3241   566
 9.3341   620
 9.3441   611
 9.3541   626
 9.3641   616
 9.3741   646
 9.3841   648
 9.3941   647
 9.4041   721
 9.4141   660
 9.4241   652
 9.4341   694
 9.4441   753
 9.4541   737
 9.4641   754
 9.4741   751
 9.4841   785
 9.4941   779
 9.5041   756
 9.5141   788
 9.5241   814
 9.5341   833
 9.5441   873
 9.5541   921
 9.5641  1019
 9.5741  1072
 9.5841  1098
 9.5941  1150
 9.6041  1189
 9.6141  1265
 9.6241  1314
 9.6341  1451
 9.6441  1453
 9.6541  1413
 9.6641  1493
 9.6741  1497
 9.6841  1418
 9.6941  1393
 9.7041  1346
 9.7141  1241
 9.7241  1227
 9.7341  1134
 9.7441  1017
 9.7541   922
 9.7641   916
 9.7741   825
 9.7841   773
 9.7941   689
 9.8041   646
 9.8141   628
 9.8241   623
 9.8341   566
 9.8441   557
 9.8541   547
 9.8641   570
 9.8741   556
 9.8841   608
 9.8941   568
 9.9041   563
 9.9141   601
 9.9241   600
 9.9341   657
 9.9441   622
 9.9541   609
 9.9641   579
 9.9741   598
 9.9841   579
 9.9941   528
10.0041   559
10.0141   525
10.0241   439
10.0341   413
10.0441   378
10.0541   351
10.0641   286
10.0741   246
10.0841   245
10.0941   219
10.1041   196
10.1141   209
10.1241   170
10.1341   156
10.1441   161
10.1541   124
10.1641   112
10.1741   109
10.1841   113
10.1941   130
10.2041   117
10.2141   116
10.2241   105
10.2341   108
10.2441   106
10.2541    95
10.2641    82
10.2741    85
10.2841    88
10.2941    84
10.3041    87
10.3141    86
10.3241    93
10.3341    84
10.3441    76
10.3541    72
10.3641    69
10.3741    74
10.3841    73
10.3941    82
10.4041    83
10.4141    98
10.4241    75
10.4341    80
10.4441    87
10.4541    79
10.4641    88
10.4741    93
10.4841    75
10.4941    64
10.5041    74
10.5141    81
10.5241    93
10.5341    95
10.5441    88
10.5541    96
10.5641    96
10.5741    85
10.5841    76
10.5941    93
10.6041    91
10.6141    95
10.6241   101
10.6341    92
10.6441    90
10.6541    99
10.6641   103
10.6741    85
10.6841    97
10.6941    98
10.7041    91
10.7141   102
10.7241   108
10.7341   113
10.7441   120
10.7541   110
10.7641   116
10.7741   120
10.7841   130
10.7941   128
10.8041   140
10.8141   138
10.8241   123
10.8341   107
10.8441   129
10.8541   143
10.8641   143
10.8741   151
10.8841   163
10.8941   144
10.9041   140
10.9141   162
10.9241   163
10.9341   149
10.9441   147
10.9541   146
10.9641   138
10.9741   131
10.9841   124
10.9941   139
11.0041   153
11.0141   157
11.0241   141
11.0341   141
11.0441   154
11.0541   127
11.0641   127
11.0741   120
11.0841   115
11.0941   113
11.1041   118
11.1141   116
11.1241   116
11.1341   127
11.1441   140
11.1541   127
11.1641   129
11.1741   151
11.1841   162
11.1941   167
11.2041   166
11.2141   162
11.2241   180
11.2341   199
11.2441   212
11.2541   194
11.2641   198
11.2741   211
11.2841   217
11.2941   217
11.3041   201
11.3141   201
11.3241   188
11.3341   172
11.3441   148
11.3541   171
11.3641   169
11.3741   159
11.3841   162
11.3941   137
11.4041   130
11.4141   132
11.4241   106
11.4341   104
11.4441   103
11.4541    89
11.4641    83
11.4741    90
11.4841    89
11.4941   100
11.5041    98
11.5141   105
11.5241   101
11.5341   106
11.5441   111
11.5541   100
11.5641   116
11.5741   116
11.5841   105
11.5941   107
11.6041   107
11.6141   101
11.6241   102
11.6341   102
11.6441   106
11.6541   108
11.6641   115
11.6741   104
11.6841   101
11.6941    99
11.7041    98
11.7141    96
11.7241   102
11.7341    98
11.7441    92
11.7541    78
11.7641    96
11.7741    96
11.7841    84
11.7941    86
11.8041    74
11.8141    71
11.8241    76
11.8341    73
11.8441    69
11.8541    78
11.8641    76
11.8741    74
11.8841    80
11.8941    79
11.9041    75
11.9141    73
11.9241    70
11.9341    73
11.9441    72
11.9541    72
11.9641    85
11.9741    75
11.9841    86
11.9941    83
12.0041    69
12.0141    79
12.0241    76
12.0341    73
12.0441    71
12.0541    66
12.0641    75
12.0741    77
12.0841    86
12.0941    78
12.1041    64
12.1141    75
12.1241    84
12.1341    84
12.1441    84
12.1541    76
12.1641    77
12.1741    72
12.1841    69
12.1941    75
12.2041    78
12.2141    73
12.2241    71
12.2341    79
12.2441    82
12.2541    75
12.2641    81
12.2741    79
12.2841    74
12.2941    85
12.3041    77
12.3141    78
12.3241    64
12.3341    69
12.3441    82
12.3541    74
12.3641    77
12.3741    74
12.3841    81
12.3941    83
12.4041    68
12.4141    77
12.4241    71
12.4341    70
12.4441    74
12.4541    77
12.4641    78
12.4741    80
12.4841    77
12.4941    70
12.5041    78
12.5141    76
12.5241    71
12.5341    77
12.5441    75
12.5541    72
12.5641    71
12.5741    67
12.5841    76
12.5941    75
12.6041    75
12.6141    78
12.6241    73
12.6341    72
12.6441    74
12.6541    76
12.6641    75
12.6741    72
12.6841    72
12.6941    73
12.7041    72
12.7141    70
12.7241    73
12.7341    82
12.7441    86
12.7541    81
12.7641    77
12.7741    77
12.7841    78
12.7941    74
12.8041    72
12.8141    78
12.8241    83
12.8341    83
12.8441    82
12.8541    83
12.8641    84
12.8741    82
12.8841    80
12.8941    80
12.9041    80
12.9141    82
12.9241    87
12.9341    88
12.9441    89
12.9541    92
12.9641    90
12.9741    87
12.9841    84
12.9941    79
13.0041    73
13.0141    90
13.0241    94
13.0341    88
13.0441   100
13.0541    97
13.0641    90
13.0741    88
13.0841    76
13.0941    73
13.1041    84
13.1141    94
13.1241    84
13.1341    86
13.1441    92
13.1541    90
13.1641    93
13.1741    87
13.1841    84
13.1941    92
13.2041    95
13.2141   103
13.2241   109
13.2341   106
13.2441    98
13.2541    96
13.2641   109
13.2741    99
13.2841   107
13.2941   122
13.3041   119
13.3141   120
13.3241   119
13.3341   112
13.3441   106
13.3541   108
13.3641   115
13.3741   124
13.3841   129
13.3941   126
13.4041   124
13.4141   124
13.4241   120
13.4341   116
13.4441   114
13.4541   111
13.4641   110
13.4741   117
13.4841   118
13.4941   113
13.5041   111
13.5141   108
13.5241   103
13.5341   107
13.5441   117
13.5541   117
13.5641   110
13.5741   104
13.5841   100
13.5941    98
13.6041   101
13.6141   107
13.6241   111
13.6341   111
13.6441   109
13.6541   103
13.6641    97
13.6741    91
13.6841   103
13.6941   114
13.7041   103
13.7141    92
13.7241    84
13.7341   100
13.7441   113
13.7541   103
13.7641   117
13.7741   114
13.7841   120
13.7941   121
13.8041   108
13.8141   106
13.8241   102
13.8341   107
13.8441   100
13.8541    95
13.8641   102
13.8741   110
13.8841   116
13.8941   120
13.9041   127
13.9141   138
13.9241   144
13.9341   148
13.9441   156
13.9541   165
13.9641   174
13.9741   186
13.9841   204
13.9941   231
14.0041   258
14.0141   278
14.0241   309
14.0341   356
14.0441   388
14.0541   393
14.0641   394
14.0741   419
14.0841   468
14.0941   496
14.1041   507
14.1141   534
14.1241   553
14.1341   551
14.1441   559
14.1541   572
14.1641   567
14.1741   542
14.1841   527
14.1941   528
14.2041   516
14.2141   482
14.2241   437
14.2341   391
14.2441   347
14.2541   314
14.2641   292
14.2741   271
14.2841   235
14.2941   214
14.3041   227
14.3141   227
14.3241   178
14.3341   141
14.3441   138
14.3541   137
14.3641   136
14.3741   126
14.3841   133
14.3941   131
14.4041   118
14.4141   128
14.4241   129
14.4341   124
14.4441   119
14.4541   106
14.4641   115
14.4741   122
14.4841   122
14.4941   125
14.5041   121
14.5141   113
14.5241   112
14.5341   113
14.5441   117
14.5541   116
14.5641   124
14.5741   119
14.5841   119
14.5941   130
14.6041   123
14.6141   126
14.6241   130
14.6341   118
14.6441   113
14.6541   114
14.6641   117
14.6741   114
14.6841   112
14.6941   121
14.7041   129
14.7141   123
14.7241   112
14.7341   118
14.7441   123
14.7541   129
14.7641   133
14.7741   136
14.7841   134
14.7941   134
14.8041   134
14.8141   141
14.8241   141
14.8341   136
14.8441   131
14.8541   144
14.8641   154
14.8741   155
14.8841   142
14.8941   141
14.9041   157
14.9141   159
14.9241   156
14.9341   151
14.9441   148
14.9541   145
14.9641   138
14.9741   146
14.9841   161
14.9941   168
15.0041   152
15.0141   136
15.0241   146
15.0341   146
15.0441   139
15.0541   143
15.0641   151
15.0741   145
15.0841   141
15.0941   136
15.1041   145
15.1141   143
15.1241   147
15.1341   138
15.1441   129
15.1541   135
15.1641   121
15.1741   116
15.1841   130
15.1941   136
15.2041   131
15.2141   139
15.2241   144
15.2341   138
15.2441   125
15.2541   131
15.2641   135
15.2741   134
15.2841   134
15.2941   139
15.3041   140
15.3141   125
15.3241   131
15.3341   134
15.3441   129
15.3541   133
15.3641   138
15.3741   128
15.3841   130
15.3941   135
15.4041   132
15.4141   129
15.4241   145
15.4341   152
15.4441   141
15.4541   133
15.4641   148
15.4741   148
15.4841   142
15.4941   139
15.5041   140
15.5141   143
15.5241   164
15.5341   169
15.5441   145
15.5541   163
15.5641   163
15.5741   171
15.5841   174
15.5941   178
15.6041   184
15.6141   204
15.6241   223
15.6341   232
15.6441   246
15.6541   245
15.6641   264
15.6741   294
15.6841   272
15.6941   281
15.7041   309
15.7141   336
15.7241   336
15.7341   345
15.7441   361
15.7541   358
15.7641   329
15.7741   346
15.7841   373
15.7941   369
15.8041   358
15.8141   346
15.8241   331
15.8341   323
15.8441   344
15.8541   323
15.8641   308
15.8741   285
15.8841   273
15.8941   284
15.9041   269
15.9141   238
15.9241   235
15.9341   233
15.9441   229
15.9541   199
15.9641   185
15.9741   187
15.9841   192
15.9941   182
16.0041   173
16.0141   168
16.0241   179
16.0341   172
16.0441   173
16.0541   180
16.0641   172
16.0741   180
16.0841   180
16.0941   187
16.1041   165
16.1141   159
16.1241   165
16.1341   183
16.1441   177
16.1541   177
16.1641   187
16.1741   181
16.1841   163
16.1941   177
16.2041   188
16.2141   178
16.2241   172
16.2341   160
16.2441   175
16.2541   150
16.2641   146
16.2741   170
16.2841   158
16.2941   152
16.3041   155
16.3141   145
16.3241   140
16.3341   151
16.3441   157
16.3541   164
16.3641   165
16.3741   171
16.3841   182
16.3941   181
16.4041   162
16.4141   159
16.4241   160
16.4341   174
16.4441   179
16.4541   166
16.4641   176
16.4741   172
16.4841   176
16.4941   180
16.5041   177
16.5141   171
16.5241   184
16.5341   201
16.5441   190
16.5541   178
16.5641   193
16.5741   174
16.5841   173
16.5941   181
16.6041   173
16.6141   164
16.6241   163
16.6341   177
16.6441   189
16.6541   181
16.6641   181
16.6741   175
16.6841   172
16.6941   173
16.7041   193
16.7141   176
16.7241   184
16.7341   198
16.7441   191
16.7541   172
16.7641   184
16.7741   184
16.7841   176
16.7941   190
16.8041   176
16.8141   184
16.8241   186
16.8341   180
16.8441   185
16.8541   193
16.8641   191
16.8741   183
16.8841   191
16.8941   193
16.9041   173
16.9141   180
16.9241   188
16.9341   181
16.9441   179
16.9541   194
16.9641   204
16.9741   184
16.9841   165
16.9941   178
17.0041   170
17.0141   174
17.0241   183
17.0341   191
17.0441   187
17.0541   189
17.0641   197
17.0741   201
17.0841   200
17.0941   198
17.1041   192
17.1141   176
17.1241   182
17.1341   182
17.1441   173
17.1541   180
17.1641   193
17.1741   196
17.1841   197
17.1941   198
17.2041   190
17.2141   168
17.2241   182
17.2341   210
17.2441   198
17.2541   193
17.2641   187
17.2741   191
17.2841   199
17.2941   188
17.3041   198
17.3141   204
17.3241   187
17.3341   193
17.3441   221
17.3541   197
17.3641   193
17.3741   208
17.3841   202
17.3941   195
17.4041   193
17.4141   185
17.4241   193
17.4341   205
17.4441   209
17.4541   214
17.4641   217
17.4741   193
17.4841   196
17.4941   216
17.5041   216
17.5141   217
17.5241   224
17.5341   232
17.5441   203
17.5541   226
17.5641   238
17.5741   219
17.5841   220
17.5941   213
17.6041   205
17.6141   245
17.6241   217
17.6341   225
17.6441   232
17.6541   221
17.6641   230
17.6741   233
17.6841   218
17.6941   236
17.7041   244
17.7141   219
17.7241   217
17.7341   222
17.7441   215
17.7541   213
17.7641   220
17.7741   226
17.7841   222
17.7941   236
17.8041   217
17.8141   235
17.8241   224
17.8341   234
17.8441   235
17.8541   225
17.8641   228
17.8741   221
17.8841   214
17.8941   207
17.9041   230
17.9141   224
17.9241   230
17.9341   231
17.9441   223
17.9541   216
17.9641   223
17.9741   212
17.9841   219
17.9941   235
18.0041   225
18.0141   212
18.0241   212
18.0341   223
18.0441   235
18.0541   225
18.0641   219
18.0741   213
18.0841   209
18.0941   208
18.1041   206
18.1141   222
18.1241   220
18.1341   214
18.1441   224
18.1541   206
18.1641   221
18.1741   226
18.1841   230
18.1941   227
18.2041   218
18.2141   219
18.2241   216
18.2341   198
18.2441   235
18.2541   206
18.2641   227
18.2741   243
18.2841   239
18.2941   258
18.3041   239
18.3141   217
18.3241   213
18.3341   235
18.3441   218
18.3541   227
18.3641   221
18.3741   220
18.3841   231
18.3941   246
18.4041   219
18.4141   211
18.4241   238
18.4341   224
18.4441   225
18.4541   230
18.4641   237
18.4741   220
18.4841   221
18.4941   228
18.5041   245
18.5141   234
18.5241   245
18.5341   244
18.5441   239
18.5541   219
18.5641   217
18.5741   229
18.5841   234
18.5941   249
18.6041   251
18.6141   249
18.6241   244
18.6341   254
18.6441   245
18.6541   238
18.6641   233
18.6741   239
18.6841   244
18.6941   228
18.7041   266
18.7141   229
18.7241   244
18.7341   235
18.7441   237
18.7541   239
18.7641   242
18.7741   243
18.7841   235
18.7941   242
18.8041   240
18.8141   228
18.8241   230
18.8341   231
18.8441   230
18.8541   230
18.8641   233
18.8741   252
18.8841   269
18.8941   251
18.9041   239
18.9141   240
18.9241   272
18.9341   259
18.9441   253
18.9541   252
18.9641   250
18.9741   236
18.9841   234
18.9941   229
19.0041   230
19.0141   234
19.0241   256
19.0341   244
19.0441   236
19.0541   219
19.0641   239
19.0741   229
19.0841   228
19.0941   238
19.1041   268
19.1141   258
19.1241   236
19.1341   245
19.1441   252
19.1541   248
19.1641   277
19.1741   255
19.1841   241
19.1941   262
19.2041   241
19.2141   234
19.2241   234
19.2341   262
19.2441   223
19.2541   239
19.2641   240
19.2741   226
19.2841   245
19.2941   253
19.3041   239
19.3141   251
19.3241   255
19.3341   241
19.3441   257
19.3541   279
19.3641   290
19.3741   261
19.3841   251
19.3941   242
19.4041   239
19.4141   263
19.4241   248
19.4341   247
19.4441   238
19.4541   263
19.4641   262
19.4741   265
19.4841   266
19.4941   253
19.5041   240
19.5141   273
19.5241   251
19.5341   242
19.5441   278
19.5541   276
19.5641   248
19.5741   250
19.5841   258
19.5941   247
19.6041   252
19.6141   274
19.6241   262
19.6341   263
19.6441   218
19.6541   254
19.6641   253
19.6741   249
19.6841   273
19.6941   281
19.7041   266
19.7141   254
19.7241   230
19.7341   273
19.7441   249
19.7541   272
19.7641   284
19.7741   238
19.7841   247
19.7941   256
19.8041   272
19.8141   265
19.8241   289
19.8341   265
19.8441   278
19.8541   271
19.8641   246
19.8741   261
19.8841   292
19.8941   254
19.9041   256
19.9141   273
19.9241   283
19.9341   272
19.9441   245
19.9541   260
19.9641   265
19.9741   279
19.9841   298
19.9941   265
20.0041   247
20.0141   288
20.0241   276
20.0341   290
20.0441   289
20.0541   274
20.0641   246
20.0741   266
20.0841   244
20.0941   259
20.1041   274
20.1141   281
20.1241   273
20.1341   273
20.1441   250
20.1541   288
20.1641   257
20.1741   283
20.1841   259
20.1941   271
20.2041   270
20.2141   276
20.2241   274
20.2341   258
20.2441   283
20.2541   290
20.2641   277
20.2741   283
20.2841   261
20.2941   259
20.3041   257
20.3141   268
20.3241   266
20.3341   284
20.3441   264
20.3541   280
20.3641   270
20.3741   272
20.3841   278
20.3941   263
20.4041   258
20.4141   266
20.4241   278
20.4341   281
20.4441   242
20.4541   265
20.4641   249
20.4741   268
20.4841   283
20.4941   268
20.5041   308
20.5141   298
20.5241   258
20.5341   281
20.5441   288
20.5541   271
20.5641   248
20.5741   269
20.5841   284
20.5941   267
20.6041   281
20.6141   294
20.6241   286
20.6341   267
20.6441   246
20.6541   255
20.6641   258
20.6741   264
20.6841   274
20.6941   292
20.7041   280
20.7141   297
20.7241   283
20.7341   268
20.7441   265
20.7541   288
20.7641   295
20.7741   258
20.7841   281
20.7941   278
20.8041   314
20.8141   277
20.8241   261
20.8341   295
20.8441   299
20.8541   303
20.8641   291
20.8741   307
20.8841   335
20.8941   337
20.9041   335
20.9141   333
20.9241   320
20.9341   348
20.9441   340
20.9541   349
20.9641   349
20.9741   356
20.9841   365
20.9941   389
21.0041   386
21.0141   396
21.0241   373
21.0341   424
21.0441   418
21.0541   388
21.0641   413
21.0741   443
21.0841   461
21.0941   456
21.1041   399
21.1141   414
21.1241   435
21.1341   407
21.1441   434
21.1541   459
21.1641   428
21.1741   418
21.1841   404
21.1941   395
21.2041   423
21.2141   377
21.2241   361
21.2341   383
21.2441   392
21.2541   378
21.2641   326
21.2741   366
21.2841   355
21.2941   345
21.3041   334
21.3141   347
21.3241   318
21.3341   321
21.3441   334
21.3541   295
21.3641   287
21.3741   281
21.3841   314
21.3941   274
21.4041   301
21.4141   257
21.4241   298
21.4341   292
21.4441   286
21.4541   266
21.4641   281
21.4741   300
21.4841   273
21.4941   278
21.5041   265
21.5141   263
21.5241   293
21.5341   282
21.5441   286
21.5541   278
21.5641   278
21.5741   268
21.5841   272
21.5941   259
21.6041   283
21.6141   317
21.6241   292
21.6341   259
21.6441   299
21.6541   290
21.6641   279
21.6741   273
21.6841   279
21.6941   284
21.7041   266
21.7141   277
21.7241   290
21.7341   291
21.7441   298
21.7541   270
21.7641   287
21.7741   273
21.7841   280
21.7941   273
21.8041   291
21.8141   272
21.8241   262
21.8341   248
21.8441   316
21.8541   313
21.8641   316
21.8741   298
21.8841   296
21.8941   286
21.9041   289
21.9141   273
21.9241   310
21.9341   304
21.9441   303
21.9541   294
21.9641   308
21.9741   307
21.9841   295
21.9941   307
22.0041   286
22.0141   259
22.0241   262
22.0341   299
22.0441   269
22.0541   286
22.0641   277
22.0741   278
22.0841   274
22.0941   279
22.1041   272
22.1141   270
22.1241   292
22.1341   269
22.1441   284
22.1541   273
22.1641   293
22.1741   329
22.1841   296
22.1941   274
22.2041   313
22.2141   299
22.2241   280
22.2341   293
22.2441   284
22.2541   302
22.2641   252
22.2741   279
22.2841   247
22.2941   283
22.3041   320
22.3141   281
22.3241   303
22.3341   294
22.3441   251
22.3541   281
22.3641   268
22.3741   296
22.3841   304
22.3941   271
22.4041   279
22.4141   300
22.4241   289
22.4341   277
22.4441   304
22.4541   298
22.4641   318
22.4741   318
22.4841   282
22.4941   280
22.5041   269
22.5141   277
22.5241   289
22.5341   275
22.5441   247
22.5541   252
22.5641   262
22.5741   275
22.5841   317
22.5941   281
22.6041   280
22.6141   308
22.6241   275
22.6341   269
22.6441   286
22.6541   304
22.6641   290
22.6741   266
22.6841   283
22.6941   269
22.7041   274
22.7141   275
22.7241   276
22.7341   292
22.7441   269
22.7541   281
22.7641   270
22.7741   265
22.7841   288
22.7941   269
22.8041   290
22.8141   295
22.8241   286
22.8341   267
22.8441   286
22.8541   256
22.8641   282
22.8741   244
22.8841   265
22.8941   294
22.9041   279
22.9141   277
22.9241   293
22.9341   296
22.9441   315
22.9541   273
22.9641   274
22.9741   270
22.9841   268
22.9941   244
23.0041   242
23.0141   283
23.0241   265
23.0341   294
23.0441   293
23.0541   283
23.0641   293
23.0741   236
23.0841   271
23.0941   269
23.1041   267
23.1141   274
23.1241   254
23.1341   275
23.1441   255
23.1541   296
23.1641   255
23.1741   267
23.1841   280
23.1941   282
23.2041   266
23.2141   256
23.2241   280
23.2341   250
23.2441   298
23.2541   273
23.2641   281
23.2741   264
23.2841   315
23.2941   256
23.3041   279
23.3141   274
23.3241   259
23.3341   297
23.3441   304
23.3541   309
23.3641   284
23.3741   300
23.3841   257
23.3941   288
23.4041   280
23.4141   278
23.4241   272
23.4341   268
23.4441   279
23.4541   275
23.4641   277
23.4741   272
23.4841   298
23.4941   284
23.5041   265
23.5141   249
23.5241   264
23.5341   303
23.5441   305
23.5541   280
23.5641   265
23.5741   288
23.5841   261
23.5941   284
23.6041   265
23.6141   279
23.6241   274
23.6341   286
23.6441   288
23.6541   263
23.6641   297
23.6741   297
23.6841   250
23.6941   271
23.7041   263
23.7141   300
23.7241   305
23.7341   271
23.7441   300
23.7541   277
23.7641   316
23.7741   300
23.7841   302
23.7941   287
23.8041   283
23.8141   314
23.8241   303
23.8341   283
23.8441   305
23.8541   291
23.8641   294
23.8741   286
23.8841   292
23.8941   280
23.9041   279
23.9141   287
23.9241   277
23.9341   280
23.9441   284
23.9541   288
23.9641   270
23.9741   285
23.9841   252
23.9941   247
24.0041   279
24.0141   287
24.0241   275
24.0341   268
24.0441   259
24.0541   281
24.0641   263
24.0741   265
24.0841   230
24.0941   269
24.1041   266
24.1141   260
24.1241   284
24.1341   256
24.1441   281
24.1541   277
24.1641   264
24.1741   290
24.1841   271
24.1941   231
24.2041   292
24.2141   279
24.2241   270
24.2341   293
24.2441   292
24.2541   266
24.2641   268
24.2741   248
24.2841   256
24.2941   292
24.3041   270
24.3141   252
24.3241   255
24.3341   278
24.3441   277
24.3541   301
24.3641   281
24.3741   278
24.3841   291
24.3941   303
24.4041   276
24.4141   300
24.4241   253
24.4341   257
24.4441   259
24.4541   261
24.4641   269
24.4741   258
24.4841   260
24.4941   261
24.5041   241
24.5141   252
24.5241   261
24.5341   274
24.5441   264
24.5541   270
24.5641   258
24.5741   276
24.5841   260
24.5941   248
24.6041   258
24.6141   261
24.6241   251
24.6341   289
24.6441   254
24.6541   263
24.6641   258
24.6741   273
24.6841   236
24.6941   284
24.7041   273
24.7141   260
24.7241   263
24.7341   262
24.7441   280
24.7541   284
24.7641   255
24.7741   246
24.7841   264
24.7941   275
24.8041   251
24.8141   256
24.8241   249
24.8341   243
24.8441   268
24.8541   260
24.8641   237
24.8741   267
24.8841   240
24.8941   266
24.9041   266
24.9141   251
24.9241   226
24.9341   276
24.9441   256
24.9541   261
24.9641   253
24.9741   249
24.9841   254
24.9941   259
25.0041   256
25.0141   292
25.0241   274
25.0341   238
25.0441   240
25.0541   258
25.0641   242
25.0741   238
25.0841   265
25.0941   249
25.1041   248
25.1141   283
25.1241   264
25.1341   285
25.1441   268
25.1541   271
25.1641   247
25.1741   273
25.1841   312
25.1941   258
25.2041   240
25.2141   271
25.2241   264
25.2341   270
25.2441   262
25.2541   228
25.2641   282
25.2741   253
25.2841   257
25.2941   275
25.3041   251
25.3141   257
25.3241   270
25.3341   270
25.3441   276
25.3541   264
25.3641   261
25.3741   235
25.3841   231
25.3941   240
25.4041   245
25.4141   239
25.4241   263
25.4341   268
25.4441   268
25.4541   281
25.4641   261
25.4741   257
25.4841   259
25.4941   264
25.5041   240
25.5141   233
25.5241   256
25.5341   228
25.5441   234
25.5541   248
25.5641   267
25.5741   235
25.5841   239
25.5941   240
25.6041   261
25.6141   242
25.6241   258
25.6341   256
25.6441   226
25.6541   245
25.6641   256
25.6741   221
25.6841   246
25.6941   213
25.7041   231
25.7141   234
25.7241   241
25.7341   249
25.7441   224
25.7541   250
25.7641   235
25.7741   250
25.7841   257
25.7941   223
25.8041   249
25.8141   242
25.8241   223
25.8341   233
25.8441   253
25.8541   214
25.8641   247
25.8741   240
25.8841   246
25.8941   243
25.9041   233
25.9141   225
25.9241   244
25.9341   263
25.9441   236
25.9541   219
25.9641   241
25.9741   239
25.9841   233
25.9941   220
26.0041   217
26.0141   234
26.0241   227
26.0341   230
26.0441   285
26.0541   269
26.0641   236
26.0741   225
26.0841   233
26.0941   244
26.1041   245
26.1141   230
26.1241   240
26.1341   242
26.1441   211
26.1541   233
26.1641   204
26.1741   236
26.1841   233
26.1941   239
26.2041   230
26.2141   246
26.2241   214
26.2341   223
26.2441   248
26.2541   238
26.2641   226
26.2741   214
26.2841   247
26.2941   266
26.3041   225
26.3141   242
26.3241   242
26.3341   238
26.3441   219
26.3541   248
26.3641   233
26.3741   229
26.3841   225
26.3941   236
26.4041   235
26.4141   231
26.4241   250
26.4341   252
26.4441   261
26.4541   224
26.4641   232
26.4741   230
26.4841   209
26.4941   242
26.5041   232
26.5141   253
26.5241   229
26.5341   218
26.5441   235
26.5541   240
26.5641   242
26.5741   224
26.5841   248
26.5941   224
26.6041   208
26.6141   221
26.6241   226
26.6341   214
26.6441   219
26.6541   212
26.6641   223
26.6741   237
26.6841   215
26.6941   243
26.7041   236
26.7141   234
26.7241   222
26.7341   209
26.7441   219
26.7541   244
26.7641   243
26.7741   212
26.7841   219
26.7941   214
26.8041   204
26.8141   211
26.8241   228
26.8341   198
26.8441   214
26.8541   222
26.8641   204
26.8741   225
26.8841   213
26.8941   234
26.9041   203
26.9141   223
26.9241   202
26.9341   224
26.9441   230
26.9541   193
26.9641   230
26.9741   227
26.9841   223
26.9941   219
27.0041   235
27.0141   219
27.0241   194
27.0341   227
27.0441   227
27.0541   219
27.0641   221
27.0741   232
27.0841   198
27.0941   196
27.1041   218
27.1141   213
27.1241   208
27.1341   211
27.1441   189
27.1541   193
27.1641   209
27.1741   198
27.1841   204
27.1941   211
27.2041   217
27.2141   212
27.2241   205
27.2341   215
27.2441   196
27.2541   195
27.2641   210
27.2741   180
27.2841   180
27.2941   188
27.3041   182
27.3141   224
27.3241   233
27.3341   195
27.3441   212
27.3541   239
27.3641   215
27.3741   220
27.3841   199
27.3941   204
27.4041   202
27.4141   217
27.4241   226
27.4341   211
27.4441   210
27.4541   193
27.4641   218
27.4741   223
27.4841   218
27.4941   199
27.5041   230
27.5141   212
27.5241   194
27.5341   196
27.5441   204
27.5541   209
27.5641   209
27.5741   212
27.5841   215
27.5941   185
27.6041   194
27.6141   205
27.6241   195
27.6341   204
27.6441   204
27.6541   204
27.6641   207
27.6741   220
27.6841   216
27.6941   186
27.7041   212
27.7141   210
27.7241   189
27.7341   202
27.7441   218
27.7541   200
27.7641   236
27.7741   204
27.7841   207
27.7941   182
27.8041   179
27.8141   202
27.8241   216
27.8341   200
27.8441   206
27.8541   203
27.8641   201
27.8741   169
27.8841   168
27.8941   192
27.9041   213
27.9141   207
27.9241   190
27.9341   196
27.9441   200
27.9541   204
27.9641   191
27.9741   203
27.9841   181
27.9941   187
28.0041   195
28.0141   191
28.0241   177
28.0341   170
28.0441   195
28.0541   200
28.0641   199
28.0741   182
28.0841   193
28.0941   188
28.1041   181
28.1141   184
28.1241   186
28.1341   195
28.1441   181
28.1541   199
28.1641   196
28.1741   186
28.1841   190
28.1941   211
28.2041   178
28.2141   197
28.2241   204
28.2341   195
28.2441   198
28.2541   167
28.2641   183
28.2741   168
28.2841   192
28.2941   221
28.3041   186
28.3141   209
28.3241   167
28.3341   181
28.3441   188
28.3541   172
28.3641   189
28.3741   211
28.3841   187
28.3941   189
28.4041   208
28.4141   205
28.4241   189
28.4341   194
28.4441   184
28.4541   201
28.4641   194
28.4741   188
28.4841   210
28.4941   197
28.5041   191
28.5141   193
28.5241   189
28.5341   207
28.5441   189
28.5541   198
28.5641   187
28.5741   190
28.5841   201
28.5941   202
28.6041   191
28.6141   172
28.6241   186
28.6341   204
28.6441   180
28.6541   193
28.6641   177
28.6741   166
28.6841   177
28.6941   174
28.7041   179
28.7141   178
28.7241   172
28.7341   185
28.7441   170
28.7541   177
28.7641   169
28.7741   187
28.7841   180
28.7941   178
28.8041   161
28.8141   170
28.8241   196
28.8341   193
28.8441   177
28.8541   190
28.8641   181
28.8741   159
28.8841   182
28.8941   153
28.9041   173
28.9141   157
28.9241   179
28.9341   171
28.9441   166
28.9541   178
28.9641   171
28.9741   186
28.9841   163
28.9941   180
29.0041   175
29.0141   174
29.0241   180
29.0341   157
29.0441   174
29.0541   177
29.0641   154
29.0741   176
29.0841   180
29.0941   165
29.1041   170
29.1141   165
29.1241   159
29.1341   172
29.1441   168
29.1541   168
29.1641   175
29.1741   154
29.1841   162
29.1941   149
29.2041   158
29.2141   161
29.2241   171
29.2341   175
29.2441   172
29.2541   170
29.2641   181
29.2741   160
29.2841   179
29.2941   170
29.3041   159
29.3141   165
29.3241   136
29.3341   176
29.3441   158
29.3541   173
29.3641   176
29.3741   171
29.3841   174
29.3941   163
29.4041   155
29.4141   173
29.4241   152
29.4341   159
29.4441   161
29.4541   152
29.4641   154
29.4741   144
29.4841   171
29.4941   151
29.5041   142
29.5141   163
29.5241   172
29.5341   155
29.5441   147
29.5541   163
29.5641   148
29.5741   152
29.5841   162
29.5941   176
29.6041   138
29.6141   155
29.6241   174
29.6341   181
29.6441   154
29.6541   155
29.6641   147
29.6741   186
29.6841   168
29.6941   162
29.7041   168
29.7141   183
29.7241   153
29.7341   152
29.7441   167
29.7541   161
29.7641   183
29.7741   140
29.7841   158
29.7941   155
29.8041   146
29.8141   152
29.8241   142
29.8341   140
29.8441   168
29.8541   177
29.8641   164
29.8741   161
29.8841   147
29.8941   152
29.9041   169
29.9141   151
29.9241   161
29.9341   146
29.9441   148
29.9541   164
29.9641   154
29.9741   148
29.9841   154
29.9941   153
30.0041   133
30.0141   156
30.0241   141
30.0341   147
30.0441   154
30.0541   135
30.0641   153
30.0741   149
30.0841   142
30.0941   136
30.1041   154
30.1141   148
30.1241   146
30.1341   162
30.1441   155
30.1541   146
30.1641   155
30.1741   136
30.1841   137
30.1941   131
30.2041   160
30.2141   145
30.2241   152
30.2341   145
30.2441   160
30.2541   147
30.2641   121
30.2741   133
30.2841   127
30.2941   136
30.3041   158
30.3141   143
30.3241   145
30.3341   139
30.3441   125
30.3541   162
30.3641   134
30.3741   149
30.3841   143
30.3941   129
30.4041   135
30.4141   137
30.4241   148
30.4341   145
30.4441   142
30.4541   137
30.4641   147
30.4741   136
30.4841   118
30.4941   157
30.5041   135
30.5141   113
30.5241   139
30.5341   148
30.5441   127
30.5541   151
30.5641   160
30.5741   141
30.5841   172
30.5941   135
30.6041   146
30.6141   130
30.6241   146
30.6341   125
30.6441   135
30.6541   123
30.6641   153
30.6741   149
30.6841   130
30.6941   149
30.7041   130
30.7141   137
30.7241   138
30.7341   157
30.7441   129
30.7541   118
30.7641   129
30.7741   120
30.7841   134
30.7941   116
30.8041   146
30.8141   141
30.8241   136
30.8341   135
30.8441   124
30.8541   140
30.8641   141
30.8741   146
30.8841   142
30.8941   149
30.9041   127
30.9141   125
30.9241   133
30.9341   139
30.9441   138
30.9541   131
30.9641   129
30.9741   127
30.9841   129
30.9941   147
31.0041   143
31.0141   110
31.0241   151
31.0341   127
31.0441   119
31.0541   113
31.0641   119
31.0741   134
31.0841   151
31.0941   147
31.1041   122
31.1141   129
31.1241   127
31.1341   110
31.1441   112
31.1541   121
31.1641   150
31.1741   121
31.1841   115
31.1941   122
31.2041   121
31.2141   120
31.2241   135
31.2341   131
31.2441   131
31.2541   124
31.2641   119
31.2741   123
31.2841   127
31.2941   119
31.3041   134
31.3141   119
31.3241   129
31.3341   140
31.3441   148
31.3541   145
31.3641   138
31.3741   121
31.3841   123
31.3941   139
31.4041   143
31.4141   150
31.4241   127
31.4341   121
31.4441   130
31.4541   134
31.4641   106
31.4741   130
31.4841   117
31.4941   118
31.5041   117
31.5141   126
31.5241   120
31.5341   114
31.5441   109
31.5541   115
31.5641    91
31.5741   117
31.5841   102
31.5941   106
31.6041   114
31.6141   129
31.6241   123
31.6341   118
31.6441   105
31.6541   126
31.6641   130
31.6741   126
31.6841   109
31.6941   119
31.7041   128
31.7141   120
31.7241   126
31.7341   116
31.7441   109
31.7541   104
31.7641   100
31.7741   111
31.7841   121
31.7941   138
31.8041   124
31.8141   136
31.8241   129
31.8341   124
31.8441   113
31.8541   118
31.8641   127
31.8741   117
31.8841   103
31.8941   132
31.9041   122
31.9141   131
31.9241   145
31.9341   121
31.9441   117
31.9541   120
31.9641   107
31.9741   100
31.9841   103
31.9941    98
32.0041   130
32.0141   111
32.0241   112
32.0341   119
32.0441   109
32.0541   127
32.0641   110
32.0741   126
32.0841   126
32.0941   113
32.1041    99
32.1141   120
32.1241   107
32.1341   128
32.1441   114
32.1541   118
32.1641   115
32.1741   119
32.1841   120
32.1941   122
32.2041   128
32.2141   110
32.2241   133
32.2341   110
32.2441   110
32.2541   130
32.2641   132
32.2741   109
32.2841   109
32.2941   108
32.3041   100
32.3141   118
32.3241   116
32.3341   101
32.3441   104
32.3541   103
32.3641   113
32.3741   107
32.3841   107
32.3941   104
32.4041   117
32.4141   102
32.4241   116
32.4341   115
32.4441   101
32.4541   108
32.4641   100
32.4741   104
32.4841    98
32.4941   101
32.5041   111
32.5141    96
32.5241   122
32.5341    99
32.5441    94
32.5541   115
32.5641    90
32.5741   113
32.5841    92
32.5941    97
32.6041    94
32.6141   105
32.6241    80
32.6341    99
32.6441   109
32.6541   103
32.6641    96
32.6741    95
32.6841    92
32.6941   111
32.7041   102
32.7141   109
32.7241    93
32.7341    98
32.7441    93
32.7541    96
32.7641    93
32.7741    87
32.7841    98
32.7941    90
32.8041   108
32.8141    99
32.8241    89
32.8341    88
32.8441   103
32.8541    96
32.8641    92
32.8741    93
32.8841   129
32.8941    84
32.9041    94
32.9141   112
32.9241   101
32.9341    91
32.9441    95
32.9541    93
32.9641    87
32.9741   112
32.9841   106
32.9941   108
33.0041    93
33.0141   100
33.0241    91
33.0341    98
33.0441   101
33.0541    94
33.0641    81
33.0741    99
33.0841    87
33.0941    99
33.1041   111
33.1141    88
33.1241    98
33.1341    83
33.1441    83
33.1541    84
33.1641    84
33.1741    97
33.1841    93
33.1941    85
33.2041    89
33.2141    95
33.2241    87
33.2341    92
33.2441    90
33.2541    88
33.2641    86
33.2741    95
33.2841    83
33.2941    87
33.3041    84
33.3141    73
33.3241    98
33.3341    83
33.3441    83
33.3541    75
33.3641    93
33.3741    78
33.3841    89
33.3941    78
33.4041    89
33.4141    91
33.4241    93
33.4341    94
33.4441    92
33.4541   104
33.4641    96
33.4741    73
33.4841    78
33.4941    98
33.5041    94
33.5141    87
33.5241    78
33.5341    74
33.5441    87
33.5541    88
33.5641    83
33.5741    72
33.5841    83
33.5941    87
33.6041    92
33.6141    84
33.6241    91
33.6341    78
33.6441   102
33.6541    74
33.6641    82
33.6741    78
33.6841    79
33.6941    75
33.7041    82
33.7141    95
33.7241    94
33.7341    90
33.7441    89
33.7541    74
33.7641    88
33.7741    90
33.7841    78
33.7941    81
33.8041    79
33.8141    71
33.8241    69
33.8341    85
33.8441    98
33.8541    78
33.8641    97
33.8741    76
33.8841    91
33.8941    66
33.9041    91
33.9141    87
33.9241    79
33.9341    96
33.9441    76
33.9541    76
33.9641    89
33.9741    81
33.9841    71
33.9941    80
34.0041    83
34.0141    76
34.0241    82
34.0341    73
34.0441    83
34.0541    81
34.0641    75
34.0741    71
34.0841    75
34.0941    68
34.1041    86
34.1141    75
34.1241    60
34.1341    96
34.1441    79
34.1541    90
34.1641    72
34.1741    71
34.1841    75
34.1941    75
34.2041    73
34.2141    66
34.2241    82
34.2341    71
34.2441    69
34.2541    83
34.2641    72
34.2741    73
34.2841    77
34.2941    71
34.3041    71
34.3141    73
34.3241    77
34.3341    78
34.3441    88
34.3541    68
34.3641    76
34.3741    90
34.3841    76
34.3941    83
34.4041    75
34.4141    65
34.4241    73
34.4341    60
34.4441    75
34.4541    67
34.4641    65
34.4741    80
34.4841    74
34.4941    74
34.5041    58
34.5141    59
34.5241    87
34.5341    69
34.5441    83
34.5541    87
34.5641    86
34.5741    73
34.5841    71
34.5941    73
34.6041    74
34.6141    64
34.6241    75
34.6341    60
34.6441    82
34.6541    68
34.6641    76
34.6741    63
34.6841    65
34.6941    72
34.7041    67
34.7141    66
34.7241    80
34.7341    75
34.7441    70
34.7541    76
34.7641    78
34.7741    70
34.7841    69
34.7941    72
34.8041    85
34.8141    66
34.8241    68
34.8341    61
34.8441    73
34.8541    79
34.8641    65
34.8741    72
34.8841    68
34.8941    69
34.9041    54
34.9141    71
34.9241    70
34.9341    65
34.9441    60
34.9541    66
34.9641    66
34.9741    59
34.9841    53
34.9941    64
35.0041    72
35.0141    73
35.0241    74
35.0341    60
35.0441    67
35.0541    71
35.0641    61
35.0741    55
35.0841    77
35.0941    70
35.1041    68
35.1141    59
35.1241    64
35.1341    72
35.1441    56
35.1541    71
35.1641    57
35.1741    64
35.1841    64
35.1941    64
35.2041    61
35.2141    64
35.2241    66
35.2341    72
35.2441    63
35.2541    60
35.2641    57
35.2741    74
35.2841    73
35.2941    62
35.3041    60
35.3141    69
35.3241    60
35.3341    62
35.3441    58
35.3541    51
35.3641    61
35.3741    72
35.3841    73
35.3941    56
35.4041    60
35.4141    53
35.4241    55
35.4341    49
35.4441    53
35.4541    61
35.4641    46
35.4741    73
35.4841    55
35.4941    52
35.5041    56
35.5141    65
35.5241    49
35.5341    63
35.5441    67
35.5541    55
35.5641    43
35.5741    63
35.5841    67
35.5941    57
35.6041    74
35.6141    66
35.6241    42
35.6341    46
35.6441    64
35.6541    56
35.6641    50
35.6741    69
35.6841    60
35.6941    58
35.7041    56
35.7141    49
35.7241    51
35.7341    54
35.7441    45
35.7541    57
35.7641    64
35.7741    72
35.7841    49
35.7941    65
35.8041    59
35.8141    59
35.8241    66
35.8341    62
35.8441    57
35.8541    50
35.8641    54
35.8741    47
35.8841    41
35.8941    49
35.9041    54
35.9141    53
35.9241    53
35.9341    66
35.9441    49
35.9541    49
35.9641    56
35.9741    55
35.9841    65
35.9941    52
36.0041    49
36.0141    49
36.0241    55
36.0341    56
36.0441    52
36.0541    43
36.0641    45
36.0741    53
36.0841    45
36.0941    45
36.1041    52
36.1141    48
36.1241    49
36.1341    41
36.1441    55
36.1541    56
36.1641    43
36.1741    63
36.1841    59
36.1941    54
36.2041    54
36.2141    49
36.2241    55
36.2341    48
36.2441    55
36.2541    42
36.2641    54
36.2741    58
36.2841    47
36.2941    41
36.3041    49
36.3141    53
36.3241    40
36.3341    55
36.3441    46
36.3541    50
36.3641    50
36.3741    46
36.3841    60
36.3941    50
36.4041    51
36.4141    51
36.4241    48
36.4341    47
36.4441    44
36.4541    57
36.4641    55
36.4741    56
36.4841    46
36.4941    58
36.5041    50
36.5141    46
36.5241    49
36.5341    54
36.5441    45
36.5541    49
36.5641    42
36.5741    31
36.5841    51
36.5941    43
36.6041    50
36.6141    48
36.6241    41
36.6341    38
36.6441    54
36.6541    52
36.6641    48
36.6741    46
36.6841    43
36.6941    51
36.7041    46
36.7141    47
36.7241    55
36.7341    46
36.7441    52
36.7541    34
36.7641    34
36.7741    50
36.7841    51
36.7941    36
36.8041    41
36.8141    41
36.8241    44
36.8341    38
36.8441    44
36.8541    50
36.8641    35
36.8741    43
36.8841    54
36.8941    53
36.9041    41
36.9141    36
36.9241    47
36.9341    58
36.9441    43
36.9541    48
36.9641    46
36.9741    39
36.9841    44
36.9941    36
37.0041    42
37.0141    55
37.0241    49
37.0341    39
37.0441    33
37.0541    30
37.0641    43
37.0741    49
37.0841    39
37.0941    43
37.1041    48
37.1141    40
37.1241    41
37.1341    37
37.1441    41
37.1541    40
37.1641    36
37.1741    40
37.1841    52
37.1941    45
37.2041    38
37.2141    31
37.2241    46
37.2341    34
37.2441    41
37.2541    41
37.2641    38
37.2741    37
37.2841    41
37.2941    43
37.3041    40
37.3141    38
37.3241    38
37.3341    45
37.3441    44
37.3541    44
37.3641    45
37.3741    42
37.3841    38
37.3941    42
37.4041    42
37.4141    48
37.4241    44
37.4341    34
37.4441    41
37.4541    31
37.4641    40
37.4741    39
37.4841    44
37.4941    37
37.5041    33
37.5141    36
37.5241    31
37.5341    37
37.5441    47
37.5541    45
37.5641    31
37.5741    35
37.5841    43
37.5941    39
37.6041    31
37.6141    35
37.6241    40
37.6341    39
37.6441    37
37.6541    43
37.6641    33
37.6741    38
37.6841    41
37.6941    41
37.7041    42
37.7141    36
37.7241    31
37.7341    35
37.7441    38
37.7541    34
37.7641    31
37.7741    41
37.7841    40
37.7941    37
37.8041    32
37.8141    39
37.8241    37
37.8341    37
37.8441    34
37.8541    28
37.8641    28
37.8741    28
37.8841    28
37.8941    34
37.9041    39
37.9141    30
37.9241    31
37.9341    34
37.9441    39
37.9541    37
37.9641    30
37.9741    35
37.9841    39
37.9941    30
38.0041    36
38.0141    24
38.0241    33
38.0341    39
38.0441    29
38.0541    36
38.0641    33
38.0741    29
38.0841    23
38.0941    31
38.1041    42
38.1141    29
38.1241    45
38.1341    41
38.1441    23
38.1541    21
38.1641    30
38.1741    27
38.1841    24
38.1941    23
38.2041    30
38.2141    43
38.2241    42
38.2341    36
38.2441    36
38.2541    30
38.2641    24
38.2741    33
38.2841    29
38.2941    34
38.3041    35
38.3141    31
38.3241    24
38.3341    32
38.3441    21
38.3541    34
38.3641    37
38.3741    23
38.3841    26
38.3941    37
38.4041    34
38.4141    35
38.4241    37
38.4341    27
38.4441    33
38.4541    23
38.4641    32
38.4741    26
38.4841    30
38.4941    31
38.5041    27
38.5141    31
38.5241    38
38.5341    33
38.5441    32
38.5541    24
38.5641    38
38.5741    23
38.5841    20
38.5941    30
38.6041    38
38.6141    33
38.6241    25
38.6341    18
38.6441    23
38.6541    23
38.6641    32
38.6741    30
38.6841    22
38.6941    27
38.7041    23
38.7141    37
38.7241    27
38.7341    20
38.7441    29
38.7541    37
38.7641    29
38.7741    17
38.7841    31
38.7941    25
38.8041    24
38.8141    26
38.8241    32
38.8341    28
38.8441    22
38.8541    27
38.8641    23
38.8741    31
38.8841    18
38.8941    27
38.9041    28
38.9141    19
38.9241    25
38.9341    27
38.9441    21
38.9541    19
38.9641    21
38.9741    22
38.9841    28
38.9941    27
39.0041    24
39.0141    24
39.0241    21
39.0341    20
39.0441    21
39.0541    25
39.0641    20
39.0741    22
39.0841    24
39.0941    19
39.1041    27
39.1141    29
39.1241    21
39.1341    32
39.1441    25
39.1541    22
39.1641    28
39.1741    16
39.1841    27
39.1941    18
39.2041    24
39.2141    22
39.2241    20
39.2341    23
39.2441    27
39.2541    29
39.2641    26
39.2741    22
39.2841    21
39.2941    31
39.3041    28
39.3141    17
39.3241    23
39.3341    28
39.3441    19
39.3541    18
39.3641    19
39.3741    29
39.3841    23
39.3941    20
39.4041    27
39.4141    16
39.4241    23
39.4341    14
39.4441    27
39.4541    20
39.4641    19
39.4741    23
39.4841    16
39.4941    18
39.5041    17
39.5141    17
39.5241    11
39.5341    19
39.5441    21
39.5541    27
39.5641    28
39.5741    24
39.5841    16
39.5941    27
39.6041    17
39.6141    30
39.6241    21
39.6341    26
39.6441    22
39.6541    19
39.6641    22
39.6741    17
39.6841    22
39.6941    16
39.7041    22
39.7141    21
39.7241    16
39.7341    20
39.7441    25
39.7541    18
39.7641    14
39.7741    17
39.7841    19
39.7941    17
39.8041    22
39.8141    35
39.8241    19
39.8341    15
39.8441    26
39.8541    16
39.8641    18
39.8741     8
39.8841    16
39.8941    21
39.9041    18
39.9141    19
39.9241    21
39.9341    14
39.9441    21
39.9541    16
39.9641    18
39.9741    22
39.9841    10
