Bruker Nano GmbH Berlin, Germany
Esprit 1.9

Date: 4/21/2021 2:26:11 PM
Real time: 19562
Life time: 18098
Pulse density: 109912


Detector type: XFlash 430
Window type: Custom type
Detector thickness: 0.45
Si dead layer:0.029

Calibration, lin.: 10
Calibration, abs.: -955.9
Mn FWHM: 137.05
Fano factor: 0.121
Channels: 4095

Energy Counts
-0.9559     0
-0.9459     0
-0.9359     0
-0.9259     0
-0.9159     0
-0.9059     0
-0.8959     0
-0.8859     0
-0.8759     0
-0.8659     0
-0.8559     0
-0.8459     0
-0.8359     0
-0.8259     0
-0.8159     0
-0.8059     0
-0.7959     0
-0.7859     0
-0.7759     0
-0.7659     0
-0.7559     0
-0.7459     0
-0.7359     0
-0.7259     0
-0.7159     0
-0.7059     0
-0.6959     0
-0.6859     0
-0.6759     0
-0.6659     0
-0.6559     0
-0.6459     0
-0.6359     0
-0.6259     0
-0.6159     0
-0.6059     0
-0.5959     0
-0.5859     0
-0.5759     0
-0.5659     0
-0.5559     0
-0.5459     0
-0.5359     0
-0.5259     0
-0.5159     0
-0.5059     0
-0.4959     0
-0.4859     0
-0.4759     0
-0.4659     0
-0.4559     0
-0.4459     0
-0.4359     0
-0.4259     0
-0.4159     0
-0.4059     0
-0.3959     0
-0.3859     0
-0.3759     0
-0.3659     0
-0.3559     0
-0.3459     0
-0.3359     0
-0.3259     0
-0.3159     0
-0.3059     0
-0.2959     0
-0.2859     0
-0.2759     0
-0.2659     0
-0.2559     0
-0.2459     0
-0.2359     0
-0.2259     0
-0.2159     0
-0.2059     0
-0.1959     0
-0.1859     0
-0.1759     0
-0.1659     0
-0.1559     0
-0.1459     0
-0.1359     0
-0.1259     1
-0.1159     3
-0.1059    15
-0.0959    69
-0.0859   208
-0.0759   703
-0.0659  2084
-0.0559  5137
-0.0459 11540
-0.0359 21372
-0.0259 34096
-0.0159 47313
-0.0059 55762
 0.0041 55752
 0.0141 48107
 0.0241 35576
 0.0341 22417
 0.0441 12182
 0.0541  5734
 0.0641  2216
 0.0741   817
 0.0841   227
 0.0941    80
 0.1041    13
 0.1141    11
 0.1241    11
 0.1341     5
 0.1441     7
 0.1541     4
 0.1641     8
 0.1741     2
 0.1841   208
 0.1941   383
 0.2041   318
 0.2141   318
 0.2241   332
 0.2341   337
 0.2441   331
 0.2541   336
 0.2641   313
 0.2741   342
 0.2841   355
 0.2941   319
 0.3041   320
 0.3141   295
 0.3241   294
 0.3341   298
 0.3441   330
 0.3541   331
 0.3641   312
 0.3741   288
 0.3841   295
 0.3941   332
 0.4041   322
 0.4141   309
 0.4241   277
 0.4341   291
 0.4441   290
 0.4541   286
 0.4641   277
 0.4741   262
 0.4841   270
 0.4941   268
 0.5041   288
 0.5141   289
 0.5241   277
 0.5341   272
 0.5441   285
 0.5541   281
 0.5641   260
 0.5741   266
 0.5841   289
 0.5941   271
 0.6041   273
 0.6141   286
 0.6241   271
 0.6341   259
 0.6441   243
 0.6541   248
 0.6641   252
 0.6741   246
 0.6841   250
 0.6941   252
 0.7041   237
 0.7141   236
 0.7241   246
 0.7341   255
 0.7441   236
 0.7541   236
 0.7641   255
 0.7741   251
 0.7841   230
 0.7941   227
 0.8041   243
 0.8141   233
 0.8241   229
 0.8341   229
 0.8441   238
 0.8541   231
 0.8641   224
 0.8741   239
 0.8841   240
 0.8941   215
 0.9041   226
 0.9141   226
 0.9241   213
 0.9341   222
 0.9441   239
 0.9541   233
 0.9641   212
 0.9741   205
 0.9841   216
 0.9941   224
 1.0041   220
 1.0141   202
 1.0241   216
 1.0341   212
 1.0441   206
 1.0541   215
 1.0641   237
 1.0741   195
 1.0841   212
 1.0941   216
 1.1041   214
 1.1141   210
 1.1241   198
 1.1341   208
 1.1441   209
 1.1541   214
 1.1641   208
 1.1741   188
 1.1841   201
 1.1941   208
 1.2041   197
 1.2141   201
 1.2241   205
 1.2341   201
 1.2441   199
 1.2541   219
 1.2641   193
 1.2741   192
 1.2841   204
 1.2941   202
 1.3041   196
 1.3141   210
 1.3241   191
 1.3341   185
 1.3441   170
 1.3541   190
 1.3641   202
 1.3741   196
 1.3841   181
 1.3941   186
 1.4041   199
 1.4141   183
 1.4241   193
 1.4341   188
 1.4441   169
 1.4541   176
 1.4641   185
 1.4741   182
 1.4841   176
 1.4941   186
 1.5041   177
 1.5141   190
 1.5241   205
 1.5341   179
 1.5441   199
 1.5541   181
 1.5641   178
 1.5741   183
 1.5841   181
 1.5941   186
 1.6041   187
 1.6141   177
 1.6241   187
 1.6341   173
 1.6441   183
 1.6541   238
 1.6641   268
 1.6741   308
 1.6841   377
 1.6941   443
 1.7041   519
 1.7141   657
 1.7241   714
 1.7341   742
 1.7441   688
 1.7541   635
 1.7641   624
 1.7741   548
 1.7841   462
 1.7941   398
 1.8041   347
 1.8141   278
 1.8241   250
 1.8341   245
 1.8441   231
 1.8541   209
 1.8641   202
 1.8741   188
 1.8841   206
 1.8941   200
 1.9041   210
 1.9141   179
 1.9241   179
 1.9341   195
 1.9441   195
 1.9541   186
 1.9641   180
 1.9741   194
 1.9841   175
 1.9941   234
 2.0041   228
 2.0141   210
 2.0241   208
 2.0341   191
 2.0441   203
 2.0541   178
 2.0641   205
 2.0741   191
 2.0841   178
 2.0941   167
 2.1041   189
 2.1141   169
 2.1241   179
 2.1341   176
 2.1441   171
 2.1541   171
 2.1641   167
 2.1741   180
 2.1841   193
 2.1941   161
 2.2041   162
 2.2141   171
 2.2241   168
 2.2341   154
 2.2441   160
 2.2541   162
 2.2641   162
 2.2741   162
 2.2841   170
 2.2941   158
 2.3041   180
 2.3141   178
 2.3241   153
 2.3341   147
 2.3441   174
 2.3541   153
 2.3641   151
 2.3741   164
 2.3841   155
 2.3941   172
 2.4041   163
 2.4141   129
 2.4241   126
 2.4341   131
 2.4441   162
 2.4541   138
 2.4641   150
 2.4741   167
 2.4841   122
 2.4941   155
 2.5041   141
 2.5141   149
 2.5241   132
 2.5341   158
 2.5441   162
 2.5541   156
 2.5641   138
 2.5741   161
 2.5841   160
 2.5941   135
 2.6041   163
 2.6141   142
 2.6241   139
 2.6341   138
 2.6441   118
 2.6541   127
 2.6641   134
 2.6741   130
 2.6841   155
 2.6941   137
 2.7041   137
 2.7141   161
 2.7241   148
 2.7341   136
 2.7441   134
 2.7541   151
 2.7641   132
 2.7741   116
 2.7841   142
 2.7941   150
 2.8041   148
 2.8141   134
 2.8241   148
 2.8341   143
 2.8441   133
 2.8541   146
 2.8641   142
 2.8741   131
 2.8841   132
 2.8941   140
 2.9041   131
 2.9141   133
 2.9241   119
 2.9341   145
 2.9441   107
 2.9541   138
 2.9641   129
 2.9741   119
 2.9841   142
 2.9941   133
 3.0041   126
 3.0141   106
 3.0241   121
 3.0341   125
 3.0441   124
 3.0541   125
 3.0641   117
 3.0741   123
 3.0841   111
 3.0941   114
 3.1041   124
 3.1141   126
 3.1241   107
 3.1341   153
 3.1441   114
 3.1541   135
 3.1641   121
 3.1741   114
 3.1841   109
 3.1941   123
 3.2041   106
 3.2141   123
 3.2241   109
 3.2341   133
 3.2441   131
 3.2541   163
 3.2641   162
 3.2741   174
 3.2841   202
 3.2941   220
 3.3041   218
 3.3141   209
 3.3241   197
 3.3341   182
 3.3441   172
 3.3541   183
 3.3641   184
 3.3741   151
 3.3841   148
 3.3941   136
 3.4041   117
 3.4141   121
 3.4241   100
 3.4341   110
 3.4441   108
 3.4541   105
 3.4641    96
 3.4741   100
 3.4841   100
 3.4941   108
 3.5041   147
 3.5141   124
 3.5241   132
 3.5341   157
 3.5441   167
 3.5541   193
 3.5641   262
 3.5741   305
 3.5841   398
 3.5941   592
 3.6041   783
 3.6141   987
 3.6241  1288
 3.6341  1623
 3.6441  1987
 3.6541  2341
 3.6641  2723
 3.6741  2945
 3.6841  3024
 3.6941  3058
 3.7041  3067
 3.7141  2735
 3.7241  2456
 3.7341  2089
 3.7441  1645
 3.7541  1319
 3.7641  1024
 3.7741   813
 3.7841   549
 3.7941   389
 3.8041   266
 3.8141   196
 3.8241   172
 3.8341   119
 3.8441   136
 3.8541   115
 3.8641   109
 3.8741    92
 3.8841   125
 3.8941   162
 3.9041   170
 3.9141   199
 3.9241   202
 3.9341   253
 3.9441   314
 3.9541   370
 3.9641   467
 3.9741   498
 3.9841   610
 3.9941   631
 4.0041   630
 4.0141   611
 4.0241   614
 4.0341   607
 4.0441   581
 4.0541   505
 4.0641   435
 4.0741   365
 4.0841   310
 4.0941   235
 4.1041   182
 4.1141   158
 4.1241   146
 4.1341   112
 4.1441   125
 4.1541    86
 4.1641    76
 4.1741    89
 4.1841    84
 4.1941    75
 4.2041    84
 4.2141    79
 4.2241    87
 4.2341    61
 4.2441    78
 4.2541    72
 4.2641    80
 4.2741    71
 4.2841    78
 4.2941    80
 4.3041    77
 4.3141    71
 4.3241    79
 4.3341    77
 4.3441    67
 4.3541    81
 4.3641    97
 4.3741   102
 4.3841   100
 4.3941   127
 4.4041   135
 4.4141   142
 4.4241   171
 4.4341   183
 4.4441   220
 4.4541   272
 4.4641   287
 4.4741   349
 4.4841   346
 4.4941   426
 4.5041   392
 4.5141   412
 4.5241   402
 4.5341   331
 4.5441   345
 4.5541   318
 4.5641   231
 4.5741   207
 4.5841   180
 4.5941   159
 4.6041   147
 4.6141   137
 4.6241   122
 4.6341   121
 4.6441   105
 4.6541   112
 4.6641    91
 4.6741    73
 4.6841    77
 4.6941    94
 4.7041   107
 4.7141    88
 4.7241    77
 4.7341    73
 4.7441    87
 4.7541    88
 4.7641    88
 4.7741    85
 4.7841   111
 4.7941    82
 4.8041    81
 4.8141   104
 4.8241   105
 4.8341   105
 4.8441   106
 4.8541   105
 4.8641   110
 4.8741   134
 4.8841   154
 4.8941   139
 4.9041   155
 4.9141   146
 4.9241   154
 4.9341   156
 4.9441   132
 4.9541   144
 4.9641   152
 4.9741   127
 4.9841   120
 4.9941   121
 5.0041   107
 5.0141   119
 5.0241   111
 5.0341   110
 5.0441   112
 5.0541   109
 5.0641   110
 5.0741    85
 5.0841    83
 5.0941   103
 5.1041    80
 5.1141    87
 5.1241    74
 5.1341    80
 5.1441    79
 5.1541   102
 5.1641    81
 5.1741    74
 5.1841    90
 5.1941    91
 5.2041    98
 5.2141    85
 5.2241    89
 5.2341    93
 5.2441   101
 5.2541   107
 5.2641    98
 5.2741   113
 5.2841    84
 5.2941   121
 5.3041   102
 5.3141   100
 5.3241   115
 5.3341   165
 5.3441   146
 5.3541   162
 5.3641   184
 5.3741   186
 5.3841   219
 5.3941   228
 5.4041   243
 5.4141   213
 5.4241   211
 5.4341   224
 5.4441   194
 5.4541   202
 5.4641   173
 5.4741   152
 5.4841   140
 5.4941   153
 5.5041   154
 5.5141   133
 5.5241   114
 5.5341   104
 5.5441    97
 5.5541   119
 5.5641   103
 5.5741    78
 5.5841   102
 5.5941    97
 5.6041   108
 5.6141    95
 5.6241    94
 5.6341    94
 5.6441    87
 5.6541    98
 5.6641   102
 5.6741   109
 5.6841   108
 5.6941    88
 5.7041   109
 5.7141    83
 5.7241   102
 5.7341   129
 5.7441   132
 5.7541   142
 5.7641   183
 5.7741   213
 5.7841   212
 5.7941   284
 5.8041   329
 5.8141   413
 5.8241   452
 5.8341   561
 5.8441   609
 5.8541   689
 5.8641   758
 5.8741   782
 5.8841   816
 5.8941   832
 5.9041   843
 5.9141   836
 5.9241   788
 5.9341   752
 5.9441   659
 5.9541   580
 5.9641   495
 5.9741   410
 5.9841   373
 5.9941   292
 6.0041   250
 6.0141   212
 6.0241   205
 6.0341   157
 6.0441   165
 6.0541   143
 6.0641   138
 6.0741   131
 6.0841   131
 6.0941   161
 6.1041   155
 6.1141   153
 6.1241   159
 6.1341   157
 6.1441   176
 6.1541   210
 6.1641   199
 6.1741   196
 6.1841   241
 6.1941   266
 6.2041   325
 6.2141   410
 6.2241   614
 6.2341   804
 6.2441  1148
 6.2541  1441
 6.2641  2102
 6.2741  2951
 6.2841  3898
 6.2941  5059
 6.3041  6642
 6.3141  8495
 6.3241 10474
 6.3341 12516
 6.3441 15007
 6.3541 16832
 6.3641 18811
 6.3741 20481
 6.3841 21537
 6.3941 21920
 6.4041 22135
 6.4141 21216
 6.4241 20419
 6.4341 18696
 6.4441 16315
 6.4541 14209
 6.4641 12032
 6.4741 10169
 6.4841  8031
 6.4941  6453
 6.5041  4928
 6.5141  3684
 6.5241  2616
 6.5341  1941
 6.5441  1357
 6.5541  1038
 6.5641   714
 6.5741   468
 6.5841   357
 6.5941   304
 6.6041   271
 6.6141   218
 6.6241   192
 6.6341   178
 6.6441   178
 6.6541   182
 6.6641   170
 6.6741   173
 6.6841   156
 6.6941   193
 6.7041   160
 6.7141   181
 6.7241   176
 6.7341   157
 6.7441   176
 6.7541   181
 6.7641   198
 6.7741   185
 6.7841   193
 6.7941   200
 6.8041   181
 6.8141   198
 6.8241   226
 6.8341   251
 6.8441   252
 6.8541   238
 6.8641   283
 6.8741   325
 6.8841   386
 6.8941   407
 6.9041   490
 6.9141   626
 6.9241   666
 6.9341   900
 6.9441  1105
 6.9541  1339
 6.9641  1560
 6.9741  1921
 6.9841  2278
 6.9941  2602
 7.0041  2855
 7.0141  3125
 7.0241  3402
 7.0341  3819
 7.0441  3832
 7.0541  4017
 7.0641  3723
 7.0741  3631
 7.0841  3414
 7.0941  3265
 7.1041  2874
 7.1141  2493
 7.1241  2171
 7.1341  1817
 7.1441  1540
 7.1541  1258
 7.1641  1029
 7.1741   789
 7.1841   677
 7.1941   507
 7.2041   464
 7.2141   374
 7.2241   301
 7.2341   269
 7.2441   233
 7.2541   244
 7.2641   231
 7.2741   220
 7.2841   217
 7.2941   211
 7.3041   214
 7.3141   238
 7.3241   231
 7.3341   271
 7.3441   293
 7.3541   332
 7.3641   305
 7.3741   324
 7.3841   375
 7.3941   381
 7.4041   424
 7.4141   392
 7.4241   434
 7.4341   454
 7.4441   457
 7.4541   470
 7.4641   475
 7.4741   427
 7.4841   418
 7.4941   414
 7.5041   389
 7.5141   373
 7.5241   359
 7.5341   335
 7.5441   335
 7.5541   276
 7.5641   261
 7.5741   264
 7.5841   239
 7.5941   223
 7.6041   269
 7.6141   218
 7.6241   215
 7.6341   208
 7.6441   213
 7.6541   206
 7.6641   226
 7.6741   237
 7.6841   200
 7.6941   192
 7.7041   250
 7.7141   215
 7.7241   215
 7.7341   230
 7.7441   229
 7.7541   220
 7.7641   222
 7.7741   259
 7.7841   248
 7.7941   237
 7.8041   259
 7.8141   302
 7.8241   270
 7.8341   272
 7.8441   296
 7.8541   300
 7.8641   310
 7.8741   320
 7.8841   328
 7.8941   363
 7.9041   351
 7.9141   365
 7.9241   339
 7.9341   418
 7.9441   428
 7.9541   442
 7.9641   450
 7.9741   491
 7.9841   556
 7.9941   585
 8.0041   637
 8.0141   649
 8.0241   741
 8.0341   806
 8.0441   873
 8.0541   936
 8.0641   929
 8.0741  1036
 8.0841  1094
 8.0941  1164
 8.1041  1232
 8.1141  1239
 8.1241  1311
 8.1341  1375
 8.1441  1427
 8.1541  1428
 8.1641  1498
 8.1741  1486
 8.1841  1476
 8.1941  1528
 8.2041  1608
 8.2141  1630
 8.2241  1576
 8.2341  1605
 8.2441  1656
 8.2541  1675
 8.2641  1718
 8.2741  1867
 8.2841  2003
 8.2941  2032
 8.3041  2185
 8.3141  2343
 8.3241  2451
 8.3341  2577
 8.3441  2787
 8.3541  2972
 8.3641  3049
 8.3741  3065
 8.3841  3193
 8.3941  3072
 8.4041  3093
 8.4141  3055
 8.4241  2797
 8.4341  2608
 8.4441  2372
 8.4541  2132
 8.4641  1989
 8.4741  1652
 8.4841  1427
 8.4941  1260
 8.5041  1047
 8.5141   874
 8.5241   747
 8.5341   631
 8.5441   594
 8.5541   562
 8.5641   521
 8.5741   465
 8.5841   467
 8.5941   443
 8.6041   440
 8.6141   438
 8.6241   454
 8.6341   464
 8.6441   444
 8.6541   464
 8.6641   463
 8.6741   424
 8.6841   435
 8.6941   423
 8.7041   398
 8.7141   421
 8.7241   376
 8.7341   389
 8.7441   367
 8.7541   316
 8.7641   374
 8.7741   354
 8.7841   321
 8.7941   332
 8.8041   346
 8.8141   320
 8.8241   328
 8.8341   334
 8.8441   315
 8.8541   336
 8.8641   341
 8.8741   338
 8.8841   358
 8.8941   378
 8.9041   337
 8.9141   364
 8.9241   345
 8.9341   365
 8.9441   380
 8.9541   345
 8.9641   344
 8.9741   391
 8.9841   369
 8.9941   400
 9.0041   401
 9.0141   385
 9.0241   403
 9.0341   412
 9.0441   439
 9.0541   426
 9.0641   430
 9.0741   445
 9.0841   449
 9.0941   487
 9.1041   508
 9.1141   549
 9.1241   532
 9.1341   569
 9.1441   584
 9.1541   622
 9.1641   626
 9.1741   677
 9.1841   724
 9.1941   701
 9.2041   779
 9.2141   875
 9.2241   947
 9.2341   875
 9.2441   925
 9.2541   959
 9.2641  1004
 9.2741  1057
 9.2841  1141
 9.2941  1194
 9.3041  1212
 9.3141  1322
 9.3241  1352
 9.3341  1328
 9.3441  1348
 9.3541  1396
 9.3641  1435
 9.3741  1504
 9.3841  1528
 9.3941  1614
 9.4041  1561
 9.4141  1563
 9.4241  1561
 9.4341  1634
 9.4441  1649
 9.4541  1618
 9.4641  1607
 9.4741  1726
 9.4841  1700
 9.4941  1782
 9.5041  1762
 9.5141  1802
 9.5241  1881
 9.5341  1903
 9.5441  1952
 9.5541  2105
 9.5641  2211
 9.5741  2221
 9.5841  2372
 9.5941  2487
 9.6041  2588
 9.6141  2775
 9.6241  2872
 9.6341  3129
 9.6441  3026
 9.6541  3093
 9.6641  3177
 9.6741  3212
 9.6841  3084
 9.6941  3002
 9.7041  2849
 9.7141  2753
 9.7241  2616
 9.7341  2394
 9.7441  2227
 9.7541  2051
 9.7641  1924
 9.7741  1761
 9.7841  1577
 9.7941  1539
 9.8041  1461
 9.8141  1360
 9.8241  1342
 9.8341  1247
 9.8441  1303
 9.8541  1214
 9.8641  1180
 9.8741  1194
 9.8841  1236
 9.8941  1297
 9.9041  1343
 9.9141  1366
 9.9241  1381
 9.9341  1394
 9.9441  1313
 9.9541  1358
 9.9641  1357
 9.9741  1367
 9.9841  1301
 9.9941  1231
10.0041  1186
10.0141  1131
10.0241   999
10.0341   923
10.0441   858
10.0541   784
10.0641   661
10.0741   607
10.0841   534
10.0941   461
10.1041   442
10.1141   409
10.1241   368
10.1341   354
10.1441   333
10.1541   307
10.1641   301
10.1741   283
10.1841   280
10.1941   269
10.2041   280
10.2141   247
10.2241   227
10.2341   257
10.2441   235
10.2541   226
10.2641   200
10.2741   199
10.2841   203
10.2941   174
10.3041   213
10.3141   199
10.3241   169
10.3341   185
10.3441   211
10.3541   191
10.3641   184
10.3741   182
10.3841   182
10.3941   171
10.4041   178
10.4141   165
10.4241   179
10.4341   205
10.4441   197
10.4541   221
10.4641   208
10.4741   207
10.4841   204
10.4941   224
10.5041   210
10.5141   219
10.5241   213
10.5341   198
10.5441   219
10.5541   230
10.5641   225
10.5741   222
10.5841   230
10.5941   214
10.6041   210
10.6141   236
10.6241   232
10.6341   226
10.6441   231
10.6541   233
10.6641   245
10.6741   253
10.6841   240
10.6941   242
10.7041   260
10.7141   253
10.7241   265
10.7341   276
10.7441   303
10.7541   259
10.7641   269
10.7741   262
10.7841   277
10.7941   302
10.8041   312
10.8141   339
10.8241   319
10.8341   315
10.8441   324
10.8541   317
10.8641   305
10.8741   314
10.8841   330
10.8941   346
10.9041   349
10.9141   352
10.9241   368
10.9341   383
10.9441   363
10.9541   340
10.9641   358
10.9741   366
10.9841   326
10.9941   300
11.0041   328
11.0141   338
11.0241   346
11.0341   319
11.0441   293
11.0541   303
11.0641   321
11.0741   302
11.0841   284
11.0941   302
11.1041   301
11.1141   303
11.1241   305
11.1341   326
11.1441   323
11.1541   316
11.1641   360
11.1741   358
11.1841   371
11.1941   378
11.2041   390
11.2141   416
11.2241   434
11.2341   448
11.2441   452
11.2541   466
11.2641   483
11.2741   476
11.2841   460
11.2941   473
11.3041   446
11.3141   459
11.3241   473
11.3341   427
11.3441   396
11.3541   378
11.3641   368
11.3741   353
11.3841   326
11.3941   318
11.4041   300
11.4141   287
11.4241   283
11.4341   269
11.4441   249
11.4541   249
11.4641   246
11.4741   262
11.4841   262
11.4941   243
11.5041   238
11.5141   247
11.5241   242
11.5341   257
11.5441   247
11.5541   244
11.5641   262
11.5741   264
11.5841   267
11.5941   239
11.6041   231
11.6141   252
11.6241   280
11.6341   276
11.6441   271
11.6541   257
11.6641   251
11.6741   268
11.6841   266
11.6941   254
11.7041   241
11.7141   211
11.7241   233
11.7341   258
11.7441   241
11.7541   231
11.7641   218
11.7741   201
11.7841   204
11.7941   223
11.8041   208
11.8141   196
11.8241   217
11.8341   227
11.8441   220
11.8541   228
11.8641   232
11.8741   236
11.8841   258
11.8941   234
11.9041   205
11.9141   201
11.9241   211
11.9341   226
11.9441   253
11.9541   250
11.9641   236
11.9741   249
11.9841   235
11.9941   221
12.0041   243
12.0141   229
12.0241   206
12.0341   203
12.0441   202
12.0541   201
12.0641   215
12.0741   199
12.0841   195
12.0941   194
12.1041   189
12.1141   200
12.1241   189
12.1341   173
12.1441   192
12.1541   191
12.1641   191
12.1741   190
12.1841   187
12.1941   185
12.2041   174
12.2141   180
12.2241   174
12.2341   175
12.2441   190
12.2541   206
12.2641   203
12.2741   187
12.2841   183
12.2941   182
12.3041   173
12.3141   180
12.3241   197
12.3341   195
12.3441   180
12.3541   172
12.3641   179
12.3741   198
12.3841   196
12.3941   183
12.4041   178
12.4141   174
12.4241   184
12.4341   186
12.4441   185
12.4541   202
12.4641   204
12.4741   200
12.4841   177
12.4941   192
12.5041   218
12.5141   206
12.5241   189
12.5341   181
12.5441   194
12.5541   207
12.5641   205
12.5741   204
12.5841   207
12.5941   203
12.6041   205
12.6141   218
12.6241   221
12.6341   211
12.6441   193
12.6541   192
12.6641   210
12.6741   231
12.6841   216
12.6941   192
12.7041   203
12.7141   240
12.7241   234
12.7341   212
12.7441   215
12.7541   220
12.7641   218
12.7741   217
12.7841   219
12.7941   216
12.8041   211
12.8141   210
12.8241   214
12.8341   221
12.8441   225
12.8541   218
12.8641   218
12.8741   229
12.8841   235
12.8941   235
12.9041   235
12.9141   231
12.9241   223
12.9341   222
12.9441   226
12.9541   227
12.9641   227
12.9741   235
12.9841   240
12.9941   233
13.0041   225
13.0141   222
13.0241   215
13.0341   209
13.0441   214
13.0541   220
13.0641   220
13.0741   217
13.0841   221
13.0941   228
13.1041   238
13.1141   243
13.1241   244
13.1341   247
13.1441   245
13.1541   239
13.1641   236
13.1741   245
13.1841   259
13.1941   261
13.2041   259
13.2141   256
13.2241   249
13.2341   260
13.2441   267
13.2541   271
13.2641   279
13.2741   287
13.2841   269
13.2941   285
13.3041   314
13.3141   305
13.3241   302
13.3341   321
13.3441   344
13.3541   318
13.3641   301
13.3741   319
13.3841   320
13.3941   325
13.4041   336
13.4141   339
13.4241   324
13.4341   308
13.4441   302
13.4541   288
13.4641   278
13.4741   288
13.4841   283
13.4941   277
13.5041   273
13.5141   274
13.5241   280
13.5341   268
13.5441   273
13.5541   289
13.5641   284
13.5741   268
13.5841   267
13.5941   271
13.6041   282
13.6141   276
13.6241   279
13.6341   288
13.6441   273
13.6541   261
13.6641   269
13.6741   287
13.6841   286
13.6941   273
13.7041   274
13.7141   286
13.7241   275
13.7341   271
13.7441   286
13.7541   277
13.7641   278
13.7741   302
13.7841   284
13.7941   285
13.8041   318
13.8141   315
13.8241   314
13.8341   304
13.8441   302
13.8541   286
13.8641   267
13.8741   267
13.8841   283
13.8941   309
13.9041   299
13.9141   293
13.9241   296
13.9341   295
13.9441   302
13.9541   305
13.9641   304
13.9741   316
13.9841   339
13.9941   344
14.0041   336
14.0141   342
14.0241   366
14.0341   390
14.0441   416
14.0541   429
14.0641   434
14.0741   440
14.0841   450
14.0941   470
14.1041   484
14.1141   474
14.1241   456
14.1341   466
14.1441   486
14.1541   495
14.1641   489
14.1741   487
14.1841   465
14.1941   471
14.2041   473
14.2141   438
14.2241   438
14.2341   430
14.2441   416
14.2541   400
14.2641   379
14.2741   386
14.2841   380
14.2941   352
14.3041   355
14.3141   357
14.3241   330
14.3341   321
14.3441   353
14.3541   363
14.3641   348
14.3741   342
14.3841   340
14.3941   337
14.4041   345
14.4141   340
14.4241   327
14.4341   343
14.4441   341
14.4541   312
14.4641   325
14.4741   353
14.4841   347
14.4941   334
14.5041   336
14.5141   327
14.5241   331
14.5341   345
14.5441   348
14.5541   353
14.5641   324
14.5741   305
14.5841   324
14.5941   342
14.6041   352
14.6141   346
14.6241   332
14.6341   353
14.6441   350
14.6541   333
14.6641   348
14.6741   353
14.6841   359
14.6941   351
14.7041   332
14.7141   335
14.7241   360
14.7341   359
14.7441   365
14.7541   367
14.7641   351
14.7741   363
14.7841   368
14.7941   355
14.8041   346
14.8141   364
14.8241   364
14.8341   358
14.8441   367
14.8541   369
14.8641   380
14.8741   397
14.8841   387
14.8941   380
14.9041   389
14.9141   397
14.9241   402
14.9341   399
14.9441   388
14.9541   377
14.9641   391
14.9741   420
14.9841   411
14.9941   415
15.0041   404
15.0141   411
15.0241   405
15.0341   402
15.0441   416
15.0541   410
15.0641   396
15.0741   384
15.0841   378
15.0941   381
15.1041   381
15.1141   402
15.1241   420
15.1341   411
15.1441   391
15.1541   390
15.1641   383
15.1741   368
15.1841   381
15.1941   396
15.2041   395
15.2141   408
15.2241   405
15.2341   395
15.2441   413
15.2541   391
15.2641   386
15.2741   407
15.2841   383
15.2941   373
15.3041   398
15.3141   417
15.3241   405
15.3341   404
15.3441   394
15.3541   380
15.3641   395
15.3741   412
15.3841   392
15.3941   401
15.4041   422
15.4141   436
15.4241   439
15.4341   411
15.4441   414
15.4541   412
15.4641   419
15.4741   440
15.4841   452
15.4941   446
15.5041   414
15.5141   420
15.5241   438
15.5341   437
15.5441   428
15.5541   433
15.5641   443
15.5741   452
15.5841   475
15.5941   488
15.6041   504
15.6141   489
15.6241   482
15.6341   527
15.6441   560
15.6541   555
15.6641   564
15.6741   584
15.6841   595
15.6941   602
15.7041   609
15.7141   631
15.7241   632
15.7341   608
15.7441   614
15.7541   620
15.7641   611
15.7741   622
15.7841   657
15.7941   646
15.8041   632
15.8141   631
15.8241   609
15.8341   569
15.8441   591
15.8541   584
15.8641   565
15.8741   562
15.8841   524
15.8941   505
15.9041   517
15.9141   510
15.9241   475
15.9341   474
15.9441   477
15.9541   476
15.9641   444
15.9741   475
15.9841   475
15.9941   467
16.0041   482
16.0141   476
16.0241   468
16.0341   471
16.0441   456
16.0541   479
16.0641   461
16.0741   458
16.0841   483
16.0941   483
16.1041   488
16.1141   478
16.1241   464
16.1341   447
16.1441   466
16.1541   456
16.1641   464
16.1741   475
16.1841   475
16.1941   466
16.2041   458
16.2141   485
16.2241   484
16.2341   484
16.2441   483
16.2541   478
16.2641   492
16.2741   513
16.2841   498
16.2941   473
16.3041   457
16.3141   482
16.3241   485
16.3341   472
16.3441   494
16.3541   477
16.3641   474
16.3741   499
16.3841   505
16.3941   495
16.4041   494
16.4141   504
16.4241   487
16.4341   500
16.4441   498
16.4541   497
16.4641   476
16.4741   472
16.4841   491
16.4941   520
16.5041   523
16.5141   530
16.5241   521
16.5341   519
16.5441   497
16.5541   498
16.5641   511
16.5741   499
16.5841   526
16.5941   533
16.6041   510
16.6141   521
16.6241   511
16.6341   520
16.6441   515
16.6541   537
16.6641   553
16.6741   516
16.6841   522
16.6941   529
16.7041   513
16.7141   488
16.7241   531
16.7341   520
16.7441   496
16.7541   531
16.7641   510
16.7741   538
16.7841   545
16.7941   510
16.8041   516
16.8141   553
16.8241   562
16.8341   547
16.8441   535
16.8541   498
16.8641   494
16.8741   525
16.8841   524
16.8941   533
16.9041   494
16.9141   504
16.9241   535
16.9341   542
16.9441   510
16.9541   539
16.9641   557
16.9741   536
16.9841   555
16.9941   606
17.0041   552
17.0141   535
17.0241   562
17.0341   536
17.0441   562
17.0541   565
17.0641   553
17.0741   551
17.0841   573
17.0941   590
17.1041   586
17.1141   534
17.1241   562
17.1341   571
17.1441   557
17.1541   566
17.1641   569
17.1741   569
17.1841   563
17.1941   541
17.2041   543
17.2141   551
17.2241   556
17.2341   563
17.2441   575
17.2541   567
17.2641   566
17.2741   572
17.2841   560
17.2941   564
17.3041   604
17.3141   599
17.3241   575
17.3341   570
17.3441   581
17.3541   564
17.3641   576
17.3741   597
17.3841   586
17.3941   585
17.4041   581
17.4141   593
17.4241   622
17.4341   601
17.4441   595
17.4541   593
17.4641   569
17.4741   604
17.4841   657
17.4941   639
17.5041   617
17.5141   624
17.5241   601
17.5341   558
17.5441   583
17.5541   620
17.5641   622
17.5741   629
17.5841   616
17.5941   608
17.6041   614
17.6141   609
17.6241   600
17.6341   591
17.6441   602
17.6541   617
17.6641   621
17.6741   636
17.6841   625
17.6941   619
17.7041   607
17.7141   631
17.7241   630
17.7341   607
17.7441   608
17.7541   633
17.7641   632
17.7741   626
17.7841   617
17.7941   623
17.8041   596
17.8141   578
17.8241   602
17.8341   599
17.8441   600
17.8541   613
17.8641   647
17.8741   620
17.8841   646
17.8941   641
17.9041   616
17.9141   628
17.9241   619
17.9341   624
17.9441   645
17.9541   613
17.9641   624
17.9741   624
17.9841   616
17.9941   630
18.0041   613
18.0141   637
18.0241   624
18.0341   630
18.0441   633
18.0541   629
18.0641   599
18.0741   580
18.0841   627
18.0941   627
18.1041   671
18.1141   622
18.1241   599
18.1341   620
18.1441   591
18.1541   613
18.1641   628
18.1741   626
18.1841   627
18.1941   652
18.2041   660
18.2141   636
18.2241   616
18.2341   656
18.2441   631
18.2541   631
18.2641   618
18.2741   618
18.2841   603
18.2941   654
18.3041   669
18.3141   629
18.3241   664
18.3341   675
18.3441   676
18.3541   621
18.3641   638
18.3741   688
18.3841   630
18.3941   642
18.4041   678
18.4141   685
18.4241   674
18.4341   659
18.4441   608
18.4541   639
18.4641   646
18.4741   602
18.4841   598
18.4941   668
18.5041   690
18.5141   681
18.5241   659
18.5341   643
18.5441   661
18.5541   656
18.5641   647
18.5741   661
18.5841   654
18.5941   695
18.6041   668
18.6141   657
18.6241   637
18.6341   640
18.6441   657
18.6541   669
18.6641   665
18.6741   651
18.6841   668
18.6941   680
18.7041   702
18.7141   677
18.7241   666
18.7341   625
18.7441   652
18.7541   663
18.7641   664
18.7741   635
18.7841   640
18.7941   648
18.8041   647
18.8141   677
18.8241   681
18.8341   646
18.8441   654
18.8541   647
18.8641   651
18.8741   608
18.8841   689
18.8941   641
18.9041   613
18.9141   672
18.9241   678
18.9341   680
18.9441   695
18.9541   674
18.9641   648
18.9741   632
18.9841   672
18.9941   657
19.0041   657
19.0141   661
19.0241   661
19.0341   671
19.0441   687
19.0541   691
19.0641   665
19.0741   659
19.0841   674
19.0941   674
19.1041   672
19.1141   646
19.1241   666
19.1341   688
19.1441   695
19.1541   683
19.1641   665
19.1741   708
19.1841   693
19.1941   654
19.2041   671
19.2141   692
19.2241   674
19.2341   699
19.2441   675
19.2541   672
19.2641   639
19.2741   687
19.2841   689
19.2941   655
19.3041   632
19.3141   655
19.3241   673
19.3341   666
19.3441   699
19.3541   665
19.3641   680
19.3741   651
19.3841   663
19.3941   684
19.4041   667
19.4141   695
19.4241   676
19.4341   640
19.4441   625
19.4541   706
19.4641   708
19.4741   660
19.4841   672
19.4941   672
19.5041   672
19.5141   654
19.5241   669
19.5341   655
19.5441   673
19.5541   699
19.5641   698
19.5741   701
19.5841   687
19.5941   712
19.6041   688
19.6141   687
19.6241   675
19.6341   684
19.6441   742
19.6541   669
19.6641   645
19.6741   686
19.6841   679
19.6941   673
19.7041   677
19.7141   684
19.7241   682
19.7341   685
19.7441   658
19.7541   690
19.7641   667
19.7741   696
19.7841   693
19.7941   694
19.8041   709
19.8141   703
19.8241   683
19.8341   686
19.8441   716
19.8541   709
19.8641   744
19.8741   674
19.8841   676
19.8941   686
19.9041   659
19.9141   701
19.9241   710
19.9341   720
19.9441   688
19.9541   705
19.9641   655
19.9741   681
19.9841   693
19.9941   684
20.0041   680
20.0141   681
20.0241   702
20.0341   700
20.0441   730
20.0541   709
20.0641   711
20.0741   668
20.0841   688
20.0941   670
20.1041   663
20.1141   670
20.1241   660
20.1341   678
20.1441   649
20.1541   659
20.1641   670
20.1741   726
20.1841   730
20.1941   726
20.2041   667
20.2141   685
20.2241   684
20.2341   676
20.2441   684
20.2541   699
20.2641   686
20.2741   724
20.2841   730
20.2941   697
20.3041   726
20.3141   734
20.3241   669
20.3341   663
20.3441   720
20.3541   729
20.3641   669
20.3741   656
20.3841   693
20.3941   679
20.4041   688
20.4141   738
20.4241   690
20.4341   750
20.4441   703
20.4541   662
20.4641   721
20.4741   662
20.4841   701
20.4941   707
20.5041   681
20.5141   668
20.5241   721
20.5341   715
20.5441   653
20.5541   656
20.5641   720
20.5741   689
20.5841   686
20.5941   669
20.6041   681
20.6141   681
20.6241   725
20.6341   682
20.6441   723
20.6541   732
20.6641   659
20.6741   702
20.6841   695
20.6941   664
20.7041   670
20.7141   710
20.7241   659
20.7341   693
20.7441   676
20.7541   745
20.7641   704
20.7741   682
20.7841   695
20.7941   687
20.8041   705
20.8141   709
20.8241   727
20.8341   684
20.8441   731
20.8541   766
20.8641   759
20.8741   712
20.8841   754
20.8941   773
20.9041   794
20.9141   812
20.9241   842
20.9341   863
20.9441   811
20.9541   858
20.9641   821
20.9741   869
20.9841   842
20.9941   880
21.0041   897
21.0141   884
21.0241   878
21.0341   881
21.0441   916
21.0541   882
21.0641   923
21.0741   964
21.0841   993
21.0941   997
21.1041   975
21.1141   971
21.1241   975
21.1341   997
21.1441   960
21.1541   985
21.1641   945
21.1741  1000
21.1841   970
21.1941   999
21.2041   989
21.2141   987
21.2241   901
21.2341   866
21.2441   920
21.2541   916
21.2641   892
21.2741   839
21.2841   812
21.2941   844
21.3041   819
21.3141   812
21.3241   808
21.3341   733
21.3441   735
21.3541   689
21.3641   731
21.3741   725
21.3841   720
21.3941   758
21.4041   751
21.4141   702
21.4241   715
21.4341   723
21.4441   701
21.4541   690
21.4641   731
21.4741   712
21.4841   648
21.4941   663
21.5041   685
21.5141   724
21.5241   697
21.5341   671
21.5441   688
21.5541   674
21.5641   697
21.5741   701
21.5841   706
21.5941   710
21.6041   692
21.6141   676
21.6241   690
21.6341   713
21.6441   711
21.6541   687
21.6641   682
21.6741   691
21.6841   670
21.6941   707
21.7041   683
21.7141   688
21.7241   693
21.7341   668
21.7441   689
21.7541   694
21.7641   696
21.7741   706
21.7841   632
21.7941   697
21.8041   706
21.8141   684
21.8241   645
21.8341   718
21.8441   715
21.8541   698
21.8641   720
21.8741   703
21.8841   683
21.8941   683
21.9041   710
21.9141   630
21.9241   675
21.9341   654
21.9441   699
21.9541   665
21.9641   676
21.9741   625
21.9841   665
21.9941   664
22.0041   633
22.0141   677
22.0241   690
22.0341   714
22.0441   692
22.0541   691
22.0641   641
22.0741   657
22.0841   715
22.0941   718
22.1041   703
22.1141   661
22.1241   654
22.1341   679
22.1441   652
22.1541   677
22.1641   707
22.1741   716
22.1841   688
22.1941   700
22.2041   634
22.2141   684
22.2241   672
22.2341   661
22.2441   687
22.2541   678
22.2641   677
22.2741   673
22.2841   634
22.2941   696
22.3041   672
22.3141   701
22.3241   683
22.3341   648
22.3441   680
22.3541   703
22.3641   656
22.3741   687
22.3841   665
22.3941   683
22.4041   672
22.4141   690
22.4241   702
22.4341   616
22.4441   668
22.4541   682
22.4641   679
22.4741   647
22.4841   634
22.4941   662
22.5041   641
22.5141   677
22.5241   665
22.5341   635
22.5441   714
22.5541   707
22.5641   685
22.5741   660
22.5841   712
22.5941   629
22.6041   677
22.6141   663
22.6241   680
22.6341   656
22.6441   675
22.6541   661
22.6641   630
22.6741   629
22.6841   665
22.6941   660
22.7041   679
22.7141   691
22.7241   649
22.7341   628
22.7441   653
22.7541   664
22.7641   697
22.7741   668
22.7841   695
22.7941   653
22.8041   677
22.8141   680
22.8241   639
22.8341   668
22.8441   630
22.8541   677
22.8641   618
22.8741   623
22.8841   669
22.8941   654
22.9041   652
22.9141   665
22.9241   630
22.9341   621
22.9441   654
22.9541   643
22.9641   609
22.9741   639
22.9841   653
22.9941   664
23.0041   649
23.0141   646
23.0241   653
23.0341   618
23.0441   624
23.0541   688
23.0641   591
23.0741   674
23.0841   654
23.0941   646
23.1041   641
23.1141   664
23.1241   652
23.1341   620
23.1441   640
23.1541   610
23.1641   664
23.1741   653
23.1841   683
23.1941   618
23.2041   603
23.2141   629
23.2241   596
23.2341   670
23.2441   673
23.2541   640
23.2641   649
23.2741   596
23.2841   661
23.2941   616
23.3041   592
23.3141   625
23.3241   622
23.3341   606
23.3441   632
23.3541   601
23.3641   612
23.3741   642
23.3841   584
23.3941   608
23.4041   641
23.4141   630
23.4241   634
23.4341   585
23.4441   576
23.4541   587
23.4641   652
23.4741   667
23.4841   639
23.4941   645
23.5041   638
23.5141   637
23.5241   641
23.5341   609
23.5441   646
23.5541   655
23.5641   648
23.5741   655
23.5841   604
23.5941   641
23.6041   637
23.6141   599
23.6241   634
23.6341   622
23.6441   583
23.6541   614
23.6641   662
23.6741   650
23.6841   658
23.6941   628
23.7041   670
23.7141   674
23.7241   610
23.7341   702
23.7441   676
23.7541   651
23.7641   715
23.7741   647
23.7841   611
23.7941   614
23.8041   711
23.8141   668
23.8241   663
23.8341   690
23.8441   669
23.8541   671
23.8641   617
23.8741   631
23.8841   636
23.8941   687
23.9041   653
23.9141   642
23.9241   648
23.9341   646
23.9441   644
23.9541   634
23.9641   646
23.9741   601
23.9841   602
23.9941   621
24.0041   631
24.0141   614
24.0241   637
24.0341   604
24.0441   626
24.0541   610
24.0641   630
24.0741   608
24.0841   604
24.0941   621
24.1041   658
24.1141   604
24.1241   604
24.1341   593
24.1441   621
24.1541   566
24.1641   598
24.1741   639
24.1841   617
24.1941   593
24.2041   614
24.2141   577
24.2241   613
24.2341   581
24.2441   581
24.2541   627
24.2641   595
24.2741   614
24.2841   601
24.2941   533
24.3041   597
24.3141   624
24.3241   660
24.3341   611
24.3441   583
24.3541   615
24.3641   583
24.3741   598
24.3841   606
24.3941   563
24.4041   578
24.4141   603
24.4241   597
24.4341   571
24.4441   545
24.4541   589
24.4641   592
24.4741   624
24.4841   578
24.4941   555
24.5041   552
24.5141   558
24.5241   560
24.5341   582
24.5441   621
24.5541   586
24.5641   550
24.5741   618
24.5841   601
24.5941   602
24.6041   609
24.6141   586
24.6241   529
24.6341   561
24.6441   585
24.6541   604
24.6641   600
24.6741   570
24.6841   621
24.6941   563
24.7041   532
24.7141   574
24.7241   600
24.7341   570
24.7441   606
24.7541   622
24.7641   584
24.7741   584
24.7841   579
24.7941   641
24.8041   593
24.8141   579
24.8241   546
24.8341   575
24.8441   608
24.8541   562
24.8641   547
24.8741   565
24.8841   589
24.8941   589
24.9041   600
24.9141   542
24.9241   600
24.9341   621
24.9441   555
24.9541   565
24.9641   586
24.9741   564
24.9841   553
24.9941   539
25.0041   580
25.0141   578
25.0241   526
25.0341   570
25.0441   560
25.0541   553
25.0641   590
25.0741   538
25.0841   591
25.0941   563
25.1041   615
25.1141   577
25.1241   591
25.1341   590
25.1441   553
25.1541   607
25.1641   562
25.1741   563
25.1841   538
25.1941   558
25.2041   552
25.2141   571
25.2241   553
25.2341   602
25.2441   538
25.2541   583
25.2641   594
25.2741   584
25.2841   579
25.2941   558
25.3041   554
25.3141   572
25.3241   520
25.3341   588
25.3441   555
25.3541   558
25.3641   559
25.3741   512
25.3841   537
25.3941   540
25.4041   528
25.4141   539
25.4241   530
25.4341   539
25.4441   517
25.4541   553
25.4641   504
25.4741   534
25.4841   509
25.4941   562
25.5041   495
25.5141   538
25.5241   580
25.5341   528
25.5441   556
25.5541   541
25.5641   527
25.5741   499
25.5841   518
25.5941   546
25.6041   504
25.6141   534
25.6241   565
25.6341   604
25.6441   524
25.6541   517
25.6641   545
25.6741   531
25.6841   537
25.6941   513
25.7041   535
25.7141   510
25.7241   528
25.7341   526
25.7441   506
25.7541   519
25.7641   492
25.7741   508
25.7841   547
25.7941   549
25.8041   509
25.8141   506
25.8241   497
25.8341   539
25.8441   513
25.8541   534
25.8641   505
25.8741   495
25.8841   532
25.8941   549
25.9041   508
25.9141   514
25.9241   471
25.9341   539
25.9441   508
25.9541   484
25.9641   501
25.9741   528
25.9841   493
25.9941   508
26.0041   519
26.0141   494
26.0241   495
26.0341   499
26.0441   509
26.0541   499
26.0641   479
26.0741   505
26.0841   556
26.0941   490
26.1041   512
26.1141   486
26.1241   510
26.1341   507
26.1441   487
26.1541   487
26.1641   531
26.1741   497
26.1841   500
26.1941   535
26.2041   500
26.2141   527
26.2241   499
26.2341   443
26.2441   474
26.2541   505
26.2641   476
26.2741   545
26.2841   482
26.2941   454
26.3041   486
26.3141   479
26.3241   487
26.3341   491
26.3441   514
26.3541   493
26.3641   499
26.3741   515
26.3841   506
26.3941   533
26.4041   527
26.4141   478
26.4241   494
26.4341   469
26.4441   471
26.4541   489
26.4641   508
26.4741   518
26.4841   480
26.4941   462
26.5041   459
26.5141   467
26.5241   511
26.5341   458
26.5441   441
26.5541   496
26.5641   491
26.5741   499
26.5841   490
26.5941   499
26.6041   465
26.6141   440
26.6241   473
26.6341   497
26.6441   490
26.6541   483
26.6641   468
26.6741   449
26.6841   457
26.6941   457
26.7041   455
26.7141   491
26.7241   484
26.7341   443
26.7441   494
26.7541   465
26.7641   466
26.7741   474
26.7841   437
26.7941   471
26.8041   422
26.8141   459
26.8241   452
26.8341   440
26.8441   455
26.8541   461
26.8641   468
26.8741   439
26.8841   445
26.8941   473
26.9041   460
26.9141   466
26.9241   504
26.9341   478
26.9441   478
26.9541   428
26.9641   446
26.9741   450
26.9841   451
26.9941   446
27.0041   426
27.0141   422
27.0241   461
27.0341   454
27.0441   402
27.0541   427
27.0641   442
27.0741   459
27.0841   449
27.0941   431
27.1041   432
27.1141   428
27.1241   456
27.1341   436
27.1441   465
27.1541   449
27.1641   457
27.1741   430
27.1841   435
27.1941   465
27.2041   452
27.2141   436
27.2241   429
27.2341   435
27.2441   453
27.2541   446
27.2641   442
27.2741   456
27.2841   422
27.2941   439
27.3041   427
27.3141   441
27.3241   456
27.3341   433
27.3441   423
27.3541   449
27.3641   447
27.3741   460
27.3841   408
27.3941   459
27.4041   477
27.4141   447
27.4241   449
27.4341   419
27.4441   448
27.4541   438
27.4641   438
27.4741   419
27.4841   439
27.4941   417
27.5041   440
27.5141   467
27.5241   442
27.5341   425
27.5441   408
27.5541   415
27.5641   446
27.5741   469
27.5841   407
27.5941   412
27.6041   446
27.6141   438
27.6241   399
27.6341   438
27.6441   397
27.6541   445
27.6641   412
27.6741   429
27.6841   417
27.6941   442
27.7041   412
27.7141   418
27.7241   424
27.7341   373
27.7441   401
27.7541   393
27.7641   391
27.7741   379
27.7841   390
27.7941   403
27.8041   387
27.8141   372
27.8241   386
27.8341   369
27.8441   431
27.8541   435
27.8641   409
27.8741   418
27.8841   416
27.8941   400
27.9041   407
27.9141   428
27.9241   406
27.9341   392
27.9441   407
27.9541   400
27.9641   377
27.9741   421
27.9841   380
27.9941   408
28.0041   404
28.0141   397
28.0241   426
28.0341   416
28.0441   390
28.0541   396
28.0641   367
28.0741   398
28.0841   415
28.0941   381
28.1041   418
28.1141   414
28.1241   398
28.1341   384
28.1441   392
28.1541   404
28.1641   412
28.1741   387
28.1841   399
28.1941   371
28.2041   357
28.2141   394
28.2241   398
28.2341   403
28.2441   418
28.2541   363
28.2641   364
28.2741   409
28.2841   380
28.2941   386
28.3041   422
28.3141   395
28.3241   366
28.3341   391
28.3441   402
28.3541   380
28.3641   372
28.3741   385
28.3841   387
28.3941   384
28.4041   370
28.4141   390
28.4241   379
28.4341   391
28.4441   388
28.4541   381
28.4641   376
28.4741   367
28.4841   360
28.4941   381
28.5041   403
28.5141   402
28.5241   369
28.5341   366
28.5441   371
28.5541   345
28.5641   403
28.5741   402
28.5841   366
28.5941   408
28.6041   389
28.6141   378
28.6241   397
28.6341   340
28.6441   390
28.6541   361
28.6641   346
28.6741   339
28.6841   372
28.6941   346
28.7041   353
28.7141   370
28.7241   365
28.7341   344
28.7441   358
28.7541   359
28.7641   386
28.7741   387
28.7841   369
28.7941   349
28.8041   353
28.8141   377
28.8241   381
28.8341   320
28.8441   332
28.8541   355
28.8641   340
28.8741   368
28.8841   372
28.8941   340
28.9041   350
28.9141   345
28.9241   341
28.9341   323
28.9441   303
28.9541   367
28.9641   353
28.9741   387
28.9841   361
28.9941   358
29.0041   334
29.0141   349
29.0241   341
29.0341   331
29.0441   359
29.0541   356
29.0641   314
29.0741   332
29.0841   340
29.0941   364
29.1041   365
29.1141   356
29.1241   362
29.1341   349
29.1441   316
29.1541   355
29.1641   330
29.1741   352
29.1841   329
29.1941   355
29.2041   356
29.2141   348
29.2241   334
29.2341   327
29.2441   346
29.2541   350
29.2641   357
29.2741   369
29.2841   348
29.2941   328
29.3041   345
29.3141   315
29.3241   334
29.3341   332
29.3441   331
29.3541   342
29.3641   333
29.3741   348
29.3841   298
29.3941   312
29.4041   324
29.4141   333
29.4241   314
29.4341   300
29.4441   329
29.4541   361
29.4641   325
29.4741   318
29.4841   337
29.4941   336
29.5041   296
29.5141   310
29.5241   340
29.5341   309
29.5441   343
29.5541   343
29.5641   318
29.5741   375
29.5841   333
29.5941   325
29.6041   318
29.6141   313
29.6241   324
29.6341   324
29.6441   322
29.6541   294
29.6641   324
29.6741   313
29.6841   304
29.6941   326
29.7041   317
29.7141   301
29.7241   323
29.7341   320
29.7441   330
29.7541   335
29.7641   300
29.7741   335
29.7841   304
29.7941   313
29.8041   328
29.8141   305
29.8241   318
29.8341   303
29.8441   327
29.8541   303
29.8641   302
29.8741   306
29.8841   319
29.8941   308
29.9041   324
29.9141   323
29.9241   308
29.9341   297
29.9441   299
29.9541   304
29.9641   310
29.9741   312
29.9841   293
29.9941   303
30.0041   303
30.0141   294
30.0241   285
30.0341   295
30.0441   314
30.0541   304
30.0641   276
30.0741   286
30.0841   329
30.0941   308
30.1041   305
30.1141   296
30.1241   323
30.1341   282
30.1441   269
30.1541   296
30.1641   320
30.1741   312
30.1841   285
30.1941   278
30.2041   266
30.2141   300
30.2241   300
30.2341   287
30.2441   306
30.2541   284
30.2641   282
30.2741   304
30.2841   296
30.2941   292
30.3041   305
30.3141   308
30.3241   280
30.3341   281
30.3441   268
30.3541   270
30.3641   286
30.3741   285
30.3841   282
30.3941   272
30.4041   269
30.4141   289
30.4241   277
30.4341   292
30.4441   279
30.4541   292
30.4641   293
30.4741   307
30.4841   255
30.4941   258
30.5041   277
30.5141   256
30.5241   253
30.5341   274
30.5441   263
30.5541   275
30.5641   276
30.5741   296
30.5841   283
30.5941   255
30.6041   302
30.6141   262
30.6241   298
30.6341   276
30.6441   289
30.6541   288
30.6641   277
30.6741   283
30.6841   255
30.6941   272
30.7041   318
30.7141   284
30.7241   278
30.7341   279
30.7441   259
30.7541   272
30.7641   276
30.7741   262
30.7841   266
30.7941   245
30.8041   270
30.8141   257
30.8241   252
30.8341   242
30.8441   256
30.8541   245
30.8641   285
30.8741   249
30.8841   269
30.8941   267
30.9041   264
30.9141   224
30.9241   267
30.9341   279
30.9441   248
30.9541   278
30.9641   258
30.9741   270
30.9841   264
30.9941   256
31.0041   237
31.0141   257
31.0241   240
31.0341   258
31.0441   277
31.0541   271
31.0641   292
31.0741   224
31.0841   263
31.0941   268
31.1041   270
31.1141   241
31.1241   266
31.1341   250
31.1441   218
31.1541   273
31.1641   265
31.1741   250
31.1841   254
31.1941   251
31.2041   224
31.2141   249
31.2241   239
31.2341   228
31.2441   228
31.2541   254
31.2641   279
31.2741   244
31.2841   261
31.2941   269
31.3041   209
31.3141   237
31.3241   250
31.3341   256
31.3441   256
31.3541   260
31.3641   220
31.3741   248
31.3841   227
31.3941   234
31.4041   221
31.4141   234
31.4241   214
31.4341   216
31.4441   243
31.4541   235
31.4641   233
31.4741   256
31.4841   240
31.4941   218
31.5041   271
31.5141   251
31.5241   245
31.5341   258
31.5441   242
31.5541   229
31.5641   204
31.5741   239
31.5841   235
31.5941   260
31.6041   224
31.6141   252
31.6241   232
31.6341   221
31.6441   229
31.6541   257
31.6641   241
31.6741   235
31.6841   247
31.6941   234
31.7041   227
31.7141   254
31.7241   210
31.7341   230
31.7441   216
31.7541   228
31.7641   238
31.7741   226
31.7841   225
31.7941   220
31.8041   231
31.8141   235
31.8241   225
31.8341   259
31.8441   227
31.8541   244
31.8641   263
31.8741   227
31.8841   229
31.8941   241
31.9041   236
31.9141   225
31.9241   221
31.9341   216
31.9441   241
31.9541   237
31.9641   238
31.9741   221
31.9841   248
31.9941   233
32.0041   222
32.0141   224
32.0241   211
32.0341   228
32.0441   229
32.0541   203
32.0641   240
32.0741   210
32.0841   236
32.0941   215
32.1041   226
32.1141   219
32.1241   206
32.1341   213
32.1441   198
32.1541   203
32.1641   199
32.1741   224
32.1841   204
32.1941   211
32.2041   198
32.2141   205
32.2241   231
32.2341   199
32.2441   222
32.2541   222
32.2641   230
32.2741   230
32.2841   225
32.2941   206
32.3041   222
32.3141   182
32.3241   191
32.3341   197
32.3441   192
32.3541   204
32.3641   221
32.3741   217
32.3841   204
32.3941   202
32.4041   210
32.4141   197
32.4241   209
32.4341   212
32.4441   219
32.4541   222
32.4641   197
32.4741   195
32.4841   176
32.4941   195
32.5041   201
32.5141   219
32.5241   194
32.5341   210
32.5441   188
32.5541   187
32.5641   196
32.5741   189
32.5841   192
32.5941   176
32.6041   175
32.6141   196
32.6241   196
32.6341   191
32.6441   218
32.6541   199
32.6641   213
32.6741   186
32.6841   201
32.6941   203
32.7041   204
32.7141   213
32.7241   201
32.7341   224
32.7441   194
32.7541   170
32.7641   189
32.7741   194
32.7841   191
32.7941   192
32.8041   203
32.8141   204
32.8241   204
32.8341   190
32.8441   194
32.8541   179
32.8641   208
32.8741   197
32.8841   192
32.8941   188
32.9041   184
32.9141   166
32.9241   183
32.9341   191
32.9441   174
32.9541   181
32.9641   182
32.9741   197
32.9841   173
32.9941   178
33.0041   191
33.0141   179
33.0241   219
33.0341   199
33.0441   181
33.0541   187
33.0641   183
33.0741   177
33.0841   167
33.0941   190
33.1041   162
33.1141   187
33.1241   168
33.1341   192
33.1441   170
33.1541   178
33.1641   163
33.1741   158
33.1841   186
33.1941   170
33.2041   156
33.2141   178
33.2241   165
33.2341   151
33.2441   184
33.2541   190
33.2641   189
33.2741   164
33.2841   178
33.2941   166
33.3041   187
33.3141   206
33.3241   168
33.3341   176
33.3441   169
33.3541   198
33.3641   172
33.3741   173
33.3841   160
33.3941   177
33.4041   181
33.4141   180
33.4241   164
33.4341   168
33.4441   171
33.4541   159
33.4641   188
33.4741   165
33.4841   177
33.4941   169
33.5041   162
33.5141   168
33.5241   146
33.5341   172
33.5441   163
33.5541   191
33.5641   181
33.5741   165
33.5841   144
33.5941   163
33.6041   152
33.6141   176
33.6241   166
33.6341   180
33.6441   158
33.6541   163
33.6641   180
33.6741   158
33.6841   139
33.6941   164
33.7041   166
33.7141   154
33.7241   152
33.7341   154
33.7441   154
33.7541   170
33.7641   160
33.7741   159
33.7841   168
33.7941   140
33.8041   134
33.8141   183
33.8241   157
33.8341   166
33.8441   173
33.8541   167
33.8641   171
33.8741   154
33.8841   155
33.8941   148
33.9041   163
33.9141   176
33.9241   159
33.9341   149
33.9441   142
33.9541   155
33.9641   156
33.9741   149
33.9841   158
33.9941   139
34.0041   155
34.0141   140
34.0241   152
34.0341   159
34.0441   146
34.0541   139
34.0641   162
34.0741   150
34.0841   179
34.0941   146
34.1041   140
34.1141   153
34.1241   150
34.1341   162
34.1441   139
34.1541   148
34.1641   132
34.1741   159
34.1841   159
34.1941   154
34.2041   140
34.2141   131
34.2241   144
34.2341   178
34.2441   157
34.2541   159
34.2641   129
34.2741   134
34.2841   137
34.2941   131
34.3041   123
34.3141   149
34.3241   132
34.3341   173
34.3441   134
34.3541   144
34.3641   163
34.3741   154
34.3841   121
34.3941   141
34.4041   144
34.4141   142
34.4241   141
34.4341   129
34.4441   146
34.4541   130
34.4641   150
34.4741   123
34.4841   140
34.4941   156
34.5041   127
34.5141   134
34.5241   138
34.5341   133
34.5441   145
34.5541   122
34.5641   158
34.5741   131
34.5841   146
34.5941   137
34.6041   117
34.6141   141
34.6241   138
34.6341   147
34.6441   124
34.6541   134
34.6641   125
34.6741   126
34.6841   137
34.6941   133
34.7041   133
34.7141   118
34.7241   127
34.7341   132
34.7441   143
34.7541   118
34.7641   133
34.7741   117
34.7841   132
34.7941   130
34.8041   106
34.8141   128
34.8241   125
34.8341   114
34.8441   137
34.8541   143
34.8641   126
34.8741   131
34.8841   121
34.8941   115
34.9041   126
34.9141   116
34.9241   141
34.9341   126
34.9441   122
34.9541   120
34.9641   139
34.9741   110
34.9841   116
34.9941   116
35.0041   125
35.0141   116
35.0241   129
35.0341   124
35.0441   119
35.0541   118
35.0641   122
35.0741   122
35.0841   129
35.0941   130
35.1041   112
35.1141   107
35.1241   122
35.1341   125
35.1441   116
35.1541   127
35.1641   121
35.1741   136
35.1841   111
35.1941   104
35.2041    97
35.2141   118
35.2241   112
35.2341   129
35.2441   113
35.2541   107
35.2641   121
35.2741   114
35.2841   123
35.2941   120
35.3041   121
35.3141   103
35.3241   116
35.3341   107
35.3441   135
35.3541   132
35.3641    98
35.3741   114
35.3841   109
35.3941   126
35.4041   103
35.4141   103
35.4241   120
35.4341   126
35.4441   109
35.4541   104
35.4641   117
35.4741   107
35.4841   105
35.4941   111
35.5041   110
35.5141   107
35.5241   119
35.5341   121
35.5441   119
35.5541   110
35.5641   111
35.5741   101
35.5841   106
35.5941   104
35.6041   129
35.6141   116
35.6241   111
35.6341    96
35.6441   109
35.6541   113
35.6641   107
35.6741   108
35.6841   112
35.6941   109
35.7041   106
35.7141   107
35.7241   108
35.7341   109
35.7441   111
35.7541   117
35.7641   111
35.7741    86
35.7841   107
35.7941   107
35.8041    95
35.8141   104
35.8241    95
35.8341    96
35.8441    84
35.8541   102
35.8641   116
35.8741   113
35.8841   111
35.8941   103
35.9041    83
35.9141   115
35.9241    91
35.9341    93
35.9441   104
35.9541    99
35.9641   106
35.9741   107
35.9841    99
35.9941   102
36.0041   105
36.0141    98
36.0241   115
36.0341    97
36.0441    95
36.0541    97
36.0641    97
36.0741    93
36.0841   102
36.0941   122
36.1041    95
36.1141    96
36.1241   102
36.1341    88
36.1441   100
36.1541    94
36.1641   109
36.1741    98
36.1841    93
36.1941    92
36.2041    89
36.2141    80
36.2241    93
36.2341    71
36.2441    97
36.2541    98
36.2641    81
36.2741    87
36.2841    92
36.2941    87
36.3041    95
36.3141    89
36.3241    97
36.3341    85
36.3441   114
36.3541   113
36.3641   105
36.3741    93
36.3841    97
36.3941    91
36.4041    89
36.4141    73
36.4241    90
36.4341    93
36.4441    79
36.4541    84
36.4641    96
36.4741   102
36.4841    91
36.4941   100
36.5041    79
36.5141    78
36.5241   101
36.5341    81
36.5441    97
36.5541    88
36.5641    79
36.5741    92
36.5841    70
36.5941    84
36.6041    88
36.6141    80
36.6241    81
36.6341   105
36.6441    85
36.6541    88
36.6641    79
36.6741    85
36.6841    92
36.6941    89
36.7041    98
36.7141    80
36.7241    70
36.7341    70
36.7441    85
36.7541    95
36.7641    91
36.7741    87
36.7841    88
36.7941    92
36.8041    83
36.8141    72
36.8241    81
36.8341    78
36.8441    94
36.8541    78
36.8641    73
36.8741    79
36.8841    89
36.8941    77
36.9041    73
36.9141    85
36.9241    74
36.9341    77
36.9441    74
36.9541    81
36.9641    75
36.9741    80
36.9841    81
36.9941    88
37.0041    92
37.0141    76
37.0241    85
37.0341    95
37.0441    87
37.0541    79
37.0641    89
37.0741    77
37.0841    79
37.0941    72
37.1041    90
37.1141    89
37.1241    74
37.1341    85
37.1441    74
37.1541    72
37.1641    78
37.1741    83
37.1841    80
37.1941    86
37.2041    67
37.2141    79
37.2241    86
37.2341    74
37.2441    66
37.2541    60
37.2641    76
37.2741    69
37.2841    61
37.2941    88
37.3041    78
37.3141    72
37.3241    77
37.3341    85
37.3441    68
37.3541    61
37.3641    78
37.3741    78
37.3841    69
37.3941    66
37.4041    58
37.4141    74
37.4241    57
37.4341    67
37.4441    92
37.4541    71
37.4641    72
37.4741    66
37.4841    86
37.4941    57
37.5041    57
37.5141    70
37.5241    72
37.5341    68
37.5441    60
37.5541    77
37.5641    81
37.5741    59
37.5841    45
37.5941    67
37.6041    63
37.6141    57
37.6241    69
37.6341    55
37.6441    70
37.6541    72
37.6641    64
37.6741    72
37.6841    72
37.6941    55
37.7041    64
37.7141    68
37.7241    76
37.7341    74
37.7441    66
37.7541    60
37.7641    73
37.7741    57
37.7841    52
37.7941    74
37.8041    71
37.8141    79
37.8241    63
37.8341    60
37.8441    78
37.8541    72
37.8641    67
37.8741    65
37.8841    82
37.8941    65
37.9041    53
37.9141    55
37.9241    47
37.9341    61
37.9441    64
37.9541    54
37.9641    63
37.9741    70
37.9841    59
37.9941    63
38.0041    74
38.0141    65
38.0241    75
38.0341    45
38.0441    65
38.0541    63
38.0641    53
38.0741    65
38.0841    48
38.0941    45
38.1041    60
38.1141    61
38.1241    59
38.1341    55
38.1441    61
38.1541    61
38.1641    63
38.1741    63
38.1841    54
38.1941    51
38.2041    56
38.2141    56
38.2241    44
38.2341    59
38.2441    54
38.2541    58
38.2641    68
38.2741    53
38.2841    55
38.2941    65
38.3041    56
38.3141    55
38.3241    64
38.3341    68
38.3441    62
38.3541    57
38.3641    54
38.3741    50
38.3841    51
38.3941    43
38.4041    52
38.4141    40
38.4241    46
38.4341    63
38.4441    57
38.4541    49
38.4641    50
38.4741    60
38.4841    38
38.4941    34
38.5041    56
38.5141    42
38.5241    58
38.5341    50
38.5441    54
38.5541    52
38.5641    41
38.5741    41
38.5841    56
38.5941    45
38.6041    50
38.6141    48
38.6241    34
38.6341    56
38.6441    46
38.6541    54
38.6641    37
38.6741    55
38.6841    64
38.6941    59
38.7041    53
38.7141    60
38.7241    51
38.7341    55
38.7441    29
38.7541    40
38.7641    43
38.7741    58
38.7841    53
38.7941    47
38.8041    38
38.8141    61
38.8241    69
38.8341    53
38.8441    52
38.8541    57
38.8641    49
38.8741    62
38.8841    55
38.8941    48
38.9041    44
38.9141    39
38.9241    45
38.9341    42
38.9441    44
38.9541    43
38.9641    53
38.9741    41
38.9841    45
38.9941    45
39.0041    51
39.0141    42
39.0241    36
39.0341    44
39.0441    46
39.0541    52
39.0641    28
39.0741    34
39.0841    45
39.0941    44
39.1041    42
39.1141    46
39.1241    49
39.1341    49
39.1441    53
39.1541    54
39.1641    50
39.1741    50
39.1841    42
39.1941    54
39.2041    49
39.2141    38
39.2241    34
39.2341    31
39.2441    45
39.2541    46
39.2641    41
39.2741    39
39.2841    48
39.2941    51
39.3041    47
39.3141    36
39.3241    36
39.3341    40
39.3441    43
39.3541    34
39.3641    36
39.3741    47
39.3841    39
39.3941    32
39.4041    32
39.4141    46
39.4241    43
39.4341    38
39.4441    41
39.4541    39
39.4641    32
39.4741    51
39.4841    37
39.4941    38
39.5041    43
39.5141    45
39.5241    45
39.5341    35
39.5441    40
39.5541    35
39.5641    23
39.5741    38
39.5841    44
39.5941    33
39.6041    41
39.6141    28
39.6241    40
39.6341    33
39.6441    28
39.6541    30
39.6641    38
39.6741    47
39.6841    39
39.6941    41
39.7041    34
39.7141    37
39.7241    31
39.7341    38
39.7441    32
39.7541    41
39.7641    35
39.7741    30
39.7841    42
39.7941    35
39.8041    33
39.8141    34
39.8241    28
39.8341    19
39.8441    43
39.8541    30
39.8641    24
39.8741    29
39.8841    31
39.8941    25
39.9041    27
39.9141    39
39.9241    38
39.9341    29
39.9441    34
39.9541    35
39.9641    31
39.9741    31
39.9841    17
