Bruker Nano GmbH Berlin, Germany
Esprit 1.9

Date: 4/1/2021 4:24:37 PM
Real time: 35225
Life time: 33320
Pulse density: 76572


Detector type: XFlash 430
Window type: Custom type
Detector thickness: 0.45
Si dead layer:0.029

Calibration, lin.: 10
Calibration, abs.: -955.9
Mn FWHM: 137.05
Fano factor: 0.121
Channels: 4096

Energy Counts
-0.9559      0
-0.9459      0
-0.9359      0
-0.9259      0
-0.9159      0
-0.9059      0
-0.8959      0
-0.8859      0
-0.8759      0
-0.8659      0
-0.8559      0
-0.8459      0
-0.8359      0
-0.8259      0
-0.8159      0
-0.8059      0
-0.7959      0
-0.7859      0
-0.7759      0
-0.7659      0
-0.7559      0
-0.7459      0
-0.7359      0
-0.7259      0
-0.7159      0
-0.7059      0
-0.6959      0
-0.6859      0
-0.6759      0
-0.6659      0
-0.6559      0
-0.6459      0
-0.6359      0
-0.6259      0
-0.6159      0
-0.6059      0
-0.5959      0
-0.5859      0
-0.5759      0
-0.5659      0
-0.5559      0
-0.5459      0
-0.5359      0
-0.5259      0
-0.5159      0
-0.5059      0
-0.4959      0
-0.4859      0
-0.4759      0
-0.4659      0
-0.4559      0
-0.4459      0
-0.4359      0
-0.4259      0
-0.4159      0
-0.4059      0
-0.3959      0
-0.3859      0
-0.3759      0
-0.3659      0
-0.3559      0
-0.3459      0
-0.3359      0
-0.3259      0
-0.3159      0
-0.3059      0
-0.2959      0
-0.2859      0
-0.2759      0
-0.2659      0
-0.2559      0
-0.2459      0
-0.2359      0
-0.2259      0
-0.2159      0
-0.2059      0
-0.1959      0
-0.1859      0
-0.1759      0
-0.1659      0
-0.1559      1
-0.1459      0
-0.1359      0
-0.1259      3
-0.1159      4
-0.1059     23
-0.0959     87
-0.0859    366
-0.0759   1262
-0.0659   3814
-0.0559   9582
-0.0459  21167
-0.0359  39615
-0.0259  63641
-0.0159  86921
-0.0059 102349
 0.0041 102848
 0.0141  88186
 0.0241  65591
 0.0341  41367
 0.0441  21963
 0.0541  10435
 0.0641   4144
 0.0741   1396
 0.0841    400
 0.0941    105
 0.1041     37
 0.1141     25
 0.1241     13
 0.1341     14
 0.1441     11
 0.1541      7
 0.1641      7
 0.1741      7
 0.1841    298
 0.1941    587
 0.2041    549
 0.2141    557
 0.2241    554
 0.2341    527
 0.2441    573
 0.2541    550
 0.2641    571
 0.2741    537
 0.2841    530
 0.2941    532
 0.3041    503
 0.3141    541
 0.3241    517
 0.3341    525
 0.3441    505
 0.3541    508
 0.3641    534
 0.3741    466
 0.3841    459
 0.3941    470
 0.4041    501
 0.4141    474
 0.4241    475
 0.4341    485
 0.4441    476
 0.4541    481
 0.4641    489
 0.4741    490
 0.4841    491
 0.4941    457
 0.5041    491
 0.5141    506
 0.5241    468
 0.5341    466
 0.5441    479
 0.5541    449
 0.5641    438
 0.5741    428
 0.5841    442
 0.5941    436
 0.6041    435
 0.6141    463
 0.6241    433
 0.6341    409
 0.6441    446
 0.6541    446
 0.6641    401
 0.6741    408
 0.6841    418
 0.6941    406
 0.7041    389
 0.7141    400
 0.7241    412
 0.7341    407
 0.7441    412
 0.7541    387
 0.7641    387
 0.7741    396
 0.7841    396
 0.7941    382
 0.8041    360
 0.8141    389
 0.8241    360
 0.8341    353
 0.8441    381
 0.8541    372
 0.8641    401
 0.8741    387
 0.8841    377
 0.8941    384
 0.9041    377
 0.9141    381
 0.9241    384
 0.9341    350
 0.9441    347
 0.9541    359
 0.9641    369
 0.9741    355
 0.9841    367
 0.9941    362
 1.0041    338
 1.0141    341
 1.0241    374
 1.0341    375
 1.0441    391
 1.0541    333
 1.0641    334
 1.0741    354
 1.0841    363
 1.0941    341
 1.1041    348
 1.1141    296
 1.1241    336
 1.1341    327
 1.1441    320
 1.1541    335
 1.1641    338
 1.1741    319
 1.1841    334
 1.1941    325
 1.2041    321
 1.2141    334
 1.2241    344
 1.2341    351
 1.2441    349
 1.2541    330
 1.2641    332
 1.2741    323
 1.2841    342
 1.2941    341
 1.3041    314
 1.3141    330
 1.3241    311
 1.3341    327
 1.3441    317
 1.3541    347
 1.3641    330
 1.3741    309
 1.3841    332
 1.3941    319
 1.4041    307
 1.4141    335
 1.4241    315
 1.4341    306
 1.4441    308
 1.4541    319
 1.4641    346
 1.4741    314
 1.4841    335
 1.4941    302
 1.5041    303
 1.5141    308
 1.5241    294
 1.5341    281
 1.5441    296
 1.5541    314
 1.5641    319
 1.5741    280
 1.5841    298
 1.5941    320
 1.6041    317
 1.6141    310
 1.6241    331
 1.6341    333
 1.6441    338
 1.6541    351
 1.6641    405
 1.6741    521
 1.6841    639
 1.6941    817
 1.7041    941
 1.7141   1038
 1.7241   1156
 1.7341   1246
 1.7441   1266
 1.7541   1152
 1.7641   1051
 1.7741    877
 1.7841    789
 1.7941    631
 1.8041    544
 1.8141    455
 1.8241    415
 1.8341    378
 1.8441    364
 1.8541    360
 1.8641    329
 1.8741    328
 1.8841    336
 1.8941    311
 1.9041    336
 1.9141    338
 1.9241    325
 1.9341    318
 1.9441    341
 1.9541    344
 1.9641    361
 1.9741    351
 1.9841    362
 1.9941    402
 2.0041    376
 2.0141    358
 2.0241    339
 2.0341    356
 2.0441    331
 2.0541    343
 2.0641    332
 2.0741    305
 2.0841    313
 2.0941    300
 2.1041    285
 2.1141    293
 2.1241    292
 2.1341    288
 2.1441    285
 2.1541    301
 2.1641    263
 2.1741    286
 2.1841    255
 2.1941    277
 2.2041    251
 2.2141    279
 2.2241    275
 2.2341    272
 2.2441    271
 2.2541    272
 2.2641    276
 2.2741    244
 2.2841    264
 2.2941    274
 2.3041    247
 2.3141    279
 2.3241    286
 2.3341    268
 2.3441    234
 2.3541    248
 2.3641    266
 2.3741    263
 2.3841    253
 2.3941    241
 2.4041    241
 2.4141    269
 2.4241    241
 2.4341    253
 2.4441    258
 2.4541    244
 2.4641    261
 2.4741    250
 2.4841    244
 2.4941    223
 2.5041    248
 2.5141    259
 2.5241    227
 2.5341    262
 2.5441    250
 2.5541    215
 2.5641    229
 2.5741    226
 2.5841    239
 2.5941    238
 2.6041    224
 2.6141    254
 2.6241    213
 2.6341    224
 2.6441    212
 2.6541    235
 2.6641    237
 2.6741    226
 2.6841    220
 2.6941    227
 2.7041    230
 2.7141    237
 2.7241    230
 2.7341    206
 2.7441    223
 2.7541    210
 2.7641    227
 2.7741    236
 2.7841    235
 2.7941    246
 2.8041    196
 2.8141    242
 2.8241    230
 2.8341    226
 2.8441    229
 2.8541    258
 2.8641    232
 2.8741    201
 2.8841    250
 2.8941    249
 2.9041    222
 2.9141    233
 2.9241    214
 2.9341    213
 2.9441    207
 2.9541    203
 2.9641    211
 2.9741    210
 2.9841    195
 2.9941    227
 3.0041    205
 3.0141    225
 3.0241    198
 3.0341    192
 3.0441    199
 3.0541    203
 3.0641    185
 3.0741    201
 3.0841    204
 3.0941    194
 3.1041    181
 3.1141    197
 3.1241    186
 3.1341    171
 3.1441    171
 3.1541    188
 3.1641    199
 3.1741    173
 3.1841    212
 3.1941    200
 3.2041    173
 3.2141    187
 3.2241    176
 3.2341    166
 3.2441    172
 3.2541    162
 3.2641    192
 3.2741    194
 3.2841    166
 3.2941    220
 3.3041    173
 3.3141    197
 3.3241    192
 3.3341    225
 3.3441    185
 3.3541    174
 3.3641    159
 3.3741    173
 3.3841    162
 3.3941    163
 3.4041    179
 3.4141    180
 3.4241    162
 3.4341    143
 3.4441    155
 3.4541    177
 3.4641    170
 3.4741    178
 3.4841    166
 3.4941    177
 3.5041    170
 3.5141    202
 3.5241    172
 3.5341    150
 3.5441    178
 3.5541    210
 3.5641    236
 3.5741    278
 3.5841    358
 3.5941    409
 3.6041    490
 3.6141    611
 3.6241    798
 3.6341    971
 3.6441   1178
 3.6541   1296
 3.6641   1488
 3.6741   1624
 3.6841   1674
 3.6941   1666
 3.7041   1618
 3.7141   1491
 3.7241   1375
 3.7341   1171
 3.7441    968
 3.7541    752
 3.7641    606
 3.7741    459
 3.7841    370
 3.7941    300
 3.8041    248
 3.8141    200
 3.8241    169
 3.8341    168
 3.8441    152
 3.8541    136
 3.8641    138
 3.8741    154
 3.8841    153
 3.8941    155
 3.9041    172
 3.9141    185
 3.9241    206
 3.9341    217
 3.9441    217
 3.9541    234
 3.9641    274
 3.9741    275
 3.9841    297
 3.9941    295
 4.0041    322
 4.0141    299
 4.0241    341
 4.0341    294
 4.0441    296
 4.0541    292
 4.0641    268
 4.0741    212
 4.0841    192
 4.0941    168
 4.1041    168
 4.1141    144
 4.1241    142
 4.1341    129
 4.1441    120
 4.1541    121
 4.1641    130
 4.1741    126
 4.1841    155
 4.1941    136
 4.2041    142
 4.2141    126
 4.2241    123
 4.2341    130
 4.2441    134
 4.2541    134
 4.2641    128
 4.2741    125
 4.2841    122
 4.2941    130
 4.3041    125
 4.3141    119
 4.3241    119
 4.3341    133
 4.3441    130
 4.3541    130
 4.3641    134
 4.3741    138
 4.3841    121
 4.3941    125
 4.4041    140
 4.4141    153
 4.4241    137
 4.4341    159
 4.4441    154
 4.4541    160
 4.4641    168
 4.4741    172
 4.4841    165
 4.4941    221
 4.5041    164
 4.5141    181
 4.5241    181
 4.5341    163
 4.5441    162
 4.5541    172
 4.5641    162
 4.5741    148
 4.5841    165
 4.5941    147
 4.6041    146
 4.6141    147
 4.6241    156
 4.6341    128
 4.6441    140
 4.6541    150
 4.6641    144
 4.6741    138
 4.6841    141
 4.6941    158
 4.7041    141
 4.7141    139
 4.7241    153
 4.7341    139
 4.7441    116
 4.7541    128
 4.7641    123
 4.7741    129
 4.7841    134
 4.7941    136
 4.8041    126
 4.8141    119
 4.8241    109
 4.8341    132
 4.8441    135
 4.8541    124
 4.8641    138
 4.8741    132
 4.8841    145
 4.8941    125
 4.9041    154
 4.9141    141
 4.9241    139
 4.9341    160
 4.9441    140
 4.9541    147
 4.9641    139
 4.9741    162
 4.9841    158
 4.9941    164
 5.0041    156
 5.0141    164
 5.0241    168
 5.0341    168
 5.0441    159
 5.0541    147
 5.0641    165
 5.0741    144
 5.0841    160
 5.0941    163
 5.1041    156
 5.1141    159
 5.1241    136
 5.1341    125
 5.1441    172
 5.1541    149
 5.1641    158
 5.1741    135
 5.1841    156
 5.1941    158
 5.2041    158
 5.2141    133
 5.2241    138
 5.2341    161
 5.2441    133
 5.2541    149
 5.2641    127
 5.2741    150
 5.2841    133
 5.2941    131
 5.3041    146
 5.3141    154
 5.3241    147
 5.3341    151
 5.3441    151
 5.3541    156
 5.3641    175
 5.3741    163
 5.3841    170
 5.3941    169
 5.4041    167
 5.4141    174
 5.4241    184
 5.4341    172
 5.4441    142
 5.4541    166
 5.4641    142
 5.4741    137
 5.4841    174
 5.4941    174
 5.5041    155
 5.5141    138
 5.5241    158
 5.5341    139
 5.5441    135
 5.5541    129
 5.5641    158
 5.5741    141
 5.5841    168
 5.5941    152
 5.6041    135
 5.6141    144
 5.6241    149
 5.6341    139
 5.6441    155
 5.6541    137
 5.6641    157
 5.6741    154
 5.6841    141
 5.6941    144
 5.7041    153
 5.7141    154
 5.7241    170
 5.7341    158
 5.7441    138
 5.7541    177
 5.7641    186
 5.7741    196
 5.7841    207
 5.7941    241
 5.8041    245
 5.8141    275
 5.8241    323
 5.8341    338
 5.8441    348
 5.8541    392
 5.8641    424
 5.8741    461
 5.8841    501
 5.8941    494
 5.9041    468
 5.9141    449
 5.9241    439
 5.9341    411
 5.9441    354
 5.9541    385
 5.9641    339
 5.9741    305
 5.9841    266
 5.9941    284
 6.0041    247
 6.0141    222
 6.0241    217
 6.0341    225
 6.0441    234
 6.0541    256
 6.0641    206
 6.0741    230
 6.0841    177
 6.0941    172
 6.1041    190
 6.1141    184
 6.1241    178
 6.1341    177
 6.1441    160
 6.1541    167
 6.1641    133
 6.1741    170
 6.1841    184
 6.1941    178
 6.2041    185
 6.2141    173
 6.2241    200
 6.2341    223
 6.2441    234
 6.2541    332
 6.2641    394
 6.2741    445
 6.2841    555
 6.2941    696
 6.3041    895
 6.3141    984
 6.3241   1222
 6.3341   1415
 6.3441   1659
 6.3541   1854
 6.3641   2103
 6.3741   2222
 6.3841   2319
 6.3941   2334
 6.4041   2394
 6.4141   2284
 6.4241   2261
 6.4341   2035
 6.4441   1877
 6.4541   1622
 6.4641   1402
 6.4741   1256
 6.4841    944
 6.4941    815
 6.5041    677
 6.5141    575
 6.5241    470
 6.5341    407
 6.5441    375
 6.5541    309
 6.5641    271
 6.5741    255
 6.5841    251
 6.5941    277
 6.6041    258
 6.6141    227
 6.6241    216
 6.6341    208
 6.6441    247
 6.6541    247
 6.6641    236
 6.6741    266
 6.6841    217
 6.6941    259
 6.7041    237
 6.7141    246
 6.7241    217
 6.7341    221
 6.7441    246
 6.7541    225
 6.7641    248
 6.7741    238
 6.7841    248
 6.7941    223
 6.8041    240
 6.8141    236
 6.8241    203
 6.8341    229
 6.8441    228
 6.8541    243
 6.8641    242
 6.8741    237
 6.8841    243
 6.8941    246
 6.9041    248
 6.9141    263
 6.9241    305
 6.9341    311
 6.9441    338
 6.9541    366
 6.9641    409
 6.9741    413
 6.9841    441
 6.9941    475
 7.0041    520
 7.0141    555
 7.0241    535
 7.0341    597
 7.0441    636
 7.0541    606
 7.0641    595
 7.0741    582
 7.0841    560
 7.0941    536
 7.1041    523
 7.1141    545
 7.1241    442
 7.1341    450
 7.1441    408
 7.1541    383
 7.1641    365
 7.1741    374
 7.1841    302
 7.1941    348
 7.2041    288
 7.2141    342
 7.2241    316
 7.2341    317
 7.2441    311
 7.2541    354
 7.2641    324
 7.2741    344
 7.2841    312
 7.2941    342
 7.3041    310
 7.3141    380
 7.3241    343
 7.3341    385
 7.3441    388
 7.3541    392
 7.3641    390
 7.3741    405
 7.3841    446
 7.3941    424
 7.4041    431
 7.4141    437
 7.4241    386
 7.4341    426
 7.4441    366
 7.4541    399
 7.4641    368
 7.4741    392
 7.4841    407
 7.4941    368
 7.5041    361
 7.5141    360
 7.5241    344
 7.5341    339
 7.5441    316
 7.5541    318
 7.5641    328
 7.5741    346
 7.5841    366
 7.5941    325
 7.6041    302
 7.6141    347
 7.6241    373
 7.6341    332
 7.6441    355
 7.6541    347
 7.6641    372
 7.6741    380
 7.6841    363
 7.6941    350
 7.7041    368
 7.7141    403
 7.7241    379
 7.7341    408
 7.7441    412
 7.7541    388
 7.7641    414
 7.7741    449
 7.7841    419
 7.7941    429
 7.8041    462
 7.8141    466
 7.8241    483
 7.8341    463
 7.8441    492
 7.8541    495
 7.8641    529
 7.8741    519
 7.8841    575
 7.8941    570
 7.9041    621
 7.9141    670
 7.9241    660
 7.9341    664
 7.9441    728
 7.9541    760
 7.9641    828
 7.9741    858
 7.9841    889
 7.9941    969
 8.0041   1002
 8.0141   1075
 8.0241   1223
 8.0341   1290
 8.0441   1379
 8.0541   1479
 8.0641   1632
 8.0741   1638
 8.0841   1793
 8.0941   1864
 8.1041   1948
 8.1141   2162
 8.1241   2147
 8.1341   2274
 8.1441   2249
 8.1541   2327
 8.1641   2420
 8.1741   2415
 8.1841   2509
 8.1941   2611
 8.2041   2673
 8.2141   2622
 8.2241   2703
 8.2341   2940
 8.2441   2987
 8.2541   3105
 8.2641   3360
 8.2741   3651
 8.2841   3890
 8.2941   4259
 8.3041   4666
 8.3141   5006
 8.3241   5558
 8.3341   5969
 8.3441   6390
 8.3541   6706
 8.3641   7077
 8.3741   7232
 8.3841   7209
 8.3941   7281
 8.4041   7130
 8.4141   6906
 8.4241   6550
 8.4341   6116
 8.4441   5511
 8.4541   4935
 8.4641   4453
 8.4741   3901
 8.4841   3319
 8.4941   2778
 8.5041   2397
 8.5141   1923
 8.5241   1731
 8.5341   1399
 8.5441   1229
 8.5541   1043
 8.5641    962
 8.5741    794
 8.5841    782
 8.5941    733
 8.6041    692
 8.6141    674
 8.6241    723
 8.6341    669
 8.6441    697
 8.6541    671
 8.6641    668
 8.6741    622
 8.6841    688
 8.6941    630
 8.7041    630
 8.7141    628
 8.7241    638
 8.7341    595
 8.7441    610
 8.7541    590
 8.7641    576
 8.7741    549
 8.7841    574
 8.7941    572
 8.8041    518
 8.8141    614
 8.8241    548
 8.8341    529
 8.8441    541
 8.8541    539
 8.8641    532
 8.8741    546
 8.8841    545
 8.8941    567
 8.9041    556
 8.9141    564
 8.9241    573
 8.9341    637
 8.9441    626
 8.9541    641
 8.9641    707
 8.9741    696
 8.9841    693
 8.9941    748
 9.0041    745
 9.0141    748
 9.0241    777
 9.0341    838
 9.0441    785
 9.0541    806
 9.0641    823
 9.0741    805
 9.0841    847
 9.0941    902
 9.1041    891
 9.1141    890
 9.1241    981
 9.1341   1000
 9.1441   1015
 9.1541   1057
 9.1641   1146
 9.1741   1215
 9.1841   1158
 9.1941   1260
 9.2041   1392
 9.2141   1409
 9.2241   1415
 9.2341   1545
 9.2441   1591
 9.2541   1675
 9.2641   1757
 9.2741   1796
 9.2841   1893
 9.2941   2040
 9.3041   2066
 9.3141   2141
 9.3241   2248
 9.3341   2312
 9.3441   2395
 9.3541   2560
 9.3641   2480
 9.3741   2534
 9.3841   2606
 9.3941   2589
 9.4041   2819
 9.4141   2808
 9.4241   2768
 9.4341   2855
 9.4441   2980
 9.4541   2979
 9.4641   2979
 9.4741   3027
 9.4841   3184
 9.4941   3192
 9.5041   3280
 9.5141   3432
 9.5241   3491
 9.5341   3644
 9.5441   3728
 9.5541   3783
 9.5641   4129
 9.5741   4388
 9.5841   4580
 9.5941   4789
 9.6041   5066
 9.6141   5281
 9.6241   5698
 9.6341   5923
 9.6441   6142
 9.6541   6266
 9.6641   6236
 9.6741   6249
 9.6841   6179
 9.6941   6047
 9.7041   5707
 9.7141   5518
 9.7241   5319
 9.7341   4845
 9.7441   4349
 9.7541   4080
 9.7641   3647
 9.7741   3356
 9.7841   3106
 9.7941   2882
 9.8041   2658
 9.8141   2432
 9.8241   2301
 9.8341   2276
 9.8441   2228
 9.8541   2174
 9.8641   2204
 9.8741   2166
 9.8841   2220
 9.8941   2226
 9.9041   2283
 9.9141   2321
 9.9241   2394
 9.9341   2398
 9.9441   2436
 9.9541   2387
 9.9641   2356
 9.9741   2272
 9.9841   2173
 9.9941   2070
10.0041   1989
10.0141   1868
10.0241   1648
10.0341   1545
10.0441   1398
10.0541   1271
10.0641   1125
10.0741   1011
10.0841    909
10.0941    831
10.1041    732
10.1141    725
10.1241    682
10.1341    612
10.1441    605
10.1541    566
10.1641    542
10.1741    535
10.1841    507
10.1941    495
10.2041    471
10.2141    460
10.2241    431
10.2341    437
10.2441    416
10.2541    436
10.2641    418
10.2741    403
10.2841    400
10.2941    391
10.3041    370
10.3141    362
10.3241    358
10.3341    343
10.3441    340
10.3541    339
10.3641    331
10.3741    345
10.3841    352
10.3941    330
10.4041    343
10.4141    330
10.4241    343
10.4341    344
10.4441    358
10.4541    343
10.4641    350
10.4741    343
10.4841    350
10.4941    362
10.5041    326
10.5141    348
10.5241    380
10.5341    379
10.5441    385
10.5541    370
10.5641    394
10.5741    374
10.5841    389
10.5941    355
10.6041    390
10.6141    400
10.6241    403
10.6341    390
10.6441    386
10.6541    404
10.6641    414
10.6741    425
10.6841    442
10.6941    441
10.7041    468
10.7141    423
10.7241    455
10.7341    457
10.7441    475
10.7541    471
10.7641    471
10.7741    485
10.7841    511
10.7941    495
10.8041    482
10.8141    493
10.8241    544
10.8341    533
10.8441    540
10.8541    489
10.8641    514
10.8741    567
10.8841    588
10.8941    563
10.9041    572
10.9141    563
10.9241    544
10.9341    580
10.9441    567
10.9541    570
10.9641    579
10.9741    592
10.9841    581
10.9941    561
11.0041    545
11.0141    535
11.0241    516
11.0341    532
11.0441    514
11.0541    529
11.0641    534
11.0741    537
11.0841    532
11.0941    507
11.1041    536
11.1141    552
11.1241    519
11.1341    524
11.1441    545
11.1541    530
11.1641    543
11.1741    579
11.1841    606
11.1941    618
11.2041    660
11.2141    663
11.2241    697
11.2341    697
11.2441    735
11.2541    747
11.2641    768
11.2741    767
11.2841    762
11.2941    750
11.3041    743
11.3141    716
11.3241    687
11.3341    674
11.3441    680
11.3541    638
11.3641    624
11.3741    588
11.3841    536
11.3941    525
11.4041    531
11.4141    502
11.4241    453
11.4341    447
11.4441    445
11.4541    439
11.4641    424
11.4741    413
11.4841    444
11.4941    443
11.5041    411
11.5141    423
11.5241    396
11.5341    423
11.5441    423
11.5541    428
11.5641    420
11.5741    431
11.5841    446
11.5941    438
11.6041    469
11.6141    468
11.6241    469
11.6341    489
11.6441    484
11.6541    449
11.6641    452
11.6741    453
11.6841    466
11.6941    447
11.7041    418
11.7141    409
11.7241    388
11.7341    386
11.7441    419
11.7541    377
11.7641    375
11.7741    366
11.7841    343
11.7941    342
11.8041    351
11.8141    350
11.8241    322
11.8341    324
11.8441    325
11.8541    336
11.8641    331
11.8741    309
11.8841    306
11.8941    328
11.9041    333
11.9141    317
11.9241    307
11.9341    313
11.9441    305
11.9541    319
11.9641    343
11.9741    345
11.9841    339
11.9941    335
12.0041    346
12.0141    334
12.0241    337
12.0341    361
12.0441    340
12.0541    344
12.0641    343
12.0741    343
12.0841    347
12.0941    336
12.1041    336
12.1141    339
12.1241    367
12.1341    342
12.1441    303
12.1541    307
12.1641    332
12.1741    329
12.1841    337
12.1941    332
12.2041    315
12.2141    299
12.2241    296
12.2341    321
12.2441    316
12.2541    337
12.2641    328
12.2741    319
12.2841    319
12.2941    301
12.3041    300
12.3141    306
12.3241    328
12.3341    326
12.3441    315
12.3541    294
12.3641    327
12.3741    324
12.3841    320
12.3941    310
12.4041    312
12.4141    325
12.4241    323
12.4341    304
12.4441    310
12.4541    319
12.4641    305
12.4741    316
12.4841    333
12.4941    327
12.5041    317
12.5141    304
12.5241    319
12.5341    330
12.5441    341
12.5541    344
12.5641    334
12.5741    323
12.5841    316
12.5941    316
12.6041    313
12.6141    309
12.6241    322
12.6341    331
12.6441    330
12.6541    322
12.6641    335
12.6741    328
12.6841    342
12.6941    341
12.7041    319
12.7141    325
12.7241    333
12.7341    315
12.7441    311
12.7541    317
12.7641    308
12.7741    314
12.7841    318
12.7941    336
12.8041    357
12.8141    356
12.8241    357
12.8341    338
12.8441    338
12.8541    340
12.8641    355
12.8741    379
12.8841    375
12.8941    370
12.9041    375
12.9141    364
12.9241    357
12.9341    350
12.9441    340
12.9541    342
12.9641    376
12.9741    396
12.9841    394
12.9941    370
13.0041    358
13.0141    358
13.0241    357
13.0341    354
13.0441    355
13.0541    368
13.0641    380
13.0741    393
13.0841    381
13.0941    370
13.1041    382
13.1141    364
13.1241    347
13.1341    371
13.1441    370
13.1541    360
13.1641    357
13.1741    373
13.1841    390
13.1941    402
13.2041    398
13.2141    393
13.2241    388
13.2341    372
13.2441    377
13.2541    412
13.2641    415
13.2741    397
13.2841    382
13.2941    381
13.3041    396
13.3141    409
13.3241    394
13.3341    380
13.3441    405
13.3541    420
13.3641    414
13.3741    400
13.3841    393
13.3941    413
13.4041    425
13.4141    435
13.4241    427
13.4341    423
13.4441    419
13.4541    408
13.4641    400
13.4741    410
13.4841    400
13.4941    393
13.5041    419
13.5141    448
13.5241    414
13.5341    402
13.5441    416
13.5541    398
13.5641    392
13.5741    406
13.5841    422
13.5941    443
13.6041    440
13.6141    427
13.6241    442
13.6341    461
13.6441    478
13.6541    467
13.6641    442
13.6741    440
13.6841    436
13.6941    434
13.7041    432
13.7141    442
13.7241    456
13.7341    472
13.7441    469
13.7541    451
13.7641    434
13.7741    416
13.7841    429
13.7941    438
13.8041    458
13.8141    455
13.8241    459
13.8341    467
13.8441    451
13.8541    457
13.8641    461
13.8741    473
13.8841    478
13.8941    440
13.9041    440
13.9141    474
13.9241    458
13.9341    430
13.9441    453
13.9541    466
13.9641    458
13.9741    462
13.9841    469
13.9941    466
14.0041    452
14.0141    483
14.0241    513
14.0341    519
14.0441    506
14.0541    476
14.0641    458
14.0741    461
14.0841    471
14.0941    487
14.1041    485
14.1141    481
14.1241    501
14.1341    470
14.1441    462
14.1541    503
14.1641    510
14.1741    488
14.1841    490
14.1941    527
14.2041    517
14.2141    473
14.2241    486
14.2341    519
14.2441    499
14.2541    486
14.2641    511
14.2741    508
14.2841    502
14.2941    507
14.3041    510
14.3141    525
14.3241    528
14.3341    536
14.3441    508
14.3541    491
14.3641    491
14.3741    491
14.3841    527
14.3941    520
14.4041    493
14.4141    516
14.4241    528
14.4341    512
14.4441    500
14.4541    504
14.4641    513
14.4741    540
14.4841    515
14.4941    519
14.5041    535
14.5141    515
14.5241    507
14.5341    503
14.5441    508
14.5541    521
14.5641    540
14.5741    548
14.5841    542
14.5941    548
14.6041    544
14.6141    533
14.6241    539
14.6341    526
14.6441    530
14.6541    561
14.6641    554
14.6741    536
14.6841    536
14.6941    553
14.7041    540
14.7141    537
14.7241    541
14.7341    545
14.7441    537
14.7541    544
14.7641    544
14.7741    557
14.7841    571
14.7941    563
14.8041    546
14.8141    535
14.8241    533
14.8341    544
14.8441    576
14.8541    579
14.8641    548
14.8741    551
14.8841    544
14.8941    570
14.9041    561
14.9141    562
14.9241    588
14.9341    577
14.9441    557
14.9541    563
14.9641    565
14.9741    560
14.9841    559
14.9941    556
15.0041    534
15.0141    517
15.0241    548
15.0341    583
15.0441    580
15.0541    576
15.0641    556
15.0741    557
15.0841    561
15.0941    567
15.1041    590
15.1141    581
15.1241    559
15.1341    560
15.1441    574
15.1541    589
15.1641    590
15.1741    578
15.1841    588
15.1941    582
15.2041    567
15.2141    581
15.2241    598
15.2341    591
15.2441    572
15.2541    561
15.2641    580
15.2741    569
15.2841    538
15.2941    543
15.3041    595
15.3141    614
15.3241    594
15.3341    583
15.3441    584
15.3541    579
15.3641    581
15.3741    552
15.3841    570
15.3941    582
15.4041    604
15.4141    623
15.4241    603
15.4341    604
15.4441    605
15.4541    604
15.4641    613
15.4741    622
15.4841    626
15.4941    610
15.5041    604
15.5141    609
15.5241    629
15.5341    647
15.5441    607
15.5541    584
15.5641    598
15.5741    617
15.5841    659
15.5941    659
15.6041    694
15.6141    710
15.6241    689
15.6341    685
15.6441    688
15.6541    704
15.6641    738
15.6741    706
15.6841    706
15.6941    695
15.7041    699
15.7141    759
15.7241    754
15.7341    729
15.7441    747
15.7541    766
15.7641    758
15.7741    753
15.7841    729
15.7941    722
15.8041    725
15.8141    713
15.8241    734
15.8341    729
15.8441    711
15.8541    682
15.8641    697
15.8741    700
15.8841    698
15.8941    687
15.9041    676
15.9141    694
15.9241    680
15.9341    661
15.9441    685
15.9541    683
15.9641    653
15.9741    646
15.9841    640
15.9941    644
16.0041    696
16.0141    728
16.0241    685
16.0341    705
16.0441    658
16.0541    649
16.0641    672
16.0741    688
16.0841    668
16.0941    672
16.1041    674
16.1141    705
16.1241    699
16.1341    704
16.1441    689
16.1541    644
16.1641    660
16.1741    691
16.1841    703
16.1941    706
16.2041    690
16.2141    711
16.2241    732
16.2341    724
16.2441    710
16.2541    711
16.2641    715
16.2741    673
16.2841    660
16.2941    660
16.3041    677
16.3141    722
16.3241    707
16.3341    706
16.3441    705
16.3541    721
16.3641    700
16.3741    715
16.3841    725
16.3941    735
16.4041    789
16.4141    773
16.4241    730
16.4341    710
16.4441    707
16.4541    707
16.4641    699
16.4741    706
16.4841    714
16.4941    735
16.5041    747
16.5141    772
16.5241    740
16.5341    723
16.5441    729
16.5541    743
16.5641    748
16.5741    773
16.5841    758
16.5941    755
16.6041    762
16.6141    744
16.6241    788
16.6341    787
16.6441    720
16.6541    716
16.6641    732
16.6741    732
16.6841    725
16.6941    782
16.7041    760
16.7141    749
16.7241    765
16.7341    773
16.7441    773
16.7541    773
16.7641    796
16.7741    790
16.7841    808
16.7941    794
16.8041    760
16.8141    754
16.8241    776
16.8341    774
16.8441    766
16.8541    773
16.8641    779
16.8741    768
16.8841    805
16.8941    752
16.9041    766
16.9141    770
16.9241    794
16.9341    786
16.9441    769
16.9541    767
16.9641    804
16.9741    799
16.9841    791
16.9941    804
17.0041    833
17.0141    830
17.0241    820
17.0341    833
17.0441    803
17.0541    800
17.0641    804
17.0741    768
17.0841    773
17.0941    786
17.1041    820
17.1141    832
17.1241    833
17.1341    843
17.1441    812
17.1541    825
17.1641    826
17.1741    803
17.1841    817
17.1941    844
17.2041    799
17.2141    831
17.2241    841
17.2341    800
17.2441    839
17.2541    837
17.2641    818
17.2741    777
17.2841    789
17.2941    805
17.3041    804
17.3141    786
17.3241    810
17.3341    839
17.3441    863
17.3541    822
17.3641    833
17.3741    860
17.3841    842
17.3941    834
17.4041    817
17.4141    852
17.4241    836
17.4341    811
17.4441    857
17.4541    876
17.4641    864
17.4741    873
17.4841    857
17.4941    852
17.5041    859
17.5141    864
17.5241    847
17.5341    847
17.5441    866
17.5541    858
17.5641    860
17.5741    895
17.5841    912
17.5941    893
17.6041    860
17.6141    862
17.6241    872
17.6341    895
17.6441    896
17.6541    904
17.6641    881
17.6741    858
17.6841    914
17.6941    910
17.7041    872
17.7141    863
17.7241    880
17.7341    869
17.7441    876
17.7541    865
17.7641    883
17.7741    893
17.7841    892
17.7941    898
17.8041    873
17.8141    851
17.8241    863
17.8341    889
17.8441    872
17.8541    873
17.8641    877
17.8741    887
17.8841    920
17.8941    950
17.9041    902
17.9141    909
17.9241    935
17.9341    908
17.9441    853
17.9541    857
17.9641    866
17.9741    903
17.9841    893
17.9941    919
18.0041    939
18.0141    918
18.0241    904
18.0341    909
18.0441    945
18.0541    929
18.0641    941
18.0741    913
18.0841    892
18.0941    951
18.1041    940
18.1141    929
18.1241    880
18.1341    919
18.1441    947
18.1541    915
18.1641    936
18.1741    920
18.1841    925
18.1941    942
18.2041    946
18.2141    963
18.2241    987
18.2341    958
18.2441    946
18.2541    950
18.2641    959
18.2741    945
18.2841    934
18.2941    916
18.3041    920
18.3141    925
18.3241    929
18.3341    922
18.3441    940
18.3541    930
18.3641    947
18.3741    960
18.3841    915
18.3941    915
18.4041    942
18.4141    906
18.4241    978
18.4341    998
18.4441    985
18.4541    971
18.4641    980
18.4741    946
18.4841    941
18.4941    971
18.5041    945
18.5141    924
18.5241    895
18.5341    918
18.5441    916
18.5541    966
18.5641    964
18.5741    952
18.5841    981
18.5941    918
18.6041    927
18.6141    953
18.6241    964
18.6341    958
18.6441    954
18.6541    941
18.6641    979
18.6741    944
18.6841    971
18.6941    989
18.7041    986
18.7141    973
18.7241   1001
18.7341    954
18.7441    915
18.7541    924
18.7641    936
18.7741    970
18.7841    974
18.7941    961
18.8041   1009
18.8141    948
18.8241    944
18.8341    947
18.8441    989
18.8541    992
18.8641    980
18.8741    940
18.8841    948
18.8941    947
18.9041    962
18.9141    950
18.9241    944
18.9341    987
18.9441    994
18.9541    992
18.9641   1044
18.9741    985
18.9841    917
18.9941    965
19.0041   1020
19.0141   1011
19.0241    996
19.0341    983
19.0441    998
19.0541    993
19.0641    983
19.0741    972
19.0841    965
19.0941    969
19.1041   1019
19.1141   1011
19.1241   1046
19.1341    997
19.1441   1006
19.1541    989
19.1641    973
19.1741    972
19.1841   1021
19.1941   1014
19.2041   1028
19.2141   1025
19.2241   1018
19.2341    983
19.2441   1008
19.2541   1048
19.2641   1059
19.2741    991
19.2841   1024
19.2941   1005
19.3041    980
19.3141   1043
19.3241   1026
19.3341    999
19.3441   1014
19.3541   1002
19.3641    966
19.3741   1014
19.3841   1001
19.3941   1021
19.4041   1029
19.4141   1035
19.4241   1030
19.4341   1066
19.4441    948
19.4541   1016
19.4641   1010
19.4741   1019
19.4841   1055
19.4941   1038
19.5041   1038
19.5141    976
19.5241    996
19.5341   1033
19.5441   1052
19.5541   1035
19.5641   1036
19.5741   1060
19.5841   1043
19.5941    995
19.6041    990
19.6141   1058
19.6241   1038
19.6341   1017
19.6441    997
19.6541    942
19.6641   1019
19.6741   1027
19.6841   1018
19.6941   1061
19.7041   1027
19.7141   1090
19.7241   1006
19.7341   1004
19.7441   1015
19.7541   1036
19.7641   1109
19.7741   1009
19.7841   1003
19.7941   1022
19.8041   1003
19.8141   1024
19.8241   1035
19.8341   1021
19.8441    976
19.8541   1068
19.8641   1032
19.8741   1017
19.8841    999
19.8941   1020
19.9041   1074
19.9141   1061
19.9241   1028
19.9341   1013
19.9441   1059
19.9541   1052
19.9641   1011
19.9741   1059
19.9841   1105
19.9941   1058
20.0041   1093
20.0141   1006
20.0241   1045
20.0341   1039
20.0441   1031
20.0541   1017
20.0641   1044
20.0741   1056
20.0841   1039
20.0941   1073
20.1041   1038
20.1141   1009
20.1241   1052
20.1341   1088
20.1441   1035
20.1541   1041
20.1641    988
20.1741   1011
20.1841   1039
20.1941    968
20.2041   1001
20.2141    992
20.2241   1056
20.2341   1057
20.2441   1009
20.2541   1088
20.2641   1069
20.2741   1013
20.2841   1036
20.2941   1050
20.3041   1021
20.3141   1052
20.3241   1009
20.3341   1081
20.3441   1010
20.3541   1065
20.3641   1058
20.3741   1037
20.3841   1089
20.3941   1040
20.4041   1049
20.4141   1044
20.4241   1043
20.4341   1095
20.4441   1087
20.4541   1094
20.4641   1073
20.4741   1090
20.4841   1036
20.4941   1054
20.5041   1092
20.5141   1034
20.5241   1042
20.5341   1088
20.5441   1062
20.5541   1024
20.5641   1053
20.5741   1021
20.5841   1058
20.5941    996
20.6041   1067
20.6141   1084
20.6241   1035
20.6341   1017
20.6441   1029
20.6541   1011
20.6641   1063
20.6741   1059
20.6841   1119
20.6941   1086
20.7041   1151
20.7141   1157
20.7241   1053
20.7341   1063
20.7441   1080
20.7541   1061
20.7641   1083
20.7741   1071
20.7841   1095
20.7941   1057
20.8041   1127
20.8141   1102
20.8241   1127
20.8341   1041
20.8441   1174
20.8541   1112
20.8641   1099
20.8741   1135
20.8841   1246
20.8941   1241
20.9041   1236
20.9141   1213
20.9241   1257
20.9341   1271
20.9441   1353
20.9541   1329
20.9641   1420
20.9741   1394
20.9841   1330
20.9941   1376
21.0041   1387
21.0141   1450
21.0241   1416
21.0341   1504
21.0441   1494
21.0541   1542
21.0641   1531
21.0741   1528
21.0841   1527
21.0941   1520
21.1041   1633
21.1141   1528
21.1241   1591
21.1341   1559
21.1441   1538
21.1541   1589
21.1641   1563
21.1741   1535
21.1841   1603
21.1941   1545
21.2041   1508
21.2141   1484
21.2241   1476
21.2341   1466
21.2441   1428
21.2541   1401
21.2641   1361
21.2741   1343
21.2841   1266
21.2941   1339
21.3041   1255
21.3141   1314
21.3241   1255
21.3341   1206
21.3441   1143
21.3541   1119
21.3641   1172
21.3741   1145
21.3841   1119
21.3941   1110
21.4041   1187
21.4141   1091
21.4241   1114
21.4341   1132
21.4441   1112
21.4541   1077
21.4641   1112
21.4741   1075
21.4841   1109
21.4941   1093
21.5041   1030
21.5141   1078
21.5241   1046
21.5341   1110
21.5441   1055
21.5541   1052
21.5641   1044
21.5741   1080
21.5841   1035
21.5941   1077
21.6041   1075
21.6141   1025
21.6241   1048
21.6341   1085
21.6441   1045
21.6541   1112
21.6641   1083
21.6741   1031
21.6841   1091
21.6941   1069
21.7041   1078
21.7141   1081
21.7241   1071
21.7341   1125
21.7441   1080
21.7541   1011
21.7641   1048
21.7741   1049
21.7841   1086
21.7941   1081
21.8041   1089
21.8141   1050
21.8241   1070
21.8341   1079
21.8441   1086
21.8541   1069
21.8641   1081
21.8741   1097
21.8841   1073
21.8941   1039
21.9041   1021
21.9141   1063
21.9241   1089
21.9341   1062
21.9441   1097
21.9541   1071
21.9641   1048
21.9741   1047
21.9841   1113
21.9941   1057
22.0041   1095
22.0141   1049
22.0241   1063
22.0341   1035
22.0441   1079
22.0541   1031
22.0641   1040
22.0741   1050
22.0841   1024
22.0941   1013
22.1041   1079
22.1141   1078
22.1241   1102
22.1341   1032
22.1441   1025
22.1541   1041
22.1641   1108
22.1741   1099
22.1841   1040
22.1941   1062
22.2041   1063
22.2141   1083
22.2241   1089
22.2341   1054
22.2441   1052
22.2541   1021
22.2641   1112
22.2741   1016
22.2841   1078
22.2941   1017
22.3041   1020
22.3141   1013
22.3241   1058
22.3341   1106
22.3441   1046
22.3541   1078
22.3641   1093
22.3741   1023
22.3841   1011
22.3941   1041
22.4041   1110
22.4141   1105
22.4241   1117
22.4341   1051
22.4441   1143
22.4541   1028
22.4641   1013
22.4741   1036
22.4841   1086
22.4941   1044
22.5041   1045
22.5141   1018
22.5241   1105
22.5341   1039
22.5441   1042
22.5541   1045
22.5641   1022
22.5741   1019
22.5841   1051
22.5941   1074
22.6041   1040
22.6141   1039
22.6241   1093
22.6341   1031
22.6441   1023
22.6541   1065
22.6641   1030
22.6741   1062
22.6841   1008
22.6941   1039
22.7041   1017
22.7141   1045
22.7241   1036
22.7341   1029
22.7441    991
22.7541   1046
22.7641   1011
22.7741   1024
22.7841   1013
22.7941   1050
22.8041   1040
22.8141   1039
22.8241   1050
22.8341   1046
22.8441   1063
22.8541   1025
22.8641   1039
22.8741    972
22.8841   1018
22.8941    981
22.9041   1081
22.9141   1040
22.9241   1023
22.9341    976
22.9441   1005
22.9541    995
22.9641   1063
22.9741   1036
22.9841   1032
22.9941   1003
23.0041   1036
23.0141   1034
23.0241   1037
23.0341    994
23.0441   1025
23.0541   1040
23.0641   1024
23.0741    990
23.0841    982
23.0941   1009
23.1041   1003
23.1141   1020
23.1241    980
23.1341    981
23.1441    985
23.1541   1061
23.1641   1010
23.1741   1055
23.1841   1019
23.1941   1028
23.2041   1017
23.2141   1040
23.2241   1070
23.2341    990
23.2441    976
23.2541   1019
23.2641    949
23.2741   1005
23.2841   1018
23.2941   1043
23.3041   1048
23.3141    967
23.3241   1046
23.3341   1021
23.3441   1043
23.3541    954
23.3641   1043
23.3741   1019
23.3841    994
23.3941    996
23.4041   1058
23.4141   1010
23.4241    984
23.4341    941
23.4441   1020
23.4541   1023
23.4641   1049
23.4741   1018
23.4841    967
23.4941   1050
23.5041   1068
23.5141   1067
23.5241   1048
23.5341    998
23.5441   1010
23.5541   1059
23.5641    999
23.5741   1013
23.5841   1006
23.5941   1011
23.6041   1026
23.6141   1060
23.6241    969
23.6341   1090
23.6441   1019
23.6541   1005
23.6641    999
23.6741   1018
23.6841    991
23.6941   1072
23.7041   1017
23.7141    972
23.7241   1062
23.7341   1027
23.7441   1064
23.7541   1122
23.7641   1098
23.7741   1097
23.7841   1110
23.7941   1041
23.8041   1123
23.8141   1072
23.8241   1081
23.8341   1033
23.8441   1077
23.8541   1096
23.8641   1083
23.8741   1037
23.8841   1038
23.8941   1043
23.9041   1052
23.9141   1080
23.9241   1061
23.9341    967
23.9441   1002
23.9541   1027
23.9641    995
23.9741   1002
23.9841    993
23.9941   1028
24.0041   1030
24.0141    959
24.0241    979
24.0341    960
24.0441   1009
24.0541    985
24.0641    940
24.0741    993
24.0841   1028
24.0941    969
24.1041    981
24.1141    942
24.1241   1001
24.1341    979
24.1441   1039
24.1541   1004
24.1641   1015
24.1741   1001
24.1841    966
24.1941    979
24.2041    966
24.2141    991
24.2241   1008
24.2341   1020
24.2441    958
24.2541   1006
24.2641    997
24.2741   1014
24.2841    972
24.2941    946
24.3041    936
24.3141    941
24.3241    960
24.3341    983
24.3441    937
24.3541   1025
24.3641   1004
24.3741    895
24.3841    978
24.3941    920
24.4041    974
24.4141    962
24.4241    982
24.4341   1005
24.4441   1033
24.4541    956
24.4641    936
24.4741    901
24.4841    949
24.4941    934
24.5041    899
24.5141    919
24.5241    855
24.5341    914
24.5441    960
24.5541    961
24.5641    904
24.5741    988
24.5841    931
24.5941    923
24.6041    945
24.6141    962
24.6241    975
24.6341    944
24.6441    920
24.6541    955
24.6641    929
24.6741    934
24.6841    929
24.6941    918
24.7041    933
24.7141    932
24.7241    897
24.7341    947
24.7441    890
24.7541    949
24.7641    866
24.7741    947
24.7841    964
24.7941    905
24.8041    942
24.8141    903
24.8241    912
24.8341    889
24.8441    908
24.8541    879
24.8641    899
24.8741    896
24.8841    953
24.8941    968
24.9041    914
24.9141    842
24.9241    930
24.9341    953
24.9441    930
24.9541    961
24.9641    930
24.9741    958
24.9841    906
24.9941    906
25.0041    977
25.0141    942
25.0241    983
25.0341    945
25.0441    926
25.0541    893
25.0641    930
25.0741    898
25.0841    968
25.0941    914
25.1041    929
25.1141    980
25.1241    924
25.1341    916
25.1441    892
25.1541    947
25.1641    897
25.1741    977
25.1841    922
25.1941    930
25.2041    917
25.2141    913
25.2241    916
25.2341    919
25.2441    990
25.2541    948
25.2641    910
25.2741    915
25.2841    901
25.2941    928
25.3041    918
25.3141    900
25.3241    901
25.3341    890
25.3441    928
25.3541    917
25.3641    883
25.3741    910
25.3841    913
25.3941    959
25.4041    896
25.4141    947
25.4241    979
25.4341    902
25.4441    881
25.4541    884
25.4641    881
25.4741    895
25.4841    884
25.4941    852
25.5041    850
25.5141    906
25.5241    849
25.5341    826
25.5441    881
25.5541    908
25.5641    817
25.5741    895
25.5841    850
25.5941    922
25.6041    861
25.6141    835
25.6241    813
25.6341    865
25.6441    837
25.6541    830
25.6641    866
25.6741    833
25.6841    844
25.6941    874
25.7041    820
25.7141    848
25.7241    826
25.7341    869
25.7441    880
25.7541    901
25.7641    822
25.7741    844
25.7841    877
25.7941    838
25.8041    869
25.8141    836
25.8241    818
25.8341    822
25.8441    823
25.8541    833
25.8641    874
25.8741    845
25.8841    814
25.8941    826
25.9041    831
25.9141    832
25.9241    855
25.9341    882
25.9441    842
25.9541    866
25.9641    830
25.9741    832
25.9841    816
25.9941    777
26.0041    817
26.0141    841
26.0241    846
26.0341    796
26.0441    820
26.0541    793
26.0641    826
26.0741    828
26.0841    817
26.0941    825
26.1041    853
26.1141    773
26.1241    793
26.1341    841
26.1441    776
26.1541    825
26.1641    850
26.1741    902
26.1841    813
26.1941    791
26.2041    790
26.2141    823
26.2241    829
26.2341    826
26.2441    829
26.2541    818
26.2641    815
26.2741    853
26.2841    828
26.2941    817
26.3041    809
26.3141    823
26.3241    834
26.3341    842
26.3441    803
26.3541    808
26.3641    809
26.3741    842
26.3841    815
26.3941    811
26.4041    789
26.4141    811
26.4241    787
26.4341    775
26.4441    765
26.4541    809
26.4641    801
26.4741    797
26.4841    811
26.4941    801
26.5041    757
26.5141    818
26.5241    864
26.5341    811
26.5441    772
26.5541    779
26.5641    796
26.5741    762
26.5841    758
26.5941    794
26.6041    807
26.6141    741
26.6241    784
26.6341    741
26.6441    748
26.6541    776
26.6641    780
26.6741    777
26.6841    745
26.6941    794
26.7041    759
26.7141    730
26.7241    800
26.7341    805
26.7441    759
26.7541    758
26.7641    784
26.7741    743
26.7841    753
26.7941    771
26.8041    717
26.8141    788
26.8241    761
26.8341    796
26.8441    804
26.8541    773
26.8641    776
26.8741    764
26.8841    767
26.8941    764
26.9041    757
26.9141    714
26.9241    739
26.9341    757
26.9441    773
26.9541    762
26.9641    779
26.9741    757
26.9841    734
26.9941    742
27.0041    734
27.0141    741
27.0241    739
27.0341    732
27.0441    725
27.0541    750
27.0641    727
27.0741    715
27.0841    746
27.0941    709
27.1041    712
27.1141    713
27.1241    711
27.1341    728
27.1441    747
27.1541    693
27.1641    750
27.1741    729
27.1841    743
27.1941    718
27.2041    780
27.2141    753
27.2241    750
27.2341    725
27.2441    727
27.2541    747
27.2641    722
27.2741    758
27.2841    695
27.2941    780
27.3041    727
27.3141    739
27.3241    693
27.3341    675
27.3441    743
27.3541    738
27.3641    745
27.3741    691
27.3841    709
27.3941    736
27.4041    724
27.4141    692
27.4241    727
27.4341    696
27.4441    712
27.4541    760
27.4641    723
27.4741    705
27.4841    761
27.4941    744
27.5041    765
27.5141    680
27.5241    746
27.5341    717
27.5441    730
27.5541    722
27.5641    753
27.5741    713
27.5841    743
27.5941    693
27.6041    723
27.6141    703
27.6241    699
27.6341    668
27.6441    678
27.6541    712
27.6641    692
27.6741    725
27.6841    728
27.6941    697
27.7041    699
27.7141    671
27.7241    672
27.7341    705
27.7441    664
27.7541    662
27.7641    673
27.7741    670
27.7841    727
27.7941    694
27.8041    680
27.8141    683
27.8241    644
27.8341    637
27.8441    732
27.8541    749
27.8641    673
27.8741    718
27.8841    654
27.8941    689
27.9041    696
27.9141    626
27.9241    686
27.9341    672
27.9441    662
27.9541    627
27.9641    682
27.9741    667
27.9841    658
27.9941    632
28.0041    667
28.0141    669
28.0241    665
28.0341    655
28.0441    688
28.0541    654
28.0641    654
28.0741    662
28.0841    608
28.0941    639
28.1041    651
28.1141    691
28.1241    694
28.1341    632
28.1441    665
28.1541    627
28.1641    669
28.1741    691
28.1841    642
28.1941    621
28.2041    665
28.2141    660
28.2241    631
28.2341    636
28.2441    644
28.2541    638
28.2641    634
28.2741    681
28.2841    657
28.2941    623
28.3041    617
28.3141    621
28.3241    627
28.3341    609
28.3441    604
28.3541    631
28.3641    622
28.3741    665
28.3841    643
28.3941    650
28.4041    660
28.4141    663
28.4241    652
28.4341    640
28.4441    661
28.4541    648
28.4641    653
28.4741    620
28.4841    594
28.4941    653
28.5041    587
28.5141    619
28.5241    628
28.5341    634
28.5441    625
28.5541    656
28.5641    624
28.5741    582
28.5841    647
28.5941    630
28.6041    611
28.6141    646
28.6241    631
28.6341    587
28.6441    626
28.6541    621
28.6641    593
28.6741    607
28.6841    584
28.6941    602
28.7041    627
28.7141    634
28.7241    604
28.7341    622
28.7441    615
28.7541    638
28.7641    627
28.7741    628
28.7841    601
28.7941    614
28.8041    610
28.8141    605
28.8241    622
28.8341    616
28.8441    630
28.8541    604
28.8641    631
28.8741    597
28.8841    633
28.8941    618
28.9041    596
28.9141    580
28.9241    553
28.9341    585
28.9441    591
28.9541    583
28.9641    611
28.9741    591
28.9841    564
28.9941    589
29.0041    599
29.0141    558
29.0241    577
29.0341    612
29.0441    627
29.0541    603
29.0641    580
29.0741    579
29.0841    592
29.0941    611
29.1041    580
29.1141    578
29.1241    583
29.1341    576
29.1441    578
29.1541    594
29.1641    561
29.1741    580
29.1841    583
29.1941    595
29.2041    569
29.2141    563
29.2241    589
29.2341    562
29.2441    570
29.2541    614
29.2641    563
29.2741    583
29.2841    594
29.2941    577
29.3041    558
29.3141    590
29.3241    567
29.3341    585
29.3441    532
29.3541    562
29.3641    543
29.3741    566
29.3841    547
29.3941    541
29.4041    555
29.4141    560
29.4241    533
29.4341    560
29.4441    561
29.4541    550
29.4641    563
29.4741    532
29.4841    556
29.4941    581
29.5041    522
29.5141    506
29.5241    521
29.5341    588
29.5441    547
29.5541    539
29.5641    546
29.5741    548
29.5841    556
29.5941    509
29.6041    530
29.6141    533
29.6241    496
29.6341    545
29.6441    535
29.6541    520
29.6641    582
29.6741    535
29.6841    540
29.6941    506
29.7041    544
29.7141    544
29.7241    527
29.7341    539
29.7441    492
29.7541    565
29.7641    568
29.7741    502
29.7841    508
29.7941    533
29.8041    563
29.8141    553
29.8241    535
29.8341    546
29.8441    514
29.8541    488
29.8641    548
29.8741    513
29.8841    513
29.8941    530
29.9041    528
29.9141    498
29.9241    531
29.9341    547
29.9441    558
29.9541    502
29.9641    494
29.9741    533
29.9841    470
29.9941    510
30.0041    479
30.0141    483
30.0241    495
30.0341    515
30.0441    542
30.0541    506
30.0641    521
30.0741    502
30.0841    497
30.0941    490
30.1041    528
30.1141    510
30.1241    508
30.1341    521
30.1441    493
30.1541    555
30.1641    474
30.1741    483
30.1841    482
30.1941    491
30.2041    487
30.2141    510
30.2241    462
30.2341    507
30.2441    507
30.2541    502
30.2641    528
30.2741    484
30.2841    493
30.2941    458
30.3041    500
30.3141    489
30.3241    485
30.3341    480
30.3441    463
30.3541    495
30.3641    501
30.3741    472
30.3841    475
30.3941    470
30.4041    491
30.4141    488
30.4241    488
30.4341    491
30.4441    474
30.4541    480
30.4641    492
30.4741    464
30.4841    468
30.4941    474
30.5041    471
30.5141    440
30.5241    456
30.5341    468
30.5441    512
30.5541    480
30.5641    494
30.5741    468
30.5841    465
30.5941    485
30.6041    457
30.6141    490
30.6241    445
30.6341    476
30.6441    482
30.6541    481
30.6641    467
30.6741    478
30.6841    488
30.6941    451
30.7041    462
30.7141    473
30.7241    450
30.7341    444
30.7441    471
30.7541    436
30.7641    440
30.7741    467
30.7841    458
30.7941    448
30.8041    481
30.8141    448
30.8241    424
30.8341    438
30.8441    458
30.8541    441
30.8641    435
30.8741    472
30.8841    432
30.8941    458
30.9041    438
30.9141    434
30.9241    462
30.9341    448
30.9441    459
30.9541    444
30.9641    445
30.9741    427
30.9841    428
30.9941    439
31.0041    428
31.0141    452
31.0241    440
31.0341    447
31.0441    432
31.0541    429
31.0641    444
31.0741    446
31.0841    417
31.0941    434
31.1041    458
31.1141    421
31.1241    435
31.1341    432
31.1441    448
31.1541    402
31.1641    419
31.1741    432
31.1841    392
31.1941    414
31.2041    411
31.2141    419
31.2241    459
31.2341    412
31.2441    409
31.2541    405
31.2641    419
31.2741    432
31.2841    379
31.2941    422
31.3041    431
31.3141    428
31.3241    425
31.3341    393
31.3441    406
31.3541    422
31.3641    439
31.3741    388
31.3841    408
31.3941    390
31.4041    419
31.4141    438
31.4241    416
31.4341    431
31.4441    399
31.4541    423
31.4641    388
31.4741    406
31.4841    405
31.4941    369
31.5041    399
31.5141    369
31.5241    411
31.5341    402
31.5441    399
31.5541    415
31.5641    430
31.5741    422
31.5841    362
31.5941    391
31.6041    401
31.6141    416
31.6241    388
31.6341    412
31.6441    401
31.6541    359
31.6641    366
31.6741    386
31.6841    366
31.6941    384
31.7041    385
31.7141    375
31.7241    403
31.7341    418
31.7441    420
31.7541    384
31.7641    402
31.7741    414
31.7841    411
31.7941    353
31.8041    400
31.8141    407
31.8241    396
31.8341    381
31.8441    377
31.8541    369
31.8641    387
31.8741    389
31.8841    362
31.8941    387
31.9041    349
31.9141    416
31.9241    383
31.9341    358
31.9441    385
31.9541    336
31.9641    377
31.9741    416
31.9841    369
31.9941    367
32.0041    383
32.0141    358
32.0241    365
32.0341    338
32.0441    376
32.0541    345
32.0641    383
32.0741    368
32.0841    382
32.0941    376
32.1041    361
32.1141    355
32.1241    400
32.1341    373
32.1441    358
32.1541    369
32.1641    339
32.1741    390
32.1841    372
32.1941    386
32.2041    372
32.2141    407
32.2241    390
32.2341    394
32.2441    364
32.2541    353
32.2641    400
32.2741    351
32.2841    355
32.2941    358
32.3041    367
32.3141    345
32.3241    377
32.3341    369
32.3441    355
32.3541    345
32.3641    350
32.3741    319
32.3841    340
32.3941    349
32.4041    379
32.4141    321
32.4241    343
32.4341    332
32.4441    349
32.4541    383
32.4641    340
32.4741    331
32.4841    346
32.4941    372
32.5041    332
32.5141    350
32.5241    340
32.5341    323
32.5441    328
32.5541    341
32.5641    364
32.5741    341
32.5841    338
32.5941    307
32.6041    354
32.6141    332
32.6241    324
32.6341    334
32.6441    317
32.6541    327
32.6641    306
32.6741    370
32.6841    354
32.6941    323
32.7041    327
32.7141    332
32.7241    355
32.7341    324
32.7441    335
32.7541    348
32.7641    336
32.7741    334
32.7841    325
32.7941    352
32.8041    314
32.8141    339
32.8241    341
32.8341    331
32.8441    323
32.8541    318
32.8641    315
32.8741    317
32.8841    320
32.8941    339
32.9041    310
32.9141    311
32.9241    297
32.9341    295
32.9441    310
32.9541    344
32.9641    305
32.9741    296
32.9841    297
32.9941    309
33.0041    318
33.0141    285
33.0241    290
33.0341    327
33.0441    311
33.0541    308
33.0641    308
33.0741    318
33.0841    277
33.0941    317
33.1041    309
33.1141    321
33.1241    312
33.1341    308
33.1441    315
33.1541    343
33.1641    314
33.1741    308
33.1841    314
33.1941    296
33.2041    308
33.2141    311
33.2241    298
33.2341    275
33.2441    295
33.2541    297
33.2641    311
33.2741    307
33.2841    309
33.2941    291
33.3041    286
33.3141    308
33.3241    313
33.3341    287
33.3441    293
33.3541    311
33.3641    285
33.3741    292
33.3841    316
33.3941    317
33.4041    287
33.4141    286
33.4241    290
33.4341    293
33.4441    307
33.4541    307
33.4641    301
33.4741    279
33.4841    272
33.4941    290
33.5041    300
33.5141    292
33.5241    314
33.5341    289
33.5441    299
33.5541    291
33.5641    313
33.5741    271
33.5841    290
33.5941    297
33.6041    288
33.6141    264
33.6241    309
33.6341    287
33.6441    288
33.6541    252
33.6641    269
33.6741    290
33.6841    278
33.6941    298
33.7041    280
33.7141    261
33.7241    294
33.7341    266
33.7441    307
33.7541    284
33.7641    255
33.7741    254
33.7841    276
33.7941    267
33.8041    289
33.8141    268
33.8241    289
33.8341    280
33.8441    253
33.8541    275
33.8641    287
33.8741    262
33.8841    261
33.8941    244
33.9041    289
33.9141    255
33.9241    276
33.9341    300
33.9441    262
33.9541    261
33.9641    299
33.9741    277
33.9841    290
33.9941    255
34.0041    263
34.0141    244
34.0241    285
34.0341    265
34.0441    228
34.0541    253
34.0641    300
34.0741    284
34.0841    281
34.0941    282
34.1041    276
34.1141    265
34.1241    234
34.1341    243
34.1441    246
34.1541    242
34.1641    255
34.1741    254
34.1841    263
34.1941    273
34.2041    252
34.2141    245
34.2241    238
34.2341    236
34.2441    262
34.2541    252
34.2641    275
34.2741    244
34.2841    248
34.2941    247
34.3041    236
34.3141    234
34.3241    271
34.3341    273
34.3441    251
34.3541    236
34.3641    252
34.3741    256
34.3841    241
34.3941    259
34.4041    258
34.4141    246
34.4241    232
34.4341    254
34.4441    253
34.4541    245
34.4641    257
34.4741    235
34.4841    254
34.4941    255
34.5041    235
34.5141    243
34.5241    245
34.5341    233
34.5441    238
34.5541    229
34.5641    247
34.5741    238
34.5841    241
34.5941    249
34.6041    230
34.6141    253
34.6241    209
34.6341    219
34.6441    248
34.6541    238
34.6641    240
34.6741    216
34.6841    242
34.6941    224
34.7041    243
34.7141    221
34.7241    224
34.7341    220
34.7441    235
34.7541    247
34.7641    237
34.7741    211
34.7841    233
34.7941    221
34.8041    220
34.8141    219
34.8241    230
34.8341    227
34.8441    213
34.8541    223
34.8641    219
34.8741    214
34.8841    226
34.8941    221
34.9041    219
34.9141    218
34.9241    244
34.9341    237
34.9441    223
34.9541    217
34.9641    222
34.9741    206
34.9841    208
34.9941    220
35.0041    236
35.0141    234
35.0241    218
35.0341    226
35.0441    232
35.0541    221
35.0641    215
35.0741    224
35.0841    210
35.0941    193
35.1041    221
35.1141    219
35.1241    228
35.1341    207
35.1441    215
35.1541    202
35.1641    226
35.1741    206
35.1841    196
35.1941    214
35.2041    220
35.2141    234
35.2241    213
35.2341    199
35.2441    228
35.2541    203
35.2641    195
35.2741    214
35.2841    206
35.2941    191
35.3041    213
35.3141    218
35.3241    210
35.3341    191
35.3441    214
35.3541    207
35.3641    217
35.3741    195
35.3841    227
35.3941    191
35.4041    195
35.4141    205
35.4241    206
35.4341    189
35.4441    232
35.4541    167
35.4641    189
35.4741    201
35.4841    194
35.4941    202
35.5041    198
35.5141    198
35.5241    171
35.5341    207
35.5441    191
35.5541    187
35.5641    184
35.5741    193
35.5841    208
35.5941    204
35.6041    171
35.6141    217
35.6241    175
35.6341    210
35.6441    169
35.6541    175
35.6641    215
35.6741    199
35.6841    194
35.6941    179
35.7041    169
35.7141    183
35.7241    188
35.7341    190
35.7441    175
35.7541    178
35.7641    171
35.7741    189
35.7841    161
35.7941    202
35.8041    222
35.8141    214
35.8241    192
35.8341    194
35.8441    188
35.8541    186
35.8641    166
35.8741    199
35.8841    184
35.8941    176
35.9041    176
35.9141    163
35.9241    186
35.9341    174
35.9441    166
35.9541    183
35.9641    177
35.9741    161
35.9841    184
35.9941    178
36.0041    180
36.0141    179
36.0241    153
36.0341    167
36.0441    197
36.0541    172
36.0641    188
36.0741    176
36.0841    173
36.0941    196
36.1041    164
36.1141    164
36.1241    193
36.1341    155
36.1441    167
36.1541    154
36.1641    166
36.1741    166
36.1841    164
36.1941    175
36.2041    197
36.2141    166
36.2241    179
36.2341    168
36.2441    143
36.2541    162
36.2641    184
36.2741    149
36.2841    161
36.2941    142
36.3041    155
36.3141    166
36.3241    172
36.3341    151
36.3441    155
36.3541    147
36.3641    183
36.3741    152
36.3841    152
36.3941    156
36.4041    176
36.4141    154
36.4241    145
36.4341    179
36.4441    154
36.4541    162
36.4641    143
36.4741    152
36.4841    144
36.4941    136
36.5041    162
36.5141    170
36.5241    172
36.5341    140
36.5441    167
36.5541    154
36.5641    147
36.5741    149
36.5841    170
36.5941    166
36.6041    162
36.6141    133
36.6241    152
36.6341    143
36.6441    140
36.6541    155
36.6641    147
36.6741    148
36.6841    140
36.6941    161
36.7041    158
36.7141    144
36.7241    145
36.7341    153
36.7441    163
36.7541    167
36.7641    145
36.7741    152
36.7841    153
36.7941    126
36.8041    147
36.8141    144
36.8241    150
36.8341    168
36.8441    154
36.8541    155
36.8641    147
36.8741    129
36.8841    154
36.8941    140
36.9041    138
36.9141    140
36.9241    144
36.9341    138
36.9441    144
36.9541    144
36.9641    154
36.9741    116
36.9841    131
36.9941    137
37.0041    147
37.0141    155
37.0241    135
37.0341    144
37.0441    152
37.0541    131
37.0641    136
37.0741    136
37.0841    139
37.0941    146
37.1041    128
37.1141    113
37.1241    143
37.1341    144
37.1441    126
37.1541    123
37.1641    125
37.1741    124
37.1841    150
37.1941    149
37.2041    141
37.2141    136
37.2241    124
37.2341    136
37.2441    132
37.2541    131
37.2641    130
37.2741    116
37.2841    131
37.2941    140
37.3041    123
37.3141    128
37.3241    129
37.3341    125
37.3441    119
37.3541    127
37.3641    128
37.3741    107
37.3841    140
37.3941    138
37.4041    125
37.4141    108
37.4241    113
37.4341    134
37.4441    132
37.4541    126
37.4641    144
37.4741    116
37.4841    116
37.4941    130
37.5041    117
37.5141    126
37.5241    113
37.5341    122
37.5441    100
37.5541    120
37.5641    111
37.5741    121
37.5841    120
37.5941    121
37.6041    111
37.6141    119
37.6241    127
37.6341    129
37.6441    110
37.6541    120
37.6641    113
37.6741    121
37.6841    122
37.6941    142
37.7041    116
37.7141    142
37.7241    118
37.7341    111
37.7441    113
37.7541    106
37.7641    114
37.7741    122
37.7841    122
37.7941    121
37.8041    112
37.8141    113
37.8241    110
37.8341    125
37.8441    123
37.8541    108
37.8641    115
37.8741    115
37.8841    106
37.8941    125
37.9041    131
37.9141    116
37.9241    119
37.9341    119
37.9441    101
37.9541    113
37.9641    139
37.9741     98
37.9841    100
37.9941    123
38.0041    100
38.0141    126
38.0241    113
38.0341    103
38.0441     98
38.0541    111
38.0641    104
38.0741     98
38.0841     96
38.0941    110
38.1041    110
38.1141    103
38.1241    117
38.1341     99
38.1441    109
38.1541    109
38.1641     99
38.1741    111
38.1841    112
38.1941    100
38.2041    107
38.2141    109
38.2241    101
38.2341     91
38.2441    102
38.2541     99
38.2641     89
38.2741     93
38.2841    101
38.2941    110
38.3041    109
38.3141     91
38.3241    108
38.3341     88
38.3441     96
38.3541    110
38.3641     97
38.3741     77
38.3841     93
38.3941     83
38.4041    100
38.4141    101
38.4241     93
38.4341     98
38.4441     90
38.4541     92
38.4641     89
38.4741    105
38.4841     95
38.4941     83
38.5041    103
38.5141     90
38.5241     93
38.5341     94
38.5441    101
38.5541     95
38.5641    118
38.5741     96
38.5841     74
38.5941    100
38.6041    104
38.6141     89
38.6241     85
38.6341     97
38.6441     93
38.6541     92
38.6641     94
38.6741     97
38.6841    102
38.6941     81
38.7041     79
38.7141     85
38.7241     85
38.7341     95
38.7441     95
38.7541     93
38.7641     74
38.7741     90
38.7841     92
38.7941     83
38.8041     87
38.8141     98
38.8241     84
38.8341    101
38.8441    103
38.8541     86
38.8641    100
38.8741     81
38.8841     96
38.8941     88
38.9041     87
38.9141     92
38.9241    102
38.9341     94
38.9441     66
38.9541     79
38.9641     92
38.9741    101
38.9841     79
38.9941     78
39.0041     75
39.0141     97
39.0241     70
39.0341     91
39.0441     88
39.0541     80
39.0641     69
39.0741     78
39.0841     97
39.0941     83
39.1041     79
39.1141     77
39.1241     92
39.1341     81
39.1441     74
39.1541     78
39.1641     71
39.1741     73
39.1841     72
39.1941     84
39.2041     83
39.2141     89
39.2241     80
39.2341     71
39.2441     75
39.2541     64
39.2641     90
39.2741     77
39.2841     67
39.2941     62
39.3041     75
39.3141     55
39.3241     68
39.3341     56
39.3441     73
39.3541     85
39.3641     85
39.3741     68
39.3841     62
39.3941     71
39.4041     70
39.4141     61
39.4241     79
39.4341     71
39.4441     76
39.4541     74
39.4641     76
39.4741     76
39.4841     72
39.4941     72
39.5041     71
39.5141     70
39.5241     56
39.5341     80
39.5441     66
39.5541     63
39.5641     77
39.5741     69
39.5841     54
39.5941     76
39.6041     67
39.6141     55
39.6241     67
39.6341     63
39.6441     48
39.6541     75
39.6641     59
39.6741     60
39.6841     73
39.6941     58
39.7041     58
39.7141     71
39.7241     58
39.7341     52
39.7441     70
39.7541     72
39.7641     70
39.7741     71
39.7841     54
39.7941     63
39.8041     65
39.8141     60
39.8241     78
39.8341     62
39.8441     53
39.8541     54
39.8641     60
39.8741     68
39.8841     53
39.8941     57
39.9041     63
39.9141     59
39.9241     53
39.9341     57
39.9441     60
39.9541     54
39.9641     50
39.9741     55
39.9841     58
39.9941     47
