Bruker Nano GmbH Berlin, Germany
Esprit 1.9

Date: 5/14/2021 1:37:06 PM
Real time: 16503
Life time: 15435
Pulse density: 96841


Detector type: XFlash 430
Window type: Custom type
Detector thickness: 0.45
Si dead layer:0.029

Calibration, lin.: 10
Calibration, abs.: -955.9
Mn FWHM: 137.05
Fano factor: 0.121
Channels: 4095

Energy Counts
-0.9559     0
-0.9459     0
-0.9359     0
-0.9259     0
-0.9159     0
-0.9059     0
-0.8959     0
-0.8859     0
-0.8759     0
-0.8659     0
-0.8559     0
-0.8459     0
-0.8359     0
-0.8259     0
-0.8159     0
-0.8059     0
-0.7959     0
-0.7859     0
-0.7759     0
-0.7659     0
-0.7559     0
-0.7459     0
-0.7359     0
-0.7259     0
-0.7159     0
-0.7059     0
-0.6959     0
-0.6859     0
-0.6759     0
-0.6659     0
-0.6559     0
-0.6459     0
-0.6359     0
-0.6259     0
-0.6159     0
-0.6059     0
-0.5959     0
-0.5859     0
-0.5759     0
-0.5659     0
-0.5559     0
-0.5459     0
-0.5359     0
-0.5259     0
-0.5159     0
-0.5059     0
-0.4959     0
-0.4859     0
-0.4759     0
-0.4659     0
-0.4559     0
-0.4459     0
-0.4359     0
-0.4259     0
-0.4159     0
-0.4059     0
-0.3959     0
-0.3859     0
-0.3759     0
-0.3659     0
-0.3559     0
-0.3459     0
-0.3359     0
-0.3259     0
-0.3159     0
-0.3059     0
-0.2959     0
-0.2859     0
-0.2759     0
-0.2659     0
-0.2559     0
-0.2459     0
-0.2359     0
-0.2259     0
-0.2159     0
-0.2059     0
-0.1959     0
-0.1859     0
-0.1759     0
-0.1659     0
-0.1559     0
-0.1459     0
-0.1359     0
-0.1259     0
-0.1159     2
-0.1059     8
-0.0959    40
-0.0859   168
-0.0759   590
-0.0659  1755
-0.0559  4548
-0.0459  9889
-0.0359 18400
-0.0259 29245
-0.0159 40227
-0.0059 47353
 0.0041 47368
 0.0141 41070
 0.0241 30497
 0.0341 19183
 0.0441 10277
 0.0541  4757
 0.0641  1863
 0.0741   691
 0.0841   210
 0.0941    62
 0.1041    20
 0.1141    10
 0.1241     4
 0.1341     2
 0.1441     7
 0.1541     8
 0.1641     0
 0.1741    14
 0.1841   138
 0.1941   272
 0.2041   229
 0.2141   200
 0.2241   248
 0.2341   261
 0.2441   236
 0.2541   242
 0.2641   232
 0.2741   248
 0.2841   262
 0.2941   227
 0.3041   238
 0.3141   254
 0.3241   231
 0.3341   218
 0.3441   218
 0.3541   224
 0.3641   234
 0.3741   209
 0.3841   220
 0.3941   231
 0.4041   209
 0.4141   208
 0.4241   213
 0.4341   196
 0.4441   214
 0.4541   216
 0.4641   216
 0.4741   205
 0.4841   193
 0.4941   215
 0.5041   210
 0.5141   221
 0.5241   238
 0.5341   231
 0.5441   203
 0.5541   204
 0.5641   195
 0.5741   204
 0.5841   187
 0.5941   175
 0.6041   185
 0.6141   191
 0.6241   198
 0.6341   193
 0.6441   179
 0.6541   172
 0.6641   178
 0.6741   188
 0.6841   192
 0.6941   193
 0.7041   176
 0.7141   185
 0.7241   191
 0.7341   179
 0.7441   180
 0.7541   200
 0.7641   188
 0.7741   177
 0.7841   169
 0.7941   159
 0.8041   155
 0.8141   176
 0.8241   175
 0.8341   179
 0.8441   165
 0.8541   168
 0.8641   173
 0.8741   166
 0.8841   173
 0.8941   175
 0.9041   168
 0.9141   174
 0.9241   173
 0.9341   173
 0.9441   150
 0.9541   151
 0.9641   161
 0.9741   151
 0.9841   166
 0.9941   162
 1.0041   155
 1.0141   163
 1.0241   148
 1.0341   166
 1.0441   146
 1.0541   144
 1.0641   142
 1.0741   152
 1.0841   155
 1.0941   149
 1.1041   148
 1.1141   153
 1.1241   162
 1.1341   157
 1.1441   161
 1.1541   133
 1.1641   127
 1.1741   136
 1.1841   132
 1.1941   130
 1.2041   153
 1.2141   151
 1.2241   139
 1.2341   148
 1.2441   152
 1.2541   141
 1.2641   133
 1.2741   149
 1.2841   145
 1.2941   151
 1.3041   146
 1.3141   158
 1.3241   156
 1.3341   146
 1.3441   139
 1.3541   146
 1.3641   145
 1.3741   130
 1.3841   159
 1.3941   162
 1.4041   141
 1.4141   133
 1.4241   149
 1.4341   138
 1.4441   133
 1.4541   137
 1.4641   134
 1.4741   143
 1.4841   153
 1.4941   151
 1.5041   120
 1.5141   140
 1.5241   146
 1.5341   152
 1.5441   146
 1.5541   142
 1.5641   141
 1.5741   144
 1.5841   131
 1.5941   119
 1.6041   127
 1.6141   157
 1.6241   149
 1.6341   141
 1.6441   148
 1.6541   175
 1.6641   191
 1.6741   264
 1.6841   292
 1.6941   363
 1.7041   427
 1.7141   525
 1.7241   592
 1.7341   654
 1.7441   602
 1.7541   541
 1.7641   546
 1.7741   478
 1.7841   348
 1.7941   297
 1.8041   269
 1.8141   218
 1.8241   205
 1.8341   203
 1.8441   181
 1.8541   172
 1.8641   150
 1.8741   148
 1.8841   142
 1.8941   134
 1.9041   134
 1.9141   151
 1.9241   137
 1.9341   130
 1.9441   146
 1.9541   136
 1.9641   150
 1.9741   161
 1.9841   172
 1.9941   182
 2.0041   179
 2.0141   167
 2.0241   185
 2.0341   175
 2.0441   148
 2.0541   140
 2.0641   137
 2.0741   157
 2.0841   139
 2.0941   149
 2.1041   120
 2.1141   144
 2.1241   118
 2.1341   114
 2.1441   128
 2.1541   133
 2.1641   116
 2.1741   112
 2.1841   121
 2.1941   111
 2.2041   120
 2.2141   125
 2.2241   116
 2.2341   137
 2.2441   118
 2.2541   117
 2.2641   121
 2.2741   114
 2.2841   146
 2.2941   127
 2.3041   112
 2.3141   118
 2.3241   110
 2.3341   111
 2.3441   104
 2.3541   109
 2.3641   102
 2.3741   107
 2.3841   109
 2.3941   121
 2.4041   108
 2.4141   122
 2.4241   114
 2.4341   135
 2.4441   108
 2.4541   117
 2.4641   107
 2.4741   108
 2.4841   106
 2.4941   115
 2.5041   129
 2.5141   114
 2.5241   113
 2.5341   112
 2.5441   107
 2.5541   114
 2.5641   105
 2.5741   112
 2.5841   125
 2.5941   112
 2.6041   110
 2.6141   105
 2.6241    99
 2.6341   106
 2.6441   121
 2.6541    99
 2.6641   102
 2.6741    98
 2.6841   103
 2.6941    94
 2.7041   105
 2.7141   111
 2.7241    99
 2.7341    92
 2.7441    88
 2.7541   109
 2.7641    90
 2.7741    98
 2.7841   100
 2.7941   122
 2.8041   102
 2.8141    98
 2.8241    95
 2.8341   107
 2.8441   105
 2.8541   107
 2.8641   105
 2.8741   110
 2.8841   100
 2.8941    84
 2.9041   112
 2.9141    85
 2.9241    81
 2.9341    93
 2.9441   107
 2.9541   120
 2.9641    93
 2.9741   116
 2.9841    85
 2.9941   105
 3.0041   101
 3.0141    81
 3.0241    95
 3.0341    91
 3.0441    79
 3.0541    92
 3.0641    92
 3.0741    73
 3.0841    79
 3.0941    85
 3.1041   107
 3.1141    82
 3.1241    97
 3.1341    89
 3.1441    89
 3.1541    80
 3.1641    90
 3.1741   101
 3.1841    64
 3.1941    87
 3.2041    94
 3.2141    93
 3.2241   112
 3.2341   121
 3.2441   130
 3.2541   164
 3.2641   179
 3.2741   195
 3.2841   207
 3.2941   230
 3.3041   225
 3.3141   236
 3.3241   226
 3.3341   224
 3.3441   198
 3.3541   198
 3.3641   154
 3.3741   145
 3.3841   121
 3.3941   124
 3.4041   118
 3.4141    73
 3.4241    71
 3.4341    91
 3.4441    87
 3.4541    66
 3.4641    90
 3.4741    88
 3.4841    86
 3.4941    91
 3.5041    87
 3.5141    96
 3.5241   100
 3.5341   106
 3.5441   116
 3.5541   142
 3.5641   157
 3.5741   171
 3.5841   219
 3.5941   290
 3.6041   333
 3.6141   407
 3.6241   538
 3.6341   713
 3.6441   829
 3.6541   927
 3.6641  1093
 3.6741  1108
 3.6841  1242
 3.6941  1220
 3.7041  1152
 3.7141  1086
 3.7241   966
 3.7341   814
 3.7441   649
 3.7541   530
 3.7641   420
 3.7741   320
 3.7841   231
 3.7941   177
 3.8041   148
 3.8141   138
 3.8241    86
 3.8341    90
 3.8441    78
 3.8541    79
 3.8641    79
 3.8741    75
 3.8841    66
 3.8941    91
 3.9041    88
 3.9141   102
 3.9241   122
 3.9341   148
 3.9441   155
 3.9541   170
 3.9641   197
 3.9741   194
 3.9841   220
 3.9941   253
 4.0041   267
 4.0141   242
 4.0241   254
 4.0341   252
 4.0441   237
 4.0541   185
 4.0641   183
 4.0741   169
 4.0841   145
 4.0941   123
 4.1041   102
 4.1141   105
 4.1241    80
 4.1341    59
 4.1441    66
 4.1541    67
 4.1641    61
 4.1741    62
 4.1841    64
 4.1941    53
 4.2041    56
 4.2141    67
 4.2241    71
 4.2341    60
 4.2441    56
 4.2541    60
 4.2641    64
 4.2741    59
 4.2841    55
 4.2941    60
 4.3041    43
 4.3141    60
 4.3241    70
 4.3341    57
 4.3441    55
 4.3541    78
 4.3641    76
 4.3741    78
 4.3841   104
 4.3941   114
 4.4041   131
 4.4141   178
 4.4241   228
 4.4341   236
 4.4441   291
 4.4541   325
 4.4641   438
 4.4741   439
 4.4841   460
 4.4941   458
 4.5041   478
 4.5141   463
 4.5241   433
 4.5341   454
 4.5441   395
 4.5541   328
 4.5641   298
 4.5741   231
 4.5841   227
 4.5941   166
 4.6041   148
 4.6141   115
 4.6241   121
 4.6341    93
 4.6441    93
 4.6541   111
 4.6641    81
 4.6741    84
 4.6841    90
 4.6941    75
 4.7041    74
 4.7141    79
 4.7241    65
 4.7341    81
 4.7441    71
 4.7541    64
 4.7641    89
 4.7741    78
 4.7841   103
 4.7941    86
 4.8041    90
 4.8141    99
 4.8241   116
 4.8341   117
 4.8441   118
 4.8541   133
 4.8641   108
 4.8741   129
 4.8841   142
 4.8941   176
 4.9041   156
 4.9141   176
 4.9241   169
 4.9341   148
 4.9441   147
 4.9541   163
 4.9641   154
 4.9741   132
 4.9841   127
 4.9941   136
 5.0041   106
 5.0141   121
 5.0241   103
 5.0341    93
 5.0441    74
 5.0541    89
 5.0641    83
 5.0741    94
 5.0841    74
 5.0941    70
 5.1041    74
 5.1141    77
 5.1241    79
 5.1341    87
 5.1441    79
 5.1541    80
 5.1641    65
 5.1741    82
 5.1841    79
 5.1941    65
 5.2041    83
 5.2141    87
 5.2241    75
 5.2341    72
 5.2441    73
 5.2541    73
 5.2641    83
 5.2741    64
 5.2841    77
 5.2941    81
 5.3041    69
 5.3141    69
 5.3241    84
 5.3341    82
 5.3441    84
 5.3541    93
 5.3641    97
 5.3741    91
 5.3841   111
 5.3941   109
 5.4041   102
 5.4141   115
 5.4241   112
 5.4341   112
 5.4441    89
 5.4541   116
 5.4641    92
 5.4741    88
 5.4841    92
 5.4941    95
 5.5041    87
 5.5141    76
 5.5241    86
 5.5341    91
 5.5441    81
 5.5541    75
 5.5641    96
 5.5741    72
 5.5841    63
 5.5941    74
 5.6041    90
 5.6141    67
 5.6241    79
 5.6341    71
 5.6441    85
 5.6541    89
 5.6641    69
 5.6741    68
 5.6841    77
 5.6941    65
 5.7041    86
 5.7141    70
 5.7241    96
 5.7341   104
 5.7441    97
 5.7541    90
 5.7641   137
 5.7741   133
 5.7841   128
 5.7941   138
 5.8041   171
 5.8141   191
 5.8241   235
 5.8341   232
 5.8441   262
 5.8541   308
 5.8641   319
 5.8741   332
 5.8841   337
 5.8941   325
 5.9041   331
 5.9141   345
 5.9241   320
 5.9341   311
 5.9441   297
 5.9541   234
 5.9641   224
 5.9741   182
 5.9841   171
 5.9941   171
 6.0041   135
 6.0141   126
 6.0241   127
 6.0341   117
 6.0441   115
 6.0541    91
 6.0641   100
 6.0741   127
 6.0841   128
 6.0941   117
 6.1041   122
 6.1141   128
 6.1241   140
 6.1341   137
 6.1441   145
 6.1541   130
 6.1641   183
 6.1741   195
 6.1841   226
 6.1941   289
 6.2041   325
 6.2141   429
 6.2241   612
 6.2341   781
 6.2441  1098
 6.2541  1481
 6.2641  2148
 6.2741  2941
 6.2841  3932
 6.2941  5162
 6.3041  6668
 6.3141  8381
 6.3241 10566
 6.3341 12453
 6.3441 14729
 6.3541 16928
 6.3641 18742
 6.3741 20073
 6.3841 21220
 6.3941 21531
 6.4041 21733
 6.4141 21424
 6.4241 20003
 6.4341 18426
 6.4441 16447
 6.4541 14165
 6.4641 12134
 6.4741  9891
 6.4841  7937
 6.4941  6179
 6.5041  4645
 6.5141  3621
 6.5241  2585
 6.5341  1738
 6.5441  1229
 6.5541   849
 6.5641   645
 6.5741   439
 6.5841   337
 6.5941   258
 6.6041   199
 6.6141   187
 6.6241   168
 6.6341   163
 6.6441   131
 6.6541   137
 6.6641   160
 6.6741   142
 6.6841   141
 6.6941   133
 6.7041   137
 6.7141   144
 6.7241   123
 6.7341   148
 6.7441   142
 6.7541   133
 6.7641   149
 6.7741   132
 6.7841   162
 6.7941   156
 6.8041   159
 6.8141   145
 6.8241   171
 6.8341   201
 6.8441   221
 6.8541   201
 6.8641   216
 6.8741   300
 6.8841   307
 6.8941   369
 6.9041   467
 6.9141   605
 6.9241   662
 6.9341   868
 6.9441  1028
 6.9541  1215
 6.9641  1541
 6.9741  1773
 6.9841  2084
 6.9941  2501
 7.0041  2780
 7.0141  3074
 7.0241  3331
 7.0341  3654
 7.0441  3648
 7.0541  3579
 7.0641  3626
 7.0741  3417
 7.0841  3287
 7.0941  2992
 7.1041  2707
 7.1141  2414
 7.1241  2013
 7.1341  1688
 7.1441  1475
 7.1541  1146
 7.1641   903
 7.1741   744
 7.1841   586
 7.1941   487
 7.2041   334
 7.2141   279
 7.2241   242
 7.2341   197
 7.2441   182
 7.2541   147
 7.2641   175
 7.2741   160
 7.2841   155
 7.2941   175
 7.3041   186
 7.3141   173
 7.3241   191
 7.3341   167
 7.3441   208
 7.3541   184
 7.3641   199
 7.3741   217
 7.3841   207
 7.3941   203
 7.4041   248
 7.4141   215
 7.4241   233
 7.4341   233
 7.4441   233
 7.4541   214
 7.4641   205
 7.4741   207
 7.4841   191
 7.4941   186
 7.5041   175
 7.5141   210
 7.5241   193
 7.5341   167
 7.5441   158
 7.5541   164
 7.5641   165
 7.5741   159
 7.5841   164
 7.5941   158
 7.6041   153
 7.6141   147
 7.6241   150
 7.6341   158
 7.6441   162
 7.6541   163
 7.6641   164
 7.6741   151
 7.6841   158
 7.6941   135
 7.7041   171
 7.7141   173
 7.7241   166
 7.7341   170
 7.7441   186
 7.7541   182
 7.7641   180
 7.7741   179
 7.7841   188
 7.7941   171
 7.8041   202
 7.8141   178
 7.8241   215
 7.8341   218
 7.8441   191
 7.8541   230
 7.8641   236
 7.8741   237
 7.8841   256
 7.8941   226
 7.9041   267
 7.9141   280
 7.9241   274
 7.9341   304
 7.9441   328
 7.9541   332
 7.9641   365
 7.9741   403
 7.9841   405
 7.9941   473
 8.0041   473
 8.0141   521
 8.0241   565
 8.0341   623
 8.0441   634
 8.0541   680
 8.0641   728
 8.0741   800
 8.0841   801
 8.0941   897
 8.1041   874
 8.1141   904
 8.1241  1001
 8.1341   980
 8.1441  1014
 8.1541   999
 8.1641   962
 8.1741  1050
 8.1841  1079
 8.1941  1056
 8.2041  1046
 8.2141  1044
 8.2241  1136
 8.2341  1137
 8.2441  1159
 8.2541  1192
 8.2641  1210
 8.2741  1311
 8.2841  1366
 8.2941  1524
 8.3041  1629
 8.3141  1735
 8.3241  1871
 8.3341  2024
 8.3441  2163
 8.3541  2291
 8.3641  2475
 8.3741  2485
 8.3841  2504
 8.3941  2541
 8.4041  2520
 8.4141  2335
 8.4241  2241
 8.4341  2131
 8.4441  1902
 8.4541  1694
 8.4641  1577
 8.4741  1356
 8.4841  1191
 8.4941  1066
 8.5041   903
 8.5141   773
 8.5241   752
 8.5341   746
 8.5441   725
 8.5541   668
 8.5641   683
 8.5741   769
 8.5841   720
 8.5941   777
 8.6041   784
 8.6141   795
 8.6241   828
 8.6341   815
 8.6441   834
 8.6541   787
 8.6641   769
 8.6741   696
 8.6841   622
 8.6941   649
 8.7041   536
 8.7141   494
 8.7241   495
 8.7341   468
 8.7441   389
 8.7541   347
 8.7641   306
 8.7741   322
 8.7841   275
 8.7941   303
 8.8041   262
 8.8141   241
 8.8241   282
 8.8341   269
 8.8441   251
 8.8541   213
 8.8641   226
 8.8741   248
 8.8841   243
 8.8941   253
 8.9041   229
 8.9141   235
 8.9241   244
 8.9341   248
 8.9441   280
 8.9541   264
 8.9641   245
 8.9741   259
 8.9841   304
 8.9941   285
 9.0041   272
 9.0141   293
 9.0241   281
 9.0341   325
 9.0441   304
 9.0541   304
 9.0641   331
 9.0741   340
 9.0841   343
 9.0941   324
 9.1041   351
 9.1141   376
 9.1241   405
 9.1341   424
 9.1441   449
 9.1541   440
 9.1641   472
 9.1741   492
 9.1841   482
 9.1941   537
 9.2041   578
 9.2141   588
 9.2241   657
 9.2341   703
 9.2441   666
 9.2541   732
 9.2641   744
 9.2741   737
 9.2841   773
 9.2941   817
 9.3041   824
 9.3141   898
 9.3241   907
 9.3341   905
 9.3441   951
 9.3541   959
 9.3641   960
 9.3741  1021
 9.3841  1043
 9.3941  1036
 9.4041   994
 9.4141  1068
 9.4241  1077
 9.4341  1116
 9.4441  1062
 9.4541  1108
 9.4641  1113
 9.4741  1178
 9.4841  1171
 9.4941  1196
 9.5041  1320
 9.5141  1302
 9.5241  1353
 9.5341  1331
 9.5441  1427
 9.5541  1490
 9.5641  1556
 9.5741  1691
 9.5841  1724
 9.5941  1838
 9.6041  1862
 9.6141  1982
 9.6241  2146
 9.6341  2125
 9.6441  2148
 9.6541  2280
 9.6641  2282
 9.6741  2248
 9.6841  2167
 9.6941  2090
 9.7041  1978
 9.7141  1906
 9.7241  1840
 9.7341  1811
 9.7441  1677
 9.7541  1529
 9.7641  1365
 9.7741  1293
 9.7841  1177
 9.7941  1116
 9.8041  1027
 9.8141   973
 9.8241   938
 9.8341   915
 9.8441   886
 9.8541   911
 9.8641   902
 9.8741   887
 9.8841   937
 9.8941   961
 9.9041   985
 9.9141   990
 9.9241   954
 9.9341   982
 9.9441   954
 9.9541   951
 9.9641   969
 9.9741   977
 9.9841   948
 9.9941   867
10.0041   803
10.0141   768
10.0241   679
10.0341   633
10.0441   578
10.0541   506
10.0641   465
10.0741   433
10.0841   388
10.0941   338
10.1041   291
10.1141   246
10.1241   239
10.1341   235
10.1441   218
10.1541   211
10.1641   190
10.1741   185
10.1841   184
10.1941   181
10.2041   159
10.2141   146
10.2241   145
10.2341   148
10.2441   163
10.2541   154
10.2641   148
10.2741   144
10.2841   131
10.2941   129
10.3041   130
10.3141   135
10.3241   136
10.3341   131
10.3441   136
10.3541   135
10.3641   139
10.3741   120
10.3841   124
10.3941   139
10.4041   145
10.4141   121
10.4241   147
10.4341   151
10.4441   128
10.4541   132
10.4641   152
10.4741   147
10.4841   156
10.4941   162
10.5041   168
10.5141   170
10.5241   174
10.5341   159
10.5441   147
10.5541   161
10.5641   162
10.5741   152
10.5841   167
10.5941   162
10.6041   159
10.6141   168
10.6241   166
10.6341   165
10.6441   179
10.6541   176
10.6641   166
10.6741   165
10.6841   164
10.6941   166
10.7041   170
10.7141   174
10.7241   169
10.7341   184
10.7441   180
10.7541   201
10.7641   188
10.7741   197
10.7841   215
10.7941   206
10.8041   176
10.8141   184
10.8241   221
10.8341   217
10.8441   221
10.8541   232
10.8641   207
10.8741   204
10.8841   227
10.8941   239
10.9041   224
10.9141   226
10.9241   228
10.9341   220
10.9441   238
10.9541   230
10.9641   212
10.9741   209
10.9841   232
10.9941   231
11.0041   222
11.0141   229
11.0241   224
11.0341   202
11.0441   206
11.0541   209
11.0641   214
11.0741   202
11.0841   199
11.0941   198
11.1041   196
11.1141   194
11.1241   195
11.1341   220
11.1441   226
11.1541   227
11.1641   244
11.1741   226
11.1841   237
11.1941   248
11.2041   247
11.2141   282
11.2241   287
11.2341   296
11.2441   306
11.2541   327
11.2641   324
11.2741   325
11.2841   317
11.2941   298
11.3041   318
11.3141   317
11.3241   308
11.3341   298
11.3441   290
11.3541   289
11.3641   262
11.3741   236
11.3841   231
11.3941   221
11.4041   233
11.4141   196
11.4241   188
11.4341   184
11.4441   176
11.4541   170
11.4641   177
11.4741   169
11.4841   173
11.4941   166
11.5041   168
11.5141   153
11.5241   157
11.5341   175
11.5441   167
11.5541   156
11.5641   171
11.5741   180
11.5841   188
11.5941   168
11.6041   163
11.6141   171
11.6241   189
11.6341   207
11.6441   178
11.6541   152
11.6641   154
11.6741   169
11.6841   160
11.6941   159
11.7041   168
11.7141   170
11.7241   152
11.7341   144
11.7441   138
11.7541   138
11.7641   126
11.7741   117
11.7841   124
11.7941   127
11.8041   125
11.8141   125
11.8241   125
11.8341   115
11.8441   117
11.8541   120
11.8641   117
11.8741   117
11.8841   109
11.8941   109
11.9041   103
11.9141   102
11.9241   114
11.9341   128
11.9441   139
11.9541   135
11.9641   129
11.9741   116
11.9841   118
11.9941   133
12.0041   131
12.0141   115
12.0241   127
12.0341   137
12.0441   126
12.0541   124
12.0641   124
12.0741   124
12.0841   141
12.0941   117
12.1041   106
12.1141   132
12.1241   134
12.1341   129
12.1441   116
12.1541   106
12.1641   118
12.1741   126
12.1841   114
12.1941   119
12.2041   121
12.2141   110
12.2241   110
12.2341   113
12.2441   122
12.2541   117
12.2641   116
12.2741   112
12.2841   114
12.2941   126
12.3041   128
12.3141   110
12.3241   104
12.3341   113
12.3441   120
12.3541   126
12.3641   130
12.3741   129
12.3841   125
12.3941   107
12.4041   124
12.4141   132
12.4241   126
12.4341   131
12.4441   128
12.4541   127
12.4641   128
12.4741   128
12.4841   136
12.4941   137
12.5041   131
12.5141   132
12.5241   135
12.5341   132
12.5441   135
12.5541   131
12.5641   141
12.5741   145
12.5841   140
12.5941   148
12.6041   161
12.6141   155
12.6241   155
12.6341   149
12.6441   147
12.6541   137
12.6641   129
12.6741   135
12.6841   134
12.6941   148
12.7041   151
12.7141   146
12.7241   151
12.7341   150
12.7441   144
12.7541   145
12.7641   147
12.7741   143
12.7841   137
12.7941   133
12.8041   131
12.8141   130
12.8241   132
12.8341   134
12.8441   135
12.8541   136
12.8641   136
12.8741   134
12.8841   133
12.8941   138
12.9041   145
12.9141   145
12.9241   139
12.9341   136
12.9441   138
12.9541   137
12.9641   135
12.9741   142
12.9841   144
12.9941   144
13.0041   138
13.0141   142
13.0241   142
13.0341   132
13.0441   132
13.0541   135
13.0641   133
13.0741   133
13.0841   138
13.0941   141
13.1041   153
13.1141   147
13.1241   150
13.1341   150
13.1441   154
13.1541   150
13.1641   147
13.1741   153
13.1841   149
13.1941   159
13.2041   164
13.2141   169
13.2241   168
13.2341   166
13.2441   160
13.2541   173
13.2641   192
13.2741   199
13.2841   203
13.2941   216
13.3041   220
13.3141   207
13.3241   226
13.3341   247
13.3441   241
13.3541   230
13.3641   240
13.3741   259
13.3841   248
13.3941   235
13.4041   253
13.4141   254
13.4241   237
13.4341   235
13.4441   240
13.4541   208
13.4641   196
13.4741   214
13.4841   202
13.4941   188
13.5041   180
13.5141   188
13.5241   206
13.5341   194
13.5441   169
13.5541   167
13.5641   172
13.5741   170
13.5841   178
13.5941   172
13.6041   155
13.6141   163
13.6241   175
13.6341   178
13.6441   170
13.6541   179
13.6641   175
13.6741   162
13.6841   167
13.6941   165
13.7041   158
13.7141   169
13.7241   187
13.7341   175
13.7441   152
13.7541   172
13.7641   176
13.7741   164
13.7841   173
13.7941   174
13.8041   174
13.8141   176
13.8241   182
13.8341   169
13.8441   156
13.8541   166
13.8641   185
13.8741   190
13.8841   195
13.8941   197
13.9041   196
13.9141   206
13.9241   207
13.9341   225
13.9441   244
13.9541   261
13.9641   275
13.9741   279
13.9841   308
13.9941   353
14.0041   393
14.0141   414
14.0241   438
14.0341   476
14.0441   535
14.0541   585
14.0641   575
14.0741   595
14.0841   655
14.0941   742
14.1041   791
14.1141   797
14.1241   811
14.1341   798
14.1441   791
14.1541   825
14.1641   840
14.1741   817
14.1841   805
14.1941   762
14.2041   723
14.2141   660
14.2241   615
14.2341   586
14.2441   542
14.2541   512
14.2641   454
14.2741   396
14.2841   362
14.2941   349
14.3041   333
14.3141   310
14.3241   284
14.3341   263
14.3441   234
14.3541   207
14.3641   203
14.3741   203
14.3841   217
14.3941   216
14.4041   195
14.4141   192
14.4241   189
14.4341   198
14.4441   196
14.4541   188
14.4641   201
14.4741   202
14.4841   194
14.4941   184
14.5041   182
14.5141   187
14.5241   183
14.5341   179
14.5441   180
14.5541   195
14.5641   200
14.5741   201
14.5841   197
14.5941   192
14.6041   197
14.6141   185
14.6241   185
14.6341   194
14.6441   199
14.6541   208
14.6641   217
14.6741   217
14.6841   204
14.6941   199
14.7041   217
14.7141   208
14.7241   211
14.7341   229
14.7441   224
14.7541   235
14.7641   231
14.7741   205
14.7841   214
14.7941   234
14.8041   224
14.8141   237
14.8241   241
14.8341   231
14.8441   218
14.8541   225
14.8641   242
14.8741   241
14.8841   233
14.8941   238
14.9041   247
14.9141   250
14.9241   257
14.9341   243
14.9441   232
14.9541   247
14.9641   224
14.9741   212
14.9841   220
14.9941   240
15.0041   266
15.0141   251
15.0241   228
15.0341   227
15.0441   230
15.0541   231
15.0641   233
15.0741   241
15.0841   224
15.0941   206
15.1041   221
15.1141   229
15.1241   223
15.1341   233
15.1441   260
15.1541   235
15.1641   227
15.1741   221
15.1841   202
15.1941   217
15.2041   219
15.2141   210
15.2241   207
15.2341   215
15.2441   221
15.2541   210
15.2641   212
15.2741   219
15.2841   238
15.2941   236
15.3041   228
15.3141   225
15.3241   227
15.3341   239
15.3441   236
15.3541   222
15.3641   242
15.3741   243
15.3841   230
15.3941   221
15.4041   206
15.4141   219
15.4241   233
15.4341   237
15.4441   244
15.4541   253
15.4641   256
15.4741   246
15.4841   248
15.4941   250
15.5041   248
15.5141   234
15.5241   221
15.5341   246
15.5441   269
15.5541   282
15.5641   290
15.5741   312
15.5841   330
15.5941   314
15.6041   318
15.6141   344
15.6241   374
15.6341   387
15.6441   413
15.6541   440
15.6641   447
15.6741   463
15.6841   478
15.6941   509
15.7041   553
15.7141   547
15.7241   561
15.7341   560
15.7441   572
15.7541   586
15.7641   576
15.7741   601
15.7841   587
15.7941   567
15.8041   573
15.8141   573
15.8241   545
15.8341   551
15.8441   515
15.8541   498
15.8641   470
15.8741   457
15.8841   441
15.8941   422
15.9041   429
15.9141   389
15.9241   382
15.9341   348
15.9441   346
15.9541   356
15.9641   347
15.9741   324
15.9841   321
15.9941   307
16.0041   269
16.0141   277
16.0241   286
16.0341   280
16.0441   292
16.0541   286
16.0641   271
16.0741   272
16.0841   280
16.0941   254
16.1041   264
16.1141   272
16.1241   285
16.1341   282
16.1441   270
16.1541   263
16.1641   278
16.1741   289
16.1841   276
16.1941   274
16.2041   279
16.2141   284
16.2241   265
16.2341   258
16.2441   257
16.2541   262
16.2641   272
16.2741   272
16.2841   292
16.2941   300
16.3041   271
16.3141   259
16.3241   272
16.3341   248
16.3441   264
16.3541   290
16.3641   296
16.3741   277
16.3841   259
16.3941   264
16.4041   266
16.4141   283
16.4241   292
16.4341   264
16.4441   264
16.4541   272
16.4641   280
16.4741   280
16.4841   271
16.4941   267
16.5041   297
16.5141   286
16.5241   296
16.5341   308
16.5441   301
16.5541   328
16.5641   312
16.5741   291
16.5841   313
16.5941   291
16.6041   274
16.6141   293
16.6241   300
16.6341   297
16.6441   298
16.6541   287
16.6641   289
16.6741   315
16.6841   310
16.6941   287
16.7041   298
16.7141   286
16.7241   305
16.7341   311
16.7441   309
16.7541   315
16.7641   295
16.7741   297
16.7841   312
16.7941   316
16.8041   291
16.8141   308
16.8241   322
16.8341   309
16.8441   303
16.8541   304
16.8641   300
16.8741   294
16.8841   299
16.8941   300
16.9041   287
16.9141   314
16.9241   316
16.9341   326
16.9441   303
16.9541   320
16.9641   318
16.9741   310
16.9841   285
16.9941   290
17.0041   299
17.0141   300
17.0241   316
17.0341   318
17.0441   302
17.0541   282
17.0641   278
17.0741   304
17.0841   301
17.0941   285
17.1041   293
17.1141   319
17.1241   314
17.1341   320
17.1441   291
17.1541   306
17.1641   313
17.1741   311
17.1841   287
17.1941   293
17.2041   324
17.2141   314
17.2241   314
17.2341   303
17.2441   329
17.2541   298
17.2641   308
17.2741   315
17.2841   319
17.2941   335
17.3041   336
17.3141   323
17.3241   329
17.3341   335
17.3441   314
17.3541   324
17.3641   317
17.3741   313
17.3841   322
17.3941   318
17.4041   308
17.4141   325
17.4241   343
17.4341   357
17.4441   351
17.4541   334
17.4641   324
17.4741   336
17.4841   357
17.4941   349
17.5041   339
17.5141   340
17.5241   372
17.5341   353
17.5441   360
17.5541   363
17.5641   370
17.5741   356
17.5841   356
17.5941   388
17.6041   373
17.6141   374
17.6241   347
17.6341   366
17.6441   392
17.6541   396
17.6641   377
17.6741   376
17.6841   350
17.6941   363
17.7041   385
17.7141   397
17.7241   359
17.7341   369
17.7441   358
17.7541   394
17.7641   378
17.7741   357
17.7841   370
17.7941   357
17.8041   356
17.8141   387
17.8241   361
17.8341   348
17.8441   337
17.8541   328
17.8641   344
17.8741   365
17.8841   364
17.8941   362
17.9041   376
17.9141   335
17.9241   341
17.9341   373
17.9441   354
17.9541   358
17.9641   352
17.9741   358
17.9841   360
17.9941   362
18.0041   390
18.0141   367
18.0241   370
18.0341   372
18.0441   376
18.0541   337
18.0641   340
18.0741   340
18.0841   359
18.0941   359
18.1041   359
18.1141   365
18.1241   363
18.1341   355
18.1441   338
18.1541   382
18.1641   357
18.1741   373
18.1841   377
18.1941   348
18.2041   348
18.2141   350
18.2241   342
18.2341   391
18.2441   368
18.2541   359
18.2641   365
18.2741   375
18.2841   358
18.2941   378
18.3041   369
18.3141   363
18.3241   351
18.3341   350
18.3441   375
18.3541   385
18.3641   380
18.3741   388
18.3841   398
18.3941   381
18.4041   382
18.4141   378
18.4241   349
18.4341   352
18.4441   365
18.4541   366
18.4641   370
18.4741   386
18.4841   393
18.4941   377
18.5041   387
18.5141   366
18.5241   362
18.5341   382
18.5441   378
18.5541   389
18.5641   388
18.5741   392
18.5841   391
18.5941   378
18.6041   394
18.6141   390
18.6241   377
18.6341   395
18.6441   398
18.6541   405
18.6641   378
18.6741   379
18.6841   406
18.6941   384
18.7041   396
18.7141   400
18.7241   385
18.7341   394
18.7441   410
18.7541   371
18.7641   393
18.7741   423
18.7841   402
18.7941   363
18.8041   358
18.8141   374
18.8241   365
18.8341   370
18.8441   369
18.8541   382
18.8641   409
18.8741   369
18.8841   380
18.8941   406
18.9041   410
18.9141   425
18.9241   383
18.9341   392
18.9441   421
18.9541   393
18.9641   365
18.9741   384
18.9841   390
18.9941   389
19.0041   381
19.0141   383
19.0241   387
19.0341   387
19.0441   389
19.0541   436
19.0641   416
19.0741   408
19.0841   396
19.0941   403
19.1041   413
19.1141   430
19.1241   391
19.1341   400
19.1441   424
19.1541   419
19.1641   414
19.1741   400
19.1841   395
19.1941   388
19.2041   416
19.2141   392
19.2241   369
19.2341   400
19.2441   392
19.2541   393
19.2641   399
19.2741   411
19.2841   425
19.2941   399
19.3041   389
19.3141   384
19.3241   384
19.3341   397
19.3441   374
19.3541   367
19.3641   389
19.3741   399
19.3841   413
19.3941   373
19.4041   409
19.4141   399
19.4241   433
19.4341   391
19.4441   402
19.4541   403
19.4641   388
19.4741   395
19.4841   396
19.4941   434
19.5041   423
19.5141   394
19.5241   414
19.5341   424
19.5441   408
19.5541   407
19.5641   423
19.5741   432
19.5841   416
19.5941   383
19.6041   386
19.6141   407
19.6241   379
19.6341   394
19.6441   390
19.6541   397
19.6641   414
19.6741   419
19.6841   422
19.6941   419
19.7041   405
19.7141   425
19.7241   398
19.7341   406
19.7441   412
19.7541   419
19.7641   444
19.7741   427
19.7841   414
19.7941   421
19.8041   430
19.8141   420
19.8241   387
19.8341   377
19.8441   402
19.8541   416
19.8641   412
19.8741   431
19.8841   438
19.8941   387
19.9041   435
19.9141   437
19.9241   410
19.9341   449
19.9441   408
19.9541   439
19.9641   433
19.9741   420
19.9841   452
19.9941   422
20.0041   437
20.0141   412
20.0241   424
20.0341   440
20.0441   429
20.0541   462
20.0641   436
20.0741   457
20.0841   443
20.0941   425
20.1041   400
20.1141   423
20.1241   421
20.1341   460
20.1441   410
20.1541   415
20.1641   451
20.1741   442
20.1841   417
20.1941   433
20.2041   421
20.2141   433
20.2241   426
20.2341   429
20.2441   455
20.2541   443
20.2641   422
20.2741   399
20.2841   423
20.2941   418
20.3041   437
20.3141   413
20.3241   460
20.3341   424
20.3441   436
20.3541   459
20.3641   425
20.3741   431
20.3841   431
20.3941   435
20.4041   449
20.4141   481
20.4241   468
20.4341   420
20.4441   426
20.4541   467
20.4641   424
20.4741   418
20.4841   426
20.4941   431
20.5041   426
20.5141   447
20.5241   433
20.5341   424
20.5441   450
20.5541   441
20.5641   455
20.5741   429
20.5841   402
20.5941   452
20.6041   445
20.6141   447
20.6241   437
20.6341   433
20.6441   406
20.6541   430
20.6641   430
20.6741   436
20.6841   450
20.6941   439
20.7041   452
20.7141   441
20.7241   405
20.7341   401
20.7441   431
20.7541   419
20.7641   444
20.7741   471
20.7841   446
20.7941   448
20.8041   453
20.8141   440
20.8241   442
20.8341   468
20.8441   496
20.8541   469
20.8641   492
20.8741   502
20.8841   498
20.8941   489
20.9041   501
20.9141   502
20.9241   508
20.9341   571
20.9441   580
20.9541   546
20.9641   547
20.9741   583
20.9841   585
20.9941   607
21.0041   597
21.0141   573
21.0241   664
21.0341   656
21.0441   624
21.0541   696
21.0641   652
21.0741   652
21.0841   598
21.0941   692
21.1041   690
21.1141   657
21.1241   682
21.1341   643
21.1441   686
21.1541   703
21.1641   684
21.1741   644
21.1841   648
21.1941   649
21.2041   626
21.2141   611
21.2241   595
21.2341   620
21.2441   579
21.2541   616
21.2641   562
21.2741   586
21.2841   556
21.2941   536
21.3041   516
21.3141   521
21.3241   511
21.3341   520
21.3441   502
21.3541   500
21.3641   502
21.3741   481
21.3841   478
21.3941   455
21.4041   422
21.4141   479
21.4241   416
21.4341   447
21.4441   467
21.4541   449
21.4641   465
21.4741   424
21.4841   452
21.4941   448
21.5041   444
21.5141   453
21.5241   466
21.5341   468
21.5441   453
21.5541   449
21.5641   444
21.5741   446
21.5841   478
21.5941   414
21.6041   429
21.6141   473
21.6241   478
21.6341   448
21.6441   476
21.6541   436
21.6641   463
21.6741   452
21.6841   470
21.6941   413
21.7041   378
21.7141   441
21.7241   422
21.7341   396
21.7441   418
21.7541   428
21.7641   468
21.7741   453
21.7841   474
21.7941   459
21.8041   422
21.8141   449
21.8241   451
21.8341   437
21.8441   427
21.8541   467
21.8641   449
21.8741   452
21.8841   462
21.8941   440
21.9041   456
21.9141   457
21.9241   442
21.9341   430
21.9441   421
21.9541   432
21.9641   440
21.9741   465
21.9841   446
21.9941   460
22.0041   450
22.0141   441
22.0241   413
22.0341   426
22.0441   390
22.0541   453
22.0641   449
22.0741   466
22.0841   436
22.0941   441
22.1041   455
22.1141   412
22.1241   458
22.1341   426
22.1441   443
22.1541   423
22.1641   445
22.1741   438
22.1841   420
22.1941   467
22.2041   445
22.2141   451
22.2241   439
22.2341   462
22.2441   432
22.2541   455
22.2641   459
22.2741   477
22.2841   417
22.2941   429
22.3041   449
22.3141   455
22.3241   430
22.3341   429
22.3441   433
22.3541   447
22.3641   469
22.3741   448
22.3841   439
22.3941   455
22.4041   424
22.4141   427
22.4241   416
22.4341   449
22.4441   417
22.4541   450
22.4641   432
22.4741   424
22.4841   434
22.4941   452
22.5041   452
22.5141   409
22.5241   443
22.5341   414
22.5441   430
22.5541   461
22.5641   443
22.5741   448
22.5841   450
22.5941   452
22.6041   460
22.6141   439
22.6241   422
22.6341   468
22.6441   424
22.6541   445
22.6641   426
22.6741   441
22.6841   437
22.6941   427
22.7041   455
22.7141   431
22.7241   436
22.7341   481
22.7441   433
22.7541   430
22.7641   441
22.7741   449
22.7841   417
22.7941   427
22.8041   437
22.8141   428
22.8241   426
22.8341   397
22.8441   449
22.8541   411
22.8641   428
22.8741   420
22.8841   416
22.8941   442
22.9041   395
22.9141   424
22.9241   425
22.9341   458
22.9441   430
22.9541   428
22.9641   441
22.9741   440
22.9841   407
22.9941   458
23.0041   410
23.0141   439
23.0241   466
23.0341   429
23.0441   448
23.0541   432
23.0641   401
23.0741   408
23.0841   418
23.0941   410
23.1041   452
23.1141   422
23.1241   459
23.1341   456
23.1441   405
23.1541   434
23.1641   434
23.1741   449
23.1841   441
23.1941   465
23.2041   417
23.2141   476
23.2241   430
23.2341   433
23.2441   419
23.2541   436
23.2641   450
23.2741   418
23.2841   396
23.2941   438
23.3041   364
23.3141   446
23.3241   425
23.3341   429
23.3441   446
23.3541   429
23.3641   426
23.3741   455
23.3841   413
23.3941   438
23.4041   409
23.4141   418
23.4241   440
23.4341   416
23.4441   447
23.4541   439
23.4641   447
23.4741   381
23.4841   430
23.4941   459
23.5041   430
23.5141   380
23.5241   428
23.5341   424
23.5441   436
23.5541   432
23.5641   433
23.5741   445
23.5841   465
23.5941   454
23.6041   444
23.6141   430
23.6241   466
23.6341   449
23.6441   477
23.6541   471
23.6641   434
23.6741   430
23.6841   462
23.6941   500
23.7041   467
23.7141   432
23.7241   409
23.7341   411
23.7441   458
23.7541   451
23.7641   438
23.7741   448
23.7841   505
23.7941   459
23.8041   498
23.8141   499
23.8241   499
23.8341   467
23.8441   468
23.8541   447
23.8641   480
23.8741   492
23.8841   515
23.8941   436
23.9041   468
23.9141   471
23.9241   455
23.9341   436
23.9441   448
23.9541   444
23.9641   440
23.9741   450
23.9841   434
23.9941   454
24.0041   438
24.0141   411
24.0241   454
24.0341   415
24.0441   409
24.0541   428
24.0641   432
24.0741   405
24.0841   399
24.0941   425
24.1041   410
24.1141   418
24.1241   416
24.1341   419
24.1441   446
24.1541   427
24.1641   375
24.1741   407
24.1841   426
24.1941   374
24.2041   404
24.2141   478
24.2241   432
24.2341   448
24.2441   441
24.2541   405
24.2641   426
24.2741   405
24.2841   423
24.2941   437
24.3041   441
24.3141   401
24.3241   412
24.3341   432
24.3441   424
24.3541   421
24.3641   392
24.3741   422
24.3841   399
24.3941   416
24.4041   425
24.4141   426
24.4241   409
24.4341   442
24.4441   389
24.4541   396
24.4641   417
24.4741   410
24.4841   428
24.4941   416
24.5041   399
24.5141   382
24.5241   407
24.5341   437
24.5441   395
24.5541   403
24.5641   387
24.5741   376
24.5841   372
24.5941   397
24.6041   383
24.6141   414
24.6241   406
24.6341   400
24.6441   427
24.6541   401
24.6641   404
24.6741   401
24.6841   403
24.6941   382
24.7041   392
24.7141   402
24.7241   401
24.7341   401
24.7441   398
24.7541   409
24.7641   389
24.7741   421
24.7841   436
24.7941   383
24.8041   396
24.8141   414
24.8241   388
24.8341   391
24.8441   410
24.8541   396
24.8641   429
24.8741   389
24.8841   383
24.8941   381
24.9041   407
24.9141   394
24.9241   388
24.9341   375
24.9441   406
24.9541   377
24.9641   412
24.9741   403
24.9841   419
24.9941   422
25.0041   420
25.0141   379
25.0241   383
25.0341   365
25.0441   379
25.0541   393
25.0641   424
25.0741   406
25.0841   411
25.0941   401
25.1041   427
25.1141   391
25.1241   423
25.1341   414
25.1441   411
25.1541   393
25.1641   386
25.1741   400
25.1841   386
25.1941   410
25.2041   417
25.2141   390
25.2241   410
25.2341   419
25.2441   385
25.2541   383
25.2641   385
25.2741   389
25.2841   406
25.2941   404
25.3041   409
25.3141   396
25.3241   390
25.3341   397
25.3441   411
25.3541   435
25.3641   391
25.3741   395
25.3841   397
25.3941   379
25.4041   421
25.4141   368
25.4241   376
25.4341   372
25.4441   410
25.4541   378
25.4641   360
25.4741   391
25.4841   372
25.4941   405
25.5041   375
25.5141   387
25.5241   397
25.5341   365
25.5441   378
25.5541   383
25.5641   367
25.5741   409
25.5841   377
25.5941   403
25.6041   381
25.6141   397
25.6241   369
25.6341   382
25.6441   366
25.6541   391
25.6641   371
25.6741   371
25.6841   406
25.6941   372
25.7041   391
25.7141   377
25.7241   355
25.7341   379
25.7441   368
25.7541   377
25.7641   395
25.7741   400
25.7841   407
25.7941   341
25.8041   356
25.8141   338
25.8241   358
25.8341   377
25.8441   365
25.8541   358
25.8641   362
25.8741   356
25.8841   364
25.8941   326
25.9041   357
25.9141   370
25.9241   346
25.9341   378
25.9441   382
25.9541   371
25.9641   355
25.9741   389
25.9841   363
25.9941   364
26.0041   351
26.0141   395
26.0241   379
26.0341   336
26.0441   350
26.0541   356
26.0641   371
26.0741   387
26.0841   392
26.0941   359
26.1041   363
26.1141   392
26.1241   359
26.1341   353
26.1441   348
26.1541   385
26.1641   354
26.1741   339
26.1841   354
26.1941   348
26.2041   351
26.2141   364
26.2241   364
26.2341   335
26.2441   381
26.2541   381
26.2641   371
26.2741   335
26.2841   359
26.2941   345
26.3041   330
26.3141   383
26.3241   353
26.3341   356
26.3441   380
26.3541   352
26.3641   360
26.3741   368
26.3841   384
26.3941   341
26.4041   374
26.4141   346
26.4241   313
26.4341   372
26.4441   354
26.4541   338
26.4641   338
26.4741   357
26.4841   351
26.4941   343
26.5041   324
26.5141   377
26.5241   350
26.5341   353
26.5441   333
26.5541   339
26.5641   353
26.5741   340
26.5841   333
26.5941   363
26.6041   343
26.6141   311
26.6241   319
26.6341   355
26.6441   320
26.6541   334
26.6641   345
26.6741   311
26.6841   339
26.6941   330
26.7041   325
26.7141   339
26.7241   349
26.7341   359
26.7441   359
26.7541   372
26.7641   340
26.7741   324
26.7841   311
26.7941   336
26.8041   335
26.8141   350
26.8241   309
26.8341   323
26.8441   324
26.8541   345
26.8641   308
26.8741   315
26.8841   357
26.8941   314
26.9041   331
26.9141   352
26.9241   300
26.9341   313
26.9441   341
26.9541   368
26.9641   328
26.9741   328
26.9841   345
26.9941   342
27.0041   325
27.0141   319
27.0241   335
27.0341   344
27.0441   341
27.0541   317
27.0641   317
27.0741   317
27.0841   335
27.0941   342
27.1041   345
27.1141   329
27.1241   302
27.1341   327
27.1441   347
27.1541   368
27.1641   312
27.1741   343
27.1841   328
27.1941   332
27.2041   321
27.2141   343
27.2241   284
27.2341   339
27.2441   328
27.2541   347
27.2641   352
27.2741   305
27.2841   329
27.2941   327
27.3041   342
27.3141   356
27.3241   290
27.3341   294
27.3441   312
27.3541   317
27.3641   326
27.3741   314
27.3841   299
27.3941   343
27.4041   328
27.4141   308
27.4241   315
27.4341   342
27.4441   300
27.4541   311
27.4641   313
27.4741   336
27.4841   336
27.4941   316
27.5041   326
27.5141   331
27.5241   318
27.5341   315
27.5441   318
27.5541   292
27.5641   306
27.5741   303
27.5841   322
27.5941   288
27.6041   296
27.6141   300
27.6241   315
27.6341   305
27.6441   358
27.6541   329
27.6641   308
27.6741   295
27.6841   300
27.6941   301
27.7041   314
27.7141   322
27.7241   327
27.7341   325
27.7441   292
27.7541   321
27.7641   312
27.7741   312
27.7841   290
27.7941   295
27.8041   334
27.8141   279
27.8241   314
27.8341   321
27.8441   313
27.8541   313
27.8641   301
27.8741   308
27.8841   302
27.8941   282
27.9041   293
27.9141   322
27.9241   311
27.9341   277
27.9441   309
27.9541   272
27.9641   307
27.9741   271
27.9841   288
27.9941   300
28.0041   308
28.0141   331
28.0241   314
28.0341   283
28.0441   279
28.0541   297
28.0641   282
28.0741   258
28.0841   291
28.0941   309
28.1041   307
28.1141   280
28.1241   300
28.1341   304
28.1441   309
28.1541   284
28.1641   284
28.1741   294
28.1841   293
28.1941   313
28.2041   283
28.2141   286
28.2241   287
28.2341   272
28.2441   288
28.2541   282
28.2641   260
28.2741   270
28.2841   273
28.2941   303
28.3041   286
28.3141   267
28.3241   304
28.3341   302
28.3441   274
28.3541   280
28.3641   266
28.3741   298
28.3841   289
28.3941   285
28.4041   273
28.4141   277
28.4241   280
28.4341   302
28.4441   289
28.4541   290
28.4641   280
28.4741   270
28.4841   286
28.4941   291
28.5041   263
28.5141   276
28.5241   283
28.5341   299
28.5441   287
28.5541   282
28.5641   261
28.5741   264
28.5841   273
28.5941   274
28.6041   269
28.6141   245
28.6241   286
28.6341   273
28.6441   280
28.6541   263
28.6641   274
28.6741   273
28.6841   256
28.6941   304
28.7041   282
28.7141   279
28.7241   263
28.7341   288
28.7441   267
28.7541   269
28.7641   282
28.7741   267
28.7841   252
28.7941   255
28.8041   307
28.8141   275
28.8241   267
28.8341   224
28.8441   257
28.8541   236
28.8641   248
28.8741   258
28.8841   253
28.8941   267
28.9041   287
28.9141   269
28.9241   251
28.9341   259
28.9441   281
28.9541   269
28.9641   280
28.9741   278
28.9841   244
28.9941   248
29.0041   299
29.0141   254
29.0241   238
29.0341   234
29.0441   252
29.0541   281
29.0641   244
29.0741   280
29.0841   259
29.0941   247
29.1041   232
29.1141   251
29.1241   278
29.1341   237
29.1441   280
29.1541   254
29.1641   229
29.1741   235
29.1841   243
29.1941   266
29.2041   256
29.2141   264
29.2241   259
29.2341   247
29.2441   263
29.2541   265
29.2641   241
29.2741   263
29.2841   243
29.2941   222
29.3041   225
29.3141   269
29.3241   236
29.3341   240
29.3441   248
29.3541   270
29.3641   270
29.3741   233
29.3841   254
29.3941   269
29.4041   252
29.4141   227
29.4241   249
29.4341   256
29.4441   267
29.4541   268
29.4641   265
29.4741   250
29.4841   241
29.4941   247
29.5041   252
29.5141   250
29.5241   229
29.5341   248
29.5441   255
29.5541   257
29.5641   242
29.5741   259
29.5841   226
29.5941   242
29.6041   258
29.6141   253
29.6241   245
29.6341   231
29.6441   237
29.6541   236
29.6641   224
29.6741   250
29.6841   244
29.6941   237
29.7041   216
29.7141   217
29.7241   206
29.7341   242
29.7441   225
29.7541   233
29.7641   255
29.7741   255
29.7841   229
29.7941   244
29.8041   239
29.8141   222
29.8241   216
29.8341   219
29.8441   249
29.8541   239
29.8641   235
29.8741   220
29.8841   226
29.8941   213
29.9041   230
29.9141   241
29.9241   215
29.9341   230
29.9441   241
29.9541   205
29.9641   233
29.9741   209
29.9841   239
29.9941   235
30.0041   230
30.0141   223
30.0241   237
30.0341   253
30.0441   254
30.0541   259
30.0641   244
30.0741   228
30.0841   220
30.0941   201
30.1041   205
30.1141   237
30.1241   209
30.1341   213
30.1441   233
30.1541   214
30.1641   216
30.1741   217
30.1841   229
30.1941   208
30.2041   215
30.2141   218
30.2241   209
30.2341   222
30.2441   228
30.2541   214
30.2641   213
30.2741   205
30.2841   211
30.2941   212
30.3041   209
30.3141   225
30.3241   222
30.3341   220
30.3441   199
30.3541   217
30.3641   238
30.3741   229
30.3841   234
30.3941   208
30.4041   209
30.4141   220
30.4241   206
30.4341   225
30.4441   230
30.4541   195
30.4641   239
30.4741   206
30.4841   225
30.4941   198
30.5041   203
30.5141   224
30.5241   199
30.5341   208
30.5441   200
30.5541   213
30.5641   226
30.5741   219
30.5841   225
30.5941   237
30.6041   196
30.6141   213
30.6241   217
30.6341   191
30.6441   199
30.6541   230
30.6641   206
30.6741   202
30.6841   208
30.6941   213
30.7041   186
30.7141   228
30.7241   205
30.7341   211
30.7441   212
30.7541   203
30.7641   212
30.7741   188
30.7841   206
30.7941   184
30.8041   222
30.8141   196
30.8241   188
30.8341   215
30.8441   220
30.8541   206
30.8641   197
30.8741   192
30.8841   201
30.8941   192
30.9041   197
30.9141   180
30.9241   194
30.9341   217
30.9441   204
30.9541   186
30.9641   189
30.9741   210
30.9841   219
30.9941   184
31.0041   206
31.0141   187
31.0241   202
31.0341   200
31.0441   190
31.0541   186
31.0641   175
31.0741   200
31.0841   190
31.0941   189
31.1041   186
31.1141   167
31.1241   209
31.1341   192
31.1441   161
31.1541   191
31.1641   187
31.1741   208
31.1841   173
31.1941   181
31.2041   200
31.2141   177
31.2241   211
31.2341   179
31.2441   179
31.2541   214
31.2641   181
31.2741   214
31.2841   197
31.2941   175
31.3041   188
31.3141   192
31.3241   167
31.3341   178
31.3441   189
31.3541   205
31.3641   192
31.3741   192
31.3841   165
31.3941   177
31.4041   158
31.4141   184
31.4241   192
31.4341   183
31.4441   191
31.4541   185
31.4641   182
31.4741   176
31.4841   182
31.4941   184
31.5041   183
31.5141   196
31.5241   183
31.5341   188
31.5441   194
31.5541   208
31.5641   208
31.5741   189
31.5841   180
31.5941   183
31.6041   177
31.6141   186
31.6241   183
31.6341   199
31.6441   174
31.6541   191
31.6641   197
31.6741   167
31.6841   191
31.6941   179
31.7041   179
31.7141   189
31.7241   179
31.7341   193
31.7441   190
31.7541   200
31.7641   174
31.7741   197
31.7841   187
31.7941   168
31.8041   174
31.8141   177
31.8241   174
31.8341   197
31.8441   182
31.8541   189
31.8641   174
31.8741   193
31.8841   178
31.8941   195
31.9041   172
31.9141   178
31.9241   174
31.9341   159
31.9441   163
31.9541   179
31.9641   170
31.9741   164
31.9841   168
31.9941   178
32.0041   182
32.0141   176
32.0241   154
32.0341   193
32.0441   178
32.0541   177
32.0641   197
32.0741   184
32.0841   179
32.0941   193
32.1041   182
32.1141   195
32.1241   191
32.1341   199
32.1441   197
32.1541   201
32.1641   167
32.1741   175
32.1841   187
32.1941   182
32.2041   179
32.2141   190
32.2241   162
32.2341   184
32.2441   162
32.2541   181
32.2641   170
32.2741   172
32.2841   165
32.2941   168
32.3041   172
32.3141   167
32.3241   195
32.3341   180
32.3441   170
32.3541   163
32.3641   160
32.3741   147
32.3841   183
32.3941   196
32.4041   168
32.4141   166
32.4241   157
32.4341   152
32.4441   164
32.4541   178
32.4641   172
32.4741   164
32.4841   154
32.4941   154
32.5041   129
32.5141   151
32.5241   170
32.5341   170
32.5441   159
32.5541   143
32.5641   153
32.5741   160
32.5841   152
32.5941   146
32.6041   154
32.6141   166
32.6241   187
32.6341   148
32.6441   135
32.6541   154
32.6641   156
32.6741   165
32.6841   135
32.6941   164
32.7041   151
32.7141   154
32.7241   122
32.7341   130
32.7441   153
32.7541   162
32.7641   162
32.7741   173
32.7841   154
32.7941   154
32.8041   156
32.8141   141
32.8241   163
32.8341   145
32.8441   155
32.8541   184
32.8641   155
32.8741   138
32.8841   149
32.8941   164
32.9041   149
32.9141   156
32.9241   141
32.9341   162
32.9441   140
32.9541   144
32.9641   148
32.9741   147
32.9841   159
32.9941   137
33.0041   139
33.0141   123
33.0241   142
33.0341   118
33.0441   172
33.0541   123
33.0641   138
33.0741   134
33.0841   158
33.0941   134
33.1041   136
33.1141   150
33.1241   129
33.1341   121
33.1441   140
33.1541   141
33.1641   154
33.1741   149
33.1841   120
33.1941   136
33.2041   141
33.2141   142
33.2241   156
33.2341   143
33.2441   136
33.2541   149
33.2641   126
33.2741   125
33.2841   135
33.2941   142
33.3041   141
33.3141   133
33.3241   127
33.3341   121
33.3441   137
33.3541   130
33.3641   123
33.3741   134
33.3841   129
33.3941   142
33.4041   133
33.4141   133
33.4241   143
33.4341   130
33.4441   132
33.4541   150
33.4641   155
33.4741   136
33.4841   116
33.4941   108
33.5041   131
33.5141   133
33.5241   137
33.5341   130
33.5441   133
33.5541   120
33.5641   122
33.5741   127
33.5841   123
33.5941   143
33.6041   130
33.6141   122
33.6241   123
33.6341   110
33.6441   137
33.6541   136
33.6641   134
33.6741   133
33.6841   145
33.6941   123
33.7041   121
33.7141   125
33.7241   133
33.7341   137
33.7441   127
33.7541   140
33.7641   128
33.7741   113
33.7841   131
33.7941   125
33.8041   127
33.8141   115
33.8241   120
33.8341   134
33.8441   117
33.8541   138
33.8641   123
33.8741   109
33.8841   107
33.8941   141
33.9041   140
33.9141   118
33.9241   123
33.9341   123
33.9441   147
33.9541   124
33.9641   102
33.9741   103
33.9841   126
33.9941   131
34.0041   111
34.0141   112
34.0241   118
34.0341   133
34.0441   117
34.0541   109
34.0641   108
34.0741   116
34.0841   118
34.0941   125
34.1041   133
34.1141   118
34.1241   112
34.1341    96
34.1441   123
34.1541   116
34.1641   109
34.1741   112
34.1841   128
34.1941   108
34.2041   103
34.2141   109
34.2241   116
34.2341   129
34.2441   104
34.2541   106
34.2641   102
34.2741   109
34.2841   114
34.2941   115
34.3041   120
34.3141   100
34.3241   114
34.3341    95
34.3441   128
34.3541   112
34.3641   107
34.3741   116
34.3841   105
34.3941   116
34.4041   114
34.4141   119
34.4241   104
34.4341   102
34.4441    98
34.4541   110
34.4641   102
34.4741   120
34.4841   109
34.4941   110
34.5041    98
34.5141   101
34.5241   108
34.5341    98
34.5441    95
34.5541   102
34.5641   118
34.5741    97
34.5841   101
34.5941   102
34.6041   101
34.6141   100
34.6241   104
34.6341   124
34.6441   104
34.6541   111
34.6641    96
34.6741    97
34.6841   106
34.6941   119
34.7041   112
34.7141   106
34.7241    91
34.7341    92
34.7441   100
34.7541   108
34.7641   100
34.7741   102
34.7841   112
34.7941   112
34.8041    96
34.8141   102
34.8241    98
34.8341   108
34.8441   114
34.8541   122
34.8641   101
34.8741    95
34.8841   103
34.8941   103
34.9041   114
34.9141    94
34.9241    98
34.9341   118
34.9441    93
34.9541    90
34.9641   101
34.9741    99
34.9841    89
34.9941    97
35.0041   102
35.0141    90
35.0241    88
35.0341   113
35.0441   102
35.0541    98
35.0641   104
35.0741   104
35.0841   105
35.0941    98
35.1041    91
35.1141   115
35.1241    88
35.1341    94
35.1441    82
35.1541    87
35.1641    96
35.1741    98
35.1841    87
35.1941    96
35.2041    93
35.2141    88
35.2241    99
35.2341    87
35.2441    89
35.2541    91
35.2641    93
35.2741    96
35.2841    94
35.2941    95
35.3041   104
35.3141   107
35.3241    91
35.3341    84
35.3441    84
35.3541   100
35.3641    95
35.3741    96
35.3841    82
35.3941    87
35.4041    81
35.4141    98
35.4241    70
35.4341    73
35.4441    89
35.4541    85
35.4641    90
35.4741    80
35.4841    81
35.4941    89
35.5041    95
35.5141    91
35.5241    84
35.5341   101
35.5441    98
35.5541    91
35.5641    95
35.5741    92
35.5841    91
35.5941    78
35.6041    86
35.6141    84
35.6241   101
35.6341    85
35.6441    89
35.6541    93
35.6641    92
35.6741    68
35.6841    78
35.6941    82
35.7041    66
35.7141    74
35.7241    78
35.7341    72
35.7441    68
35.7541    91
35.7641    99
35.7741    84
35.7841    84
35.7941    80
35.8041    82
35.8141    89
35.8241    81
35.8341    92
35.8441    73
35.8541    80
35.8641    78
35.8741    74
35.8841    83
35.8941    81
35.9041    75
35.9141    75
35.9241    71
35.9341    77
35.9441    85
35.9541    74
35.9641    85
35.9741    79
35.9841    76
35.9941    66
36.0041    86
36.0141    73
36.0241    75
36.0341    78
36.0441    82
36.0541    88
36.0641    79
36.0741    83
36.0841    78
36.0941    84
36.1041    78
36.1141    75
36.1241    78
36.1341    69
36.1441    84
36.1541    65
36.1641    83
36.1741    79
36.1841    66
36.1941    67
36.2041    76
36.2141    79
36.2241    70
36.2341    78
36.2441    95
36.2541    80
36.2641    79
36.2741    83
36.2841    81
36.2941    82
36.3041    74
36.3141    69
36.3241    83
36.3341    77
36.3441    57
36.3541    77
36.3641    76
36.3741    82
36.3841    84
36.3941    78
36.4041    87
36.4141    79
36.4241    67
36.4341    84
36.4441    87
36.4541    56
36.4641    62
36.4741    70
36.4841    85
36.4941    77
36.5041    77
36.5141    78
36.5241    90
36.5341    89
36.5441    94
36.5541    78
36.5641    79
36.5741    73
36.5841    72
36.5941    60
36.6041    58
36.6141    68
36.6241    68
36.6341    68
36.6441    69
36.6541    64
36.6641    67
36.6741    82
36.6841    61
36.6941    60
36.7041    67
36.7141    71
36.7241    70
36.7341    71
36.7441    61
36.7541    60
36.7641    70
36.7741    72
36.7841    65
36.7941    69
36.8041    68
36.8141    73
36.8241    55
36.8341    57
36.8441    58
36.8541    72
36.8641    80
36.8741    70
36.8841    67
36.8941    64
36.9041    60
36.9141    61
36.9241    66
36.9341    66
36.9441    55
36.9541    63
36.9641    63
36.9741    47
36.9841    60
36.9941    56
37.0041    62
37.0141    67
37.0241    61
37.0341    65
37.0441    61
37.0541    64
37.0641    64
37.0741    73
37.0841    67
37.0941    54
37.1041    69
37.1141    75
37.1241    71
37.1341    63
37.1441    59
37.1541    59
37.1641    65
37.1741    74
37.1841    67
37.1941    56
37.2041    58
37.2141    58
37.2241    58
37.2341    59
37.2441    51
37.2541    61
37.2641    52
37.2741    65
37.2841    51
37.2941    62
37.3041    76
37.3141    67
37.3241    72
37.3341    53
37.3441    52
37.3541    56
37.3641    67
37.3741    52
37.3841    55
37.3941    60
37.4041    64
37.4141    59
37.4241    55
37.4341    67
37.4441    54
37.4541    70
37.4641    59
37.4741    50
37.4841    55
37.4941    63
37.5041    53
37.5141    45
37.5241    51
37.5341    48
37.5441    53
37.5541    56
37.5641    51
37.5741    52
37.5841    39
37.5941    62
37.6041    59
37.6141    58
37.6241    47
37.6341    55
37.6441    50
37.6541    65
37.6641    60
37.6741    58
37.6841    60
37.6941    46
37.7041    50
37.7141    57
37.7241    56
37.7341    53
37.7441    41
37.7541    57
37.7641    59
37.7741    49
37.7841    46
37.7941    52
37.8041    45
37.8141    54
37.8241    55
37.8341    49
37.8441    46
37.8541    46
37.8641    46
37.8741    45
37.8841    41
37.8941    39
37.9041    56
37.9141    54
37.9241    38
37.9341    43
37.9441    47
37.9541    50
37.9641    39
37.9741    47
37.9841    48
37.9941    39
38.0041    53
38.0141    35
38.0241    46
38.0341    43
38.0441    45
38.0541    53
38.0641    40
38.0741    39
38.0841    40
38.0941    37
38.1041    43
38.1141    44
38.1241    41
38.1341    45
38.1441    36
38.1541    53
38.1641    40
38.1741    51
38.1841    40
38.1941    37
38.2041    26
38.2141    52
38.2241    45
38.2341    48
38.2441    47
38.2541    34
38.2641    36
38.2741    39
38.2841    40
38.2941    41
38.3041    48
38.3141    54
38.3241    53
38.3341    43
38.3441    34
38.3541    42
38.3641    55
38.3741    43
38.3841    33
38.3941    37
38.4041    43
38.4141    43
38.4241    50
38.4341    37
38.4441    30
38.4541    45
38.4641    37
38.4741    47
38.4841    52
38.4941    47
38.5041    43
38.5141    37
38.5241    40
38.5341    39
38.5441    43
38.5541    42
38.5641    41
38.5741    40
38.5841    42
38.5941    37
38.6041    38
38.6141    31
38.6241    38
38.6341    37
38.6441    43
38.6541    37
38.6641    38
38.6741    43
38.6841    33
38.6941    35
38.7041    41
38.7141    42
38.7241    29
38.7341    41
38.7441    43
38.7541    36
38.7641    33
38.7741    43
38.7841    35
38.7941    36
38.8041    42
38.8141    26
38.8241    34
38.8341    38
38.8441    37
38.8541    36
38.8641    32
38.8741    39
38.8841    41
38.8941    42
38.9041    38
38.9141    35
38.9241    31
38.9341    41
38.9441    35
38.9541    36
38.9641    32
38.9741    28
38.9841    37
38.9941    41
39.0041    31
39.0141    38
39.0241    28
39.0341    26
39.0441    39
39.0541    49
39.0641    28
39.0741    27
39.0841    32
39.0941    37
39.1041    32
39.1141    36
39.1241    30
39.1341    25
39.1441    34
39.1541    38
39.1641    31
39.1741    36
39.1841    27
39.1941    32
39.2041    24
39.2141    33
39.2241    38
39.2341    29
39.2441    32
39.2541    38
39.2641    39
39.2741    30
39.2841    23
39.2941    33
39.3041    26
39.3141    27
39.3241    31
39.3341    30
39.3441    26
39.3541    34
39.3641    24
39.3741    29
39.3841    36
39.3941    33
39.4041    26
39.4141    30
39.4241    29
39.4341    22
39.4441    30
39.4541    25
39.4641    23
39.4741    33
39.4841    37
39.4941    33
39.5041    32
39.5141    37
39.5241    35
39.5341    39
39.5441    23
39.5541    32
39.5641    31
39.5741    34
39.5841    35
39.5941    25
39.6041    25
39.6141    25
39.6241    23
39.6341    21
39.6441    32
39.6541    29
39.6641    31
39.6741    40
39.6841    31
39.6941    33
39.7041    31
39.7141    20
39.7241    19
39.7341    14
39.7441    24
39.7541    32
39.7641    33
39.7741    22
39.7841    25
39.7941    34
39.8041    24
39.8141    22
39.8241    29
39.8341    31
39.8441    18
39.8541    29
39.8641    31
39.8741    27
39.8841    28
39.8941    28
39.9041    29
39.9141    35
39.9241    29
39.9341    26
39.9441    23
39.9541    24
39.9641    24
39.9741    35
39.9841    33
