Bruker Nano GmbH Berlin, Germany
Esprit 1.9

Date: 4/1/2021 4:15:33 PM
Real time: 33383
Life time: 31441
Pulse density: 82561


Detector type: XFlash 430
Window type: Custom type
Detector thickness: 0.45
Si dead layer:0.029

Calibration, lin.: 10
Calibration, abs.: -955.9
Mn FWHM: 137.05
Fano factor: 0.121
Channels: 4096

Energy Counts
-0.9559     0
-0.9459     0
-0.9359     0
-0.9259     0
-0.9159     0
-0.9059     0
-0.8959     0
-0.8859     0
-0.8759     0
-0.8659     0
-0.8559     0
-0.8459     0
-0.8359     0
-0.8259     0
-0.8159     0
-0.8059     0
-0.7959     0
-0.7859     0
-0.7759     0
-0.7659     0
-0.7559     0
-0.7459     0
-0.7359     0
-0.7259     0
-0.7159     0
-0.7059     0
-0.6959     0
-0.6859     0
-0.6759     0
-0.6659     0
-0.6559     0
-0.6459     0
-0.6359     0
-0.6259     0
-0.6159     0
-0.6059     0
-0.5959     0
-0.5859     0
-0.5759     0
-0.5659     0
-0.5559     0
-0.5459     0
-0.5359     0
-0.5259     0
-0.5159     0
-0.5059     0
-0.4959     0
-0.4859     0
-0.4759     0
-0.4659     0
-0.4559     0
-0.4459     0
-0.4359     0
-0.4259     0
-0.4159     0
-0.4059     0
-0.3959     0
-0.3859     0
-0.3759     0
-0.3659     0
-0.3559     0
-0.3459     0
-0.3359     0
-0.3259     0
-0.3159     0
-0.3059     0
-0.2959     0
-0.2859     0
-0.2759     0
-0.2659     0
-0.2559     0
-0.2459     0
-0.2359     0
-0.2259     0
-0.2159     0
-0.2059     0
-0.1959     0
-0.1859     0
-0.1759     0
-0.1659     0
-0.1559     0
-0.1459     2
-0.1359     1
-0.1259     1
-0.1159     5
-0.1059    26
-0.0959    90
-0.0859   342
-0.0759  1160
-0.0659  3492
-0.0559  9096
-0.0459 20121
-0.0359 37257
-0.0259 59857
-0.0159 82380
-0.0059 96759
 0.0041 96936
 0.0141 83168
 0.0241 61639
 0.0341 38806
 0.0441 21044
 0.0541  9870
 0.0641  3903
 0.0741  1352
 0.0841   389
 0.0941   122
 0.1041    49
 0.1141    13
 0.1241    12
 0.1341    16
 0.1441     8
 0.1541     6
 0.1641    11
 0.1741    50
 0.1841   340
 0.1941   591
 0.2041   544
 0.2141   579
 0.2241   572
 0.2341   558
 0.2441   567
 0.2541   556
 0.2641   545
 0.2741   543
 0.2841   577
 0.2941   567
 0.3041   535
 0.3141   519
 0.3241   516
 0.3341   504
 0.3441   520
 0.3541   544
 0.3641   543
 0.3741   513
 0.3841   496
 0.3941   493
 0.4041   507
 0.4141   473
 0.4241   497
 0.4341   491
 0.4441   473
 0.4541   461
 0.4641   503
 0.4741   507
 0.4841   478
 0.4941   493
 0.5041   501
 0.5141   482
 0.5241   496
 0.5341   480
 0.5441   458
 0.5541   484
 0.5641   481
 0.5741   458
 0.5841   446
 0.5941   456
 0.6041   458
 0.6141   459
 0.6241   447
 0.6341   448
 0.6441   465
 0.6541   456
 0.6641   429
 0.6741   423
 0.6841   432
 0.6941   438
 0.7041   416
 0.7141   421
 0.7241   413
 0.7341   410
 0.7441   404
 0.7541   402
 0.7641   407
 0.7741   415
 0.7841   414
 0.7941   417
 0.8041   407
 0.8141   416
 0.8241   385
 0.8341   398
 0.8441   404
 0.8541   420
 0.8641   432
 0.8741   390
 0.8841   385
 0.8941   395
 0.9041   382
 0.9141   357
 0.9241   370
 0.9341   370
 0.9441   381
 0.9541   384
 0.9641   408
 0.9741   389
 0.9841   394
 0.9941   374
 1.0041   378
 1.0141   382
 1.0241   355
 1.0341   365
 1.0441   362
 1.0541   375
 1.0641   390
 1.0741   384
 1.0841   378
 1.0941   409
 1.1041   367
 1.1141   362
 1.1241   342
 1.1341   373
 1.1441   334
 1.1541   336
 1.1641   366
 1.1741   354
 1.1841   316
 1.1941   359
 1.2041   339
 1.2141   317
 1.2241   355
 1.2341   366
 1.2441   361
 1.2541   338
 1.2641   346
 1.2741   364
 1.2841   325
 1.2941   338
 1.3041   355
 1.3141   343
 1.3241   321
 1.3341   350
 1.3441   324
 1.3541   332
 1.3641   339
 1.3741   359
 1.3841   354
 1.3941   288
 1.4041   332
 1.4141   304
 1.4241   316
 1.4341   343
 1.4441   332
 1.4541   340
 1.4641   344
 1.4741   354
 1.4841   317
 1.4941   338
 1.5041   306
 1.5141   315
 1.5241   339
 1.5341   343
 1.5441   325
 1.5541   328
 1.5641   345
 1.5741   303
 1.5841   310
 1.5941   342
 1.6041   332
 1.6141   309
 1.6241   345
 1.6341   322
 1.6441   379
 1.6541   391
 1.6641   435
 1.6741   542
 1.6841   667
 1.6941   797
 1.7041   985
 1.7141  1062
 1.7241  1170
 1.7341  1271
 1.7441  1211
 1.7541  1206
 1.7641  1103
 1.7741   918
 1.7841   788
 1.7941   628
 1.8041   551
 1.8141   504
 1.8241   482
 1.8341   435
 1.8441   408
 1.8541   399
 1.8641   359
 1.8741   362
 1.8841   369
 1.8941   332
 1.9041   309
 1.9141   328
 1.9241   345
 1.9341   361
 1.9441   329
 1.9541   349
 1.9641   344
 1.9741   401
 1.9841   403
 1.9941   402
 2.0041   421
 2.0141   412
 2.0241   401
 2.0341   368
 2.0441   367
 2.0541   352
 2.0641   355
 2.0741   346
 2.0841   313
 2.0941   291
 2.1041   303
 2.1141   294
 2.1241   306
 2.1341   285
 2.1441   322
 2.1541   267
 2.1641   289
 2.1741   278
 2.1841   280
 2.1941   304
 2.2041   293
 2.2141   276
 2.2241   269
 2.2341   308
 2.2441   303
 2.2541   273
 2.2641   296
 2.2741   262
 2.2841   269
 2.2941   302
 2.3041   284
 2.3141   276
 2.3241   283
 2.3341   268
 2.3441   254
 2.3541   293
 2.3641   267
 2.3741   263
 2.3841   270
 2.3941   251
 2.4041   300
 2.4141   273
 2.4241   260
 2.4341   262
 2.4441   264
 2.4541   245
 2.4641   268
 2.4741   256
 2.4841   253
 2.4941   265
 2.5041   240
 2.5141   267
 2.5241   234
 2.5341   265
 2.5441   249
 2.5541   206
 2.5641   260
 2.5741   240
 2.5841   255
 2.5941   226
 2.6041   252
 2.6141   229
 2.6241   229
 2.6341   244
 2.6441   226
 2.6541   234
 2.6641   230
 2.6741   242
 2.6841   241
 2.6941   239
 2.7041   221
 2.7141   217
 2.7241   253
 2.7341   245
 2.7441   261
 2.7541   227
 2.7641   241
 2.7741   248
 2.7841   246
 2.7941   231
 2.8041   243
 2.8141   253
 2.8241   257
 2.8341   233
 2.8441   250
 2.8541   246
 2.8641   234
 2.8741   235
 2.8841   222
 2.8941   222
 2.9041   234
 2.9141   239
 2.9241   242
 2.9341   239
 2.9441   227
 2.9541   247
 2.9641   224
 2.9741   233
 2.9841   204
 2.9941   202
 3.0041   237
 3.0141   225
 3.0241   229
 3.0341   199
 3.0441   214
 3.0541   220
 3.0641   214
 3.0741   216
 3.0841   222
 3.0941   204
 3.1041   212
 3.1141   185
 3.1241   179
 3.1341   220
 3.1441   199
 3.1541   185
 3.1641   211
 3.1741   185
 3.1841   209
 3.1941   220
 3.2041   247
 3.2141   238
 3.2241   224
 3.2341   262
 3.2441   323
 3.2541   357
 3.2641   373
 3.2741   430
 3.2841   522
 3.2941   488
 3.3041   523
 3.3141   464
 3.3241   506
 3.3341   485
 3.3441   396
 3.3541   401
 3.3641   354
 3.3741   304
 3.3841   277
 3.3941   274
 3.4041   210
 3.4141   227
 3.4241   221
 3.4341   195
 3.4441   194
 3.4541   199
 3.4641   193
 3.4741   200
 3.4841   184
 3.4941   191
 3.5041   202
 3.5141   189
 3.5241   222
 3.5341   224
 3.5441   261
 3.5541   248
 3.5641   321
 3.5741   348
 3.5841   452
 3.5941   488
 3.6041   589
 3.6141   686
 3.6241   876
 3.6341  1079
 3.6441  1297
 3.6541  1451
 3.6641  1700
 3.6741  1774
 3.6841  1852
 3.6941  1884
 3.7041  1761
 3.7141  1654
 3.7241  1534
 3.7341  1299
 3.7441  1068
 3.7541   854
 3.7641   634
 3.7741   557
 3.7841   398
 3.7941   314
 3.8041   293
 3.8141   215
 3.8241   166
 3.8341   168
 3.8441   170
 3.8541   160
 3.8641   156
 3.8741   165
 3.8841   181
 3.8941   187
 3.9041   191
 3.9141   190
 3.9241   186
 3.9341   219
 3.9441   277
 3.9541   253
 3.9641   292
 3.9741   305
 3.9841   372
 3.9941   363
 4.0041   345
 4.0141   363
 4.0241   361
 4.0341   357
 4.0441   353
 4.0541   308
 4.0641   268
 4.0741   229
 4.0841   229
 4.0941   201
 4.1041   192
 4.1141   187
 4.1241   165
 4.1341   163
 4.1441   150
 4.1541   148
 4.1641   156
 4.1741   126
 4.1841   123
 4.1941   125
 4.2041   132
 4.2141   130
 4.2241   131
 4.2341   118
 4.2441   141
 4.2541   130
 4.2641   120
 4.2741   121
 4.2841   118
 4.2941   121
 4.3041   138
 4.3141   133
 4.3241   140
 4.3341   128
 4.3441   115
 4.3541   140
 4.3641   139
 4.3741   151
 4.3841   163
 4.3941   150
 4.4041   168
 4.4141   199
 4.4241   214
 4.4341   210
 4.4441   237
 4.4541   245
 4.4641   236
 4.4741   264
 4.4841   228
 4.4941   242
 4.5041   254
 4.5141   252
 4.5241   255
 4.5341   227
 4.5441   225
 4.5541   196
 4.5641   187
 4.5741   176
 4.5841   156
 4.5941   159
 4.6041   150
 4.6141   146
 4.6241   162
 4.6341   152
 4.6441   134
 4.6541   143
 4.6641   138
 4.6741   152
 4.6841   162
 4.6941   149
 4.7041   137
 4.7141   149
 4.7241   140
 4.7341   157
 4.7441   158
 4.7541   165
 4.7641   140
 4.7741   147
 4.7841   158
 4.7941   169
 4.8041   180
 4.8141   207
 4.8241   213
 4.8341   196
 4.8441   158
 4.8541   193
 4.8641   178
 4.8741   197
 4.8841   178
 4.8941   182
 4.9041   179
 4.9141   169
 4.9241   152
 4.9341   179
 4.9441   150
 4.9541   171
 4.9641   161
 4.9741   145
 4.9841   150
 4.9941   165
 5.0041   157
 5.0141   155
 5.0241   151
 5.0341   142
 5.0441   163
 5.0541   155
 5.0641   161
 5.0741   144
 5.0841   157
 5.0941   137
 5.1041   141
 5.1141   157
 5.1241   140
 5.1341   139
 5.1441   163
 5.1541   141
 5.1641   138
 5.1741   146
 5.1841   151
 5.1941   161
 5.2041   159
 5.2141   134
 5.2241   156
 5.2341   139
 5.2441   134
 5.2541   137
 5.2641   152
 5.2741   151
 5.2841   136
 5.2941   161
 5.3041   135
 5.3141   148
 5.3241   148
 5.3341   145
 5.3441   189
 5.3541   194
 5.3641   197
 5.3741   181
 5.3841   182
 5.3941   205
 5.4041   192
 5.4141   188
 5.4241   192
 5.4341   200
 5.4441   172
 5.4541   172
 5.4641   152
 5.4741   175
 5.4841   161
 5.4941   157
 5.5041   179
 5.5141   154
 5.5241   168
 5.5341   178
 5.5441   154
 5.5541   187
 5.5641   149
 5.5741   158
 5.5841   148
 5.5941   135
 5.6041   162
 5.6141   134
 5.6241   160
 5.6341   149
 5.6441   157
 5.6541   161
 5.6641   157
 5.6741   187
 5.6841   161
 5.6941   156
 5.7041   157
 5.7141   159
 5.7241   179
 5.7341   171
 5.7441   170
 5.7541   170
 5.7641   184
 5.7741   176
 5.7841   169
 5.7941   183
 5.8041   194
 5.8141   211
 5.8241   185
 5.8341   196
 5.8441   200
 5.8541   216
 5.8641   234
 5.8741   246
 5.8841   217
 5.8941   206
 5.9041   221
 5.9141   225
 5.9241   234
 5.9341   220
 5.9441   191
 5.9541   197
 5.9641   193
 5.9741   209
 5.9841   188
 5.9941   200
 6.0041   190
 6.0141   177
 6.0241   197
 6.0341   173
 6.0441   184
 6.0541   206
 6.0641   193
 6.0741   169
 6.0841   177
 6.0941   195
 6.1041   159
 6.1141   167
 6.1241   173
 6.1341   176
 6.1441   177
 6.1541   177
 6.1641   179
 6.1741   162
 6.1841   196
 6.1941   190
 6.2041   192
 6.2141   211
 6.2241   229
 6.2341   263
 6.2441   347
 6.2541   427
 6.2641   520
 6.2741   630
 6.2841   820
 6.2941  1013
 6.3041  1225
 6.3141  1598
 6.3241  1911
 6.3341  2245
 6.3441  2584
 6.3541  2932
 6.3641  3283
 6.3741  3548
 6.3841  3647
 6.3941  3813
 6.4041  3776
 6.4141  3637
 6.4241  3513
 6.4341  3089
 6.4441  2841
 6.4541  2446
 6.4641  2124
 6.4741  1825
 6.4841  1496
 6.4941  1070
 6.5041   962
 6.5141   749
 6.5241   611
 6.5341   443
 6.5441   344
 6.5541   304
 6.5641   229
 6.5741   218
 6.5841   238
 6.5941   211
 6.6041   175
 6.6141   188
 6.6241   195
 6.6341   188
 6.6441   183
 6.6541   199
 6.6641   202
 6.6741   185
 6.6841   190
 6.6941   189
 6.7041   202
 6.7141   192
 6.7241   222
 6.7341   213
 6.7441   213
 6.7541   196
 6.7641   224
 6.7741   200
 6.7841   211
 6.7941   191
 6.8041   237
 6.8141   233
 6.8241   221
 6.8341   248
 6.8441   249
 6.8541   232
 6.8641   243
 6.8741   250
 6.8841   257
 6.8941   269
 6.9041   272
 6.9141   288
 6.9241   339
 6.9341   374
 6.9441   418
 6.9541   406
 6.9641   496
 6.9741   589
 6.9841   630
 6.9941   617
 7.0041   675
 7.0141   779
 7.0241   802
 7.0341   839
 7.0441   778
 7.0541   821
 7.0641   833
 7.0741   811
 7.0841   750
 7.0941   743
 7.1041   630
 7.1141   617
 7.1241   523
 7.1341   558
 7.1441   461
 7.1541   446
 7.1641   451
 7.1741   408
 7.1841   399
 7.1941   361
 7.2041   364
 7.2141   371
 7.2241   353
 7.2341   345
 7.2441   363
 7.2541   351
 7.2641   368
 7.2741   389
 7.2841   400
 7.2941   385
 7.3041   422
 7.3141   449
 7.3241   474
 7.3341   516
 7.3441   481
 7.3541   502
 7.3641   476
 7.3741   503
 7.3841   538
 7.3941   507
 7.4041   476
 7.4141   524
 7.4241   528
 7.4341   480
 7.4441   453
 7.4541   449
 7.4641   435
 7.4741   423
 7.4841   405
 7.4941   419
 7.5041   383
 7.5141   353
 7.5241   356
 7.5341   330
 7.5441   325
 7.5541   342
 7.5641   337
 7.5741   346
 7.5841   320
 7.5941   273
 7.6041   323
 7.6141   307
 7.6241   326
 7.6341   384
 7.6441   329
 7.6541   364
 7.6641   332
 7.6741   317
 7.6841   343
 7.6941   362
 7.7041   339
 7.7141   327
 7.7241   353
 7.7341   341
 7.7441   383
 7.7541   391
 7.7641   405
 7.7741   419
 7.7841   441
 7.7941   445
 7.8041   437
 7.8141   421
 7.8241   449
 7.8341   490
 7.8441   491
 7.8541   491
 7.8641   488
 7.8741   522
 7.8841   531
 7.8941   503
 7.9041   580
 7.9141   601
 7.9241   611
 7.9341   668
 7.9441   691
 7.9541   700
 7.9641   770
 7.9741   815
 7.9841   917
 7.9941   911
 8.0041  1033
 8.0141  1041
 8.0241  1124
 8.0341  1234
 8.0441  1392
 8.0541  1451
 8.0641  1560
 8.0741  1585
 8.0841  1714
 8.0941  1792
 8.1041  1813
 8.1141  2031
 8.1241  2169
 8.1341  2179
 8.1441  2290
 8.1541  2357
 8.1641  2439
 8.1741  2414
 8.1841  2417
 8.1941  2436
 8.2041  2477
 8.2141  2600
 8.2241  2653
 8.2341  2770
 8.2441  2780
 8.2541  2862
 8.2641  3134
 8.2741  3242
 8.2841  3528
 8.2941  3872
 8.3041  4208
 8.3141  4570
 8.3241  4834
 8.3341  5351
 8.3441  5633
 8.3541  5941
 8.3641  6299
 8.3741  6548
 8.3841  6527
 8.3941  6521
 8.4041  6516
 8.4141  6116
 8.4241  5906
 8.4341  5411
 8.4441  5016
 8.4541  4429
 8.4641  3880
 8.4741  3398
 8.4841  2867
 8.4941  2456
 8.5041  2068
 8.5141  1774
 8.5241  1541
 8.5341  1301
 8.5441  1084
 8.5541   947
 8.5641   809
 8.5741   733
 8.5841   688
 8.5941   666
 8.6041   623
 8.6141   578
 8.6241   577
 8.6341   639
 8.6441   603
 8.6541   609
 8.6641   599
 8.6741   608
 8.6841   581
 8.6941   573
 8.7041   638
 8.7141   603
 8.7241   579
 8.7341   588
 8.7441   598
 8.7541   619
 8.7641   585
 8.7741   564
 8.7841   574
 8.7941   571
 8.8041   555
 8.8141   564
 8.8241   578
 8.8341   570
 8.8441   564
 8.8541   567
 8.8641   553
 8.8741   579
 8.8841   524
 8.8941   577
 8.9041   540
 8.9141   564
 8.9241   602
 8.9341   580
 8.9441   630
 8.9541   655
 8.9641   624
 8.9741   690
 8.9841   604
 8.9941   670
 9.0041   731
 9.0141   719
 9.0241   713
 9.0341   771
 9.0441   742
 9.0541   761
 9.0641   785
 9.0741   830
 9.0841   827
 9.0941   879
 9.1041   884
 9.1141   864
 9.1241   917
 9.1341   964
 9.1441   994
 9.1541  1048
 9.1641  1063
 9.1741  1061
 9.1841  1156
 9.1941  1233
 9.2041  1259
 9.2141  1313
 9.2241  1342
 9.2341  1406
 9.2441  1507
 9.2541  1525
 9.2641  1619
 9.2741  1706
 9.2841  1827
 9.2941  1885
 9.3041  1908
 9.3141  2017
 9.3241  2045
 9.3341  2118
 9.3441  2235
 9.3541  2279
 9.3641  2336
 9.3741  2319
 9.3841  2383
 9.3941  2360
 9.4041  2453
 9.4141  2419
 9.4241  2526
 9.4341  2544
 9.4441  2549
 9.4541  2627
 9.4641  2590
 9.4741  2678
 9.4841  2630
 9.4941  2798
 9.5041  2836
 9.5141  2953
 9.5241  2951
 9.5341  3048
 9.5441  3196
 9.5541  3428
 9.5641  3561
 9.5741  3800
 9.5841  3992
 9.5941  4204
 9.6041  4523
 9.6141  4714
 9.6241  5039
 9.6341  5178
 9.6441  5289
 9.6541  5345
 9.6641  5450
 9.6741  5433
 9.6841  5360
 9.6941  5330
 9.7041  5131
 9.7141  4950
 9.7241  4562
 9.7341  4377
 9.7441  4009
 9.7541  3678
 9.7641  3423
 9.7741  3174
 9.7841  2956
 9.7941  2679
 9.8041  2634
 9.8141  2463
 9.8241  2456
 9.8341  2338
 9.8441  2316
 9.8541  2297
 9.8641  2299
 9.8741  2230
 9.8841  2253
 9.8941  2342
 9.9041  2426
 9.9141  2434
 9.9241  2502
 9.9341  2522
 9.9441  2537
 9.9541  2529
 9.9641  2495
 9.9741  2370
 9.9841  2272
 9.9941  2151
10.0041  2071
10.0141  1948
10.0241  1766
10.0341  1612
10.0441  1457
10.0541  1286
10.0641  1128
10.0741  1031
10.0841   952
10.0941   810
10.1041   701
10.1141   671
10.1241   618
10.1341   540
10.1441   527
10.1541   486
10.1641   484
10.1741   440
10.1841   424
10.1941   429
10.2041   415
10.2141   404
10.2241   378
10.2341   363
10.2441   354
10.2541   303
10.2641   322
10.2741   305
10.2841   327
10.2941   309
10.3041   312
10.3141   304
10.3241   314
10.3341   320
10.3441   312
10.3541   299
10.3641   309
10.3741   322
10.3841   308
10.3941   288
10.4041   283
10.4141   294
10.4241   313
10.4341   330
10.4441   308
10.4541   316
10.4641   332
10.4741   310
10.4841   319
10.4941   346
10.5041   366
10.5141   351
10.5241   323
10.5341   348
10.5441   357
10.5541   367
10.5641   365
10.5741   341
10.5841   365
10.5941   366
10.6041   340
10.6141   358
10.6241   350
10.6341   386
10.6441   381
10.6541   401
10.6641   398
10.6741   408
10.6841   410
10.6941   416
10.7041   414
10.7141   394
10.7241   421
10.7341   426
10.7441   429
10.7541   421
10.7641   451
10.7741   459
10.7841   457
10.7941   474
10.8041   451
10.8141   489
10.8241   514
10.8341   484
10.8441   517
10.8541   513
10.8641   509
10.8741   543
10.8841   537
10.8941   547
10.9041   583
10.9141   537
10.9241   531
10.9341   554
10.9441   531
10.9541   557
10.9641   556
10.9741   526
10.9841   566
10.9941   549
11.0041   541
11.0141   526
11.0241   546
11.0341   503
11.0441   486
11.0541   504
11.0641   488
11.0741   480
11.0841   481
11.0941   479
11.1041   513
11.1141   480
11.1241   465
11.1341   492
11.1441   515
11.1541   523
11.1641   539
11.1741   554
11.1841   574
11.1941   605
11.2041   608
11.2141   636
11.2241   667
11.2341   691
11.2441   754
11.2541   750
11.2641   771
11.2741   779
11.2841   761
11.2941   736
11.3041   722
11.3141   710
11.3241   697
11.3341   661
11.3441   646
11.3541   603
11.3641   560
11.3741   568
11.3841   502
11.3941   470
11.4041   467
11.4141   420
11.4241   407
11.4341   404
11.4441   390
11.4541   373
11.4641   367
11.4741   391
11.4841   366
11.4941   366
11.5041   357
11.5141   364
11.5241   367
11.5341   368
11.5441   372
11.5541   365
11.5641   378
11.5741   383
11.5841   397
11.5941   404
11.6041   406
11.6141   414
11.6241   389
11.6341   416
11.6441   411
11.6541   390
11.6641   424
11.6741   426
11.6841   368
11.6941   371
11.7041   372
11.7141   371
11.7241   349
11.7341   341
11.7441   350
11.7541   329
11.7641   318
11.7741   319
11.7841   290
11.7941   296
11.8041   292
11.8141   288
11.8241   298
11.8341   275
11.8441   280
11.8541   265
11.8641   267
11.8741   288
11.8841   275
11.8941   279
11.9041   273
11.9141   282
11.9241   285
11.9341   291
11.9441   287
11.9541   284
11.9641   284
11.9741   284
11.9841   278
11.9941   301
12.0041   299
12.0141   280
12.0241   304
12.0341   301
12.0441   302
12.0541   317
12.0641   320
12.0741   322
12.0841   325
12.0941   324
12.1041   316
12.1141   298
12.1241   302
12.1341   319
12.1441   310
12.1541   316
12.1641   305
12.1741   290
12.1841   285
12.1941   297
12.2041   296
12.2141   289
12.2241   276
12.2341   271
12.2441   274
12.2541   263
12.2641   260
12.2741   283
12.2841   286
12.2941   288
12.3041   280
12.3141   295
12.3241   303
12.3341   286
12.3441   292
12.3541   288
12.3641   292
12.3741   274
12.3841   290
12.3941   298
12.4041   295
12.4141   272
12.4241   261
12.4341   284
12.4441   303
12.4541   309
12.4641   289
12.4741   291
12.4841   294
12.4941   289
12.5041   299
12.5141   298
12.5241   318
12.5341   332
12.5441   329
12.5541   315
12.5641   325
12.5741   340
12.5841   349
12.5941   345
12.6041   337
12.6141   311
12.6241   298
12.6341   295
12.6441   311
12.6541   314
12.6641   312
12.6741   329
12.6841   326
12.6941   325
12.7041   318
12.7141   309
12.7241   309
12.7341   314
12.7441   316
12.7541   316
12.7641   315
12.7741   303
12.7841   316
12.7941   339
12.8041   310
12.8141   285
12.8241   309
12.8341   313
12.8441   302
12.8541   314
12.8641   309
12.8741   292
12.8841   311
12.8941   338
12.9041   330
12.9141   321
12.9241   328
12.9341   318
12.9441   344
12.9541   350
12.9641   319
12.9741   320
12.9841   307
12.9941   315
13.0041   335
13.0141   345
13.0241   355
13.0341   348
13.0441   339
13.0541   347
13.0641   346
13.0741   323
13.0841   343
13.0941   366
13.1041   350
13.1141   338
13.1241   343
13.1341   359
13.1441   365
13.1541   367
13.1641   383
13.1741   370
13.1841   382
13.1941   397
13.2041   380
13.2141   414
13.2241   428
13.2341   443
13.2441   475
13.2541   484
13.2641   493
13.2741   492
13.2841   525
13.2941   592
13.3041   605
13.3141   605
13.3241   640
13.3341   660
13.3441   679
13.3541   703
13.3641   697
13.3741   697
13.3841   697
13.3941   697
13.4041   684
13.4141   660
13.4241   625
13.4341   587
13.4441   566
13.4541   571
13.4641   571
13.4741   557
13.4841   533
13.4941   516
13.5041   511
13.5141   487
13.5241   448
13.5341   428
13.5441   439
13.5541   425
13.5641   412
13.5741   420
13.5841   426
13.5941   409
13.6041   392
13.6141   393
13.6241   397
13.6341   415
13.6441   401
13.6541   385
13.6641   393
13.6741   393
13.6841   393
13.6941   397
13.7041   378
13.7141   350
13.7241   387
13.7341   407
13.7441   408
13.7541   404
13.7641   397
13.7741   426
13.7841   441
13.7941   429
13.8041   407
13.8141   415
13.8241   430
13.8341   418
13.8441   412
13.8541   413
13.8641   413
13.8741   418
13.8841   420
13.8941   410
13.9041   429
13.9141   470
13.9241   490
13.9341   484
13.9441   482
13.9541   510
13.9641   532
13.9741   566
13.9841   583
13.9941   600
14.0041   621
14.0141   658
14.0241   696
14.0341   702
14.0441   760
14.0541   804
14.0641   830
14.0741   878
14.0841   917
14.0941   940
14.1041   970
14.1141  1020
14.1241  1032
14.1341  1013
14.1441  1029
14.1541  1026
14.1641   982
14.1741   984
14.1841   992
14.1941   980
14.2041   946
14.2141   899
14.2241   852
14.2341   800
14.2441   763
14.2541   708
14.2641   668
14.2741   654
14.2841   629
14.2941   610
14.3041   583
14.3141   555
14.3241   542
14.3341   500
14.3441   481
14.3541   490
14.3641   499
14.3741   496
14.3841   493
14.3941   478
14.4041   483
14.4141   486
14.4241   475
14.4341   477
14.4441   459
14.4541   459
14.4641   490
14.4741   481
14.4841   499
14.4941   513
14.5041   483
14.5141   471
14.5241   468
14.5341   491
14.5441   505
14.5541   489
14.5641   468
14.5741   466
14.5841   482
14.5941   485
14.6041   499
14.6141   509
14.6241   515
14.6341   489
14.6441   484
14.6541   485
14.6641   456
14.6741   477
14.6841   499
14.6941   498
14.7041   503
14.7141   503
14.7241   499
14.7341   504
14.7441   496
14.7541   483
14.7641   504
14.7741   509
14.7841   522
14.7941   549
14.8041   538
14.8141   528
14.8241   547
14.8341   547
14.8441   545
14.8541   540
14.8641   542
14.8741   565
14.8841   559
14.8941   575
14.9041   573
14.9141   576
14.9241   566
14.9341   584
14.9441   604
14.9541   580
14.9641   584
14.9741   597
14.9841   578
14.9941   573
15.0041   567
15.0141   567
15.0241   599
15.0341   611
15.0441   599
15.0541   577
15.0641   558
15.0741   559
15.0841   604
15.0941   595
15.1041   542
15.1141   544
15.1241   542
15.1341   532
15.1441   529
15.1541   541
15.1641   546
15.1741   539
15.1841   542
15.1941   514
15.2041   517
15.2141   548
15.2241   545
15.2341   589
15.2441   577
15.2541   572
15.2641   558
15.2741   550
15.2841   569
15.2941   573
15.3041   579
15.3141   556
15.3241   548
15.3341   581
15.3441   576
15.3541   569
15.3641   536
15.3741   532
15.3841   558
15.3941   557
15.4041   528
15.4141   565
15.4241   593
15.4341   583
15.4441   568
15.4541   569
15.4641   568
15.4741   563
15.4841   562
15.4941   568
15.5041   557
15.5141   563
15.5241   585
15.5341   621
15.5441   620
15.5541   605
15.5641   645
15.5741   639
15.5841   597
15.5941   656
15.6041   679
15.6141   655
15.6241   647
15.6341   687
15.6441   735
15.6541   728
15.6641   755
15.6741   768
15.6841   802
15.6941   785
15.7041   826
15.7141   868
15.7241   851
15.7341   852
15.7441   856
15.7541   870
15.7641   902
15.7741   898
15.7841   889
15.7941   862
15.8041   845
15.8141   815
15.8241   819
15.8341   829
15.8441   832
15.8541   829
15.8641   824
15.8741   827
15.8841   782
15.8941   769
15.9041   718
15.9141   703
15.9241   741
15.9341   742
15.9441   729
15.9541   701
15.9641   669
15.9741   671
15.9841   649
15.9941   622
16.0041   634
16.0141   678
16.0241   679
16.0341   658
16.0441   661
16.0541   668
16.0641   672
16.0741   650
16.0841   639
16.0941   635
16.1041   648
16.1141   632
16.1241   638
16.1341   674
16.1441   653
16.1541   653
16.1641   644
16.1741   657
16.1841   641
16.1941   651
16.2041   674
16.2141   632
16.2241   628
16.2341   619
16.2441   629
16.2541   690
16.2641   663
16.2741   675
16.2841   666
16.2941   647
16.3041   641
16.3141   673
16.3241   696
16.3341   704
16.3441   680
16.3541   659
16.3641   672
16.3741   648
16.3841   643
16.3941   679
16.4041   668
16.4141   652
16.4241   672
16.4341   661
16.4441   660
16.4541   705
16.4641   713
16.4741   681
16.4841   697
16.4941   712
16.5041   681
16.5141   687
16.5241   713
16.5341   738
16.5441   690
16.5541   689
16.5641   694
16.5741   698
16.5841   677
16.5941   674
16.6041   691
16.6141   717
16.6241   728
16.6341   700
16.6441   698
16.6541   720
16.6641   706
16.6741   675
16.6841   657
16.6941   744
16.7041   726
16.7141   717
16.7241   696
16.7341   730
16.7441   735
16.7541   726
16.7641   740
16.7741   731
16.7841   706
16.7941   709
16.8041   722
16.8141   730
16.8241   701
16.8341   711
16.8441   724
16.8541   732
16.8641   721
16.8741   718
16.8841   750
16.8941   752
16.9041   707
16.9141   735
16.9241   734
16.9341   734
16.9441   742
16.9541   754
16.9641   712
16.9741   740
16.9841   769
16.9941   753
17.0041   779
17.0141   789
17.0241   768
17.0341   732
17.0441   716
17.0541   757
17.0641   745
17.0741   748
17.0841   748
17.0941   730
17.1041   756
17.1141   815
17.1241   789
17.1341   773
17.1441   742
17.1541   735
17.1641   751
17.1741   785
17.1841   768
17.1941   783
17.2041   731
17.2141   779
17.2241   758
17.2341   773
17.2441   784
17.2541   777
17.2641   790
17.2741   813
17.2841   793
17.2941   791
17.3041   792
17.3141   775
17.3241   804
17.3341   807
17.3441   792
17.3541   799
17.3641   819
17.3741   808
17.3841   789
17.3941   812
17.4041   795
17.4141   807
17.4241   820
17.4341   795
17.4441   782
17.4541   778
17.4641   830
17.4741   810
17.4841   787
17.4941   796
17.5041   816
17.5141   847
17.5241   859
17.5341   861
17.5441   843
17.5541   840
17.5641   815
17.5741   846
17.5841   824
17.5941   807
17.6041   828
17.6141   851
17.6241   882
17.6341   847
17.6441   852
17.6541   843
17.6641   870
17.6741   870
17.6841   884
17.6941   875
17.7041   865
17.7141   830
17.7241   859
17.7341   843
17.7441   840
17.7541   877
17.7641   854
17.7741   863
17.7841   887
17.7941   881
17.8041   858
17.8141   866
17.8241   843
17.8341   871
17.8441   864
17.8541   846
17.8641   879
17.8741   845
17.8841   801
17.8941   874
17.9041   879
17.9141   879
17.9241   880
17.9341   849
17.9441   896
17.9541   885
17.9641   907
17.9741   894
17.9841   878
17.9941   857
18.0041   841
18.0141   884
18.0241   861
18.0341   875
18.0441   847
18.0541   841
18.0641   847
18.0741   845
18.0841   839
18.0941   878
18.1041   877
18.1141   917
18.1241   878
18.1341   874
18.1441   893
18.1541   888
18.1641   859
18.1741   868
18.1841   884
18.1941   905
18.2041   923
18.2141   898
18.2241   915
18.2341   928
18.2441   922
18.2541   897
18.2641   919
18.2741   893
18.2841   922
18.2941   914
18.3041   904
18.3141   902
18.3241   924
18.3341   906
18.3441   950
18.3541   916
18.3641   899
18.3741   884
18.3841   902
18.3941   931
18.4041   936
18.4141   908
18.4241   892
18.4341   896
18.4441   908
18.4541   905
18.4641   860
18.4741   918
18.4841   922
18.4941   915
18.5041   924
18.5141   894
18.5241   915
18.5341   935
18.5441   964
18.5541   917
18.5641   927
18.5741   917
18.5841   938
18.5941   911
18.6041   921
18.6141   921
18.6241   966
18.6341   965
18.6441   928
18.6541   957
18.6641   937
18.6741   987
18.6841   946
18.6941   976
18.7041   951
18.7141   927
18.7241   913
18.7341   932
18.7441   903
18.7541   934
18.7641   943
18.7741   913
18.7841   936
18.7941   940
18.8041   898
18.8141   973
18.8241   993
18.8341   956
18.8441   979
18.8541   950
18.8641   968
18.8741   973
18.8841   924
18.8941   908
18.9041   938
18.9141   967
18.9241   994
18.9341   941
18.9441  1011
18.9541   967
18.9641  1021
18.9741   990
18.9841   927
18.9941   989
19.0041  1029
19.0141   933
19.0241   944
19.0341   983
19.0441   970
19.0541   970
19.0641   985
19.0741   984
19.0841   933
19.0941   948
19.1041  1012
19.1141  1013
19.1241   986
19.1341   976
19.1441   963
19.1541   963
19.1641   955
19.1741   968
19.1841   988
19.1941  1006
19.2041   985
19.2141  1016
19.2241   956
19.2341   999
19.2441  1001
19.2541   969
19.2641   950
19.2741  1007
19.2841  1025
19.2941  1003
19.3041  1033
19.3141  1009
19.3241   982
19.3341   983
19.3441  1005
19.3541  1047
19.3641  1035
19.3741   991
19.3841   984
19.3941   998
19.4041   993
19.4141  1030
19.4241  1048
19.4341   998
19.4441   937
19.4541  1000
19.4641  1035
19.4741   993
19.4841   967
19.4941  1017
19.5041  1013
19.5141   991
19.5241  1009
19.5341  1019
19.5441   956
19.5541   981
19.5641  1001
19.5741  1012
19.5841  1011
19.5941  1013
19.6041   970
19.6141   997
19.6241  1016
19.6341  1028
19.6441  1022
19.6541  1015
19.6641  1001
19.6741  1000
19.6841   973
19.6941   970
19.7041   998
19.7141  1030
19.7241  1043
19.7341  1021
19.7441   985
19.7541   996
19.7641   996
19.7741  1055
19.7841  1021
19.7941  1052
19.8041   969
19.8141  1022
19.8241  1018
19.8341  1042
19.8441  1021
19.8541  1013
19.8641  1030
19.8741  1079
19.8841  1026
19.8941  1016
19.9041  1012
19.9141  1028
19.9241  1013
19.9341  1065
19.9441  1050
19.9541  1041
19.9641  1032
19.9741  1022
19.9841  1001
19.9941   984
20.0041  1049
20.0141  1022
20.0241  1040
20.0341  1020
20.0441  1068
20.0541  1000
20.0641  1001
20.0741  1047
20.0841  1021
20.0941  1043
20.1041  1009
20.1141  1083
20.1241   988
20.1341  1040
20.1441  1039
20.1541  1055
20.1641  1029
20.1741  1047
20.1841  1053
20.1941  1039
20.2041  1057
20.2141  1061
20.2241  1015
20.2341  1053
20.2441  1043
20.2541  1070
20.2641  1057
20.2741  1014
20.2841   974
20.2941  1011
20.3041  1019
20.3141  1021
20.3241  1051
20.3341  1097
20.3441  1096
20.3541  1068
20.3641  1042
20.3741  1075
20.3841  1027
20.3941  1023
20.4041  1077
20.4141  1085
20.4241  1023
20.4341  1089
20.4441  1114
20.4541  1039
20.4641  1032
20.4741  1087
20.4841  1075
20.4941  1084
20.5041  1093
20.5141  1092
20.5241  1016
20.5341  1029
20.5441  1063
20.5541  1048
20.5641  1115
20.5741  1033
20.5841  1078
20.5941  1067
20.6041  1085
20.6141  1117
20.6241  1049
20.6341  1043
20.6441  1042
20.6541  1065
20.6641  1074
20.6741  1049
20.6841  1070
20.6941  1108
20.7041  1079
20.7141  1116
20.7241  1088
20.7341  1093
20.7441  1064
20.7541  1050
20.7641  1103
20.7741  1112
20.7841  1060
20.7941  1114
20.8041  1112
20.8141  1117
20.8241  1118
20.8341  1199
20.8441  1170
20.8541  1169
20.8641  1172
20.8741  1160
20.8841  1220
20.8941  1228
20.9041  1231
20.9141  1190
20.9241  1252
20.9341  1264
20.9441  1325
20.9541  1292
20.9641  1322
20.9741  1439
20.9841  1415
20.9941  1385
21.0041  1437
21.0141  1481
21.0241  1483
21.0341  1561
21.0441  1505
21.0541  1542
21.0641  1596
21.0741  1627
21.0841  1541
21.0941  1557
21.1041  1635
21.1141  1654
21.1241  1617
21.1341  1617
21.1441  1638
21.1541  1626
21.1641  1632
21.1741  1614
21.1841  1576
21.1941  1531
21.2041  1543
21.2141  1438
21.2241  1521
21.2341  1547
21.2441  1362
21.2541  1422
21.2641  1387
21.2741  1382
21.2841  1319
21.2941  1252
21.3041  1288
21.3141  1301
21.3241  1312
21.3341  1235
21.3441  1177
21.3541  1195
21.3641  1209
21.3741  1183
21.3841  1126
21.3941  1149
21.4041  1119
21.4141  1067
21.4241  1103
21.4341  1060
21.4441  1066
21.4541  1074
21.4641  1013
21.4741  1002
21.4841  1101
21.4941  1054
21.5041  1116
21.5141  1067
21.5241  1080
21.5341  1059
21.5441  1114
21.5541  1107
21.5641  1043
21.5741  1105
21.5841  1114
21.5941  1122
21.6041  1018
21.6141  1076
21.6241  1085
21.6341  1073
21.6441  1117
21.6541  1059
21.6641  1069
21.6741  1089
21.6841  1098
21.6941  1086
21.7041  1092
21.7141  1053
21.7241  1053
21.7341  1134
21.7441  1063
21.7541  1080
21.7641  1053
21.7741  1044
21.7841  1109
21.7941  1045
21.8041  1150
21.8141  1100
21.8241  1073
21.8341  1051
21.8441  1083
21.8541  1081
21.8641  1051
21.8741  1092
21.8841  1055
21.8941  1027
21.9041  1033
21.9141  1066
21.9241  1034
21.9341  1062
21.9441  1107
21.9541  1059
21.9641  1065
21.9741  1071
21.9841  1055
21.9941  1012
22.0041  1046
22.0141  1035
22.0241  1047
22.0341  1043
22.0441  1046
22.0541  1106
22.0641  1045
22.0741  1090
22.0841  1109
22.0941  1139
22.1041  1102
22.1141  1074
22.1241  1094
22.1341  1080
22.1441  1079
22.1541  1111
22.1641  1097
22.1741  1092
22.1841  1053
22.1941  1066
22.2041  1090
22.2141  1083
22.2241  1034
22.2341  1105
22.2441  1119
22.2541  1058
22.2641  1074
22.2741  1041
22.2841  1118
22.2941  1015
22.3041  1098
22.3141  1067
22.3241  1079
22.3341  1121
22.3441  1045
22.3541  1088
22.3641  1079
22.3741  1089
22.3841  1092
22.3941  1082
22.4041  1047
22.4141  1069
22.4241  1071
22.4341  1100
22.4441  1116
22.4541  1070
22.4641  1090
22.4741  1080
22.4841  1083
22.4941  1079
22.5041  1090
22.5141  1153
22.5241  1063
22.5341  1054
22.5441  1103
22.5541  1048
22.5641  1116
22.5741  1066
22.5841  1026
22.5941  1072
22.6041  1047
22.6141  1128
22.6241  1034
22.6341  1039
22.6441  1093
22.6541  1057
22.6641  1063
22.6741  1072
22.6841  1080
22.6941  1081
22.7041  1115
22.7141  1072
22.7241  1091
22.7341  1085
22.7441  1054
22.7541  1110
22.7641  1062
22.7741  1102
22.7841  1058
22.7941  1064
22.8041  1047
22.8141  1040
22.8241  1085
22.8341  1076
22.8441  1048
22.8541  1056
22.8641  1075
22.8741  1059
22.8841  1026
22.8941  1093
22.9041  1047
22.9141  1071
22.9241  1119
22.9341  1038
22.9441  1066
22.9541  1095
22.9641  1061
22.9741  1127
22.9841  1082
22.9941  1055
23.0041  1049
23.0141  1117
23.0241  1068
23.0341  1073
23.0441   974
23.0541  1051
23.0641  1054
23.0741  1068
23.0841  1043
23.0941  1042
23.1041  1045
23.1141  1057
23.1241  1178
23.1341  1058
23.1441  1061
23.1541  1053
23.1641  1075
23.1741  1065
23.1841  1081
23.1941  1020
23.2041  1029
23.2141  1032
23.2241   990
23.2341  1037
23.2441  1092
23.2541  1049
23.2641  1085
23.2741  1054
23.2841  1028
23.2941  1051
23.3041  1064
23.3141  1009
23.3241  1084
23.3341   980
23.3441  1036
23.3541  1049
23.3641  1033
23.3741  1021
23.3841  1000
23.3941   995
23.4041  1033
23.4141  1047
23.4241  1080
23.4341  1077
23.4441  1032
23.4541  1019
23.4641  1101
23.4741  1090
23.4841  1093
23.4941  1028
23.5041   980
23.5141  1022
23.5241   949
23.5341  1091
23.5441  1083
23.5541  1047
23.5641  1000
23.5741   974
23.5841  1020
23.5941   999
23.6041  1044
23.6141  1009
23.6241  1030
23.6341  1021
23.6441  1042
23.6541  1059
23.6641  1099
23.6741  1116
23.6841  1134
23.6941  1086
23.7041  1027
23.7141  1158
23.7241  1136
23.7341  1095
23.7441  1098
23.7541  1132
23.7641  1146
23.7741  1106
23.7841  1147
23.7941  1121
23.8041  1123
23.8141  1090
23.8241  1132
23.8341  1131
23.8441  1183
23.8541  1134
23.8641  1136
23.8741  1155
23.8841  1102
23.8941  1088
23.9041  1102
23.9141  1071
23.9241  1026
23.9341  1078
23.9441  1070
23.9541  1073
23.9641  1054
23.9741  1018
23.9841  1021
23.9941  1031
24.0041  1043
24.0141   992
24.0241  1005
24.0341  1016
24.0441  1010
24.0541  1044
24.0641  1031
24.0741  1067
24.0841  1007
24.0941  1031
24.1041  1015
24.1141   963
24.1241  1036
24.1341  1016
24.1441  1042
24.1541  1027
24.1641  1015
24.1741  1016
24.1841  1000
24.1941  1027
24.2041   997
24.2141   997
24.2241  1050
24.2341  1003
24.2441  1003
24.2541  1013
24.2641   988
24.2741  1024
24.2841   977
24.2941  1010
24.3041  1023
24.3141  1021
24.3241   983
24.3341   975
24.3441   999
24.3541   954
24.3641   992
24.3741  1049
24.3841  1043
24.3941   996
24.4041  1008
24.4141   994
24.4241   994
24.4341  1000
24.4441   967
24.4541   976
24.4641  1001
24.4741   947
24.4841  1018
24.4941   989
24.5041   989
24.5141   980
24.5241   952
24.5341   953
24.5441  1001
24.5541   980
24.5641   960
24.5741   985
24.5841  1033
24.5941  1016
24.6041   992
24.6141   967
24.6241   955
24.6341   967
24.6441   988
24.6541  1005
24.6641   953
24.6741   993
24.6841   934
24.6941   953
24.7041   997
24.7141   945
24.7241   951
24.7341   957
24.7441   931
24.7541   917
24.7641   914
24.7741   934
24.7841   948
24.7941  1008
24.8041   939
24.8141   966
24.8241   956
24.8341   967
24.8441   961
24.8541   971
24.8641   961
24.8741   936
24.8841   955
24.8941   962
24.9041   952
24.9141   933
24.9241   965
24.9341   982
24.9441   971
24.9541   950
24.9641   968
24.9741   983
24.9841   978
24.9941   927
25.0041   968
25.0141   984
25.0241   997
25.0341   966
25.0441   983
25.0541   957
25.0641   955
25.0741   937
25.0841  1012
25.0941   948
25.1041   985
25.1141   968
25.1241   958
25.1341   913
25.1441   944
25.1541   931
25.1641   986
25.1741   947
25.1841   993
25.1941   915
25.2041   974
25.2141   977
25.2241   960
25.2341   927
25.2441   994
25.2541   992
25.2641   919
25.2741  1017
25.2841   972
25.2941   973
25.3041   953
25.3141   941
25.3241  1017
25.3341   899
25.3441   918
25.3541   941
25.3641   965
25.3741   951
25.3841   931
25.3941   929
25.4041   900
25.4141   954
25.4241   937
25.4341   935
25.4441   929
25.4541   917
25.4641   935
25.4741   912
25.4841   934
25.4941   913
25.5041   906
25.5141   909
25.5241   899
25.5341   886
25.5441   879
25.5541   944
25.5641   891
25.5741   912
25.5841   956
25.5941   911
25.6041   919
25.6141   909
25.6241   861
25.6341   974
25.6441   885
25.6541   862
25.6641   868
25.6741   891
25.6841   902
25.6941   871
25.7041   849
25.7141   909
25.7241   915
25.7341   909
25.7441   831
25.7541   873
25.7641   878
25.7741   878
25.7841   904
25.7941   886
25.8041   891
25.8141   842
25.8241   926
25.8341   863
25.8441   890
25.8541   870
25.8641   863
25.8741   916
25.8841   894
25.8941   870
25.9041   875
25.9141   867
25.9241   873
25.9341   881
25.9441   871
25.9541   892
25.9641   844
25.9741   896
25.9841   880
25.9941   866
26.0041   886
26.0141   879
26.0241   849
26.0341   917
26.0441   872
26.0541   811
26.0641   809
26.0741   848
26.0841   841
26.0941   856
26.1041   939
26.1141   948
26.1241   890
26.1341   830
26.1441   840
26.1541   867
26.1641   862
26.1741   896
26.1841   876
26.1941   919
26.2041   866
26.2141   867
26.2241   883
26.2341   851
26.2441   799
26.2541   856
26.2641   888
26.2741   876
26.2841   851
26.2941   860
26.3041   875
26.3141   807
26.3241   827
26.3341   925
26.3441   875
26.3541   854
26.3641   903
26.3741   819
26.3841   883
26.3941   822
26.4041   828
26.4141   863
26.4241   829
26.4341   855
26.4441   870
26.4541   840
26.4641   820
26.4741   790
26.4841   847
26.4941   792
26.5041   800
26.5141   779
26.5241   826
26.5341   823
26.5441   840
26.5541   811
26.5641   821
26.5741   884
26.5841   860
26.5941   803
26.6041   806
26.6141   845
26.6241   814
26.6341   851
26.6441   797
26.6541   768
26.6641   809
26.6741   818
26.6841   806
26.6941   864
26.7041   835
26.7141   853
26.7241   765
26.7341   753
26.7441   783
26.7541   797
26.7641   824
26.7741   794
26.7841   794
26.7941   782
26.8041   807
26.8141   786
26.8241   756
26.8341   773
26.8441   828
26.8541   802
26.8641   769
26.8741   812
26.8841   807
26.8941   809
26.9041   810
26.9141   800
26.9241   745
26.9341   791
26.9441   775
26.9541   740
26.9641   799
26.9741   837
26.9841   771
26.9941   763
27.0041   812
27.0141   781
27.0241   781
27.0341   802
27.0441   738
27.0541   785
27.0641   797
27.0741   761
27.0841   774
27.0941   760
27.1041   745
27.1141   798
27.1241   844
27.1341   787
27.1441   731
27.1541   785
27.1641   767
27.1741   842
27.1841   746
27.1941   769
27.2041   758
27.2141   756
27.2241   761
27.2341   764
27.2441   811
27.2541   763
27.2641   766
27.2741   755
27.2841   765
27.2941   830
27.3041   791
27.3141   796
27.3241   737
27.3341   798
27.3441   775
27.3541   770
27.3641   710
27.3741   792
27.3841   794
27.3941   798
27.4041   766
27.4141   750
27.4241   798
27.4341   762
27.4441   738
27.4541   761
27.4641   767
27.4741   765
27.4841   809
27.4941   787
27.5041   728
27.5141   716
27.5241   775
27.5341   742
27.5441   796
27.5541   773
27.5641   795
27.5741   767
27.5841   758
27.5941   755
27.6041   741
27.6141   734
27.6241   765
27.6341   735
27.6441   716
27.6541   731
27.6641   745
27.6741   773
27.6841   717
27.6941   707
27.7041   733
27.7141   750
27.7241   745
27.7341   720
27.7441   721
27.7541   744
27.7641   711
27.7741   703
27.7841   704
27.7941   742
27.8041   761
27.8141   735
27.8241   738
27.8341   736
27.8441   751
27.8541   701
27.8641   702
27.8741   709
27.8841   722
27.8941   679
27.9041   696
27.9141   727
27.9241   689
27.9341   708
27.9441   697
27.9541   695
27.9641   720
27.9741   723
27.9841   680
27.9941   688
28.0041   736
28.0141   717
28.0241   727
28.0341   691
28.0441   729
28.0541   670
28.0641   716
28.0741   711
28.0841   666
28.0941   694
28.1041   715
28.1141   691
28.1241   696
28.1341   735
28.1441   736
28.1541   712
28.1641   674
28.1741   674
28.1841   716
28.1941   682
28.2041   693
28.2141   711
28.2241   730
28.2341   655
28.2441   671
28.2541   696
28.2641   709
28.2741   718
28.2841   674
28.2941   670
28.3041   686
28.3141   719
28.3241   638
28.3341   667
28.3441   686
28.3541   683
28.3641   740
28.3741   695
28.3841   696
28.3941   674
28.4041   685
28.4141   697
28.4241   712
28.4341   671
28.4441   683
28.4541   701
28.4641   699
28.4741   695
28.4841   658
28.4941   675
28.5041   698
28.5141   672
28.5241   693
28.5341   687
28.5441   614
28.5541   667
28.5641   639
28.5741   686
28.5841   682
28.5941   648
28.6041   644
28.6141   670
28.6241   647
28.6341   679
28.6441   638
28.6541   685
28.6641   626
28.6741   648
28.6841   676
28.6941   628
28.7041   619
28.7141   679
28.7241   722
28.7341   680
28.7441   673
28.7541   635
28.7641   652
28.7741   665
28.7841   606
28.7941   644
28.8041   674
28.8141   672
28.8241   646
28.8341   643
28.8441   640
28.8541   641
28.8641   655
28.8741   631
28.8841   664
28.8941   666
28.9041   665
28.9141   616
28.9241   641
28.9341   649
28.9441   631
28.9541   646
28.9641   626
28.9741   633
28.9841   643
28.9941   641
29.0041   663
29.0141   627
29.0241   609
29.0341   627
29.0441   605
29.0541   635
29.0641   653
29.0741   628
29.0841   655
29.0941   614
29.1041   604
29.1141   614
29.1241   650
29.1341   631
29.1441   638
29.1541   609
29.1641   562
29.1741   635
29.1841   632
29.1941   664
29.2041   634
29.2141   573
29.2241   576
29.2341   627
29.2441   634
29.2541   609
29.2641   604
29.2741   612
29.2841   612
29.2941   599
29.3041   648
29.3141   581
29.3241   616
29.3341   557
29.3441   603
29.3541   631
29.3641   620
29.3741   639
29.3841   611
29.3941   566
29.4041   603
29.4141   597
29.4241   606
29.4341   653
29.4441   576
29.4541   587
29.4641   596
29.4741   612
29.4841   595
29.4941   616
29.5041   580
29.5141   580
29.5241   605
29.5341   589
29.5441   598
29.5541   602
29.5641   577
29.5741   622
29.5841   582
29.5941   591
29.6041   614
29.6141   580
29.6241   585
29.6341   572
29.6441   584
29.6541   562
29.6641   568
29.6741   565
29.6841   570
29.6941   578
29.7041   513
29.7141   584
29.7241   620
29.7341   550
29.7441   561
29.7541   546
29.7641   564
29.7741   541
29.7841   595
29.7941   556
29.8041   534
29.8141   593
29.8241   549
29.8341   549
29.8441   560
29.8541   541
29.8641   581
29.8741   561
29.8841   580
29.8941   603
29.9041   600
29.9141   573
29.9241   546
29.9341   517
29.9441   556
29.9541   582
29.9641   565
29.9741   557
29.9841   561
29.9941   546
30.0041   546
30.0141   567
30.0241   531
30.0341   529
30.0441   541
30.0541   515
30.0641   521
30.0741   549
30.0841   559
30.0941   568
30.1041   553
30.1141   569
30.1241   549
30.1341   530
30.1441   542
30.1541   519
30.1641   531
30.1741   528
30.1841   543
30.1941   538
30.2041   574
30.2141   525
30.2241   540
30.2341   533
30.2441   567
30.2541   520
30.2641   502
30.2741   511
30.2841   546
30.2941   513
30.3041   538
30.3141   528
30.3241   468
30.3341   503
30.3441   534
30.3541   503
30.3641   547
30.3741   504
30.3841   523
30.3941   544
30.4041   514
30.4141   511
30.4241   531
30.4341   519
30.4441   560
30.4541   519
30.4641   511
30.4741   494
30.4841   523
30.4941   533
30.5041   512
30.5141   488
30.5241   488
30.5341   507
30.5441   501
30.5541   540
30.5641   523
30.5741   521
30.5841   501
30.5941   520
30.6041   506
30.6141   494
30.6241   505
30.6341   502
30.6441   486
30.6541   479
30.6641   502
30.6741   449
30.6841   471
30.6941   491
30.7041   512
30.7141   490
30.7241   515
30.7341   488
30.7441   495
30.7541   493
30.7641   480
30.7741   506
30.7841   467
30.7941   471
30.8041   506
30.8141   527
30.8241   480
30.8341   477
30.8441   451
30.8541   484
30.8641   504
30.8741   453
30.8841   477
30.8941   460
30.9041   469
30.9141   474
30.9241   479
30.9341   475
30.9441   513
30.9541   489
30.9641   509
30.9741   473
30.9841   477
30.9941   476
31.0041   489
31.0141   468
31.0241   474
31.0341   447
31.0441   473
31.0541   452
31.0641   441
31.0741   447
31.0841   433
31.0941   468
31.1041   459
31.1141   445
31.1241   438
31.1341   445
31.1441   455
31.1541   465
31.1641   496
31.1741   445
31.1841   466
31.1941   486
31.2041   453
31.2141   447
31.2241   472
31.2341   440
31.2441   463
31.2541   472
31.2641   464
31.2741   471
31.2841   464
31.2941   467
31.3041   469
31.3141   446
31.3241   468
31.3341   467
31.3441   460
31.3541   443
31.3641   453
31.3741   463
31.3841   389
31.3941   406
31.4041   453
31.4141   435
31.4241   454
31.4341   443
31.4441   451
31.4541   455
31.4641   438
31.4741   420
31.4841   427
31.4941   440
31.5041   452
31.5141   411
31.5241   448
31.5341   429
31.5441   456
31.5541   442
31.5641   436
31.5741   470
31.5841   454
31.5941   418
31.6041   439
31.6141   412
31.6241   419
31.6341   447
31.6441   435
31.6541   412
31.6641   456
31.6741   421
31.6841   454
31.6941   426
31.7041   428
31.7141   445
31.7241   470
31.7341   414
31.7441   465
31.7541   461
31.7641   437
31.7741   448
31.7841   460
31.7941   466
31.8041   417
31.8141   433
31.8241   445
31.8341   443
31.8441   460
31.8541   430
31.8641   481
31.8741   452
31.8841   443
31.8941   447
31.9041   412
31.9141   459
31.9241   464
31.9341   439
31.9441   466
31.9541   456
31.9641   449
31.9741   451
31.9841   459
31.9941   414
32.0041   447
32.0141   402
32.0241   435
32.0341   434
32.0441   429
32.0541   450
32.0641   447
32.0741   437
32.0841   462
32.0941   427
32.1041   455
32.1141   488
32.1241   474
32.1341   442
32.1441   481
32.1541   468
32.1641   478
32.1741   431
32.1841   437
32.1941   440
32.2041   479
32.2141   446
32.2241   425
32.2341   455
32.2441   448
32.2541   430
32.2641   402
32.2741   458
32.2841   447
32.2941   413
32.3041   376
32.3141   397
32.3241   398
32.3341   417
32.3441   410
32.3541   414
32.3641   387
32.3741   401
32.3841   387
32.3941   381
32.4041   417
32.4141   368
32.4241   367
32.4341   378
32.4441   423
32.4541   372
32.4641   379
32.4741   349
32.4841   423
32.4941   445
32.5041   370
32.5141   378
32.5241   382
32.5341   379
32.5441   376
32.5541   373
32.5641   372
32.5741   389
32.5841   377
32.5941   363
32.6041   371
32.6141   352
32.6241   371
32.6341   335
32.6441   349
32.6541   358
32.6641   358
32.6741   358
32.6841   356
32.6941   348
32.7041   353
32.7141   347
32.7241   403
32.7341   369
32.7441   373
32.7541   341
32.7641   344
32.7741   331
32.7841   389
32.7941   336
32.8041   360
32.8141   351
32.8241   329
32.8341   316
32.8441   342
32.8541   363
32.8641   370
32.8741   355
32.8841   366
32.8941   363
32.9041   392
32.9141   359
32.9241   380
32.9341   381
32.9441   370
32.9541   350
32.9641   332
32.9741   362
32.9841   323
32.9941   346
33.0041   343
33.0141   341
33.0241   371
33.0341   358
33.0441   354
33.0541   340
33.0641   290
33.0741   345
33.0841   362
33.0941   330
33.1041   294
33.1141   373
33.1241   340
33.1341   363
33.1441   325
33.1541   335
33.1641   358
33.1741   339
33.1841   346
33.1941   315
33.2041   332
33.2141   337
33.2241   352
33.2341   331
33.2441   358
33.2541   350
33.2641   331
33.2741   335
33.2841   326
33.2941   348
33.3041   319
33.3141   332
33.3241   324
33.3341   343
33.3441   329
33.3541   293
33.3641   319
33.3741   303
33.3841   308
33.3941   305
33.4041   342
33.4141   306
33.4241   345
33.4341   313
33.4441   320
33.4541   294
33.4641   323
33.4741   322
33.4841   266
33.4941   339
33.5041   323
33.5141   329
33.5241   320
33.5341   342
33.5441   307
33.5541   317
33.5641   317
33.5741   294
33.5841   309
33.5941   314
33.6041   321
33.6141   295
33.6241   301
33.6341   307
33.6441   290
33.6541   308
33.6641   303
33.6741   291
33.6841   300
33.6941   296
33.7041   294
33.7141   301
33.7241   318
33.7341   289
33.7441   285
33.7541   278
33.7641   314
33.7741   281
33.7841   301
33.7941   307
33.8041   309
33.8141   296
33.8241   293
33.8341   303
33.8441   303
33.8541   308
33.8641   259
33.8741   281
33.8841   287
33.8941   298
33.9041   298
33.9141   321
33.9241   292
33.9341   293
33.9441   291
33.9541   272
33.9641   290
33.9741   303
33.9841   270
33.9941   293
34.0041   267
34.0141   288
34.0241   273
34.0341   267
34.0441   277
34.0541   298
34.0641   268
34.0741   279
34.0841   273
34.0941   255
34.1041   277
34.1141   316
34.1241   266
34.1341   273
34.1441   288
34.1541   262
34.1641   302
34.1741   304
34.1841   269
34.1941   275
34.2041   297
34.2141   284
34.2241   263
34.2341   280
34.2441   267
34.2541   293
34.2641   261
34.2741   273
34.2841   281
34.2941   245
34.3041   261
34.3141   267
34.3241   263
34.3341   270
34.3441   281
34.3541   268
34.3641   259
34.3741   271
34.3841   273
34.3941   269
34.4041   265
34.4141   270
34.4241   258
34.4341   282
34.4441   273
34.4541   288
34.4641   277
34.4741   251
34.4841   267
34.4941   273
34.5041   259
34.5141   252
34.5241   257
34.5341   251
34.5441   256
34.5541   272
34.5641   282
34.5741   259
34.5841   264
34.5941   233
34.6041   283
34.6141   242
34.6241   265
34.6341   212
34.6441   243
34.6541   271
34.6641   267
34.6741   247
34.6841   245
34.6941   240
34.7041   269
34.7141   244
34.7241   265
34.7341   255
34.7441   253
34.7541   258
34.7641   227
34.7741   248
34.7841   252
34.7941   263
34.8041   257
34.8141   252
34.8241   253
34.8341   242
34.8441   239
34.8541   219
34.8641   243
34.8741   230
34.8841   224
34.8941   249
34.9041   215
34.9141   269
34.9241   244
34.9341   241
34.9441   238
34.9541   238
34.9641   214
34.9741   217
34.9841   236
34.9941   253
35.0041   235
35.0141   228
35.0241   208
35.0341   248
35.0441   233
35.0541   230
35.0641   245
35.0741   223
35.0841   228
35.0941   215
35.1041   226
35.1141   237
35.1241   232
35.1341   242
35.1441   234
35.1541   209
35.1641   218
35.1741   216
35.1841   234
35.1941   218
35.2041   224
35.2141   211
35.2241   230
35.2341   224
35.2441   206
35.2541   218
35.2641   201
35.2741   209
35.2841   222
35.2941   215
35.3041   230
35.3141   232
35.3241   237
35.3341   218
35.3441   217
35.3541   249
35.3641   212
35.3741   185
35.3841   194
35.3941   213
35.4041   206
35.4141   207
35.4241   235
35.4341   228
35.4441   219
35.4541   217
35.4641   220
35.4741   234
35.4841   234
35.4941   203
35.5041   232
35.5141   250
35.5241   210
35.5341   210
35.5441   206
35.5541   198
35.5641   211
35.5741   185
35.5841   229
35.5941   207
35.6041   201
35.6141   201
35.6241   196
35.6341   200
35.6441   210
35.6541   194
35.6641   178
35.6741   185
35.6841   188
35.6941   205
35.7041   194
35.7141   219
35.7241   206
35.7341   175
35.7441   177
35.7541   199
35.7641   205
35.7741   198
35.7841   190
35.7941   204
35.8041   220
35.8141   192
35.8241   189
35.8341   213
35.8441   210
35.8541   199
35.8641   205
35.8741   208
35.8841   193
35.8941   219
35.9041   184
35.9141   193
35.9241   211
35.9341   182
35.9441   207
35.9541   189
35.9641   178
35.9741   197
35.9841   199
35.9941   226
36.0041   174
36.0141   186
36.0241   196
36.0341   212
36.0441   199
36.0541   200
36.0641   184
36.0741   177
36.0841   186
36.0941   188
36.1041   176
36.1141   205
36.1241   191
36.1341   177
36.1441   191
36.1541   196
36.1641   211
36.1741   191
36.1841   200
36.1941   186
36.2041   170
36.2141   192
36.2241   181
36.2341   171
36.2441   202
36.2541   200
36.2641   185
36.2741   211
36.2841   180
36.2941   196
36.3041   196
36.3141   197
36.3241   189
36.3341   206
36.3441   194
36.3541   186
36.3641   195
36.3741   194
36.3841   202
36.3941   200
36.4041   201
36.4141   199
36.4241   187
36.4341   179
36.4441   181
36.4541   203
36.4641   184
36.4741   195
36.4841   188
36.4941   204
36.5041   150
36.5141   205
36.5241   175
36.5341   162
36.5441   175
36.5541   177
36.5641   180
36.5741   178
36.5841   166
36.5941   151
36.6041   166
36.6141   172
36.6241   171
36.6341   158
36.6441   167
36.6541   174
36.6641   158
36.6741   162
36.6841   171
36.6941   177
36.7041   180
36.7141   173
36.7241   149
36.7341   173
36.7441   176
36.7541   158
36.7641   183
36.7741   135
36.7841   141
36.7941   176
36.8041   200
36.8141   153
36.8241   159
36.8341   173
36.8441   167
36.8541   159
36.8641   146
36.8741   166
36.8841   175
36.8941   149
36.9041   163
36.9141   165
36.9241   154
36.9341   162
36.9441   152
36.9541   147
36.9641   139
36.9741   145
36.9841   131
36.9941   148
37.0041   134
37.0141   154
37.0241   152
37.0341   147
37.0441   139
37.0541   147
37.0641   171
37.0741   169
37.0841   143
37.0941   131
37.1041   165
37.1141   154
37.1241   143
37.1341   140
37.1441   138
37.1541   157
37.1641   150
37.1741   151
37.1841   140
37.1941   131
37.2041   154
37.2141   136
37.2241   172
37.2341   144
37.2441   153
37.2541   147
37.2641   140
37.2741   155
37.2841   144
37.2941   142
37.3041   133
37.3141   135
37.3241   159
37.3341   130
37.3441   158
37.3541   155
37.3641   144
37.3741   154
37.3841   139
37.3941   146
37.4041   137
37.4141   134
37.4241   154
37.4341   147
37.4441   146
37.4541   142
37.4641   125
37.4741   124
37.4841   127
37.4941   147
37.5041   135
37.5141   142
37.5241   141
37.5341   139
37.5441   148
37.5541   131
37.5641   120
37.5741   116
37.5841   145
37.5941   144
37.6041   122
37.6141   118
37.6241   137
37.6341   121
37.6441   136
37.6541   141
37.6641   127
37.6741   131
37.6841   120
37.6941   148
37.7041   125
37.7141   104
37.7241    94
37.7341   110
37.7441   120
37.7541   127
37.7641   125
37.7741   132
37.7841   141
37.7941   134
37.8041   133
37.8141   139
37.8241   133
37.8341   115
37.8441   118
37.8541   116
37.8641   147
37.8741   122
37.8841   114
37.8941   132
37.9041   115
37.9141   117
37.9241   128
37.9341   139
37.9441    99
37.9541   122
37.9641   109
37.9741   116
37.9841   120
37.9941   114
38.0041   112
38.0141   119
38.0241   136
38.0341   129
38.0441   132
38.0541   109
38.0641   130
38.0741   115
38.0841   100
38.0941   110
38.1041   113
38.1141   110
38.1241   108
38.1341   106
38.1441   114
38.1541   117
38.1641   118
38.1741   116
38.1841   114
38.1941   128
38.2041   126
38.2141   121
38.2241   111
38.2341   107
38.2441    85
38.2541   100
38.2641   101
38.2741   109
38.2841   118
38.2941   115
38.3041   109
38.3141   113
38.3241    95
38.3341   111
38.3441   128
38.3541    94
38.3641   104
38.3741    90
38.3841   113
38.3941   107
38.4041   100
38.4141   108
38.4241    99
38.4341   101
38.4441    89
38.4541    92
38.4641    97
38.4741   102
38.4841    99
38.4941   112
38.5041    90
38.5141    96
38.5241   108
38.5341    88
38.5441   107
38.5541   100
38.5641   116
38.5741    97
38.5841   114
38.5941   105
38.6041    85
38.6141    86
38.6241   103
38.6341    72
38.6441   103
38.6541    97
38.6641   110
38.6741    96
38.6841    88
38.6941    84
38.7041    96
38.7141    97
38.7241    90
38.7341    96
38.7441    92
38.7541    90
38.7641   102
38.7741    89
38.7841    83
38.7941    93
38.8041    93
38.8141    78
38.8241    84
38.8341    99
38.8441    97
38.8541    92
38.8641    81
38.8741    78
38.8841    95
38.8941    97
38.9041    98
38.9141    88
38.9241    99
38.9341    90
38.9441    90
38.9541    75
38.9641    76
38.9741    89
38.9841   103
38.9941    73
39.0041    92
39.0141    84
39.0241    97
39.0341   102
39.0441    70
39.0541    87
39.0641    72
39.0741   103
39.0841    74
39.0941    77
39.1041    86
39.1141    88
39.1241    77
39.1341    78
39.1441    75
39.1541    92
39.1641    84
39.1741    75
39.1841    75
39.1941    89
39.2041    81
39.2141    72
39.2241    74
39.2341    83
39.2441    88
39.2541    79
39.2641    89
39.2741    71
39.2841    84
39.2941    93
39.3041    72
39.3141    70
39.3241    77
39.3341    82
39.3441    88
39.3541    86
39.3641    70
39.3741    71
39.3841    57
39.3941    79
39.4041    70
39.4141    66
39.4241    99
39.4341    87
39.4441    83
39.4541    73
39.4641    71
39.4741    68
39.4841    69
39.4941    59
39.5041    84
39.5141    63
39.5241    79
39.5341    74
39.5441    71
39.5541    61
39.5641    78
39.5741    75
39.5841    74
39.5941    73
39.6041    71
39.6141    74
39.6241    58
39.6341    74
39.6441    54
39.6541    76
39.6641    68
39.6741    59
39.6841    62
39.6941    55
39.7041    67
39.7141    63
39.7241    56
39.7341    59
39.7441    78
39.7541    83
39.7641    54
39.7741    61
39.7841    56
39.7941    62
39.8041    77
39.8141    66
39.8241    68
39.8341    67
39.8441    77
39.8541    60
39.8641    58
39.8741    58
39.8841    58
39.8941    59
39.9041    66
39.9141    70
39.9241    56
39.9341    59
39.9441    71
39.9541    64
39.9641    64
39.9741    50
39.9841    63
39.9941    74
