Bruker Nano GmbH Berlin, Germany
Esprit 1.9

Date: 4/1/2021 5:01:28 PM
Real time: 16909
Life time: 15702
Pulse density: 108860


Detector type: XFlash 430
Window type: Custom type
Detector thickness: 0.45
Si dead layer:0.029

Calibration, lin.: 10
Calibration, abs.: -955.9
Mn FWHM: 137.05
Fano factor: 0.121
Channels: 4095

Energy Counts
-0.9559     0
-0.9459     0
-0.9359     0
-0.9259     0
-0.9159     0
-0.9059     0
-0.8959     0
-0.8859     0
-0.8759     0
-0.8659     0
-0.8559     0
-0.8459     0
-0.8359     0
-0.8259     0
-0.8159     0
-0.8059     0
-0.7959     0
-0.7859     0
-0.7759     0
-0.7659     0
-0.7559     0
-0.7459     0
-0.7359     0
-0.7259     0
-0.7159     0
-0.7059     0
-0.6959     0
-0.6859     0
-0.6759     0
-0.6659     0
-0.6559     0
-0.6459     0
-0.6359     0
-0.6259     0
-0.6159     0
-0.6059     0
-0.5959     0
-0.5859     0
-0.5759     0
-0.5659     0
-0.5559     0
-0.5459     0
-0.5359     0
-0.5259     0
-0.5159     0
-0.5059     0
-0.4959     0
-0.4859     0
-0.4759     0
-0.4659     0
-0.4559     0
-0.4459     0
-0.4359     0
-0.4259     0
-0.4159     0
-0.4059     0
-0.3959     0
-0.3859     0
-0.3759     0
-0.3659     0
-0.3559     0
-0.3459     0
-0.3359     0
-0.3259     0
-0.3159     0
-0.3059     0
-0.2959     0
-0.2859     0
-0.2759     0
-0.2659     0
-0.2559     0
-0.2459     0
-0.2359     0
-0.2259     0
-0.2159     0
-0.2059     0
-0.1959     0
-0.1859     0
-0.1759     0
-0.1659     0
-0.1559     0
-0.1459     0
-0.1359     1
-0.1259     0
-0.1159     2
-0.1059     8
-0.0959    52
-0.0859   204
-0.0759   583
-0.0659  1792
-0.0559  4628
-0.0459  9871
-0.0359 18558
-0.0259 29578
-0.0159 40941
-0.0059 48228
 0.0041 48433
 0.0141 41941
 0.0241 30860
 0.0341 19482
 0.0441 10593
 0.0541  4912
 0.0641  1890
 0.0741   691
 0.0841   212
 0.0941    69
 0.1041    19
 0.1141     8
 0.1241     7
 0.1341     8
 0.1441     5
 0.1541     4
 0.1641     5
 0.1741     1
 0.1841   128
 0.1941   258
 0.2041   239
 0.2141   239
 0.2241   227
 0.2341   249
 0.2441   251
 0.2541   227
 0.2641   230
 0.2741   233
 0.2841   245
 0.2941   238
 0.3041   236
 0.3141   219
 0.3241   202
 0.3341   219
 0.3441   228
 0.3541   226
 0.3641   215
 0.3741   214
 0.3841   205
 0.3941   212
 0.4041   194
 0.4141   196
 0.4241   182
 0.4341   186
 0.4441   214
 0.4541   194
 0.4641   197
 0.4741   213
 0.4841   206
 0.4941   216
 0.5041   205
 0.5141   192
 0.5241   188
 0.5341   197
 0.5441   197
 0.5541   215
 0.5641   208
 0.5741   195
 0.5841   184
 0.5941   184
 0.6041   181
 0.6141   182
 0.6241   183
 0.6341   182
 0.6441   182
 0.6541   173
 0.6641   184
 0.6741   187
 0.6841   179
 0.6941   167
 0.7041   160
 0.7141   164
 0.7241   177
 0.7341   167
 0.7441   157
 0.7541   192
 0.7641   185
 0.7741   172
 0.7841   181
 0.7941   168
 0.8041   155
 0.8141   155
 0.8241   145
 0.8341   147
 0.8441   161
 0.8541   164
 0.8641   160
 0.8741   156
 0.8841   161
 0.8941   154
 0.9041   166
 0.9141   175
 0.9241   163
 0.9341   162
 0.9441   164
 0.9541   175
 0.9641   157
 0.9741   144
 0.9841   152
 0.9941   143
 1.0041   137
 1.0141   143
 1.0241   132
 1.0341   142
 1.0441   139
 1.0541   160
 1.0641   140
 1.0741   141
 1.0841   142
 1.0941   156
 1.1041   145
 1.1141   156
 1.1241   156
 1.1341   137
 1.1441   160
 1.1541   142
 1.1641   148
 1.1741   166
 1.1841   157
 1.1941   134
 1.2041   132
 1.2141   133
 1.2241   137
 1.2341   118
 1.2441   130
 1.2541   139
 1.2641   144
 1.2741   148
 1.2841   139
 1.2941   125
 1.3041   154
 1.3141   155
 1.3241   129
 1.3341   136
 1.3441   145
 1.3541   137
 1.3641   137
 1.3741   141
 1.3841   134
 1.3941   133
 1.4041   142
 1.4141   136
 1.4241   143
 1.4341   152
 1.4441   144
 1.4541   135
 1.4641   125
 1.4741   155
 1.4841   136
 1.4941   133
 1.5041   144
 1.5141   135
 1.5241   140
 1.5341   141
 1.5441   122
 1.5541   118
 1.5641   133
 1.5741   121
 1.5841   124
 1.5941   150
 1.6041   136
 1.6141   133
 1.6241   128
 1.6341   139
 1.6441   154
 1.6541   167
 1.6641   209
 1.6741   281
 1.6841   332
 1.6941   375
 1.7041   444
 1.7141   509
 1.7241   627
 1.7341   619
 1.7441   621
 1.7541   588
 1.7641   548
 1.7741   446
 1.7841   371
 1.7941   334
 1.8041   272
 1.8141   211
 1.8241   198
 1.8341   175
 1.8441   145
 1.8541   154
 1.8641   151
 1.8741   173
 1.8841   146
 1.8941   154
 1.9041   126
 1.9141   122
 1.9241   147
 1.9341   144
 1.9441   129
 1.9541   154
 1.9641   162
 1.9741   162
 1.9841   170
 1.9941   145
 2.0041   168
 2.0141   157
 2.0241   158
 2.0341   151
 2.0441   154
 2.0541   154
 2.0641   128
 2.0741   121
 2.0841   125
 2.0941   142
 2.1041   124
 2.1141   130
 2.1241   124
 2.1341   112
 2.1441   108
 2.1541   112
 2.1641   133
 2.1741   118
 2.1841   122
 2.1941   129
 2.2041   114
 2.2141   112
 2.2241   104
 2.2341   118
 2.2441   114
 2.2541   123
 2.2641   109
 2.2741   127
 2.2841   109
 2.2941   116
 2.3041    99
 2.3141    97
 2.3241   114
 2.3341    99
 2.3441    90
 2.3541   112
 2.3641   122
 2.3741   108
 2.3841   108
 2.3941   113
 2.4041   102
 2.4141   102
 2.4241   110
 2.4341    98
 2.4441   115
 2.4541   108
 2.4641   113
 2.4741   108
 2.4841   116
 2.4941    92
 2.5041   104
 2.5141    95
 2.5241    77
 2.5341   112
 2.5441    95
 2.5541    84
 2.5641    94
 2.5741   108
 2.5841   105
 2.5941   103
 2.6041    87
 2.6141    84
 2.6241   104
 2.6341   101
 2.6441    93
 2.6541    97
 2.6641    88
 2.6741   101
 2.6841    89
 2.6941    95
 2.7041   101
 2.7141    93
 2.7241   102
 2.7341    72
 2.7441    81
 2.7541    90
 2.7641   103
 2.7741   103
 2.7841   117
 2.7941    85
 2.8041   109
 2.8141   100
 2.8241   102
 2.8341   104
 2.8441    96
 2.8541   104
 2.8641    98
 2.8741   111
 2.8841   100
 2.8941    99
 2.9041    98
 2.9141   100
 2.9241    86
 2.9341   101
 2.9441    97
 2.9541    91
 2.9641    95
 2.9741   113
 2.9841   109
 2.9941    99
 3.0041   111
 3.0141    99
 3.0241    82
 3.0341    85
 3.0441    89
 3.0541    78
 3.0641    60
 3.0741    98
 3.0841    84
 3.0941    96
 3.1041    76
 3.1141    63
 3.1241    91
 3.1341    84
 3.1441    81
 3.1541    82
 3.1641    82
 3.1741    81
 3.1841    99
 3.1941    93
 3.2041    86
 3.2141    87
 3.2241    91
 3.2341   107
 3.2441   110
 3.2541   133
 3.2641   137
 3.2741   178
 3.2841   195
 3.2941   180
 3.3041   226
 3.3141   205
 3.3241   200
 3.3341   161
 3.3441   159
 3.3541   172
 3.3641   155
 3.3741   131
 3.3841   114
 3.3941   116
 3.4041   104
 3.4141    85
 3.4241    70
 3.4341    90
 3.4441    78
 3.4541    73
 3.4641    73
 3.4741    78
 3.4841    83
 3.4941    94
 3.5041    73
 3.5141    84
 3.5241   114
 3.5341   107
 3.5441    98
 3.5541   130
 3.5641   127
 3.5741   166
 3.5841   177
 3.5941   256
 3.6041   312
 3.6141   372
 3.6241   483
 3.6341   609
 3.6441   698
 3.6541   898
 3.6641   996
 3.6741  1030
 3.6841  1044
 3.6941  1038
 3.7041   979
 3.7141   974
 3.7241   805
 3.7341   722
 3.7441   613
 3.7541   507
 3.7641   387
 3.7741   328
 3.7841   228
 3.7941   167
 3.8041   143
 3.8141    84
 3.8241    96
 3.8341    81
 3.8441    75
 3.8541    76
 3.8641    72
 3.8741    72
 3.8841    60
 3.8941    72
 3.9041    76
 3.9141    78
 3.9241    95
 3.9341   113
 3.9441   116
 3.9541   136
 3.9641   151
 3.9741   188
 3.9841   195
 3.9941   198
 4.0041   235
 4.0141   203
 4.0241   196
 4.0341   184
 4.0441   185
 4.0541   172
 4.0641   141
 4.0741   138
 4.0841   121
 4.0941    90
 4.1041    97
 4.1141    74
 4.1241    85
 4.1341    79
 4.1441    69
 4.1541    69
 4.1641    72
 4.1741    49
 4.1841    57
 4.1941    56
 4.2041    55
 4.2141    59
 4.2241    65
 4.2341    41
 4.2441    57
 4.2541    46
 4.2641    56
 4.2741    61
 4.2841    56
 4.2941    61
 4.3041    73
 4.3141    61
 4.3241    65
 4.3341    74
 4.3441    67
 4.3541    66
 4.3641    75
 4.3741    97
 4.3841   112
 4.3941   127
 4.4041   169
 4.4141   210
 4.4241   266
 4.4341   320
 4.4441   417
 4.4541   460
 4.4641   577
 4.4741   589
 4.4841   692
 4.4941   694
 4.5041   732
 4.5141   741
 4.5241   726
 4.5341   613
 4.5441   538
 4.5541   485
 4.5641   394
 4.5741   329
 4.5841   273
 4.5941   226
 4.6041   210
 4.6141   153
 4.6241   104
 4.6341   110
 4.6441   102
 4.6541   100
 4.6641    74
 4.6741    73
 4.6841    79
 4.6941    94
 4.7041    61
 4.7141    55
 4.7241    89
 4.7341    79
 4.7441    79
 4.7541    64
 4.7641    83
 4.7741    90
 4.7841    84
 4.7941    94
 4.8041   112
 4.8141   112
 4.8241   111
 4.8341   123
 4.8441   136
 4.8541   158
 4.8641   154
 4.8741   176
 4.8841   165
 4.8941   195
 4.9041   199
 4.9141   209
 4.9241   217
 4.9341   222
 4.9441   208
 4.9541   195
 4.9641   182
 4.9741   184
 4.9841   186
 4.9941   139
 5.0041   143
 5.0141   122
 5.0241    84
 5.0341   100
 5.0441    94
 5.0541    79
 5.0641    92
 5.0741    81
 5.0841    92
 5.0941    78
 5.1041    88
 5.1141    82
 5.1241    74
 5.1341    81
 5.1441    77
 5.1541    75
 5.1641    68
 5.1741    82
 5.1841    90
 5.1941    95
 5.2041    90
 5.2141    74
 5.2241    83
 5.2341    70
 5.2441    91
 5.2541    73
 5.2641    74
 5.2741    83
 5.2841    99
 5.2941    80
 5.3041    76
 5.3141    71
 5.3241   107
 5.3341    94
 5.3441   107
 5.3541    96
 5.3641   132
 5.3741   140
 5.3841   129
 5.3941   147
 5.4041   133
 5.4141   128
 5.4241   138
 5.4341   148
 5.4441   144
 5.4541   146
 5.4641   147
 5.4741   125
 5.4841   116
 5.4941   102
 5.5041   106
 5.5141    91
 5.5241    84
 5.5341    92
 5.5441    72
 5.5541    90
 5.5641    81
 5.5741    99
 5.5841    86
 5.5941    84
 5.6041    89
 5.6141    80
 5.6241    85
 5.6341   106
 5.6441    90
 5.6541    72
 5.6641    80
 5.6741    78
 5.6841    78
 5.6941    87
 5.7041   114
 5.7141   110
 5.7241    88
 5.7341   112
 5.7441   102
 5.7541   115
 5.7641   135
 5.7741   137
 5.7841   144
 5.7941   176
 5.8041   172
 5.8141   222
 5.8241   252
 5.8341   310
 5.8441   346
 5.8541   387
 5.8641   403
 5.8741   434
 5.8841   450
 5.8941   469
 5.9041   452
 5.9141   446
 5.9241   403
 5.9341   402
 5.9441   323
 5.9541   333
 5.9641   278
 5.9741   250
 5.9841   233
 5.9941   181
 6.0041   170
 6.0141   149
 6.0241   134
 6.0341   136
 6.0441   120
 6.0541   122
 6.0641   160
 6.0741   133
 6.0841   147
 6.0941   135
 6.1041   136
 6.1141   161
 6.1241   133
 6.1341   151
 6.1441   172
 6.1541   197
 6.1641   194
 6.1741   230
 6.1841   295
 6.1941   302
 6.2041   427
 6.2141   588
 6.2241   770
 6.2341  1066
 6.2441  1492
 6.2541  2162
 6.2641  2956
 6.2741  4001
 6.2841  5403
 6.2941  7336
 6.3041  9492
 6.3141 11909
 6.3241 14512
 6.3341 17505
 6.3441 20259
 6.3541 23654
 6.3641 26048
 6.3741 28174
 6.3841 29666
 6.3941 30293
 6.4041 30039
 6.4141 29155
 6.4241 27571
 6.4341 25412
 6.4441 22452
 6.4541 19638
 6.4641 16486
 6.4741 13579
 6.4841 10664
 6.4941  8532
 6.5041  6398
 6.5141  4684
 6.5241  3467
 6.5341  2459
 6.5441  1667
 6.5541  1225
 6.5641   808
 6.5741   616
 6.5841   436
 6.5941   297
 6.6041   256
 6.6141   211
 6.6241   220
 6.6341   196
 6.6441   180
 6.6541   167
 6.6641   166
 6.6741   159
 6.6841   151
 6.6941   188
 6.7041   158
 6.7141   155
 6.7241   194
 6.7341   183
 6.7441   195
 6.7541   179
 6.7641   175
 6.7741   199
 6.7841   191
 6.7941   212
 6.8041   229
 6.8141   216
 6.8241   238
 6.8341   270
 6.8441   266
 6.8541   294
 6.8641   375
 6.8741   349
 6.8841   429
 6.8941   545
 6.9041   613
 6.9141   813
 6.9241   929
 6.9341  1211
 6.9441  1417
 6.9541  1707
 6.9641  2222
 6.9741  2532
 6.9841  3095
 6.9941  3640
 7.0041  4057
 7.0141  4338
 7.0241  4682
 7.0341  4966
 7.0441  5154
 7.0541  5222
 7.0641  5110
 7.0741  4807
 7.0841  4714
 7.0941  4151
 7.1041  3807
 7.1141  3236
 7.1241  2853
 7.1341  2378
 7.1441  2022
 7.1541  1502
 7.1641  1234
 7.1741  1009
 7.1841   833
 7.1941   621
 7.2041   486
 7.2141   355
 7.2241   302
 7.2341   249
 7.2441   211
 7.2541   208
 7.2641   195
 7.2741   183
 7.2841   155
 7.2941   173
 7.3041   217
 7.3141   172
 7.3241   195
 7.3341   187
 7.3441   192
 7.3541   219
 7.3641   211
 7.3741   236
 7.3841   252
 7.3941   247
 7.4041   273
 7.4141   241
 7.4241   258
 7.4341   266
 7.4441   286
 7.4541   270
 7.4641   241
 7.4741   260
 7.4841   245
 7.4941   246
 7.5041   246
 7.5141   233
 7.5241   233
 7.5341   199
 7.5441   212
 7.5541   179
 7.5641   194
 7.5741   187
 7.5841   183
 7.5941   161
 7.6041   162
 7.6141   167
 7.6241   166
 7.6341   185
 7.6441   167
 7.6541   171
 7.6641   160
 7.6741   179
 7.6841   195
 7.6941   191
 7.7041   186
 7.7141   173
 7.7241   185
 7.7341   171
 7.7441   212
 7.7541   187
 7.7641   206
 7.7741   187
 7.7841   188
 7.7941   203
 7.8041   229
 7.8141   229
 7.8241   215
 7.8341   259
 7.8441   219
 7.8541   245
 7.8641   254
 7.8741   261
 7.8841   263
 7.8941   287
 7.9041   282
 7.9141   288
 7.9241   343
 7.9341   308
 7.9441   324
 7.9541   376
 7.9641   386
 7.9741   422
 7.9841   462
 7.9941   500
 8.0041   592
 8.0141   570
 8.0241   564
 8.0341   636
 8.0441   662
 8.0541   709
 8.0641   737
 8.0741   806
 8.0841   826
 8.0941   905
 8.1041   969
 8.1141  1011
 8.1241  1010
 8.1341  1103
 8.1441  1087
 8.1541  1107
 8.1641  1113
 8.1741  1143
 8.1841  1216
 8.1941  1173
 8.2041  1163
 8.2141  1214
 8.2241  1269
 8.2341  1266
 8.2441  1278
 8.2541  1355
 8.2641  1346
 8.2741  1463
 8.2841  1619
 8.2941  1711
 8.3041  1870
 8.3141  1995
 8.3241  2176
 8.3341  2349
 8.3441  2434
 8.3541  2562
 8.3641  2713
 8.3741  2712
 8.3841  2844
 8.3941  2800
 8.4041  2664
 8.4141  2582
 8.4241  2431
 8.4341  2276
 8.4441  2126
 8.4541  1914
 8.4641  1704
 8.4741  1464
 8.4841  1246
 8.4941  1088
 8.5041   869
 8.5141   860
 8.5241   655
 8.5341   554
 8.5441   526
 8.5541   435
 8.5641   434
 8.5741   411
 8.5841   433
 8.5941   377
 8.6041   380
 8.6141   358
 8.6241   352
 8.6341   329
 8.6441   372
 8.6541   376
 8.6641   367
 8.6741   361
 8.6841   363
 8.6941   352
 8.7041   349
 8.7141   322
 8.7241   310
 8.7341   322
 8.7441   272
 8.7541   259
 8.7641   294
 8.7741   282
 8.7841   270
 8.7941   270
 8.8041   275
 8.8141   249
 8.8241   275
 8.8341   250
 8.8441   272
 8.8541   278
 8.8641   262
 8.8741   303
 8.8841   271
 8.8941   291
 8.9041   256
 8.9141   266
 8.9241   246
 8.9341   290
 8.9441   302
 8.9541   282
 8.9641   313
 8.9741   314
 8.9841   271
 8.9941   315
 9.0041   336
 9.0141   348
 9.0241   333
 9.0341   339
 9.0441   348
 9.0541   323
 9.0641   344
 9.0741   367
 9.0841   383
 9.0941   389
 9.1041   395
 9.1141   434
 9.1241   455
 9.1341   446
 9.1441   435
 9.1541   482
 9.1641   506
 9.1741   541
 9.1841   561
 9.1941   563
 9.2041   587
 9.2141   623
 9.2241   696
 9.2341   700
 9.2441   734
 9.2541   800
 9.2641   759
 9.2741   849
 9.2841   862
 9.2941   890
 9.3041   919
 9.3141   999
 9.3241  1024
 9.3341  1066
 9.3441  1041
 9.3541  1056
 9.3641  1126
 9.3741  1127
 9.3841  1127
 9.3941  1154
 9.4041  1155
 9.4141  1116
 9.4241  1202
 9.4341  1171
 9.4441  1207
 9.4541  1203
 9.4641  1218
 9.4741  1292
 9.4841  1241
 9.4941  1254
 9.5041  1381
 9.5141  1366
 9.5241  1390
 9.5341  1474
 9.5441  1540
 9.5541  1591
 9.5641  1662
 9.5741  1774
 9.5841  1855
 9.5941  2007
 9.6041  2049
 9.6141  2248
 9.6241  2303
 9.6341  2363
 9.6441  2485
 9.6541  2494
 9.6641  2537
 9.6741  2515
 9.6841  2443
 9.6941  2368
 9.7041  2352
 9.7141  2183
 9.7241  2044
 9.7341  1912
 9.7441  1749
 9.7541  1655
 9.7641  1548
 9.7741  1425
 9.7841  1369
 9.7941  1264
 9.8041  1203
 9.8141  1101
 9.8241  1050
 9.8341  1003
 9.8441  1034
 9.8541   972
 9.8641  1015
 9.8741  1061
 9.8841  1000
 9.8941  1033
 9.9041  1038
 9.9141  1116
 9.9241  1069
 9.9341  1138
 9.9441  1155
 9.9541  1146
 9.9641  1128
 9.9741  1036
 9.9841   969
 9.9941   962
10.0041   927
10.0141   900
10.0241   805
10.0341   720
10.0441   655
10.0541   589
10.0641   538
10.0741   478
10.0841   423
10.0941   396
10.1041   406
10.1141   339
10.1241   309
10.1341   261
10.1441   249
10.1541   245
10.1641   224
10.1741   220
10.1841   204
10.1941   193
10.2041   212
10.2141   205
10.2241   198
10.2341   168
10.2441   172
10.2541   173
10.2641   161
10.2741   162
10.2841   154
10.2941   149
10.3041   157
10.3141   155
10.3241   153
10.3341   159
10.3441   154
10.3541   153
10.3641   144
10.3741   140
10.3841   150
10.3941   156
10.4041   142
10.4141   143
10.4241   139
10.4341   153
10.4441   159
10.4541   140
10.4641   137
10.4741   164
10.4841   162
10.4941   168
10.5041   161
10.5141   154
10.5241   162
10.5341   179
10.5441   173
10.5541   152
10.5641   171
10.5741   162
10.5841   163
10.5941   172
10.6041   177
10.6141   171
10.6241   175
10.6341   172
10.6441   181
10.6541   176
10.6641   175
10.6741   180
10.6841   188
10.6941   182
10.7041   190
10.7141   194
10.7241   207
10.7341   205
10.7441   205
10.7541   210
10.7641   206
10.7741   205
10.7841   216
10.7941   230
10.8041   220
10.8141   229
10.8241   234
10.8341   231
10.8441   216
10.8541   225
10.8641   252
10.8741   239
10.8841   287
10.8941   285
10.9041   266
10.9141   258
10.9241   258
10.9341   260
10.9441   253
10.9541   251
10.9641   252
10.9741   264
10.9841   250
10.9941   253
11.0041   233
11.0141   241
11.0241   239
11.0341   216
11.0441   238
11.0541   218
11.0641   231
11.0741   202
11.0841   197
11.0941   205
11.1041   212
11.1141   220
11.1241   223
11.1341   232
11.1441   224
11.1541   237
11.1641   255
11.1741   246
11.1841   267
11.1941   290
11.2041   327
11.2141   325
11.2241   293
11.2341   315
11.2441   349
11.2541   334
11.2641   327
11.2741   324
11.2841   369
11.2941   360
11.3041   337
11.3141   331
11.3241   308
11.3341   314
11.3441   293
11.3541   261
11.3641   269
11.3741   260
11.3841   251
11.3941   239
11.4041   221
11.4141   201
11.4241   225
11.4341   200
11.4441   196
11.4541   209
11.4641   189
11.4741   185
11.4841   187
11.4941   168
11.5041   171
11.5141   185
11.5241   177
11.5341   190
11.5441   193
11.5541   188
11.5641   192
11.5741   181
11.5841   177
11.5941   192
11.6041   201
11.6141   202
11.6241   186
11.6341   184
11.6441   194
11.6541   207
11.6641   193
11.6741   192
11.6841   208
11.6941   199
11.7041   190
11.7141   167
11.7241   164
11.7341   165
11.7441   173
11.7541   158
11.7641   159
11.7741   157
11.7841   156
11.7941   135
11.8041   139
11.8141   134
11.8241   124
11.8341   138
11.8441   153
11.8541   140
11.8641   123
11.8741   131
11.8841   139
11.8941   127
11.9041   117
11.9141   128
11.9241   141
11.9341   130
11.9441   128
11.9541   129
11.9641   133
11.9741   134
11.9841   142
11.9941   134
12.0041   123
12.0141   148
12.0241   148
12.0341   152
12.0441   156
12.0541   140
12.0641   139
12.0741   150
12.0841   138
12.0941   149
12.1041   154
12.1141   134
12.1241   144
12.1341   147
12.1441   143
12.1541   150
12.1641   138
12.1741   125
12.1841   128
12.1941   139
12.2041   135
12.2141   136
12.2241   141
12.2341   115
12.2441   130
12.2541   149
12.2641   147
12.2741   135
12.2841   142
12.2941   149
12.3041   133
12.3141   113
12.3241   121
12.3341   121
12.3441   132
12.3541   141
12.3641   133
12.3741   131
12.3841   135
12.3941   144
12.4041   148
12.4141   141
12.4241   143
12.4341   136
12.4441   138
12.4541   132
12.4641   131
12.4741   146
12.4841   133
12.4941   136
12.5041   152
12.5141   158
12.5241   156
12.5341   147
12.5441   145
12.5541   159
12.5641   152
12.5741   144
12.5841   142
12.5941   146
12.6041   160
12.6141   148
12.6241   148
12.6341   149
12.6441   141
12.6541   140
12.6641   144
12.6741   151
12.6841   152
12.6941   151
12.7041   151
12.7141   148
12.7241   148
12.7341   152
12.7441   154
12.7541   155
12.7641   151
12.7741   147
12.7841   149
12.7941   160
12.8041   171
12.8141   173
12.8241   163
12.8341   157
12.8441   164
12.8541   169
12.8641   167
12.8741   163
12.8841   159
12.8941   154
12.9041   157
12.9141   163
12.9241   167
12.9341   172
12.9441   180
12.9541   182
12.9641   177
12.9741   170
12.9841   168
12.9941   172
13.0041   179
13.0141   177
13.0241   173
13.0341   176
13.0441   166
13.0541   159
13.0641   155
13.0741   164
13.0841   165
13.0941   173
13.1041   173
13.1141   170
13.1241   177
13.1341   174
13.1441   176
13.1541   167
13.1641   154
13.1741   166
13.1841   184
13.1941   196
13.2041   198
13.2141   189
13.2241   201
13.2341   221
13.2441   219
13.2541   217
13.2641   219
13.2741   223
13.2841   228
13.2941   219
13.3041   230
13.3141   224
13.3241   228
13.3341   242
13.3441   239
13.3541   246
13.3641   260
13.3741   263
13.3841   258
13.3941   255
13.4041   248
13.4141   245
13.4241   255
13.4341   261
13.4441   250
13.4541   237
13.4641   227
13.4741   221
13.4841   222
13.4941   220
13.5041   218
13.5141   221
13.5241   219
13.5341   212
13.5441   209
13.5541   205
13.5641   201
13.5741   210
13.5841   221
13.5941   216
13.6041   207
13.6141   203
13.6241   194
13.6341   198
13.6441   201
13.6541   209
13.6641   214
13.6741   197
13.6841   184
13.6941   207
13.7041   207
13.7141   196
13.7241   200
13.7341   209
13.7441   219
13.7541   227
13.7641   213
13.7741   203
13.7841   213
13.7941   201
13.8041   213
13.8141   222
13.8241   205
13.8341   207
13.8441   217
13.8541   215
13.8641   232
13.8741   235
13.8841   223
13.8941   225
13.9041   229
13.9141   231
13.9241   229
13.9341   230
13.9441   244
13.9541   256
13.9641   249
13.9741   248
13.9841   266
13.9941   281
14.0041   279
14.0141   272
14.0241   280
14.0341   301
14.0441   317
14.0541   318
14.0641   322
14.0741   344
14.0841   366
14.0941   379
14.1041   394
14.1141   397
14.1241   383
14.1341   374
14.1441   385
14.1541   395
14.1641   388
14.1741   378
14.1841   372
14.1941   371
14.2041   357
14.2141   349
14.2241   344
14.2341   320
14.2441   315
14.2541   314
14.2641   301
14.2741   293
14.2841   284
14.2941   276
14.3041   269
14.3141   270
14.3241   267
14.3341   249
14.3441   247
14.3541   243
14.3641   241
14.3741   252
14.3841   236
14.3941   219
14.4041   237
14.4141   246
14.4241   249
14.4341   251
14.4441   247
14.4541   246
14.4641   253
14.4741   254
14.4841   235
14.4941   232
14.5041   246
14.5141   246
14.5241   232
14.5341   251
14.5441   254
14.5541   238
14.5641   244
14.5741   238
14.5841   250
14.5941   271
14.6041   276
14.6141   253
14.6241   248
14.6341   255
14.6441   249
14.6541   257
14.6641   258
14.6741   252
14.6841   255
14.6941   270
14.7041   262
14.7141   264
14.7241   266
14.7341   265
14.7441   285
14.7541   286
14.7641   266
14.7741   257
14.7841   282
14.7941   298
14.8041   277
14.8141   277
14.8241   293
14.8341   294
14.8441   266
14.8541   271
14.8641   287
14.8741   300
14.8841   291
14.8941   278
14.9041   301
14.9141   322
14.9241   318
14.9341   309
14.9441   321
14.9541   332
14.9641   309
14.9741   308
14.9841   321
14.9941   312
15.0041   300
15.0141   305
15.0241   312
15.0341   303
15.0441   293
15.0541   302
15.0641   310
15.0741   294
15.0841   319
15.0941   327
15.1041   304
15.1141   297
15.1241   303
15.1341   297
15.1441   299
15.1541   306
15.1641   294
15.1741   293
15.1841   295
15.1941   303
15.2041   304
15.2141   286
15.2241   288
15.2341   272
15.2441   274
15.2541   278
15.2641   296
15.2741   294
15.2841   297
15.2941   309
15.3041   297
15.3141   278
15.3241   284
15.3341   296
15.3441   293
15.3541   296
15.3641   303
15.3741   313
15.3841   306
15.3941   296
15.4041   297
15.4141   312
15.4241   314
15.4341   291
15.4441   298
15.4541   306
15.4641   311
15.4741   322
15.4841   325
15.4941   330
15.5041   333
15.5141   328
15.5241   346
15.5341   347
15.5441   348
15.5541   360
15.5641   398
15.5741   422
15.5841   408
15.5941   425
15.6041   451
15.6141   478
15.6241   505
15.6341   516
15.6441   529
15.6541   544
15.6641   585
15.6741   627
15.6841   665
15.6941   632
15.7041   631
15.7141   635
15.7241   661
15.7341   672
15.7441   710
15.7541   732
15.7641   713
15.7741   718
15.7841   722
15.7941   701
15.8041   679
15.8141   667
15.8241   639
15.8341   614
15.8441   615
15.8541   569
15.8641   533
15.8741   538
15.8841   537
15.8941   512
15.9041   449
15.9141   420
15.9241   416
15.9341   407
15.9441   394
15.9541   385
15.9641   392
15.9741   364
15.9841   374
15.9941   363
16.0041   353
16.0141   371
16.0241   344
16.0341   347
16.0441   360
16.0541   341
16.0641   334
16.0741   345
16.0841   335
16.0941   355
16.1041   361
16.1141   364
16.1241   362
16.1341   387
16.1441   372
16.1541   349
16.1641   324
16.1741   328
16.1841   351
16.1941   363
16.2041   354
16.2141   380
16.2241   383
16.2341   365
16.2441   359
16.2541   358
16.2641   358
16.2741   360
16.2841   356
16.2941   341
16.3041   361
16.3141   353
16.3241   362
16.3341   378
16.3441   368
16.3541   374
16.3641   378
16.3741   368
16.3841   358
16.3941   368
16.4041   364
16.4141   364
16.4241   373
16.4341   381
16.4441   392
16.4541   393
16.4641   388
16.4741   372
16.4841   364
16.4941   360
16.5041   368
16.5141   343
16.5241   376
16.5341   402
16.5441   412
16.5541   391
16.5641   400
16.5741   374
16.5841   350
16.5941   373
16.6041   412
16.6141   414
16.6241   426
16.6341   401
16.6441   376
16.6541   405
16.6641   396
16.6741   380
16.6841   395
16.6941   390
16.7041   385
16.7141   402
16.7241   397
16.7341   402
16.7441   396
16.7541   356
16.7641   385
16.7741   381
16.7841   385
16.7941   409
16.8041   382
16.8141   403
16.8241   401
16.8341   375
16.8441   359
16.8541   390
16.8641   422
16.8741   397
16.8841   372
16.8941   385
16.9041   412
16.9141   401
16.9241   395
16.9341   386
16.9441   407
16.9541   399
16.9641   407
16.9741   415
16.9841   427
16.9941   402
17.0041   393
17.0141   400
17.0241   412
17.0341   415
17.0441   413
17.0541   410
17.0641   400
17.0741   403
17.0841   413
17.0941   407
17.1041   396
17.1141   419
17.1241   416
17.1341   417
17.1441   404
17.1541   440
17.1641   445
17.1741   435
17.1841   448
17.1941   413
17.2041   405
17.2141   418
17.2241   413
17.2341   389
17.2441   382
17.2541   421
17.2641   420
17.2741   414
17.2841   430
17.2941   410
17.3041   394
17.3141   391
17.3241   399
17.3341   406
17.3441   446
17.3541   416
17.3641   421
17.3741   440
17.3841   434
17.3941   429
17.4041   421
17.4141   393
17.4241   408
17.4341   425
17.4441   396
17.4541   418
17.4641   464
17.4741   435
17.4841   436
17.4941   461
17.5041   437
17.5141   452
17.5241   430
17.5341   425
17.5441   471
17.5541   457
17.5641   474
17.5741   476
17.5841   497
17.5941   488
17.6041   525
17.6141   492
17.6241   513
17.6341   512
17.6441   526
17.6541   521
17.6641   515
17.6741   499
17.6841   507
17.6941   487
17.7041   490
17.7141   489
17.7241   508
17.7341   482
17.7441   447
17.7541   477
17.7641   495
17.7741   466
17.7841   462
17.7941   474
17.8041   471
17.8141   474
17.8241   443
17.8341   435
17.8441   460
17.8541   486
17.8641   452
17.8741   454
17.8841   452
17.8941   440
17.9041   472
17.9141   468
17.9241   458
17.9341   446
17.9441   482
17.9541   476
17.9641   417
17.9741   426
17.9841   428
17.9941   443
18.0041   470
18.0141   467
18.0241   457
18.0341   454
18.0441   457
18.0541   462
18.0641   484
18.0741   472
18.0841   463
18.0941   457
18.1041   464
18.1141   459
18.1241   467
18.1341   450
18.1441   450
18.1541   470
18.1641   463
18.1741   453
18.1841   452
18.1941   435
18.2041   450
18.2141   456
18.2241   478
18.2341   470
18.2441   460
18.2541   458
18.2641   486
18.2741   482
18.2841   480
18.2941   477
18.3041   489
18.3141   470
18.3241   459
18.3341   452
18.3441   440
18.3541   459
18.3641   488
18.3741   468
18.3841   467
18.3941   444
18.4041   459
18.4141   476
18.4241   453
18.4341   483
18.4441   477
18.4541   481
18.4641   486
18.4741   446
18.4841   472
18.4941   454
18.5041   441
18.5141   453
18.5241   485
18.5341   490
18.5441   464
18.5541   482
18.5641   488
18.5741   485
18.5841   466
18.5941   489
18.6041   482
18.6141   496
18.6241   505
18.6341   457
18.6441   441
18.6541   485
18.6641   467
18.6741   477
18.6841   471
18.6941   479
18.7041   463
18.7141   481
18.7241   456
18.7341   483
18.7441   483
18.7541   463
18.7641   478
18.7741   474
18.7841   455
18.7941   501
18.8041   503
18.8141   471
18.8241   469
18.8341   466
18.8441   455
18.8541   489
18.8641   467
18.8741   458
18.8841   438
18.8941   494
18.9041   534
18.9141   489
18.9241   507
18.9341   467
18.9441   482
18.9541   492
18.9641   489
18.9741   511
18.9841   491
18.9941   494
19.0041   473
19.0141   495
19.0241   492
19.0341   501
19.0441   478
19.0541   491
19.0641   486
19.0741   480
19.0841   487
19.0941   496
19.1041   494
19.1141   493
19.1241   481
19.1341   519
19.1441   512
19.1541   478
19.1641   468
19.1741   496
19.1841   506
19.1941   470
19.2041   500
19.2141   518
19.2241   511
19.2341   491
19.2441   493
19.2541   467
19.2641   500
19.2741   511
19.2841   515
19.2941   489
19.3041   487
19.3141   480
19.3241   471
19.3341   465
19.3441   490
19.3541   507
19.3641   536
19.3741   528
19.3841   520
19.3941   496
19.4041   529
19.4141   481
19.4241   493
19.4341   469
19.4441   503
19.4541   508
19.4641   502
19.4741   494
19.4841   491
19.4941   518
19.5041   488
19.5141   479
19.5241   499
19.5341   485
19.5441   482
19.5541   491
19.5641   494
19.5741   525
19.5841   533
19.5941   493
19.6041   496
19.6141   528
19.6241   484
19.6341   490
19.6441   506
19.6541   520
19.6641   510
19.6741   495
19.6841   484
19.6941   503
19.7041   510
19.7141   478
19.7241   514
19.7341   484
19.7441   527
19.7541   532
19.7641   474
19.7741   476
19.7841   487
19.7941   465
19.8041   497
19.8141   506
19.8241   513
19.8341   515
19.8441   476
19.8541   472
19.8641   513
19.8741   499
19.8841   481
19.8941   501
19.9041   502
19.9141   509
19.9241   494
19.9341   487
19.9441   481
19.9541   486
19.9641   536
19.9741   546
19.9841   476
19.9941   518
20.0041   512
20.0141   506
20.0241   504
20.0341   512
20.0441   501
20.0541   471
20.0641   511
20.0741   511
20.0841   502
20.0941   517
20.1041   503
20.1141   512
20.1241   488
20.1341   502
20.1441   508
20.1541   465
20.1641   482
20.1741   519
20.1841   512
20.1941   519
20.2041   532
20.2141   483
20.2241   515
20.2341   515
20.2441   501
20.2541   505
20.2641   519
20.2741   486
20.2841   514
20.2941   528
20.3041   454
20.3141   528
20.3241   479
20.3341   485
20.3441   493
20.3541   465
20.3641   490
20.3741   499
20.3841   507
20.3941   484
20.4041   551
20.4141   482
20.4241   499
20.4341   495
20.4441   505
20.4541   495
20.4641   515
20.4741   482
20.4841   515
20.4941   459
20.5041   480
20.5141   511
20.5241   540
20.5341   481
20.5441   499
20.5541   479
20.5641   521
20.5741   521
20.5841   504
20.5941   526
20.6041   492
20.6141   498
20.6241   502
20.6341   499
20.6441   490
20.6541   520
20.6641   497
20.6741   498
20.6841   521
20.6941   510
20.7041   475
20.7141   478
20.7241   533
20.7341   487
20.7441   508
20.7541   505
20.7641   505
20.7741   557
20.7841   484
20.7941   555
20.8041   520
20.8141   520
20.8241   530
20.8341   547
20.8441   525
20.8541   540
20.8641   539
20.8741   543
20.8841   555
20.8941   571
20.9041   550
20.9141   558
20.9241   546
20.9341   614
20.9441   594
20.9541   566
20.9641   592
20.9741   610
20.9841   613
20.9941   591
21.0041   625
21.0141   659
21.0241   694
21.0341   610
21.0441   649
21.0541   696
21.0641   679
21.0741   737
21.0841   734
21.0941   695
21.1041   681
21.1141   704
21.1241   720
21.1341   699
21.1441   732
21.1541   715
21.1641   704
21.1741   678
21.1841   713
21.1941   712
21.2041   685
21.2141   692
21.2241   622
21.2341   672
21.2441   652
21.2541   610
21.2641   592
21.2741   610
21.2841   614
21.2941   583
21.3041   575
21.3141   538
21.3241   537
21.3341   531
21.3441   518
21.3541   505
21.3641   509
21.3741   526
21.3841   507
21.3941   516
21.4041   492
21.4141   485
21.4241   495
21.4341   512
21.4441   511
21.4541   504
21.4641   502
21.4741   465
21.4841   489
21.4941   507
21.5041   549
21.5141   533
21.5241   500
21.5341   445
21.5441   456
21.5541   522
21.5641   512
21.5741   501
21.5841   533
21.5941   500
21.6041   438
21.6141   490
21.6241   484
21.6341   533
21.6441   475
21.6541   473
21.6641   509
21.6741   517
21.6841   444
21.6941   461
21.7041   486
21.7141   469
21.7241   496
21.7341   500
21.7441   500
21.7541   530
21.7641   488
21.7741   460
21.7841   467
21.7941   488
21.8041   474
21.8141   483
21.8241   514
21.8341   502
21.8441   479
21.8541   544
21.8641   493
21.8741   502
21.8841   511
21.8941   523
21.9041   487
21.9141   504
21.9241   510
21.9341   465
21.9441   512
21.9541   503
21.9641   470
21.9741   487
21.9841   467
21.9941   466
22.0041   468
22.0141   455
22.0241   477
22.0341   488
22.0441   473
22.0541   454
22.0641   459
22.0741   531
22.0841   510
22.0941   466
22.1041   465
22.1141   506
22.1241   464
22.1341   462
22.1441   542
22.1541   474
22.1641   507
22.1741   501
22.1841   475
22.1941   455
22.2041   482
22.2141   486
22.2241   449
22.2341   514
22.2441   494
22.2541   468
22.2641   481
22.2741   468
22.2841   478
22.2941   475
22.3041   442
22.3141   451
22.3241   472
22.3341   438
22.3441   493
22.3541   499
22.3641   457
22.3741   486
22.3841   488
22.3941   477
22.4041   474
22.4141   467
22.4241   500
22.4341   512
22.4441   514
22.4541   472
22.4641   504
22.4741   489
22.4841   523
22.4941   476
22.5041   449
22.5141   470
22.5241   467
22.5341   429
22.5441   476
22.5541   503
22.5641   503
22.5741   468
22.5841   450
22.5941   456
22.6041   458
22.6141   481
22.6241   450
22.6341   425
22.6441   438
22.6541   479
22.6641   450
22.6741   458
22.6841   448
22.6941   469
22.7041   495
22.7141   449
22.7241   498
22.7341   444
22.7441   450
22.7541   473
22.7641   460
22.7741   439
22.7841   485
22.7941   458
22.8041   463
22.8141   456
22.8241   481
22.8341   504
22.8441   446
22.8541   481
22.8641   495
22.8741   475
22.8841   446
22.8941   424
22.9041   473
22.9141   472
22.9241   448
22.9341   461
22.9441   434
22.9541   464
22.9641   453
22.9741   433
22.9841   491
22.9941   478
23.0041   474
23.0141   427
23.0241   475
23.0341   484
23.0441   411
23.0541   432
23.0641   484
23.0741   465
23.0841   465
23.0941   484
23.1041   473
23.1141   452
23.1241   466
23.1341   435
23.1441   460
23.1541   468
23.1641   495
23.1741   490
23.1841   419
23.1941   457
23.2041   442
23.2141   472
23.2241   424
23.2341   424
23.2441   485
23.2541   490
23.2641   461
23.2741   429
23.2841   495
23.2941   430
23.3041   420
23.3141   469
23.3241   440
23.3341   447
23.3441   461
23.3541   425
23.3641   450
23.3741   500
23.3841   438
23.3941   449
23.4041   477
23.4141   474
23.4241   433
23.4341   433
23.4441   472
23.4541   447
23.4641   415
23.4741   463
23.4841   442
23.4941   448
23.5041   453
23.5141   442
23.5241   432
23.5341   432
23.5441   460
23.5541   441
23.5641   455
23.5741   466
23.5841   473
23.5941   464
23.6041   454
23.6141   460
23.6241   457
23.6341   413
23.6441   392
23.6541   471
23.6641   431
23.6741   458
23.6841   471
23.6941   460
23.7041   466
23.7141   474
23.7241   459
23.7341   487
23.7441   499
23.7541   477
23.7641   498
23.7741   489
23.7841   466
23.7941   471
23.8041   425
23.8141   480
23.8241   447
23.8341   452
23.8441   467
23.8541   500
23.8641   458
23.8741   469
23.8841   422
23.8941   503
23.9041   437
23.9141   466
23.9241   447
23.9341   458
23.9441   433
23.9541   424
23.9641   448
23.9741   426
23.9841   412
23.9941   431
24.0041   411
24.0141   453
24.0241   440
24.0341   423
24.0441   432
24.0541   423
24.0641   447
24.0741   423
24.0841   412
24.0941   418
24.1041   421
24.1141   435
24.1241   433
24.1341   411
24.1441   421
24.1541   416
24.1641   413
24.1741   460
24.1841   447
24.1941   422
24.2041   377
24.2141   449
24.2241   447
24.2341   435
24.2441   438
24.2541   448
24.2641   431
24.2741   444
24.2841   482
24.2941   398
24.3041   418
24.3141   405
24.3241   390
24.3341   408
24.3441   435
24.3541   428
24.3641   435
24.3741   438
24.3841   418
24.3941   419
24.4041   432
24.4141   453
24.4241   404
24.4341   400
24.4441   409
24.4541   411
24.4641   412
24.4741   451
24.4841   418
24.4941   444
24.5041   389
24.5141   415
24.5241   405
24.5341   398
24.5441   399
24.5541   401
24.5641   432
24.5741   393
24.5841   411
24.5941   402
24.6041   402
24.6141   374
24.6241   394
24.6341   407
24.6441   390
24.6541   396
24.6641   392
24.6741   373
24.6841   401
24.6941   394
24.7041   391
24.7141   422
24.7241   417
24.7341   385
24.7441   412
24.7541   379
24.7641   413
24.7741   407
24.7841   400
24.7941   443
24.8041   415
24.8141   382
24.8241   415
24.8341   387
24.8441   362
24.8541   400
24.8641   412
24.8741   416
24.8841   382
24.8941   400
24.9041   381
24.9141   392
24.9241   404
24.9341   399
24.9441   378
24.9541   396
24.9641   381
24.9741   414
24.9841   418
24.9941   401
25.0041   418
25.0141   398
25.0241   450
25.0341   395
25.0441   398
25.0541   405
25.0641   418
25.0741   385
25.0841   363
25.0941   397
25.1041   402
25.1141   419
25.1241   422
25.1341   417
25.1441   368
25.1541   378
25.1641   399
25.1741   410
25.1841   386
25.1941   403
25.2041   410
25.2141   400
25.2241   379
25.2341   365
25.2441   411
25.2541   425
25.2641   436
25.2741   388
25.2841   386
25.2941   395
25.3041   382
25.3141   375
25.3241   384
25.3341   400
25.3441   388
25.3541   398
25.3641   390
25.3741   405
25.3841   398
25.3941   373
25.4041   397
25.4141   377
25.4241   395
25.4341   367
25.4441   392
25.4541   376
25.4641   372
25.4741   349
25.4841   373
25.4941   377
25.5041   355
25.5141   362
25.5241   365
25.5341   414
25.5441   381
25.5541   397
25.5641   364
25.5741   368
25.5841   372
25.5941   384
25.6041   365
25.6141   325
25.6241   384
25.6341   378
25.6441   333
25.6541   337
25.6641   358
25.6741   368
25.6841   382
25.6941   380
25.7041   360
25.7141   379
25.7241   352
25.7341   360
25.7441   386
25.7541   364
25.7641   342
25.7741   360
25.7841   372
25.7941   338
25.8041   357
25.8141   363
25.8241   353
25.8341   324
25.8441   368
25.8541   377
25.8641   348
25.8741   381
25.8841   359
25.8941   351
25.9041   349
25.9141   348
25.9241   383
25.9341   323
25.9441   334
25.9541   378
25.9641   348
25.9741   342
25.9841   350
25.9941   343
26.0041   316
26.0141   372
26.0241   354
26.0341   341
26.0441   351
26.0541   328
26.0641   335
26.0741   342
26.0841   353
26.0941   379
26.1041   359
26.1141   342
26.1241   376
26.1341   336
26.1441   344
26.1541   335
26.1641   349
26.1741   355
26.1841   353
26.1941   326
26.2041   346
26.2141   325
26.2241   353
26.2341   351
26.2441   367
26.2541   340
26.2641   311
26.2741   350
26.2841   332
26.2941   340
26.3041   308
26.3141   356
26.3241   344
26.3341   322
26.3441   324
26.3541   312
26.3641   332
26.3741   355
26.3841   349
26.3941   331
26.4041   314
26.4141   361
26.4241   349
26.4341   320
26.4441   344
26.4541   300
26.4641   325
26.4741   321
26.4841   339
26.4941   346
26.5041   344
26.5141   307
26.5241   338
26.5341   329
26.5441   329
26.5541   327
26.5641   324
26.5741   319
26.5841   337
26.5941   332
26.6041   322
26.6141   310
26.6241   312
26.6341   332
26.6441   339
26.6541   311
26.6641   305
26.6741   310
26.6841   319
26.6941   317
26.7041   302
26.7141   323
26.7241   312
26.7341   306
26.7441   385
26.7541   321
26.7641   341
26.7741   340
26.7841   321
26.7941   304
26.8041   327
26.8141   333
26.8241   326
26.8341   312
26.8441   327
26.8541   315
26.8641   307
26.8741   323
26.8841   300
26.8941   293
26.9041   298
26.9141   310
26.9241   332
26.9341   300
26.9441   305
26.9541   327
26.9641   318
26.9741   295
26.9841   312
26.9941   299
27.0041   309
27.0141   308
27.0241   326
27.0341   319
27.0441   308
27.0541   292
27.0641   301
27.0741   315
27.0841   306
27.0941   301
27.1041   304
27.1141   302
27.1241   315
27.1341   311
27.1441   272
27.1541   341
27.1641   331
27.1741   338
27.1841   310
27.1941   317
27.2041   299
27.2141   314
27.2241   321
27.2341   312
27.2441   301
27.2541   337
27.2641   303
27.2741   280
27.2841   283
27.2941   296
27.3041   306
27.3141   298
27.3241   320
27.3341   331
27.3441   313
27.3541   254
27.3641   306
27.3741   291
27.3841   285
27.3941   309
27.4041   318
27.4141   273
27.4241   301
27.4341   318
27.4441   300
27.4541   278
27.4641   297
27.4741   332
27.4841   320
27.4941   309
27.5041   297
27.5141   308
27.5241   297
27.5341   298
27.5441   278
27.5541   283
27.5641   294
27.5741   288
27.5841   303
27.5941   293
27.6041   268
27.6141   289
27.6241   289
27.6341   312
27.6441   285
27.6541   273
27.6641   312
27.6741   277
27.6841   269
27.6941   249
27.7041   254
27.7141   286
27.7241   262
27.7341   282
27.7441   283
27.7541   287
27.7641   300
27.7741   289
27.7841   271
27.7941   318
27.8041   297
27.8141   258
27.8241   289
27.8341   268
27.8441   284
27.8541   251
27.8641   241
27.8741   291
27.8841   282
27.8941   291
27.9041   291
27.9141   287
27.9241   295
27.9341   278
27.9441   255
27.9541   249
27.9641   273
27.9741   267
27.9841   291
27.9941   277
28.0041   271
28.0141   264
28.0241   263
28.0341   257
28.0441   256
28.0541   284
28.0641   259
28.0741   245
28.0841   250
28.0941   279
28.1041   240
28.1141   271
28.1241   285
28.1341   285
28.1441   261
28.1541   264
28.1641   263
28.1741   267
28.1841   296
28.1941   256
28.2041   272
28.2141   274
28.2241   268
28.2341   261
28.2441   280
28.2541   280
28.2641   281
28.2741   282
28.2841   263
28.2941   254
28.3041   264
28.3141   249
28.3241   279
28.3341   255
28.3441   267
28.3541   253
28.3641   274
28.3741   255
28.3841   278
28.3941   281
28.4041   264
28.4141   258
28.4241   291
28.4341   260
28.4441   244
28.4541   260
28.4641   254
28.4741   269
28.4841   261
28.4941   253
28.5041   256
28.5141   260
28.5241   252
28.5341   244
28.5441   261
28.5541   253
28.5641   288
28.5741   240
28.5841   251
28.5941   239
28.6041   250
28.6141   268
28.6241   236
28.6341   251
28.6441   243
28.6541   232
28.6641   277
28.6741   237
28.6841   250
28.6941   238
28.7041   257
28.7141   243
28.7241   251
28.7341   240
28.7441   257
28.7541   239
28.7641   225
28.7741   258
28.7841   268
28.7941   238
28.8041   235
28.8141   228
28.8241   259
28.8341   248
28.8441   235
28.8541   229
28.8641   263
28.8741   259
28.8841   240
28.8941   223
28.9041   257
28.9141   228
28.9241   260
28.9341   234
28.9441   238
28.9541   236
28.9641   229
28.9741   222
28.9841   258
28.9941   242
29.0041   258
29.0141   248
29.0241   234
29.0341   230
29.0441   229
29.0541   231
29.0641   234
29.0741   249
29.0841   255
29.0941   244
29.1041   238
29.1141   248
29.1241   243
29.1341   258
29.1441   233
29.1541   265
29.1641   219
29.1741   234
29.1841   236
29.1941   231
29.2041   241
29.2141   242
29.2241   248
29.2341   221
29.2441   229
29.2541   225
29.2641   235
29.2741   226
29.2841   239
29.2941   218
29.3041   249
29.3141   243
29.3241   233
29.3341   233
29.3441   231
29.3541   210
29.3641   237
29.3741   236
29.3841   248
29.3941   228
29.4041   211
29.4141   213
29.4241   241
29.4341   220
29.4441   219
29.4541   251
29.4641   228
29.4741   213
29.4841   230
29.4941   214
29.5041   232
29.5141   228
29.5241   220
29.5341   214
29.5441   236
29.5541   219
29.5641   206
29.5741   219
29.5841   223
29.5941   199
29.6041   209
29.6141   209
29.6241   226
29.6341   208
29.6441   246
29.6541   235
29.6641   222
29.6741   228
29.6841   201
29.6941   188
29.7041   190
29.7141   203
29.7241   215
29.7341   194
29.7441   225
29.7541   200
29.7641   201
29.7741   204
29.7841   207
29.7941   220
29.8041   213
29.8141   214
29.8241   203
29.8341   194
29.8441   205
29.8541   183
29.8641   205
29.8741   195
29.8841   209
29.8941   221
29.9041   198
29.9141   216
29.9241   232
29.9341   206
29.9441   190
29.9541   226
29.9641   225
29.9741   224
29.9841   209
29.9941   223
30.0041   210
30.0141   197
30.0241   189
30.0341   194
30.0441   203
30.0541   215
30.0641   195
30.0741   190
30.0841   203
30.0941   205
30.1041   207
30.1141   225
30.1241   203
30.1341   202
30.1441   204
30.1541   200
30.1641   197
30.1741   175
30.1841   224
30.1941   180
30.2041   204
30.2141   188
30.2241   201
30.2341   196
30.2441   216
30.2541   210
30.2641   200
30.2741   202
30.2841   205
30.2941   205
30.3041   186
30.3141   181
30.3241   182
30.3341   193
30.3441   192
30.3541   209
30.3641   185
30.3741   201
30.3841   206
30.3941   189
30.4041   190
30.4141   174
30.4241   176
30.4341   184
30.4441   185
30.4541   180
30.4641   210
30.4741   184
30.4841   189
30.4941   194
30.5041   169
30.5141   175
30.5241   193
30.5341   196
30.5441   180
30.5541   158
30.5641   186
30.5741   190
30.5841   178
30.5941   159
30.6041   176
30.6141   177
30.6241   181
30.6341   190
30.6441   179
30.6541   204
30.6641   185
30.6741   188
30.6841   183
30.6941   174
30.7041   197
30.7141   193
30.7241   179
30.7341   180
30.7441   182
30.7541   191
30.7641   168
30.7741   184
30.7841   174
30.7941   202
30.8041   206
30.8141   185
30.8241   177
30.8341   191
30.8441   191
30.8541   173
30.8641   177
30.8741   174
30.8841   187
30.8941   196
30.9041   186
30.9141   188
30.9241   163
30.9341   178
30.9441   192
30.9541   174
30.9641   169
30.9741   188
30.9841   186
30.9941   197
31.0041   190
31.0141   159
31.0241   192
31.0341   198
31.0441   201
31.0541   172
31.0641   174
31.0741   190
31.0841   179
31.0941   170
31.1041   175
31.1141   176
31.1241   196
31.1341   175
31.1441   144
31.1541   215
31.1641   178
31.1741   147
31.1841   180
31.1941   165
31.2041   179
31.2141   146
31.2241   151
31.2341   195
31.2441   192
31.2541   167
31.2641   174
31.2741   172
31.2841   171
31.2941   151
31.3041   145
31.3141   180
31.3241   162
31.3341   189
31.3441   181
31.3541   141
31.3641   129
31.3741   151
31.3841   164
31.3941   190
31.4041   184
31.4141   190
31.4241   142
31.4341   157
31.4441   161
31.4541   164
31.4641   168
31.4741   161
31.4841   167
31.4941   174
31.5041   146
31.5141   168
31.5241   163
31.5341   167
31.5441   175
31.5541   154
31.5641   170
31.5741   139
31.5841   159
31.5941   136
31.6041   151
31.6141   148
31.6241   163
31.6341   135
31.6441   144
31.6541   140
31.6641   164
31.6741   177
31.6841   150
31.6941   144
31.7041   172
31.7141   168
31.7241   160
31.7341   171
31.7441   145
31.7541   160
31.7641   158
31.7741   151
31.7841   153
31.7941   145
31.8041   164
31.8141   166
31.8241   152
31.8341   183
31.8441   163
31.8541   190
31.8641   174
31.8741   169
31.8841   153
31.8941   175
31.9041   157
31.9141   159
31.9241   159
31.9341   139
31.9441   138
31.9541   129
31.9641   161
31.9741   164
31.9841   155
31.9941   159
32.0041   138
32.0141   164
32.0241   165
32.0341   149
32.0441   154
32.0541   135
32.0641   165
32.0741   164
32.0841   165
32.0941   155
32.1041   138
32.1141   127
32.1241   146
32.1341   152
32.1441   155
32.1541   177
32.1641   135
32.1741   142
32.1841   164
32.1941   162
32.2041   167
32.2141   137
32.2241   142
32.2341   158
32.2441   164
32.2541   134
32.2641   153
32.2741   141
32.2841   126
32.2941   125
32.3041   147
32.3141   144
32.3241   133
32.3341   131
32.3441   146
32.3541   160
32.3641   165
32.3741   148
32.3841   153
32.3941   146
32.4041   131
32.4141   133
32.4241   140
32.4341   132
32.4441   151
32.4541   116
32.4641   129
32.4741   146
32.4841   142
32.4941   132
32.5041   139
32.5141   149
32.5241   131
32.5341   140
32.5441   176
32.5541   140
32.5641   131
32.5741   132
32.5841   152
32.5941   121
32.6041   148
32.6141   133
32.6241   139
32.6341   119
32.6441   138
32.6541   143
32.6641   153
32.6741   144
32.6841   135
32.6941   136
32.7041   123
32.7141   128
32.7241   153
32.7341   149
32.7441   122
32.7541   141
32.7641   130
32.7741   142
32.7841   122
32.7941   116
32.8041   121
32.8141   131
32.8241   128
32.8341   107
32.8441   124
32.8541   114
32.8641   132
32.8741   132
32.8841   133
32.8941   120
32.9041   125
32.9141   121
32.9241   146
32.9341   126
32.9441   121
32.9541   111
32.9641   104
32.9741   141
32.9841   125
32.9941   108
33.0041   130
33.0141   135
33.0241   119
33.0341   129
33.0441   124
33.0541   126
33.0641   116
33.0741   141
33.0841   155
33.0941   124
33.1041   121
33.1141   132
33.1241   134
33.1341   128
33.1441   117
33.1541   102
33.1641   109
33.1741    99
33.1841   134
33.1941   124
33.2041   115
33.2141   109
33.2241   115
33.2341   124
33.2441   118
33.2541   105
33.2641   107
33.2741   115
33.2841   119
33.2941   115
33.3041   106
33.3141   127
33.3241   111
33.3341   126
33.3441   111
33.3541   120
33.3641   130
33.3741   118
33.3841    94
33.3941   110
33.4041   116
33.4141   104
33.4241    95
33.4341   112
33.4441   134
33.4541   114
33.4641   107
33.4741   116
33.4841   118
33.4941   106
33.5041   119
33.5141   111
33.5241   119
33.5341   118
33.5441   131
33.5541   110
33.5641   103
33.5741   111
33.5841   137
33.5941   115
33.6041   107
33.6141   103
33.6241    90
33.6341   102
33.6441   104
33.6541   132
33.6641   103
33.6741   110
33.6841   110
33.6941   108
33.7041   109
33.7141   103
33.7241    93
33.7341   128
33.7441   116
33.7541   104
33.7641   103
33.7741   121
33.7841   113
33.7941   109
33.8041   125
33.8141   115
33.8241   117
33.8341   123
33.8441   109
33.8541   127
33.8641    80
33.8741   113
33.8841   114
33.8941    99
33.9041   101
33.9141   120
33.9241   116
33.9341   103
33.9441   104
33.9541   105
33.9641   118
33.9741   104
33.9841   108
33.9941    75
34.0041   102
34.0141   107
34.0241   107
34.0341   118
34.0441   110
34.0541    92
34.0641   102
34.0741    98
34.0841   101
34.0941    94
34.1041    88
34.1141    87
34.1241   105
34.1341   100
34.1441    83
34.1541    83
34.1641   110
34.1741    99
34.1841    98
34.1941    89
34.2041   103
34.2141   105
34.2241    86
34.2341   102
34.2441    93
34.2541    86
34.2641    93
34.2741    87
34.2841   112
34.2941    95
34.3041    90
34.3141    92
34.3241    91
34.3341    95
34.3441   105
34.3541   104
34.3641    93
34.3741    96
34.3841   103
34.3941    75
34.4041    82
34.4141    93
34.4241   125
34.4341    98
34.4441    83
34.4541    74
34.4641    87
34.4741    88
34.4841    83
34.4941    98
34.5041   111
34.5141    96
34.5241   103
34.5341   103
34.5441    96
34.5541    89
34.5641    89
34.5741    79
34.5841    93
34.5941   120
34.6041    93
34.6141    92
34.6241    94
34.6341    78
34.6441    86
34.6541    99
34.6641    95
34.6741    96
34.6841    89
34.6941    93
34.7041    75
34.7141    88
34.7241   104
34.7341    83
34.7441    83
34.7541    74
34.7641    85
34.7741   103
34.7841    77
34.7941    90
34.8041    94
34.8141    88
34.8241    76
34.8341    75
34.8441   102
34.8541    79
34.8641    88
34.8741    84
34.8841    97
34.8941    78
34.9041    77
34.9141    75
34.9241    80
34.9341    95
34.9441    85
34.9541    65
34.9641    64
34.9741    88
34.9841    80
34.9941    87
35.0041    89
35.0141    96
35.0241    67
35.0341    97
35.0441    91
35.0541    84
35.0641    97
35.0741    85
35.0841    77
35.0941    85
35.1041    88
35.1141    86
35.1241    78
35.1341    94
35.1441    71
35.1541    80
35.1641    74
35.1741    98
35.1841    69
35.1941    83
35.2041    88
35.2141    80
35.2241    90
35.2341    96
35.2441    88
35.2541    98
35.2641    79
35.2741    91
35.2841    82
35.2941    79
35.3041    83
35.3141    71
35.3241    56
35.3341    76
35.3441    83
35.3541    68
35.3641    72
35.3741    85
35.3841    77
35.3941    65
35.4041    72
35.4141    68
35.4241    84
35.4341    69
35.4441    73
35.4541    79
35.4641    82
35.4741    89
35.4841    85
35.4941    77
35.5041    86
35.5141    81
35.5241    79
35.5341    73
35.5441    75
35.5541    67
35.5641    74
35.5741    72
35.5841    77
35.5941    69
35.6041    71
35.6141    80
35.6241    59
35.6341    54
35.6441    68
35.6541    72
35.6641    77
35.6741    84
35.6841    77
35.6941    76
35.7041    78
35.7141    76
35.7241    67
35.7341    84
35.7441    70
35.7541    75
35.7641    89
35.7741    60
35.7841    74
35.7941    57
35.8041    65
35.8141    63
35.8241    80
35.8341    73
35.8441    70
35.8541    74
35.8641    59
35.8741    63
35.8841    77
35.8941    60
35.9041    72
35.9141    75
35.9241    62
35.9341    64
35.9441    72
35.9541    67
35.9641    73
35.9741    76
35.9841    61
35.9941    50
36.0041    67
36.0141    58
36.0241    70
36.0341    62
36.0441    73
36.0541    62
36.0641    60
36.0741    60
36.0841    57
36.0941    68
36.1041    74
36.1141    62
36.1241    70
36.1341    68
36.1441    68
36.1541    50
36.1641    69
36.1741    55
36.1841    65
36.1941    64
36.2041    63
36.2141    59
36.2241    61
36.2341    59
36.2441    56
36.2541    61
36.2641    55
36.2741    84
36.2841    60
36.2941    70
36.3041    59
36.3141    47
36.3241    74
36.3341    49
36.3441    58
36.3541    68
36.3641    71
36.3741    67
36.3841    57
36.3941    56
36.4041    71
36.4141    60
36.4241    48
36.4341    62
36.4441    65
36.4541    56
36.4641    63
36.4741    73
36.4841    47
36.4941    49
36.5041    59
36.5141    53
36.5241    63
36.5341    42
36.5441    58
36.5541    48
36.5641    53
36.5741    57
36.5841    60
36.5941    50
36.6041    54
36.6141    51
36.6241    63
36.6341    56
36.6441    57
36.6541    66
36.6641    52
36.6741    66
36.6841    74
36.6941    66
36.7041    66
36.7141    70
36.7241    65
36.7341    54
36.7441    60
36.7541    59
36.7641    60
36.7741    50
36.7841    58
36.7941    54
36.8041    56
36.8141    61
36.8241    65
36.8341    54
36.8441    56
36.8541    54
36.8641    60
36.8741    57
36.8841    48
36.8941    45
36.9041    51
36.9141    53
36.9241    45
36.9341    34
36.9441    53
36.9541    55
36.9641    63
36.9741    43
36.9841    45
36.9941    46
37.0041    56
37.0141    51
37.0241    63
37.0341    44
37.0441    52
37.0541    53
37.0641    64
37.0741    55
37.0841    64
37.0941    50
37.1041    49
37.1141    52
37.1241    60
37.1341    38
37.1441    49
37.1541    50
37.1641    57
37.1741    47
37.1841    65
37.1941    45
37.2041    52
37.2141    55
37.2241    49
37.2341    51
37.2441    48
37.2541    49
37.2641    44
37.2741    45
37.2841    50
37.2941    57
37.3041    45
37.3141    56
37.3241    61
37.3341    51
37.3441    56
37.3541    37
37.3641    38
37.3741    35
37.3841    38
37.3941    75
37.4041    52
37.4141    44
37.4241    51
37.4341    61
37.4441    54
37.4541    45
37.4641    58
37.4741    40
37.4841    57
37.4941    55
37.5041    45
37.5141    40
37.5241    55
37.5341    52
37.5441    47
37.5541    43
37.5641    40
37.5741    42
37.5841    44
37.5941    47
37.6041    49
37.6141    44
37.6241    46
37.6341    48
37.6441    36
37.6541    55
37.6641    39
37.6741    41
37.6841    46
37.6941    47
37.7041    49
37.7141    43
37.7241    36
37.7341    37
37.7441    37
37.7541    44
37.7641    43
37.7741    36
37.7841    50
37.7941    44
37.8041    38
37.8141    46
37.8241    47
37.8341    49
37.8441    37
37.8541    40
37.8641    42
37.8741    40
37.8841    48
37.8941    32
37.9041    48
37.9141    45
37.9241    37
37.9341    43
37.9441    47
37.9541    36
37.9641    37
37.9741    41
37.9841    39
37.9941    41
38.0041    41
38.0141    39
38.0241    28
38.0341    30
38.0441    50
38.0541    33
38.0641    41
38.0741    45
38.0841    47
38.0941    49
38.1041    43
38.1141    44
38.1241    36
38.1341    33
38.1441    49
38.1541    43
38.1641    37
38.1741    44
38.1841    31
38.1941    40
38.2041    38
38.2141    44
38.2241    31
38.2341    40
38.2441    45
38.2541    43
38.2641    45
38.2741    35
38.2841    38
38.2941    37
38.3041    41
38.3141    35
38.3241    39
38.3341    43
38.3441    50
38.3541    31
38.3641    36
38.3741    34
38.3841    27
38.3941    31
38.4041    34
38.4141    46
38.4241    41
38.4341    32
38.4441    38
38.4541    27
38.4641    31
38.4741    35
38.4841    30
38.4941    40
38.5041    37
38.5141    33
38.5241    40
38.5341    45
38.5441    32
38.5541    34
38.5641    39
38.5741    35
38.5841    34
38.5941    29
38.6041    36
38.6141    37
38.6241    35
38.6341    43
38.6441    34
38.6541    26
38.6641    29
38.6741    33
38.6841    21
38.6941    25
38.7041    42
38.7141    29
38.7241    44
38.7341    26
38.7441    32
38.7541    26
38.7641    21
38.7741    22
38.7841    30
38.7941    36
38.8041    32
38.8141    23
38.8241    35
38.8341    18
38.8441    36
38.8541    39
38.8641    24
38.8741    29
38.8841    29
38.8941    38
38.9041    30
38.9141    38
38.9241    34
38.9341    31
38.9441    36
38.9541    29
38.9641    37
38.9741    35
38.9841    27
38.9941    25
39.0041    39
39.0141    34
39.0241    23
39.0341    36
39.0441    26
39.0541    27
39.0641    26
39.0741    31
39.0841    25
39.0941    33
39.1041    31
39.1141    25
39.1241    31
39.1341    27
39.1441    28
39.1541    25
39.1641    19
39.1741    25
39.1841    31
39.1941    42
39.2041    30
39.2141    26
39.2241    32
39.2341    31
39.2441    43
39.2541    36
39.2641    29
39.2741    21
39.2841    17
39.2941    29
39.3041    36
39.3141    24
39.3241    24
39.3341    34
39.3441    24
39.3541    27
39.3641    28
39.3741    20
39.3841    27
39.3941    32
39.4041    17
39.4141    29
39.4241    21
39.4341    27
39.4441    25
39.4541    20
39.4641    28
39.4741    21
39.4841    20
39.4941    21
39.5041    28
39.5141    20
39.5241    34
39.5341    19
39.5441    22
39.5541    25
39.5641    24
39.5741    22
39.5841    27
39.5941    25
39.6041    26
39.6141    28
39.6241    21
39.6341    26
39.6441    30
39.6541    30
39.6641    19
39.6741    19
39.6841    30
39.6941    28
39.7041    24
39.7141    16
39.7241    25
39.7341    13
39.7441    30
39.7541    21
39.7641    23
39.7741    23
39.7841    21
39.7941    15
39.8041    23
39.8141    25
39.8241    17
39.8341    18
39.8441    17
39.8541    28
39.8641    25
39.8741    20
39.8841    19
39.8941    20
39.9041    20
39.9141    20
39.9241    26
39.9341    19
39.9441    20
39.9541    28
39.9641    28
39.9741    17
39.9841    21
