Bruker Nano GmbH Berlin, Germany
Esprit 1.9

Date: 4/21/2021 2:22:59 PM
Real time: 23671
Life time: 22119
Pulse density: 95143


Detector type: XFlash 430
Window type: Custom type
Detector thickness: 0.45
Si dead layer:0.029

Calibration, lin.: 10
Calibration, abs.: -955.9
Mn FWHM: 137.05
Fano factor: 0.121
Channels: 4095

Energy Counts
-0.9559     0
-0.9459     0
-0.9359     0
-0.9259     0
-0.9159     0
-0.9059     0
-0.8959     0
-0.8859     0
-0.8759     0
-0.8659     0
-0.8559     0
-0.8459     0
-0.8359     0
-0.8259     0
-0.8159     0
-0.8059     0
-0.7959     0
-0.7859     0
-0.7759     0
-0.7659     0
-0.7559     0
-0.7459     0
-0.7359     0
-0.7259     0
-0.7159     0
-0.7059     0
-0.6959     0
-0.6859     0
-0.6759     0
-0.6659     0
-0.6559     0
-0.6459     0
-0.6359     0
-0.6259     0
-0.6159     0
-0.6059     0
-0.5959     0
-0.5859     0
-0.5759     0
-0.5659     0
-0.5559     0
-0.5459     0
-0.5359     0
-0.5259     0
-0.5159     0
-0.5059     0
-0.4959     0
-0.4859     0
-0.4759     0
-0.4659     0
-0.4559     0
-0.4459     0
-0.4359     0
-0.4259     0
-0.4159     0
-0.4059     0
-0.3959     0
-0.3859     0
-0.3759     0
-0.3659     0
-0.3559     0
-0.3459     0
-0.3359     0
-0.3259     0
-0.3159     0
-0.3059     0
-0.2959     0
-0.2859     0
-0.2759     0
-0.2659     0
-0.2559     0
-0.2459     0
-0.2359     0
-0.2259     0
-0.2159     0
-0.2059     0
-0.1959     0
-0.1859     0
-0.1759     0
-0.1659     0
-0.1559     0
-0.1459     0
-0.1359     0
-0.1259     1
-0.1159     1
-0.1059    15
-0.0959    55
-0.0859   252
-0.0759   822
-0.0659  2481
-0.0559  6432
-0.0459 14327
-0.0359 26325
-0.0259 42395
-0.0159 57864
-0.0059 67671
 0.0041 68298
 0.0141 58195
 0.0241 43055
 0.0341 27436
 0.0441 15049
 0.0541  6941
 0.0641  2784
 0.0741   930
 0.0841   267
 0.0941    92
 0.1041    22
 0.1141    16
 0.1241     8
 0.1341    11
 0.1441     5
 0.1541     4
 0.1641     2
 0.1741    22
 0.1841   195
 0.1941   424
 0.2041   390
 0.2141   388
 0.2241   380
 0.2341   395
 0.2441   412
 0.2541   387
 0.2641   420
 0.2741   399
 0.2841   391
 0.2941   385
 0.3041   365
 0.3141   388
 0.3241   368
 0.3341   359
 0.3441   351
 0.3541   360
 0.3641   360
 0.3741   371
 0.3841   376
 0.3941   372
 0.4041   347
 0.4141   340
 0.4241   335
 0.4341   330
 0.4441   360
 0.4541   345
 0.4641   328
 0.4741   336
 0.4841   347
 0.4941   350
 0.5041   369
 0.5141   343
 0.5241   349
 0.5341   371
 0.5441   327
 0.5541   323
 0.5641   320
 0.5741   327
 0.5841   336
 0.5941   328
 0.6041   332
 0.6141   329
 0.6241   318
 0.6341   305
 0.6441   296
 0.6541   295
 0.6641   308
 0.6741   315
 0.6841   310
 0.6941   298
 0.7041   291
 0.7141   269
 0.7241   250
 0.7341   271
 0.7441   279
 0.7541   296
 0.7641   289
 0.7741   275
 0.7841   281
 0.7941   267
 0.8041   277
 0.8141   276
 0.8241   286
 0.8341   288
 0.8441   274
 0.8541   279
 0.8641   285
 0.8741   274
 0.8841   263
 0.8941   260
 0.9041   256
 0.9141   263
 0.9241   275
 0.9341   260
 0.9441   259
 0.9541   263
 0.9641   247
 0.9741   247
 0.9841   263
 0.9941   266
 1.0041   285
 1.0141   278
 1.0241   279
 1.0341   247
 1.0441   266
 1.0541   272
 1.0641   254
 1.0741   239
 1.0841   243
 1.0941   250
 1.1041   267
 1.1141   245
 1.1241   240
 1.1341   260
 1.1441   271
 1.1541   247
 1.1641   226
 1.1741   254
 1.1841   240
 1.1941   231
 1.2041   238
 1.2141   253
 1.2241   224
 1.2341   220
 1.2441   214
 1.2541   224
 1.2641   241
 1.2741   248
 1.2841   251
 1.2941   247
 1.3041   220
 1.3141   236
 1.3241   248
 1.3341   237
 1.3441   226
 1.3541   239
 1.3641   247
 1.3741   237
 1.3841   239
 1.3941   241
 1.4041   224
 1.4141   224
 1.4241   231
 1.4341   247
 1.4441   248
 1.4541   248
 1.4641   234
 1.4741   236
 1.4841   225
 1.4941   218
 1.5041   202
 1.5141   220
 1.5241   215
 1.5341   201
 1.5441   225
 1.5541   234
 1.5641   236
 1.5741   230
 1.5841   218
 1.5941   223
 1.6041   229
 1.6141   220
 1.6241   222
 1.6341   223
 1.6441   241
 1.6541   296
 1.6641   316
 1.6741   377
 1.6841   435
 1.6941   517
 1.7041   616
 1.7141   704
 1.7241   827
 1.7341   860
 1.7441   811
 1.7541   749
 1.7641   740
 1.7741   628
 1.7841   544
 1.7941   456
 1.8041   349
 1.8141   320
 1.8241   325
 1.8341   293
 1.8441   306
 1.8541   265
 1.8641   261
 1.8741   273
 1.8841   246
 1.8941   242
 1.9041   229
 1.9141   219
 1.9241   223
 1.9341   221
 1.9441   233
 1.9541   248
 1.9641   238
 1.9741   266
 1.9841   254
 1.9941   263
 2.0041   267
 2.0141   267
 2.0241   269
 2.0341   269
 2.0441   232
 2.0541   235
 2.0641   260
 2.0741   226
 2.0841   210
 2.0941   219
 2.1041   203
 2.1141   218
 2.1241   219
 2.1341   203
 2.1441   214
 2.1541   193
 2.1641   195
 2.1741   224
 2.1841   202
 2.1941   170
 2.2041   211
 2.2141   203
 2.2241   221
 2.2341   206
 2.2441   223
 2.2541   210
 2.2641   194
 2.2741   196
 2.2841   181
 2.2941   188
 2.3041   193
 2.3141   194
 2.3241   175
 2.3341   193
 2.3441   189
 2.3541   201
 2.3641   191
 2.3741   194
 2.3841   177
 2.3941   193
 2.4041   208
 2.4141   196
 2.4241   198
 2.4341   180
 2.4441   182
 2.4541   175
 2.4641   190
 2.4741   183
 2.4841   165
 2.4941   187
 2.5041   171
 2.5141   173
 2.5241   150
 2.5341   160
 2.5441   174
 2.5541   189
 2.5641   171
 2.5741   191
 2.5841   189
 2.5941   185
 2.6041   201
 2.6141   172
 2.6241   179
 2.6341   162
 2.6441   216
 2.6541   169
 2.6641   192
 2.6741   180
 2.6841   172
 2.6941   159
 2.7041   165
 2.7141   177
 2.7241   188
 2.7341   161
 2.7441   166
 2.7541   149
 2.7641   168
 2.7741   140
 2.7841   179
 2.7941   183
 2.8041   188
 2.8141   195
 2.8241   176
 2.8341   184
 2.8441   163
 2.8541   156
 2.8641   192
 2.8741   163
 2.8841   151
 2.8941   172
 2.9041   174
 2.9141   155
 2.9241   148
 2.9341   156
 2.9441   172
 2.9541   149
 2.9641   167
 2.9741   153
 2.9841   158
 2.9941   146
 3.0041   161
 3.0141   164
 3.0241   162
 3.0341   158
 3.0441   165
 3.0541   170
 3.0641   147
 3.0741   135
 3.0841   159
 3.0941   127
 3.1041   121
 3.1141   167
 3.1241   148
 3.1341   157
 3.1441   152
 3.1541   124
 3.1641   143
 3.1741   127
 3.1841   134
 3.1941   159
 3.2041   166
 3.2141   178
 3.2241   172
 3.2341   205
 3.2441   249
 3.2541   296
 3.2641   303
 3.2741   357
 3.2841   404
 3.2941   439
 3.3041   446
 3.3141   480
 3.3241   482
 3.3341   487
 3.3441   418
 3.3541   364
 3.3641   311
 3.3741   276
 3.3841   247
 3.3941   218
 3.4041   160
 3.4141   164
 3.4241   145
 3.4341   143
 3.4441   128
 3.4541   131
 3.4641   133
 3.4741   139
 3.4841   132
 3.4941   143
 3.5041   151
 3.5141   165
 3.5241   175
 3.5341   162
 3.5441   184
 3.5541   225
 3.5641   256
 3.5741   288
 3.5841   336
 3.5941   381
 3.6041   447
 3.6141   557
 3.6241   691
 3.6341   830
 3.6441   945
 3.6541  1120
 3.6641  1246
 3.6741  1310
 3.6841  1361
 3.6941  1375
 3.7041  1345
 3.7141  1230
 3.7241  1087
 3.7341   951
 3.7441   787
 3.7541   636
 3.7641   478
 3.7741   386
 3.7841   273
 3.7941   214
 3.8041   169
 3.8141   152
 3.8241   126
 3.8341   115
 3.8441   126
 3.8541   107
 3.8641   122
 3.8741   117
 3.8841   120
 3.8941   115
 3.9041   114
 3.9141   136
 3.9241   148
 3.9341   160
 3.9441   173
 3.9541   177
 3.9641   193
 3.9741   226
 3.9841   264
 3.9941   272
 4.0041   278
 4.0141   294
 4.0241   293
 4.0341   276
 4.0441   256
 4.0541   239
 4.0641   232
 4.0741   182
 4.0841   171
 4.0941   148
 4.1041   143
 4.1141   120
 4.1241   111
 4.1341   107
 4.1441   101
 4.1541   100
 4.1641   102
 4.1741   104
 4.1841   107
 4.1941    94
 4.2041   103
 4.2141    97
 4.2241   102
 4.2341    91
 4.2441    80
 4.2541    93
 4.2641    92
 4.2741    95
 4.2841    96
 4.2941    99
 4.3041    90
 4.3141   101
 4.3241    96
 4.3341    90
 4.3441   102
 4.3541    82
 4.3641   109
 4.3741   116
 4.3841   131
 4.3941   149
 4.4041   177
 4.4141   197
 4.4241   258
 4.4341   296
 4.4441   339
 4.4541   375
 4.4641   435
 4.4741   455
 4.4841   509
 4.4941   510
 4.5041   551
 4.5141   517
 4.5241   520
 4.5341   458
 4.5441   417
 4.5541   372
 4.5641   357
 4.5741   332
 4.5841   256
 4.5941   233
 4.6041   201
 4.6141   152
 4.6241   166
 4.6341   111
 4.6441   106
 4.6541    95
 4.6641   108
 4.6741   132
 4.6841   116
 4.6941   102
 4.7041   121
 4.7141   111
 4.7241    92
 4.7341   100
 4.7441    98
 4.7541   107
 4.7641   111
 4.7741   116
 4.7841   109
 4.7941   123
 4.8041   128
 4.8141   118
 4.8241   151
 4.8341   143
 4.8441   140
 4.8541   151
 4.8641   161
 4.8741   179
 4.8841   197
 4.8941   178
 4.9041   192
 4.9141   177
 4.9241   197
 4.9341   196
 4.9441   205
 4.9541   177
 4.9641   169
 4.9741   151
 4.9841   154
 4.9941   150
 5.0041   145
 5.0141   128
 5.0241   135
 5.0341   122
 5.0441   118
 5.0541   115
 5.0641   114
 5.0741   118
 5.0841   109
 5.0941   122
 5.1041   133
 5.1141   126
 5.1241   132
 5.1341   109
 5.1441   107
 5.1541   138
 5.1641   125
 5.1741   109
 5.1841   121
 5.1941   132
 5.2041   120
 5.2141   113
 5.2241   117
 5.2341   117
 5.2441   111
 5.2541    84
 5.2641   109
 5.2741   123
 5.2841   101
 5.2941   143
 5.3041   128
 5.3141   154
 5.3241   167
 5.3341   173
 5.3441   206
 5.3541   233
 5.3641   249
 5.3741   269
 5.3841   276
 5.3941   306
 5.4041   306
 5.4141   286
 5.4241   310
 5.4341   291
 5.4441   274
 5.4541   240
 5.4641   237
 5.4741   225
 5.4841   225
 5.4941   189
 5.5041   182
 5.5141   159
 5.5241   141
 5.5341   145
 5.5441   125
 5.5541   121
 5.5641   121
 5.5741   129
 5.5841   120
 5.5941   121
 5.6041   125
 5.6141   103
 5.6241   124
 5.6341   115
 5.6441   115
 5.6541   123
 5.6641   104
 5.6741   103
 5.6841   123
 5.6941   128
 5.7041   118
 5.7141   129
 5.7241   130
 5.7341   153
 5.7441   156
 5.7541   158
 5.7641   173
 5.7741   208
 5.7841   245
 5.7941   297
 5.8041   357
 5.8141   403
 5.8241   459
 5.8341   582
 5.8441   678
 5.8541   748
 5.8641   801
 5.8741   862
 5.8841   859
 5.8941   874
 5.9041   930
 5.9141   878
 5.9241   827
 5.9341   753
 5.9441   683
 5.9541   553
 5.9641   506
 5.9741   460
 5.9841   364
 5.9941   322
 6.0041   270
 6.0141   256
 6.0241   209
 6.0341   185
 6.0441   182
 6.0541   198
 6.0641   153
 6.0741   156
 6.0841   152
 6.0941   139
 6.1041   146
 6.1141   155
 6.1241   172
 6.1341   171
 6.1441   172
 6.1541   187
 6.1641   203
 6.1741   197
 6.1841   212
 6.1941   284
 6.2041   327
 6.2141   384
 6.2241   562
 6.2341   673
 6.2441   904
 6.2541  1297
 6.2641  1730
 6.2741  2412
 6.2841  3242
 6.2941  4337
 6.3041  5663
 6.3141  6998
 6.3241  8775
 6.3341 10527
 6.3441 12216
 6.3541 14068
 6.3641 15460
 6.3741 16948
 6.3841 17881
 6.3941 18462
 6.4041 18367
 6.4141 17657
 6.4241 16779
 6.4341 15501
 6.4441 13711
 6.4541 12037
 6.4641 10250
 6.4741  8581
 6.4841  6745
 6.4941  5239
 6.5041  4139
 6.5141  3073
 6.5241  2235
 6.5341  1693
 6.5441  1148
 6.5541   872
 6.5641   631
 6.5741   486
 6.5841   391
 6.5941   288
 6.6041   243
 6.6141   227
 6.6241   242
 6.6341   179
 6.6441   191
 6.6541   166
 6.6641   199
 6.6741   205
 6.6841   203
 6.6941   183
 6.7041   171
 6.7141   188
 6.7241   182
 6.7341   184
 6.7441   194
 6.7541   179
 6.7641   186
 6.7741   194
 6.7841   201
 6.7941   212
 6.8041   229
 6.8141   222
 6.8241   208
 6.8341   219
 6.8441   252
 6.8541   227
 6.8641   315
 6.8741   333
 6.8841   332
 6.8941   419
 6.9041   485
 6.9141   507
 6.9241   626
 6.9341   784
 6.9441   987
 6.9541  1115
 6.9641  1432
 6.9741  1574
 6.9841  1878
 6.9941  2101
 7.0041  2351
 7.0141  2709
 7.0241  2965
 7.0341  3182
 7.0441  3171
 7.0541  3245
 7.0641  3284
 7.0741  3032
 7.0841  2956
 7.0941  2682
 7.1041  2403
 7.1141  2103
 7.1241  1906
 7.1341  1592
 7.1441  1395
 7.1541  1147
 7.1641   905
 7.1741   705
 7.1841   572
 7.1941   526
 7.2041   372
 7.2141   363
 7.2241   278
 7.2341   283
 7.2441   235
 7.2541   224
 7.2641   248
 7.2741   265
 7.2841   246
 7.2941   263
 7.3041   273
 7.3141   309
 7.3241   327
 7.3341   317
 7.3441   333
 7.3541   368
 7.3641   422
 7.3741   428
 7.3841   466
 7.3941   524
 7.4041   574
 7.4141   548
 7.4241   655
 7.4341   680
 7.4441   652
 7.4541   718
 7.4641   699
 7.4741   722
 7.4841   681
 7.4941   645
 7.5041   626
 7.5141   596
 7.5241   572
 7.5341   507
 7.5441   445
 7.5541   418
 7.5641   365
 7.5741   356
 7.5841   321
 7.5941   302
 7.6041   319
 7.6141   281
 7.6241   267
 7.6341   264
 7.6441   275
 7.6541   244
 7.6641   282
 7.6741   267
 7.6841   273
 7.6941   263
 7.7041   260
 7.7141   270
 7.7241   283
 7.7341   270
 7.7441   279
 7.7541   258
 7.7641   281
 7.7741   308
 7.7841   291
 7.7941   314
 7.8041   311
 7.8141   295
 7.8241   304
 7.8341   323
 7.8441   314
 7.8541   346
 7.8641   329
 7.8741   389
 7.8841   376
 7.8941   427
 7.9041   415
 7.9141   446
 7.9241   451
 7.9341   473
 7.9441   544
 7.9541   565
 7.9641   570
 7.9741   644
 7.9841   703
 7.9941   680
 8.0041   786
 8.0141   823
 8.0241   887
 8.0341   986
 8.0441   982
 8.0541  1049
 8.0641  1137
 8.0741  1182
 8.0841  1268
 8.0941  1317
 8.1041  1354
 8.1141  1456
 8.1241  1497
 8.1341  1533
 8.1441  1563
 8.1541  1639
 8.1641  1689
 8.1741  1655
 8.1841  1662
 8.1941  1731
 8.2041  1738
 8.2141  1813
 8.2241  1824
 8.2341  1871
 8.2441  1930
 8.2541  2007
 8.2641  2077
 8.2741  2146
 8.2841  2358
 8.2941  2490
 8.3041  2600
 8.3141  2830
 8.3241  3023
 8.3341  3373
 8.3441  3506
 8.3541  3707
 8.3641  3783
 8.3741  4022
 8.3841  3962
 8.3941  4002
 8.4041  3890
 8.4141  3787
 8.4241  3487
 8.4341  3326
 8.4441  3083
 8.4541  2735
 8.4641  2419
 8.4741  2134
 8.4841  1819
 8.4941  1575
 8.5041  1374
 8.5141  1140
 8.5241   911
 8.5341   801
 8.5441   676
 8.5541   611
 8.5641   544
 8.5741   560
 8.5841   523
 8.5941   481
 8.6041   466
 8.6141   435
 8.6241   442
 8.6341   436
 8.6441   432
 8.6541   449
 8.6641   443
 8.6741   438
 8.6841   458
 8.6941   422
 8.7041   413
 8.7141   417
 8.7241   420
 8.7341   438
 8.7441   400
 8.7541   407
 8.7641   388
 8.7741   413
 8.7841   364
 8.7941   397
 8.8041   391
 8.8141   348
 8.8241   390
 8.8341   351
 8.8441   392
 8.8541   391
 8.8641   374
 8.8741   396
 8.8841   385
 8.8941   432
 8.9041   432
 8.9141   424
 8.9241   379
 8.9341   396
 8.9441   438
 8.9541   420
 8.9641   406
 8.9741   457
 8.9841   400
 8.9941   458
 9.0041   483
 9.0141   491
 9.0241   492
 9.0341   470
 9.0441   487
 9.0541   504
 9.0641   509
 9.0741   534
 9.0841   534
 9.0941   545
 9.1041   567
 9.1141   587
 9.1241   606
 9.1341   653
 9.1441   727
 9.1541   676
 9.1641   740
 9.1741   769
 9.1841   848
 9.1941   842
 9.2041   887
 9.2141   911
 9.2241   918
 9.2341  1021
 9.2441  1037
 9.2541  1100
 9.2641  1154
 9.2741  1220
 9.2841  1294
 9.2941  1337
 9.3041  1390
 9.3141  1354
 9.3241  1367
 9.3341  1419
 9.3441  1465
 9.3541  1527
 9.3641  1528
 9.3741  1580
 9.3841  1657
 9.3941  1660
 9.4041  1651
 9.4141  1725
 9.4241  1756
 9.4341  1791
 9.4441  1765
 9.4541  1763
 9.4641  1859
 9.4741  1813
 9.4841  1852
 9.4941  1907
 9.5041  1985
 9.5141  1958
 9.5241  2044
 9.5341  2160
 9.5441  2176
 9.5541  2290
 9.5641  2401
 9.5741  2582
 9.5841  2694
 9.5941  2934
 9.6041  3009
 9.6141  3148
 9.6241  3240
 9.6341  3359
 9.6441  3520
 9.6541  3603
 9.6641  3688
 9.6741  3662
 9.6841  3554
 9.6941  3500
 9.7041  3333
 9.7141  3159
 9.7241  3044
 9.7341  2799
 9.7441  2703
 9.7541  2464
 9.7641  2287
 9.7741  2106
 9.7841  1939
 9.7941  1765
 9.8041  1643
 9.8141  1567
 9.8241  1591
 9.8341  1530
 9.8441  1425
 9.8541  1456
 9.8641  1524
 9.8741  1476
 9.8841  1474
 9.8941  1538
 9.9041  1624
 9.9141  1680
 9.9241  1685
 9.9341  1683
 9.9441  1697
 9.9541  1638
 9.9641  1662
 9.9741  1619
 9.9841  1538
 9.9941  1499
10.0041  1447
10.0141  1315
10.0241  1207
10.0341  1153
10.0441  1003
10.0541   937
10.0641   833
10.0741   740
10.0841   668
10.0941   608
10.1041   547
10.1141   506
10.1241   439
10.1341   408
10.1441   386
10.1541   357
10.1641   332
10.1741   317
10.1841   306
10.1941   304
10.2041   324
10.2141   296
10.2241   301
10.2341   274
10.2441   254
10.2541   247
10.2641   244
10.2741   234
10.2841   238
10.2941   234
10.3041   228
10.3141   225
10.3241   223
10.3341   211
10.3441   215
10.3541   236
10.3641   194
10.3741   204
10.3841   229
10.3941   214
10.4041   214
10.4141   215
10.4241   206
10.4341   214
10.4441   208
10.4541   216
10.4641   219
10.4741   215
10.4841   234
10.4941   232
10.5041   229
10.5141   245
10.5241   246
10.5341   238
10.5441   235
10.5541   238
10.5641   248
10.5741   259
10.5841   226
10.5941   228
10.6041   244
10.6141   261
10.6241   262
10.6341   239
10.6441   278
10.6541   264
10.6641   230
10.6741   251
10.6841   270
10.6941   280
10.7041   273
10.7141   277
10.7241   271
10.7341   279
10.7441   279
10.7541   295
10.7641   301
10.7741   298
10.7841   296
10.7941   302
10.8041   336
10.8141   352
10.8241   351
10.8341   335
10.8441   337
10.8541   357
10.8641   359
10.8741   368
10.8841   373
10.8941   360
10.9041   373
10.9141   373
10.9241   369
10.9341   374
10.9441   366
10.9541   387
10.9641   387
10.9741   387
10.9841   352
10.9941   327
11.0041   363
11.0141   361
11.0241   349
11.0341   329
11.0441   316
11.0541   339
11.0641   310
11.0741   312
11.0841   323
11.0941   331
11.1041   324
11.1141   286
11.1241   316
11.1341   332
11.1441   357
11.1541   368
11.1641   384
11.1741   381
11.1841   420
11.1941   416
11.2041   437
11.2141   447
11.2241   470
11.2341   496
11.2441   514
11.2541   511
11.2641   524
11.2741   520
11.2841   528
11.2941   542
11.3041   516
11.3141   507
11.3241   472
11.3341   452
11.3441   470
11.3541   439
11.3641   427
11.3741   398
11.3841   346
11.3941   343
11.4041   342
11.4141   343
11.4241   318
11.4341   285
11.4441   267
11.4541   267
11.4641   262
11.4741   263
11.4841   250
11.4941   247
11.5041   258
11.5141   254
11.5241   252
11.5341   254
11.5441   272
11.5541   268
11.5641   274
11.5741   283
11.5841   283
11.5941   311
11.6041   297
11.6141   281
11.6241   284
11.6341   278
11.6441   281
11.6541   261
11.6641   275
11.6741   263
11.6841   256
11.6941   263
11.7041   270
11.7141   249
11.7241   239
11.7341   242
11.7441   236
11.7541   230
11.7641   209
11.7741   218
11.7841   205
11.7941   207
11.8041   224
11.8141   202
11.8241   200
11.8341   195
11.8441   184
11.8541   183
11.8641   176
11.8741   187
11.8841   196
11.8941   192
11.9041   192
11.9141   184
11.9241   187
11.9341   199
11.9441   199
11.9541   190
11.9641   187
11.9741   191
11.9841   201
11.9941   201
12.0041   198
12.0141   194
12.0241   184
12.0341   199
12.0441   194
12.0541   197
12.0641   216
12.0741   203
12.0841   207
12.0941   205
12.1041   212
12.1141   206
12.1241   202
12.1341   206
12.1441   203
12.1541   197
12.1641   190
12.1741   201
12.1841   204
12.1941   185
12.2041   182
12.2141   191
12.2241   196
12.2341   201
12.2441   198
12.2541   191
12.2641   185
12.2741   196
12.2841   197
12.2941   192
12.3041   195
12.3141   195
12.3241   191
12.3341   187
12.3441   197
12.3541   207
12.3641   195
12.3741   193
12.3841   207
12.3941   201
12.4041   199
12.4141   195
12.4241   178
12.4341   176
12.4441   203
12.4541   187
12.4641   185
12.4741   195
12.4841   202
12.4941   203
12.5041   200
12.5141   202
12.5241   198
12.5341   207
12.5441   213
12.5541   217
12.5641   221
12.5741   206
12.5841   215
12.5941   207
12.6041   209
12.6141   219
12.6241   217
12.6341   227
12.6441   227
12.6541   216
12.6641   221
12.6741   230
12.6841   222
12.6941   224
12.7041   220
12.7141   210
12.7241   195
12.7341   200
12.7441   218
12.7541   215
12.7641   209
12.7741   212
12.7841   210
12.7941   207
12.8041   209
12.8141   211
12.8241   212
12.8341   211
12.8441   210
12.8541   213
12.8641   218
12.8741   226
12.8841   236
12.8941   238
12.9041   232
12.9141   233
12.9241   234
12.9341   232
12.9441   231
12.9541   230
12.9641   230
12.9741   232
12.9841   231
12.9941   233
13.0041   233
13.0141   225
13.0241   223
13.0341   228
13.0441   231
13.0541   242
13.0641   238
13.0741   222
13.0841   222
13.0941   224
13.1041   230
13.1141   224
13.1241   211
13.1341   232
13.1441   257
13.1541   270
13.1641   259
13.1741   263
13.1841   281
13.1941   294
13.2041   316
13.2141   339
13.2241   349
13.2341   358
13.2441   385
13.2541   405
13.2641   418
13.2741   444
13.2841   485
13.2941   512
13.3041   541
13.3141   556
13.3241   550
13.3341   587
13.3441   658
13.3541   685
13.3641   646
13.3741   599
13.3841   619
13.3941   660
13.4041   646
13.4141   621
13.4241   607
13.4341   578
13.4441   551
13.4541   544
13.4641   514
13.4741   484
13.4841   466
13.4941   424
13.5041   414
13.5141   410
13.5241   373
13.5341   362
13.5441   349
13.5541   312
13.5641   293
13.5741   312
13.5841   317
13.5941   306
13.6041   284
13.6141   269
13.6241   270
13.6341   275
13.6441   274
13.6541   278
13.6641   295
13.6741   296
13.6841   279
13.6941   271
13.7041   277
13.7141   282
13.7241   272
13.7341   262
13.7441   276
13.7541   282
13.7641   280
13.7741   260
13.7841   259
13.7941   282
13.8041   294
13.8141   276
13.8241   276
13.8341   280
13.8441   297
13.8541   303
13.8641   257
13.8741   271
13.8841   295
13.8941   283
13.9041   278
13.9141   285
13.9241   275
13.9341   286
13.9441   326
13.9541   329
13.9641   329
13.9741   330
13.9841   340
13.9941   381
14.0041   401
14.0141   405
14.0241   421
14.0341   442
14.0441   475
14.0541   501
14.0641   510
14.0741   516
14.0841   535
14.0941   575
14.1041   610
14.1141   641
14.1241   643
14.1341   618
14.1441   599
14.1541   604
14.1641   631
14.1741   605
14.1841   594
14.1941   594
14.2041   573
14.2141   541
14.2241   497
14.2341   481
14.2441   467
14.2541   466
14.2641   450
14.2741   423
14.2841   428
14.2941   434
14.3041   400
14.3141   373
14.3241   359
14.3341   333
14.3441   309
14.3541   299
14.3641   324
14.3741   328
14.3841   313
14.3941   303
14.4041   322
14.4141   324
14.4241   301
14.4341   309
14.4441   308
14.4541   311
14.4641   317
14.4741   322
14.4841   334
14.4941   358
14.5041   322
14.5141   294
14.5241   305
14.5341   319
14.5441   328
14.5541   327
14.5641   337
14.5741   318
14.5841   339
14.5941   337
14.6041   310
14.6141   347
14.6241   341
14.6341   336
14.6441   334
14.6541   314
14.6641   334
14.6741   323
14.6841   330
14.6941   355
14.7041   338
14.7141   329
14.7241   311
14.7341   321
14.7441   353
14.7541   360
14.7641   361
14.7741   373
14.7841   337
14.7941   338
14.8041   375
14.8141   387
14.8241   376
14.8341   388
14.8441   419
14.8541   411
14.8641   400
14.8741   416
14.8841   434
14.8941   446
14.9041   422
14.9141   428
14.9241   410
14.9341   421
14.9441   443
14.9541   457
14.9641   463
14.9741   464
14.9841   468
14.9941   457
15.0041   436
15.0141   447
15.0241   448
15.0341   403
15.0441   401
15.0541   417
15.0641   407
15.0741   419
15.0841   423
15.0941   418
15.1041   384
15.1141   372
15.1241   366
15.1341   357
15.1441   372
15.1541   392
15.1641   376
15.1741   339
15.1841   342
15.1941   382
15.2041   392
15.2141   402
15.2241   391
15.2341   385
15.2441   379
15.2541   383
15.2641   375
15.2741   363
15.2841   399
15.2941   380
15.3041   378
15.3141   374
15.3241   363
15.3341   372
15.3441   372
15.3541   365
15.3641   391
15.3741   394
15.3841   373
15.3941   372
15.4041   358
15.4141   373
15.4241   374
15.4341   389
15.4441   393
15.4541   392
15.4641   377
15.4741   366
15.4841   379
15.4941   378
15.5041   384
15.5141   375
15.5241   382
15.5341   398
15.5441   396
15.5541   412
15.5641   421
15.5741   442
15.5841   430
15.5941   431
15.6041   433
15.6141   422
15.6241   450
15.6341   484
15.6441   499
15.6541   508
15.6641   519
15.6741   523
15.6841   516
15.6941   537
15.7041   571
15.7141   535
15.7241   534
15.7341   570
15.7441   578
15.7541   571
15.7641   571
15.7741   577
15.7841   573
15.7941   573
15.8041   612
15.8141   612
15.8241   588
15.8341   591
15.8441   567
15.8541   547
15.8641   558
15.8741   533
15.8841   528
15.8941   535
15.9041   521
15.9141   504
15.9241   487
15.9341   496
15.9441   456
15.9541   434
15.9641   450
15.9741   460
15.9841   454
15.9941   447
16.0041   433
16.0141   442
16.0241   426
16.0341   422
16.0441   448
16.0541   434
16.0641   436
16.0741   433
16.0841   453
16.0941   461
16.1041   459
16.1141   478
16.1241   458
16.1341   446
16.1441   423
16.1541   443
16.1641   438
16.1741   455
16.1841   464
16.1941   443
16.2041   450
16.2141   461
16.2241   479
16.2341   464
16.2441   448
16.2541   417
16.2641   434
16.2741   471
16.2841   459
16.2941   464
16.3041   477
16.3141   441
16.3241   456
16.3341   471
16.3441   471
16.3541   475
16.3641   469
16.3741   461
16.3841   454
16.3941   450
16.4041   438
16.4141   458
16.4241   454
16.4341   453
16.4441   480
16.4541   465
16.4641   504
16.4741   503
16.4841   491
16.4941   516
16.5041   534
16.5141   471
16.5241   489
16.5341   460
16.5441   484
16.5541   526
16.5641   542
16.5741   533
16.5841   509
16.5941   533
16.6041   534
16.6141   521
16.6241   525
16.6341   509
16.6441   489
16.6541   484
16.6641   497
16.6741   519
16.6841   517
16.6941   522
16.7041   508
16.7141   469
16.7241   496
16.7341   496
16.7441   479
16.7541   506
16.7641   501
16.7741   478
16.7841   485
16.7941   508
16.8041   543
16.8141   499
16.8241   500
16.8341   520
16.8441   516
16.8541   507
16.8641   487
16.8741   497
16.8841   509
16.8941   468
16.9041   471
16.9141   502
16.9241   495
16.9341   504
16.9441   511
16.9541   533
16.9641   515
16.9741   513
16.9841   526
16.9941   523
17.0041   516
17.0141   505
17.0241   492
17.0341   496
17.0441   532
17.0541   530
17.0641   525
17.0741   528
17.0841   511
17.0941   540
17.1041   504
17.1141   510
17.1241   501
17.1341   518
17.1441   531
17.1541   510
17.1641   493
17.1741   527
17.1841   555
17.1941   574
17.2041   541
17.2141   536
17.2241   543
17.2341   549
17.2441   521
17.2541   569
17.2641   582
17.2741   563
17.2841   544
17.2941   556
17.3041   566
17.3141   557
17.3241   539
17.3341   529
17.3441   571
17.3541   575
17.3641   572
17.3741   564
17.3841   569
17.3941   601
17.4041   573
17.4141   553
17.4241   591
17.4341   600
17.4441   584
17.4541   562
17.4641   615
17.4741   604
17.4841   600
17.4941   600
17.5041   624
17.5141   624
17.5241   603
17.5341   594
17.5441   587
17.5541   583
17.5641   588
17.5741   594
17.5841   599
17.5941   605
17.6041   595
17.6141   602
17.6241   599
17.6341   590
17.6441   591
17.6541   601
17.6641   630
17.6741   578
17.6841   605
17.6941   558
17.7041   599
17.7141   597
17.7241   606
17.7341   593
17.7441   575
17.7541   603
17.7641   605
17.7741   598
17.7841   579
17.7941   603
17.8041   636
17.8141   553
17.8241   564
17.8341   593
17.8441   589
17.8541   647
17.8641   605
17.8741   603
17.8841   604
17.8941   594
17.9041   573
17.9141   577
17.9241   585
17.9341   604
17.9441   569
17.9541   601
17.9641   612
17.9741   598
17.9841   594
17.9941   597
18.0041   618
18.0141   628
18.0241   614
18.0341   610
18.0441   572
18.0541   604
18.0641   611
18.0741   574
18.0841   604
18.0941   611
18.1041   612
18.1141   615
18.1241   625
18.1341   584
18.1441   592
18.1541   624
18.1641   627
18.1741   602
18.1841   639
18.1941   593
18.2041   602
18.2141   621
18.2241   594
18.2341   619
18.2441   631
18.2541   613
18.2641   648
18.2741   636
18.2841   617
18.2941   616
18.3041   624
18.3141   636
18.3241   617
18.3341   634
18.3441   620
18.3541   637
18.3641   616
18.3741   630
18.3841   643
18.3941   606
18.4041   609
18.4141   607
18.4241   614
18.4341   644
18.4441   658
18.4541   646
18.4641   640
18.4741   636
18.4841   632
18.4941   658
18.5041   657
18.5141   646
18.5241   659
18.5341   632
18.5441   637
18.5541   637
18.5641   639
18.5741   642
18.5841   667
18.5941   638
18.6041   628
18.6141   630
18.6241   626
18.6341   685
18.6441   683
18.6541   674
18.6641   614
18.6741   604
18.6841   663
18.6941   667
18.7041   645
18.7141   639
18.7241   655
18.7341   645
18.7441   651
18.7541   659
18.7641   633
18.7741   652
18.7841   667
18.7941   664
18.8041   668
18.8141   646
18.8241   620
18.8341   620
18.8441   661
18.8541   657
18.8641   667
18.8741   671
18.8841   642
18.8941   661
18.9041   668
18.9141   654
18.9241   645
18.9341   680
18.9441   661
18.9541   613
18.9641   664
18.9741   668
18.9841   697
18.9941   723
19.0041   702
19.0141   660
19.0241   663
19.0341   645
19.0441   668
19.0541   671
19.0641   677
19.0741   658
19.0841   652
19.0941   673
19.1041   704
19.1141   672
19.1241   648
19.1341   662
19.1441   703
19.1541   678
19.1641   657
19.1741   673
19.1841   680
19.1941   698
19.2041   683
19.2141   681
19.2241   700
19.2341   675
19.2441   695
19.2541   715
19.2641   696
19.2741   708
19.2841   688
19.2941   706
19.3041   691
19.3141   672
19.3241   665
19.3341   669
19.3441   673
19.3541   701
19.3641   665
19.3741   680
19.3841   657
19.3941   688
19.4041   718
19.4141   723
19.4241   673
19.4341   698
19.4441   681
19.4541   649
19.4641   686
19.4741   692
19.4841   727
19.4941   698
19.5041   688
19.5141   725
19.5241   686
19.5341   678
19.5441   677
19.5541   702
19.5641   670
19.5741   689
19.5841   714
19.5941   711
19.6041   680
19.6141   732
19.6241   737
19.6341   703
19.6441   703
19.6541   734
19.6641   691
19.6741   645
19.6841   694
19.6941   728
19.7041   707
19.7141   710
19.7241   700
19.7341   743
19.7441   733
19.7541   704
19.7641   661
19.7741   664
19.7841   718
19.7941   702
19.8041   687
19.8141   719
19.8241   688
19.8341   760
19.8441   732
19.8541   690
19.8641   723
19.8741   707
19.8841   719
19.8941   703
19.9041   706
19.9141   675
19.9241   681
19.9341   733
19.9441   745
19.9541   727
19.9641   697
19.9741   739
19.9841   693
19.9941   669
20.0041   698
20.0141   700
20.0241   680
20.0341   705
20.0441   709
20.0541   677
20.0641   746
20.0741   725
20.0841   747
20.0941   735
20.1041   671
20.1141   677
20.1241   708
20.1341   713
20.1441   736
20.1541   721
20.1641   708
20.1741   717
20.1841   673
20.1941   681
20.2041   735
20.2141   748
20.2241   713
20.2341   705
20.2441   734
20.2541   720
20.2641   704
20.2741   755
20.2841   740
20.2941   743
20.3041   731
20.3141   718
20.3241   738
20.3341   744
20.3441   768
20.3541   719
20.3641   729
20.3741   743
20.3841   733
20.3941   712
20.4041   725
20.4141   709
20.4241   727
20.4341   695
20.4441   686
20.4541   693
20.4641   696
20.4741   731
20.4841   748
20.4941   745
20.5041   733
20.5141   728
20.5241   722
20.5341   719
20.5441   698
20.5541   725
20.5641   713
20.5741   728
20.5841   729
20.5941   730
20.6041   758
20.6141   718
20.6241   692
20.6341   698
20.6441   734
20.6541   759
20.6641   721
20.6741   739
20.6841   750
20.6941   739
20.7041   738
20.7141   730
20.7241   751
20.7341   699
20.7441   723
20.7541   782
20.7641   757
20.7741   750
20.7841   738
20.7941   764
20.8041   765
20.8141   762
20.8241   796
20.8341   752
20.8441   790
20.8541   774
20.8641   802
20.8741   837
20.8841   859
20.8941   845
20.9041   839
20.9141   840
20.9241   891
20.9341   877
20.9441   868
20.9541   918
20.9641   934
20.9741   998
20.9841   951
20.9941   963
21.0041   985
21.0141  1024
21.0241   943
21.0341  1029
21.0441  1063
21.0541  1041
21.0641  1046
21.0741  1109
21.0841  1084
21.0941  1088
21.1041  1130
21.1141  1119
21.1241  1159
21.1341  1105
21.1441  1139
21.1541  1129
21.1641  1146
21.1741  1098
21.1841  1088
21.1941  1126
21.2041  1063
21.2141  1103
21.2241  1010
21.2341   992
21.2441   999
21.2541   953
21.2641   975
21.2741   972
21.2841   970
21.2941   916
21.3041   878
21.3141   881
21.3241   825
21.3341   785
21.3441   801
21.3541   829
21.3641   776
21.3741   803
21.3841   790
21.3941   782
21.4041   748
21.4141   735
21.4241   783
21.4341   739
21.4441   776
21.4541   736
21.4641   748
21.4741   749
21.4841   780
21.4941   743
21.5041   786
21.5141   713
21.5241   712
21.5341   712
21.5441   718
21.5541   736
21.5641   737
21.5741   737
21.5841   701
21.5941   756
21.6041   741
21.6141   753
21.6241   766
21.6341   739
21.6441   731
21.6541   709
21.6641   778
21.6741   726
21.6841   765
21.6941   720
21.7041   748
21.7141   738
21.7241   734
21.7341   725
21.7441   720
21.7541   756
21.7641   739
21.7741   743
21.7841   739
21.7941   777
21.8041   713
21.8141   714
21.8241   735
21.8341   743
21.8441   749
21.8541   727
21.8641   724
21.8741   706
21.8841   784
21.8941   713
21.9041   747
21.9141   762
21.9241   745
21.9341   743
21.9441   702
21.9541   762
21.9641   691
21.9741   745
21.9841   754
21.9941   785
22.0041   748
22.0141   756
22.0241   702
22.0341   735
22.0441   741
22.0541   724
22.0641   727
22.0741   723
22.0841   755
22.0941   732
22.1041   771
22.1141   710
22.1241   736
22.1341   763
22.1441   762
22.1541   733
22.1641   770
22.1741   733
22.1841   706
22.1941   711
22.2041   692
22.2141   804
22.2241   728
22.2341   724
22.2441   788
22.2541   690
22.2641   737
22.2741   743
22.2841   722
22.2941   701
22.3041   744
22.3141   777
22.3241   752
22.3341   726
22.3441   740
22.3541   711
22.3641   747
22.3741   775
22.3841   734
22.3941   729
22.4041   727
22.4141   763
22.4241   731
22.4341   740
22.4441   735
22.4541   766
22.4641   747
22.4741   807
22.4841   753
22.4941   731
22.5041   760
22.5141   745
22.5241   709
22.5341   687
22.5441   718
22.5541   769
22.5641   724
22.5741   696
22.5841   727
22.5941   724
22.6041   707
22.6141   723
22.6241   742
22.6341   702
22.6441   751
22.6541   728
22.6641   738
22.6741   762
22.6841   731
22.6941   785
22.7041   700
22.7141   716
22.7241   749
22.7341   718
22.7441   737
22.7541   697
22.7641   725
22.7741   733
22.7841   729
22.7941   730
22.8041   727
22.8141   688
22.8241   734
22.8341   693
22.8441   749
22.8541   723
22.8641   737
22.8741   756
22.8841   676
22.8941   717
22.9041   743
22.9141   776
22.9241   796
22.9341   706
22.9441   774
22.9541   755
22.9641   685
22.9741   775
22.9841   735
22.9941   751
23.0041   743
23.0141   732
23.0241   739
23.0341   706
23.0441   735
23.0541   713
23.0641   757
23.0741   706
23.0841   706
23.0941   713
23.1041   730
23.1141   727
23.1241   731
23.1341   700
23.1441   723
23.1541   739
23.1641   676
23.1741   761
23.1841   726
23.1941   746
23.2041   737
23.2141   704
23.2241   725
23.2341   715
23.2441   731
23.2541   676
23.2641   696
23.2741   739
23.2841   755
23.2941   696
23.3041   719
23.3141   676
23.3241   700
23.3341   752
23.3441   746
23.3541   737
23.3641   673
23.3741   708
23.3841   704
23.3941   703
23.4041   716
23.4141   767
23.4241   686
23.4341   742
23.4441   704
23.4541   708
23.4641   691
23.4741   683
23.4841   733
23.4941   723
23.5041   739
23.5141   767
23.5241   690
23.5341   710
23.5441   735
23.5541   685
23.5641   742
23.5741   760
23.5841   677
23.5941   722
23.6041   741
23.6141   735
23.6241   729
23.6341   684
23.6441   724
23.6541   769
23.6641   739
23.6741   760
23.6841   767
23.6941   770
23.7041   719
23.7141   783
23.7241   758
23.7341   785
23.7441   767
23.7541   810
23.7641   753
23.7741   764
23.7841   769
23.7941   802
23.8041   762
23.8141   788
23.8241   765
23.8341   740
23.8441   818
23.8541   804
23.8641   790
23.8741   745
23.8841   776
23.8941   781
23.9041   714
23.9141   690
23.9241   757
23.9341   743
23.9441   760
23.9541   718
23.9641   667
23.9741   723
23.9841   746
23.9941   735
24.0041   723
24.0141   749
24.0241   682
24.0341   722
24.0441   687
24.0541   725
24.0641   672
24.0741   707
24.0841   669
24.0941   694
24.1041   681
24.1141   721
24.1241   698
24.1341   717
24.1441   639
24.1541   716
24.1641   713
24.1741   695
24.1841   712
24.1941   677
24.2041   694
24.2141   693
24.2241   669
24.2341   696
24.2441   714
24.2541   722
24.2641   698
24.2741   679
24.2841   709
24.2941   669
24.3041   662
24.3141   696
24.3241   701
24.3341   743
24.3441   663
24.3541   722
24.3641   719
24.3741   688
24.3841   672
24.3941   678
24.4041   684
24.4141   708
24.4241   663
24.4341   663
24.4441   688
24.4541   669
24.4641   704
24.4741   668
24.4841   673
24.4941   659
24.5041   656
24.5141   682
24.5241   671
24.5341   669
24.5441   706
24.5541   683
24.5641   695
24.5741   664
24.5841   687
24.5941   686
24.6041   680
24.6141   667
24.6241   703
24.6341   683
24.6441   669
24.6541   669
24.6641   677
24.6741   696
24.6841   718
24.6941   693
24.7041   648
24.7141   681
24.7241   694
24.7341   671
24.7441   677
24.7541   688
24.7641   671
24.7741   647
24.7841   619
24.7941   674
24.8041   635
24.8141   603
24.8241   676
24.8341   661
24.8441   693
24.8541   650
24.8641   627
24.8741   675
24.8841   635
24.8941   667
24.9041   633
24.9141   649
24.9241   665
24.9341   664
24.9441   660
24.9541   623
24.9641   664
24.9741   640
24.9841   625
24.9941   627
25.0041   732
25.0141   658
25.0241   629
25.0341   665
25.0441   642
25.0541   653
25.0641   631
25.0741   703
25.0841   662
25.0941   719
25.1041   660
25.1141   665
25.1241   682
25.1341   659
25.1441   668
25.1541   693
25.1641   671
25.1741   639
25.1841   646
25.1941   677
25.2041   706
25.2141   675
25.2241   695
25.2341   680
25.2441   670
25.2541   682
25.2641   649
25.2741   648
25.2841   654
25.2941   651
25.3041   639
25.3141   648
25.3241   667
25.3341   652
25.3441   673
25.3541   684
25.3641   614
25.3741   606
25.3841   633
25.3941   674
25.4041   647
25.4141   630
25.4241   659
25.4341   637
25.4441   654
25.4541   653
25.4641   646
25.4741   599
25.4841   624
25.4941   623
25.5041   599
25.5141   650
25.5241   633
25.5341   620
25.5441   641
25.5541   625
25.5641   643
25.5741   664
25.5841   618
25.5941   644
25.6041   660
25.6141   614
25.6241   613
25.6341   609
25.6441   631
25.6541   654
25.6641   615
25.6741   632
25.6841   631
25.6941   635
25.7041   587
25.7141   589
25.7241   601
25.7341   599
25.7441   620
25.7541   650
25.7641   602
25.7741   600
25.7841   585
25.7941   571
25.8041   620
25.8141   611
25.8241   625
25.8341   615
25.8441   604
25.8541   607
25.8641   561
25.8741   599
25.8841   589
25.8941   643
25.9041   589
25.9141   604
25.9241   600
25.9341   595
25.9441   603
25.9541   615
25.9641   627
25.9741   615
25.9841   595
25.9941   586
26.0041   599
26.0141   626
26.0241   593
26.0341   618
26.0441   576
26.0541   621
26.0641   635
26.0741   641
26.0841   582
26.0941   596
26.1041   583
26.1141   589
26.1241   568
26.1341   578
26.1441   611
26.1541   588
26.1641   596
26.1741   585
26.1841   615
26.1941   607
26.2041   592
26.2141   612
26.2241   561
26.2341   592
26.2441   593
26.2541   578
26.2641   594
26.2741   570
26.2841   553
26.2941   608
26.3041   599
26.3141   564
26.3241   601
26.3341   600
26.3441   605
26.3541   618
26.3641   585
26.3741   581
26.3841   552
26.3941   573
26.4041   612
26.4141   582
26.4241   626
26.4341   626
26.4441   606
26.4541   559
26.4641   564
26.4741   603
26.4841   584
26.4941   566
26.5041   564
26.5141   542
26.5241   601
26.5341   598
26.5441   574
26.5541   581
26.5641   572
26.5741   619
26.5841   571
26.5941   585
26.6041   541
26.6141   566
26.6241   544
26.6341   550
26.6441   549
26.6541   591
26.6641   576
26.6741   607
26.6841   544
26.6941   563
26.7041   538
26.7141   567
26.7241   578
26.7341   546
26.7441   544
26.7541   576
26.7641   509
26.7741   533
26.7841   545
26.7941   568
26.8041   550
26.8141   548
26.8241   568
26.8341   552
26.8441   563
26.8541   527
26.8641   538
26.8741   524
26.8841   578
26.8941   520
26.9041   529
26.9141   558
26.9241   561
26.9341   541
26.9441   557
26.9541   581
26.9641   543
26.9741   547
26.9841   538
26.9941   539
27.0041   551
27.0141   591
27.0241   557
27.0341   533
27.0441   551
27.0541   533
27.0641   563
27.0741   541
27.0841   528
27.0941   531
27.1041   558
27.1141   564
27.1241   537
27.1341   547
27.1441   537
27.1541   513
27.1641   562
27.1741   578
27.1841   527
27.1941   523
27.2041   570
27.2141   517
27.2241   548
27.2341   526
27.2441   549
27.2541   549
27.2641   550
27.2741   516
27.2841   539
27.2941   547
27.3041   530
27.3141   560
27.3241   553
27.3341   509
27.3441   519
27.3541   511
27.3641   514
27.3741   492
27.3841   521
27.3941   514
27.4041   550
27.4141   570
27.4241   566
27.4341   511
27.4441   533
27.4541   542
27.4641   564
27.4741   502
27.4841   548
27.4941   502
27.5041   509
27.5141   531
27.5241   513
27.5341   523
27.5441   503
27.5541   527
27.5641   505
27.5741   532
27.5841   525
27.5941   555
27.6041   522
27.6141   515
27.6241   514
27.6341   507
27.6441   507
27.6541   500
27.6641   534
27.6741   515
27.6841   514
27.6941   521
27.7041   520
27.7141   508
27.7241   507
27.7341   539
27.7441   478
27.7541   463
27.7641   478
27.7741   508
27.7841   510
27.7941   544
27.8041   489
27.8141   466
27.8241   498
27.8341   524
27.8441   493
27.8541   509
27.8641   480
27.8741   498
27.8841   482
27.8941   482
27.9041   493
27.9141   518
27.9241   489
27.9341   486
27.9441   468
27.9541   488
27.9641   479
27.9741   500
27.9841   502
27.9941   474
28.0041   482
28.0141   505
28.0241   512
28.0341   461
28.0441   487
28.0541   483
28.0641   459
28.0741   511
28.0841   484
28.0941   479
28.1041   473
28.1141   507
28.1241   474
28.1341   479
28.1441   481
28.1541   486
28.1641   466
28.1741   475
28.1841   468
28.1941   476
28.2041   494
28.2141   453
28.2241   466
28.2341   464
28.2441   466
28.2541   432
28.2641   465
28.2741   506
28.2841   491
28.2941   442
28.3041   452
28.3141   487
28.3241   475
28.3341   455
28.3441   452
28.3541   436
28.3641   482
28.3741   454
28.3841   469
28.3941   460
28.4041   478
28.4141   481
28.4241   464
28.4341   518
28.4441   479
28.4541   480
28.4641   468
28.4741   486
28.4841   453
28.4941   442
28.5041   499
28.5141   457
28.5241   484
28.5341   476
28.5441   476
28.5541   454
28.5641   464
28.5741   452
28.5841   437
28.5941   461
28.6041   455
28.6141   452
28.6241   465
28.6341   447
28.6441   461
28.6541   466
28.6641   487
28.6741   479
28.6841   438
28.6941   424
28.7041   463
28.7141   497
28.7241   454
28.7341   484
28.7441   433
28.7541   477
28.7641   428
28.7741   445
28.7841   449
28.7941   484
28.8041   433
28.8141   449
28.8241   464
28.8341   454
28.8441   437
28.8541   451
28.8641   443
28.8741   472
28.8841   430
28.8941   424
28.9041   424
28.9141   457
28.9241   456
28.9341   446
28.9441   458
28.9541   465
28.9641   419
28.9741   459
28.9841   422
28.9941   476
29.0041   445
29.0141   424
29.0241   423
29.0341   459
29.0441   431
29.0541   431
29.0641   439
29.0741   439
29.0841   447
29.0941   435
29.1041   413
29.1141   438
29.1241   417
29.1341   429
29.1441   421
29.1541   428
29.1641   432
29.1741   391
29.1841   385
29.1941   452
29.2041   425
29.2141   406
29.2241   414
29.2341   406
29.2441   428
29.2541   400
29.2641   429
29.2741   414
29.2841   410
29.2941   395
29.3041   402
29.3141   402
29.3241   406
29.3341   397
29.3441   389
29.3541   374
29.3641   425
29.3741   440
29.3841   411
29.3941   393
29.4041   398
29.4141   433
29.4241   435
29.4341   418
29.4441   437
29.4541   404
29.4641   401
29.4741   427
29.4841   417
29.4941   391
29.5041   430
29.5141   437
29.5241   387
29.5341   403
29.5441   379
29.5541   396
29.5641   378
29.5741   387
29.5841   392
29.5941   382
29.6041   391
29.6141   379
29.6241   394
29.6341   396
29.6441   424
29.6541   427
29.6641   418
29.6741   370
29.6841   399
29.6941   385
29.7041   417
29.7141   399
29.7241   360
29.7341   404
29.7441   381
29.7541   391
29.7641   403
29.7741   373
29.7841   400
29.7941   398
29.8041   401
29.8141   380
29.8241   358
29.8341   357
29.8441   391
29.8541   372
29.8641   339
29.8741   383
29.8841   416
29.8941   402
29.9041   397
29.9141   398
29.9241   372
29.9341   363
29.9441   348
29.9541   383
29.9641   411
29.9741   366
29.9841   403
29.9941   381
30.0041   385
30.0141   358
30.0241   395
30.0341   372
30.0441   370
30.0541   361
30.0641   349
30.0741   354
30.0841   352
30.0941   389
30.1041   391
30.1141   387
30.1241   385
30.1341   368
30.1441   367
30.1541   364
30.1641   381
30.1741   348
30.1841   359
30.1941   362
30.2041   356
30.2141   364
30.2241   355
30.2341   358
30.2441   376
30.2541   355
30.2641   365
30.2741   371
30.2841   360
30.2941   388
30.3041   401
30.3141   353
30.3241   367
30.3341   374
30.3441   360
30.3541   321
30.3641   367
30.3741   359
30.3841   348
30.3941   355
30.4041   342
30.4141   366
30.4241   367
30.4341   357
30.4441   364
30.4541   372
30.4641   348
30.4741   395
30.4841   392
30.4941   378
30.5041   352
30.5141   366
30.5241   372
30.5341   348
30.5441   334
30.5541   348
30.5641   373
30.5741   330
30.5841   330
30.5941   319
30.6041   337
30.6141   343
30.6241   338
30.6341   368
30.6441   348
30.6541   347
30.6641   355
30.6741   345
30.6841   343
30.6941   356
30.7041   313
30.7141   346
30.7241   342
30.7341   329
30.7441   346
30.7541   348
30.7641   336
30.7741   321
30.7841   361
30.7941   323
30.8041   349
30.8141   344
30.8241   325
30.8341   336
30.8441   337
30.8541   343
30.8641   332
30.8741   337
30.8841   370
30.8941   352
30.9041   348
30.9141   326
30.9241   347
30.9341   348
30.9441   323
30.9541   351
30.9641   317
30.9741   327
30.9841   292
30.9941   338
31.0041   323
31.0141   308
31.0241   320
31.0341   341
31.0441   341
31.0541   317
31.0641   344
31.0741   364
31.0841   307
31.0941   301
31.1041   356
31.1141   302
31.1241   321
31.1341   320
31.1441   313
31.1541   320
31.1641   328
31.1741   319
31.1841   310
31.1941   356
31.2041   285
31.2141   340
31.2241   337
31.2341   309
31.2441   312
31.2541   312
31.2641   298
31.2741   326
31.2841   306
31.2941   323
31.3041   291
31.3141   292
31.3241   329
31.3341   321
31.3441   303
31.3541   310
31.3641   324
31.3741   314
31.3841   333
31.3941   312
31.4041   308
31.4141   292
31.4241   317
31.4341   306
31.4441   306
31.4541   294
31.4641   270
31.4741   286
31.4841   297
31.4941   303
31.5041   307
31.5141   313
31.5241   314
31.5341   307
31.5441   285
31.5541   284
31.5641   316
31.5741   308
31.5841   302
31.5941   291
31.6041   295
31.6141   316
31.6241   294
31.6341   321
31.6441   313
31.6541   327
31.6641   298
31.6741   290
31.6841   294
31.6941   344
31.7041   305
31.7141   276
31.7241   295
31.7341   332
31.7441   299
31.7541   285
31.7641   302
31.7741   326
31.7841   311
31.7941   298
31.8041   289
31.8141   293
31.8241   319
31.8341   342
31.8441   282
31.8541   290
31.8641   316
31.8741   304
31.8841   314
31.8941   287
31.9041   285
31.9141   288
31.9241   293
31.9341   291
31.9441   291
31.9541   276
31.9641   266
31.9741   303
31.9841   305
31.9941   294
32.0041   290
32.0141   311
32.0241   263
32.0341   302
32.0441   315
32.0541   291
32.0641   285
32.0741   274
32.0841   291
32.0941   296
32.1041   303
32.1141   288
32.1241   293
32.1341   300
32.1441   297
32.1541   283
32.1641   270
32.1741   309
32.1841   294
32.1941   282
32.2041   288
32.2141   285
32.2241   302
32.2341   309
32.2441   275
32.2541   288
32.2641   256
32.2741   266
32.2841   299
32.2941   286
32.3041   282
32.3141   264
32.3241   280
32.3341   278
32.3441   280
32.3541   282
32.3641   259
32.3741   270
32.3841   279
32.3941   274
32.4041   273
32.4141   275
32.4241   256
32.4341   260
32.4441   287
32.4541   248
32.4641   256
32.4741   248
32.4841   240
32.4941   243
32.5041   275
32.5141   264
32.5241   276
32.5341   286
32.5441   278
32.5541   228
32.5641   257
32.5741   285
32.5841   278
32.5941   256
32.6041   271
32.6141   250
32.6241   265
32.6341   265
32.6441   236
32.6541   246
32.6641   241
32.6741   245
32.6841   250
32.6941   230
32.7041   255
32.7141   248
32.7241   256
32.7341   226
32.7441   241
32.7541   264
32.7641   258
32.7741   253
32.7841   230
32.7941   248
32.8041   233
32.8141   247
32.8241   242
32.8341   245
32.8441   257
32.8541   234
32.8641   228
32.8741   248
32.8841   226
32.8941   233
32.9041   255
32.9141   233
32.9241   255
32.9341   245
32.9441   253
32.9541   245
32.9641   220
32.9741   227
32.9841   225
32.9941   245
33.0041   255
33.0141   206
33.0241   236
33.0341   222
33.0441   248
33.0541   212
33.0641   220
33.0741   208
33.0841   239
33.0941   227
33.1041   229
33.1141   211
33.1241   212
33.1341   229
33.1441   232
33.1541   222
33.1641   208
33.1741   233
33.1841   246
33.1941   230
33.2041   232
33.2141   224
33.2241   223
33.2341   237
33.2441   222
33.2541   210
33.2641   223
33.2741   213
33.2841   202
33.2941   245
33.3041   225
33.3141   240
33.3241   204
33.3341   228
33.3441   242
33.3541   216
33.3641   218
33.3741   233
33.3841   219
33.3941   220
33.4041   200
33.4141   201
33.4241   223
33.4341   203
33.4441   236
33.4541   201
33.4641   233
33.4741   226
33.4841   237
33.4941   228
33.5041   224
33.5141   217
33.5241   209
33.5341   214
33.5441   223
33.5541   210
33.5641   193
33.5741   221
33.5841   209
33.5941   239
33.6041   206
33.6141   205
33.6241   220
33.6341   218
33.6441   210
33.6541   222
33.6641   215
33.6741   227
33.6841   185
33.6941   204
33.7041   226
33.7141   194
33.7241   212
33.7341   208
33.7441   216
33.7541   194
33.7641   226
33.7741   189
33.7841   185
33.7941   213
33.8041   188
33.8141   186
33.8241   193
33.8341   213
33.8441   192
33.8541   206
33.8641   198
33.8741   202
33.8841   199
33.8941   184
33.9041   197
33.9141   191
33.9241   202
33.9341   190
33.9441   185
33.9541   201
33.9641   173
33.9741   190
33.9841   176
33.9941   184
34.0041   201
34.0141   177
34.0241   187
34.0341   199
34.0441   201
34.0541   157
34.0641   192
34.0741   196
34.0841   210
34.0941   192
34.1041   180
34.1141   201
34.1241   196
34.1341   233
34.1441   195
34.1541   199
34.1641   190
34.1741   227
34.1841   187
34.1941   201
34.2041   187
34.2141   200
34.2241   221
34.2341   187
34.2441   190
34.2541   204
34.2641   186
34.2741   160
34.2841   198
34.2941   197
34.3041   205
34.3141   190
34.3241   162
34.3341   192
34.3441   196
34.3541   180
34.3641   165
34.3741   191
34.3841   188
34.3941   160
34.4041   182
34.4141   184
34.4241   186
34.4341   197
34.4441   185
34.4541   171
34.4641   166
34.4741   181
34.4841   169
34.4941   209
34.5041   188
34.5141   196
34.5241   190
34.5341   171
34.5441   172
34.5541   181
34.5641   165
34.5741   181
34.5841   188
34.5941   168
34.6041   172
34.6141   189
34.6241   176
34.6341   160
34.6441   168
34.6541   195
34.6641   167
34.6741   183
34.6841   186
34.6941   160
34.7041   180
34.7141   191
34.7241   175
34.7341   195
34.7441   169
34.7541   154
34.7641   174
34.7741   190
34.7841   180
34.7941   189
34.8041   182
34.8141   173
34.8241   172
34.8341   167
34.8441   171
34.8541   165
34.8641   157
34.8741   183
34.8841   181
34.8941   157
34.9041   166
34.9141   171
34.9241   155
34.9341   158
34.9441   163
34.9541   164
34.9641   187
34.9741   170
34.9841   178
34.9941   185
35.0041   176
35.0141   169
35.0241   151
35.0341   169
35.0441   184
35.0541   163
35.0641   143
35.0741   131
35.0841   151
35.0941   152
35.1041   153
35.1141   188
35.1241   163
35.1341   143
35.1441   166
35.1541   160
35.1641   160
35.1741   167
35.1841   164
35.1941   151
35.2041   154
35.2141   156
35.2241   159
35.2341   147
35.2441   135
35.2541   149
35.2641   132
35.2741   155
35.2841   166
35.2941   171
35.3041   140
35.3141   147
35.3241   148
35.3341   174
35.3441   148
35.3541   157
35.3641   143
35.3741   132
35.3841   142
35.3941   149
35.4041   146
35.4141   161
35.4241   137
35.4341   156
35.4441   148
35.4541   134
35.4641   155
35.4741   128
35.4841   149
35.4941   145
35.5041   158
35.5141   173
35.5241   147
35.5341   146
35.5441   142
35.5541   130
35.5641   154
35.5741   149
35.5841   139
35.5941   133
35.6041   149
35.6141   131
35.6241   127
35.6341   140
35.6441   136
35.6541   143
35.6641   138
35.6741   148
35.6841   144
35.6941   151
35.7041   137
35.7141   126
35.7241   134
35.7341   147
35.7441   134
35.7541   147
35.7641   127
35.7741   123
35.7841   157
35.7941   155
35.8041   115
35.8141   140
35.8241   123
35.8341   140
35.8441   129
35.8541   113
35.8641   146
35.8741   123
35.8841   124
35.8941   128
35.9041   136
35.9141   130
35.9241   137
35.9341   138
35.9441   126
35.9541   135
35.9641   135
35.9741   133
35.9841   142
35.9941   132
36.0041   144
36.0141   105
36.0241   144
36.0341   139
36.0441   122
36.0541   127
36.0641   150
36.0741   123
36.0841   146
36.0941   125
36.1041   118
36.1141   134
36.1241   116
36.1341   107
36.1441   119
36.1541   132
36.1641   128
36.1741   126
36.1841   137
36.1941   127
36.2041   117
36.2141   119
36.2241   127
36.2341   119
36.2441   115
36.2541   109
36.2641   120
36.2741   130
36.2841   142
36.2941   113
36.3041   128
36.3141   122
36.3241   111
36.3341   121
36.3441   125
36.3541   125
36.3641   129
36.3741   123
36.3841   121
36.3941   122
36.4041   122
36.4141   112
36.4241   128
36.4341   124
36.4441   121
36.4541   117
36.4641   131
36.4741   122
36.4841   126
36.4941   125
36.5041   106
36.5141   113
36.5241   140
36.5341   105
36.5441    97
36.5541   109
36.5641   133
36.5741   126
36.5841   113
36.5941   109
36.6041   112
36.6141    89
36.6241   114
36.6341   132
36.6441   124
36.6541   116
36.6641   106
36.6741   116
36.6841    93
36.6941   102
36.7041   110
36.7141   117
36.7241   124
36.7341   105
36.7441    97
36.7541   106
36.7641   115
36.7741   119
36.7841   120
36.7941   105
36.8041    98
36.8141   108
36.8241   119
36.8341   118
36.8441   110
36.8541   118
36.8641   106
36.8741   104
36.8841   113
36.8941    96
36.9041   101
36.9141   122
36.9241    94
36.9341   100
36.9441   101
36.9541   106
36.9641   109
36.9741   116
36.9841   111
36.9941   114
37.0041    94
37.0141   108
37.0241   114
37.0341   127
37.0441   109
37.0541   108
37.0641   106
37.0741    95
37.0841   100
37.0941   111
37.1041    93
37.1141   107
37.1241   100
37.1341   116
37.1441   111
37.1541    96
37.1641    98
37.1741   106
37.1841    91
37.1941   105
37.2041   102
37.2141   102
37.2241   112
37.2341   105
37.2441   109
37.2541    96
37.2641    97
37.2741    98
37.2841   108
37.2941   100
37.3041    93
37.3141    87
37.3241   105
37.3341   109
37.3441   106
37.3541   115
37.3641   101
37.3741   106
37.3841    94
37.3941    90
37.4041    81
37.4141    93
37.4241    90
37.4341   101
37.4441    86
37.4541    97
37.4641    85
37.4741    95
37.4841    84
37.4941   104
37.5041   101
37.5141    79
37.5241    87
37.5341    96
37.5441   101
37.5541    89
37.5641    71
37.5741    86
37.5841    93
37.5941    93
37.6041   106
37.6141    98
37.6241    87
37.6341    82
37.6441   103
37.6541    96
37.6641   102
37.6741    82
37.6841    77
37.6941    94
37.7041    89
37.7141    93
37.7241    76
37.7341    82
37.7441    97
37.7541   107
37.7641    77
37.7741    85
37.7841    78
37.7941    71
37.8041    92
37.8141    88
37.8241    96
37.8341    96
37.8441    83
37.8541    78
37.8641   100
37.8741    96
37.8841    89
37.8941    86
37.9041    88
37.9141    82
37.9241    80
37.9341    80
37.9441    94
37.9541    86
37.9641    76
37.9741    63
37.9841    82
37.9941    78
38.0041    72
38.0141    72
38.0241    86
38.0341    77
38.0441    65
38.0541    60
38.0641    83
38.0741    77
38.0841    79
38.0941    81
38.1041    73
38.1141    74
38.1241    88
38.1341    82
38.1441    65
38.1541    81
38.1641    69
38.1741    86
38.1841    81
38.1941    77
38.2041    71
38.2141    71
38.2241    79
38.2341    77
38.2441    66
38.2541    88
38.2641    72
38.2741    58
38.2841    84
38.2941    65
38.3041    79
38.3141    85
38.3241    86
38.3341    72
38.3441    74
38.3541    92
38.3641    91
38.3741    71
38.3841    64
38.3941    62
38.4041    73
38.4141    70
38.4241    69
38.4341    65
38.4441    71
38.4541    72
38.4641    72
38.4741    69
38.4841    76
38.4941    66
38.5041    60
38.5141    69
38.5241    64
38.5341    84
38.5441    66
38.5541    55
38.5641    75
38.5741    64
38.5841    58
38.5941    70
38.6041    65
38.6141    68
38.6241    77
38.6341    68
38.6441    56
38.6541    70
38.6641    65
38.6741    52
38.6841    63
38.6941    69
38.7041    71
38.7141    60
38.7241    75
38.7341    60
38.7441    66
38.7541    59
38.7641    68
38.7741    61
38.7841    65
38.7941    65
38.8041    63
38.8141    65
38.8241    62
38.8341    60
38.8441    61
38.8541    59
38.8641    64
38.8741    64
38.8841    51
38.8941    49
38.9041    55
38.9141    55
38.9241    72
38.9341    54
38.9441    61
38.9541    55
38.9641    60
38.9741    79
38.9841    46
38.9941    70
39.0041    56
39.0141    52
39.0241    56
39.0341    59
39.0441    52
39.0541    52
39.0641    68
39.0741    64
39.0841    53
39.0941    76
39.1041    67
39.1141    55
39.1241    51
39.1341    54
39.1441    72
39.1541    59
39.1641    56
39.1741    61
39.1841    49
39.1941    54
39.2041    62
39.2141    58
39.2241    37
39.2341    62
39.2441    44
39.2541    53
39.2641    51
39.2741    53
39.2841    52
39.2941    48
39.3041    59
39.3141    59
39.3241    52
39.3341    47
39.3441    43
39.3541    47
39.3641    55
39.3741    52
39.3841    54
39.3941    53
39.4041    55
39.4141    60
39.4241    49
39.4341    64
39.4441    39
39.4541    59
39.4641    44
39.4741    52
39.4841    41
39.4941    47
39.5041    41
39.5141    56
39.5241    46
39.5341    53
39.5441    50
39.5541    55
39.5641    51
39.5741    37
39.5841    53
39.5941    45
39.6041    52
39.6141    48
39.6241    48
39.6341    53
39.6441    48
39.6541    42
39.6641    55
39.6741    45
39.6841    45
39.6941    51
39.7041    48
39.7141    56
39.7241    56
39.7341    54
39.7441    47
39.7541    57
39.7641    50
39.7741    47
39.7841    45
39.7941    34
39.8041    51
39.8141    41
39.8241    38
39.8341    41
39.8441    56
39.8541    46
39.8641    52
39.8741    59
39.8841    47
39.8941    46
39.9041    42
39.9141    47
39.9241    42
39.9341    32
39.9441    46
39.9541    48
39.9641    34
39.9741    47
39.9841    39
