Bruker Nano GmbH Berlin, Germany
Esprit 1.9

Date: 5/14/2021 1:40:27 PM
Real time: 21585
Life time: 20384
Pulse density: 81120


Detector type: XFlash 430
Window type: Custom type
Detector thickness: 0.45
Si dead layer:0.029

Calibration, lin.: 10
Calibration, abs.: -955.9
Mn FWHM: 137.05
Fano factor: 0.121
Channels: 4096

Energy Counts
-0.9559     0
-0.9459     0
-0.9359     0
-0.9259     0
-0.9159     0
-0.9059     0
-0.8959     0
-0.8859     0
-0.8759     0
-0.8659     0
-0.8559     0
-0.8459     0
-0.8359     0
-0.8259     0
-0.8159     0
-0.8059     0
-0.7959     0
-0.7859     0
-0.7759     0
-0.7659     0
-0.7559     0
-0.7459     0
-0.7359     0
-0.7259     0
-0.7159     0
-0.7059     0
-0.6959     0
-0.6859     0
-0.6759     0
-0.6659     0
-0.6559     0
-0.6459     0
-0.6359     0
-0.6259     0
-0.6159     0
-0.6059     0
-0.5959     0
-0.5859     0
-0.5759     0
-0.5659     0
-0.5559     0
-0.5459     0
-0.5359     0
-0.5259     0
-0.5159     0
-0.5059     0
-0.4959     0
-0.4859     0
-0.4759     0
-0.4659     0
-0.4559     0
-0.4459     0
-0.4359     0
-0.4259     0
-0.4159     0
-0.4059     0
-0.3959     0
-0.3859     0
-0.3759     0
-0.3659     0
-0.3559     0
-0.3459     0
-0.3359     0
-0.3259     0
-0.3159     0
-0.3059     0
-0.2959     0
-0.2859     0
-0.2759     0
-0.2659     0
-0.2559     0
-0.2459     0
-0.2359     0
-0.2259     0
-0.2159     0
-0.2059     0
-0.1959     0
-0.1859     0
-0.1759     0
-0.1659     0
-0.1559     0
-0.1459     0
-0.1359     0
-0.1259     1
-0.1159     2
-0.1059    18
-0.0959    53
-0.0859   231
-0.0759   806
-0.0659  2271
-0.0559  5978
-0.0459 12914
-0.0359 24192
-0.0259 38772
-0.0159 52856
-0.0059 62402
 0.0041 63027
 0.0141 54495
 0.0241 39910
 0.0341 25290
 0.0441 13695
 0.0541  6375
 0.0641  2495
 0.0741   839
 0.0841   255
 0.0941    75
 0.1041    32
 0.1141    11
 0.1241     8
 0.1341    14
 0.1441     4
 0.1541     2
 0.1641     0
 0.1741    26
 0.1841   208
 0.1941   355
 0.2041   307
 0.2141   329
 0.2241   328
 0.2341   317
 0.2441   324
 0.2541   327
 0.2641   309
 0.2741   298
 0.2841   273
 0.2941   325
 0.3041   319
 0.3141   293
 0.3241   285
 0.3341   308
 0.3441   316
 0.3541   300
 0.3641   313
 0.3741   286
 0.3841   295
 0.3941   290
 0.4041   298
 0.4141   262
 0.4241   267
 0.4341   285
 0.4441   270
 0.4541   255
 0.4641   269
 0.4741   271
 0.4841   263
 0.4941   262
 0.5041   278
 0.5141   302
 0.5241   287
 0.5341   270
 0.5441   270
 0.5541   261
 0.5641   254
 0.5741   264
 0.5841   275
 0.5941   261
 0.6041   256
 0.6141   250
 0.6241   275
 0.6341   258
 0.6441   244
 0.6541   241
 0.6641   245
 0.6741   252
 0.6841   244
 0.6941   250
 0.7041   247
 0.7141   235
 0.7241   225
 0.7341   222
 0.7441   233
 0.7541   225
 0.7641   226
 0.7741   226
 0.7841   209
 0.7941   204
 0.8041   225
 0.8141   205
 0.8241   203
 0.8341   228
 0.8441   223
 0.8541   233
 0.8641   220
 0.8741   201
 0.8841   217
 0.8941   221
 0.9041   232
 0.9141   221
 0.9241   211
 0.9341   223
 0.9441   207
 0.9541   221
 0.9641   216
 0.9741   205
 0.9841   202
 0.9941   197
 1.0041   201
 1.0141   213
 1.0241   195
 1.0341   185
 1.0441   201
 1.0541   204
 1.0641   205
 1.0741   203
 1.0841   199
 1.0941   201
 1.1041   184
 1.1141   177
 1.1241   180
 1.1341   197
 1.1441   182
 1.1541   177
 1.1641   190
 1.1741   187
 1.1841   180
 1.1941   193
 1.2041   171
 1.2141   199
 1.2241   181
 1.2341   199
 1.2441   201
 1.2541   182
 1.2641   175
 1.2741   191
 1.2841   185
 1.2941   197
 1.3041   193
 1.3141   178
 1.3241   171
 1.3341   145
 1.3441   185
 1.3541   191
 1.3641   198
 1.3741   188
 1.3841   187
 1.3941   187
 1.4041   167
 1.4141   189
 1.4241   184
 1.4341   196
 1.4441   169
 1.4541   173
 1.4641   174
 1.4741   147
 1.4841   185
 1.4941   176
 1.5041   148
 1.5141   175
 1.5241   194
 1.5341   189
 1.5441   185
 1.5541   170
 1.5641   182
 1.5741   162
 1.5841   174
 1.5941   160
 1.6041   185
 1.6141   180
 1.6241   168
 1.6341   193
 1.6441   195
 1.6541   205
 1.6641   264
 1.6741   337
 1.6841   411
 1.6941   481
 1.7041   601
 1.7141   671
 1.7241   763
 1.7341   776
 1.7441   810
 1.7541   729
 1.7641   701
 1.7741   605
 1.7841   461
 1.7941   393
 1.8041   346
 1.8141   267
 1.8241   224
 1.8341   241
 1.8441   229
 1.8541   207
 1.8641   219
 1.8741   204
 1.8841   183
 1.8941   190
 1.9041   184
 1.9141   156
 1.9241   190
 1.9341   195
 1.9441   212
 1.9541   192
 1.9641   214
 1.9741   189
 1.9841   215
 1.9941   211
 2.0041   234
 2.0141   258
 2.0241   204
 2.0341   209
 2.0441   202
 2.0541   213
 2.0641   203
 2.0741   190
 2.0841   168
 2.0941   165
 2.1041   162
 2.1141   182
 2.1241   183
 2.1341   158
 2.1441   163
 2.1541   163
 2.1641   176
 2.1741   175
 2.1841   169
 2.1941   149
 2.2041   159
 2.2141   141
 2.2241   154
 2.2341   172
 2.2441   145
 2.2541   161
 2.2641   141
 2.2741   144
 2.2841   157
 2.2941   184
 2.3041   138
 2.3141   154
 2.3241   149
 2.3341   163
 2.3441   150
 2.3541   143
 2.3641   150
 2.3741   139
 2.3841   162
 2.3941   133
 2.4041   156
 2.4141   145
 2.4241   155
 2.4341   158
 2.4441   151
 2.4541   154
 2.4641   132
 2.4741   147
 2.4841   159
 2.4941   116
 2.5041   159
 2.5141   139
 2.5241   138
 2.5341   132
 2.5441   125
 2.5541   125
 2.5641   171
 2.5741   153
 2.5841   154
 2.5941   139
 2.6041   138
 2.6141   138
 2.6241   129
 2.6341   122
 2.6441   118
 2.6541   136
 2.6641   133
 2.6741   128
 2.6841   130
 2.6941   128
 2.7041   119
 2.7141   121
 2.7241   154
 2.7341   135
 2.7441   141
 2.7541   121
 2.7641   138
 2.7741   150
 2.7841   140
 2.7941   125
 2.8041   136
 2.8141   130
 2.8241   125
 2.8341   120
 2.8441   147
 2.8541   140
 2.8641   124
 2.8741   125
 2.8841   141
 2.8941   104
 2.9041   136
 2.9141   119
 2.9241   125
 2.9341   125
 2.9441   138
 2.9541   134
 2.9641   134
 2.9741   125
 2.9841   138
 2.9941   123
 3.0041   109
 3.0141   119
 3.0241   125
 3.0341   116
 3.0441   113
 3.0541   119
 3.0641   108
 3.0741   150
 3.0841   137
 3.0941   129
 3.1041   118
 3.1141   106
 3.1241    83
 3.1341   100
 3.1441   103
 3.1541   111
 3.1641   108
 3.1741   116
 3.1841   129
 3.1941   113
 3.2041   126
 3.2141   136
 3.2241   132
 3.2341   167
 3.2441   167
 3.2541   203
 3.2641   199
 3.2741   279
 3.2841   275
 3.2941   305
 3.3041   283
 3.3141   297
 3.3241   313
 3.3341   291
 3.3441   260
 3.3541   253
 3.3641   228
 3.3741   190
 3.3841   176
 3.3941   140
 3.4041   144
 3.4141   123
 3.4241   114
 3.4341    96
 3.4441    98
 3.4541   106
 3.4641    95
 3.4741   102
 3.4841   101
 3.4941   112
 3.5041    92
 3.5141   122
 3.5241   140
 3.5341   113
 3.5441   145
 3.5541   167
 3.5641   178
 3.5741   212
 3.5841   249
 3.5941   311
 3.6041   385
 3.6141   458
 3.6241   581
 3.6341   640
 3.6441   851
 3.6541  1016
 3.6641  1079
 3.6741  1177
 3.6841  1259
 3.6941  1222
 3.7041  1178
 3.7141  1079
 3.7241   953
 3.7341   848
 3.7441   698
 3.7541   534
 3.7641   406
 3.7741   336
 3.7841   241
 3.7941   181
 3.8041   171
 3.8141   136
 3.8241   118
 3.8341   101
 3.8441    90
 3.8541    88
 3.8641    92
 3.8741   107
 3.8841   111
 3.8941   129
 3.9041   112
 3.9141   112
 3.9241   121
 3.9341   132
 3.9441   145
 3.9541   180
 3.9641   178
 3.9741   194
 3.9841   207
 3.9941   228
 4.0041   226
 4.0141   231
 4.0241   244
 4.0341   240
 4.0441   197
 4.0541   192
 4.0641   182
 4.0741   147
 4.0841   135
 4.0941   122
 4.1041   114
 4.1141   101
 4.1241    79
 4.1341    88
 4.1441    88
 4.1541    79
 4.1641    85
 4.1741    74
 4.1841    81
 4.1941    78
 4.2041    76
 4.2141    81
 4.2241    81
 4.2341    82
 4.2441    70
 4.2541    69
 4.2641    81
 4.2741    64
 4.2841    63
 4.2941    69
 4.3041    80
 4.3141    85
 4.3241    88
 4.3341    78
 4.3441    81
 4.3541    91
 4.3641    85
 4.3741    82
 4.3841   103
 4.3941   135
 4.4041   125
 4.4141   157
 4.4241   167
 4.4341   177
 4.4441   223
 4.4541   266
 4.4641   252
 4.4741   272
 4.4841   271
 4.4941   291
 4.5041   302
 4.5141   315
 4.5241   265
 4.5341   222
 4.5441   248
 4.5541   236
 4.5641   210
 4.5741   166
 4.5841   156
 4.5941   115
 4.6041   122
 4.6141   130
 4.6241   115
 4.6341   103
 4.6441   104
 4.6541   101
 4.6641    85
 4.6741    83
 4.6841    86
 4.6941    83
 4.7041    75
 4.7141    91
 4.7241    91
 4.7341    81
 4.7441    85
 4.7541    90
 4.7641    99
 4.7741   113
 4.7841    84
 4.7941   122
 4.8041   124
 4.8141   141
 4.8241   120
 4.8341   125
 4.8441   124
 4.8541   135
 4.8641   137
 4.8741   130
 4.8841   133
 4.8941   138
 4.9041   145
 4.9141   130
 4.9241   138
 4.9341   131
 4.9441   145
 4.9541   137
 4.9641   115
 4.9741   114
 4.9841   114
 4.9941   109
 5.0041   130
 5.0141   109
 5.0241   110
 5.0341   108
 5.0441   117
 5.0541   113
 5.0641    90
 5.0741   101
 5.0841   116
 5.0941   106
 5.1041   101
 5.1141   115
 5.1241   105
 5.1341   104
 5.1441   107
 5.1541    93
 5.1641   102
 5.1741    95
 5.1841   109
 5.1941    93
 5.2041   104
 5.2141    96
 5.2241   108
 5.2341    90
 5.2441   110
 5.2541    97
 5.2641   105
 5.2741   114
 5.2841   129
 5.2941   101
 5.3041   120
 5.3141   128
 5.3241   135
 5.3341   138
 5.3441   160
 5.3541   178
 5.3641   190
 5.3741   196
 5.3841   231
 5.3941   193
 5.4041   242
 5.4141   230
 5.4241   236
 5.4341   194
 5.4441   217
 5.4541   189
 5.4641   211
 5.4741   158
 5.4841   154
 5.4941   151
 5.5041   128
 5.5141   122
 5.5241   119
 5.5341    87
 5.5441    88
 5.5541   110
 5.5641   104
 5.5741   103
 5.5841   105
 5.5941   127
 5.6041    91
 5.6141   100
 5.6241    99
 5.6341   100
 5.6441   104
 5.6541    82
 5.6641    84
 5.6741   109
 5.6841   114
 5.6941   113
 5.7041   102
 5.7141    96
 5.7241   101
 5.7341   110
 5.7441   107
 5.7541   118
 5.7641   150
 5.7741   158
 5.7841   157
 5.7941   153
 5.8041   184
 5.8141   214
 5.8241   223
 5.8341   271
 5.8441   321
 5.8541   326
 5.8641   349
 5.8741   359
 5.8841   404
 5.8941   386
 5.9041   365
 5.9141   398
 5.9241   360
 5.9341   321
 5.9441   296
 5.9541   291
 5.9641   248
 5.9741   232
 5.9841   235
 5.9941   186
 6.0041   156
 6.0141   171
 6.0241   161
 6.0341   129
 6.0441   136
 6.0541   139
 6.0641   131
 6.0741   133
 6.0841   124
 6.0941   130
 6.1041   137
 6.1141   135
 6.1241   136
 6.1341   137
 6.1441   115
 6.1541   110
 6.1641   150
 6.1741   144
 6.1841   177
 6.1941   189
 6.2041   227
 6.2141   277
 6.2241   319
 6.2341   445
 6.2441   613
 6.2541   787
 6.2641  1027
 6.2741  1418
 6.2841  1820
 6.2941  2452
 6.3041  3259
 6.3141  3989
 6.3241  4829
 6.3341  5864
 6.3441  6946
 6.3541  7978
 6.3641  8855
 6.3741  9487
 6.3841  9992
 6.3941 10186
 6.4041 10178
 6.4141  9873
 6.4241  9248
 6.4341  8612
 6.4441  7844
 6.4541  6671
 6.4641  5616
 6.4741  4758
 6.4841  3782
 6.4941  2929
 6.5041  2277
 6.5141  1698
 6.5241  1312
 6.5341   918
 6.5441   705
 6.5541   521
 6.5641   361
 6.5741   276
 6.5841   267
 6.5941   202
 6.6041   187
 6.6141   185
 6.6241   129
 6.6341   175
 6.6441   145
 6.6541   140
 6.6641   154
 6.6741   155
 6.6841   150
 6.6941   117
 6.7041   140
 6.7141   134
 6.7241   144
 6.7341   132
 6.7441   145
 6.7541   123
 6.7641   123
 6.7741   165
 6.7841   141
 6.7941   174
 6.8041   164
 6.8141   141
 6.8241   179
 6.8341   166
 6.8441   147
 6.8541   174
 6.8641   163
 6.8741   208
 6.8841   232
 6.8941   234
 6.9041   294
 6.9141   346
 6.9241   375
 6.9341   460
 6.9441   498
 6.9541   613
 6.9641   735
 6.9741   854
 6.9841  1042
 6.9941  1156
 7.0041  1250
 7.0141  1404
 7.0241  1498
 7.0341  1664
 7.0441  1607
 7.0541  1635
 7.0641  1612
 7.0741  1668
 7.0841  1525
 7.0941  1370
 7.1041  1205
 7.1141  1110
 7.1241   957
 7.1341   776
 7.1441   756
 7.1541   632
 7.1641   529
 7.1741   428
 7.1841   353
 7.1941   300
 7.2041   274
 7.2141   237
 7.2241   232
 7.2341   243
 7.2441   246
 7.2541   225
 7.2641   208
 7.2741   254
 7.2841   242
 7.2941   240
 7.3041   285
 7.3141   275
 7.3241   301
 7.3341   311
 7.3441   331
 7.3541   354
 7.3641   368
 7.3741   398
 7.3841   406
 7.3941   429
 7.4041   474
 7.4141   491
 7.4241   495
 7.4341   510
 7.4441   545
 7.4541   487
 7.4641   487
 7.4741   485
 7.4841   481
 7.4941   465
 7.5041   408
 7.5141   375
 7.5241   391
 7.5341   369
 7.5441   297
 7.5541   289
 7.5641   300
 7.5741   267
 7.5841   246
 7.5941   258
 7.6041   220
 7.6141   235
 7.6241   231
 7.6341   214
 7.6441   210
 7.6541   253
 7.6641   226
 7.6741   210
 7.6841   229
 7.6941   244
 7.7041   233
 7.7141   248
 7.7241   267
 7.7341   245
 7.7441   259
 7.7541   239
 7.7641   249
 7.7741   270
 7.7841   276
 7.7941   279
 7.8041   297
 7.8141   275
 7.8241   283
 7.8341   304
 7.8441   319
 7.8541   348
 7.8641   329
 7.8741   328
 7.8841   353
 7.8941   375
 7.9041   387
 7.9141   405
 7.9241   405
 7.9341   418
 7.9441   473
 7.9541   424
 7.9641   487
 7.9741   508
 7.9841   578
 7.9941   633
 8.0041   653
 8.0141   728
 8.0241   797
 8.0341   818
 8.0441   853
 8.0541   887
 8.0641   989
 8.0741  1063
 8.0841  1134
 8.0941  1206
 8.1041  1244
 8.1141  1302
 8.1241  1308
 8.1341  1362
 8.1441  1426
 8.1541  1448
 8.1641  1484
 8.1741  1504
 8.1841  1475
 8.1941  1576
 8.2041  1586
 8.2141  1521
 8.2241  1599
 8.2341  1667
 8.2441  1762
 8.2541  1840
 8.2641  1953
 8.2741  2013
 8.2841  2277
 8.2941  2509
 8.3041  2691
 8.3141  2965
 8.3241  3175
 8.3341  3542
 8.3441  3771
 8.3541  3944
 8.3641  4270
 8.3741  4361
 8.3841  4360
 8.3941  4362
 8.4041  4315
 8.4141  4136
 8.4241  4075
 8.4341  3726
 8.4441  3406
 8.4541  2941
 8.4641  2603
 8.4741  2233
 8.4841  1943
 8.4941  1669
 8.5041  1348
 8.5141  1092
 8.5241   965
 8.5341   797
 8.5441   675
 8.5541   591
 8.5641   506
 8.5741   440
 8.5841   414
 8.5941   430
 8.6041   368
 8.6141   370
 8.6241   344
 8.6341   366
 8.6441   360
 8.6541   354
 8.6641   343
 8.6741   377
 8.6841   373
 8.6941   376
 8.7041   350
 8.7141   344
 8.7241   331
 8.7341   353
 8.7441   380
 8.7541   370
 8.7641   378
 8.7741   367
 8.7841   374
 8.7941   374
 8.8041   359
 8.8141   370
 8.8241   349
 8.8341   340
 8.8441   368
 8.8541   363
 8.8641   377
 8.8741   392
 8.8841   404
 8.8941   402
 8.9041   416
 8.9141   379
 8.9241   390
 8.9341   408
 8.9441   389
 8.9541   413
 8.9641   387
 8.9741   381
 8.9841   415
 8.9941   404
 9.0041   418
 9.0141   444
 9.0241   438
 9.0341   420
 9.0441   445
 9.0541   449
 9.0641   421
 9.0741   446
 9.0841   514
 9.0941   500
 9.1041   531
 9.1141   551
 9.1241   567
 9.1341   596
 9.1441   637
 9.1541   631
 9.1641   664
 9.1741   716
 9.1841   785
 9.1941   782
 9.2041   821
 9.2141   862
 9.2241   908
 9.2341   993
 9.2441  1023
 9.2541  1064
 9.2641  1107
 9.2741  1164
 9.2841  1174
 9.2941  1198
 9.3041  1283
 9.3141  1360
 9.3241  1383
 9.3341  1385
 9.3441  1386
 9.3541  1415
 9.3641  1445
 9.3741  1467
 9.3841  1433
 9.3941  1520
 9.4041  1550
 9.4141  1537
 9.4241  1563
 9.4341  1622
 9.4441  1587
 9.4541  1676
 9.4641  1694
 9.4741  1649
 9.4841  1652
 9.4941  1646
 9.5041  1757
 9.5141  1720
 9.5241  1818
 9.5341  1842
 9.5441  1879
 9.5541  1974
 9.5641  1969
 9.5741  2100
 9.5841  2272
 9.5941  2306
 9.6041  2438
 9.6141  2505
 9.6241  2613
 9.6341  2686
 9.6441  2821
 9.6541  2819
 9.6641  2743
 9.6741  2799
 9.6841  2795
 9.6941  2610
 9.7041  2596
 9.7141  2495
 9.7241  2373
 9.7341  2147
 9.7441  2000
 9.7541  1916
 9.7641  1727
 9.7741  1678
 9.7841  1558
 9.7941  1446
 9.8041  1377
 9.8141  1315
 9.8241  1272
 9.8341  1222
 9.8441  1232
 9.8541  1248
 9.8641  1170
 9.8741  1198
 9.8841  1203
 9.8941  1247
 9.9041  1281
 9.9141  1307
 9.9241  1366
 9.9341  1356
 9.9441  1346
 9.9541  1386
 9.9641  1367
 9.9741  1315
 9.9841  1249
 9.9941  1156
10.0041  1105
10.0141  1025
10.0241   926
10.0341   888
10.0441   808
10.0541   692
10.0641   651
10.0741   571
10.0841   496
10.0941   465
10.1041   405
10.1141   380
10.1241   368
10.1341   313
10.1441   279
10.1541   285
10.1641   249
10.1741   260
10.1841   265
10.1941   247
10.2041   262
10.2141   242
10.2241   262
10.2341   257
10.2441   231
10.2541   253
10.2641   209
10.2741   221
10.2841   237
10.2941   228
10.3041   233
10.3141   220
10.3241   221
10.3341   224
10.3441   226
10.3541   236
10.3641   232
10.3741   221
10.3841   235
10.3941   224
10.4041   217
10.4141   201
10.4241   207
10.4341   215
10.4441   211
10.4541   210
10.4641   234
10.4741   230
10.4841   225
10.4941   219
10.5041   229
10.5141   233
10.5241   246
10.5341   227
10.5441   230
10.5541   238
10.5641   247
10.5741   249
10.5841   230
10.5941   228
10.6041   223
10.6141   226
10.6241   235
10.6341   237
10.6441   241
10.6541   247
10.6641   246
10.6741   241
10.6841   245
10.6941   266
10.7041   264
10.7141   263
10.7241   278
10.7341   285
10.7441   293
10.7541   306
10.7641   304
10.7741   284
10.7841   284
10.7941   332
10.8041   339
10.8141   337
10.8241   327
10.8341   347
10.8441   333
10.8541   333
10.8641   325
10.8741   330
10.8841   346
10.8941   326
10.9041   324
10.9141   336
10.9241   334
10.9341   337
10.9441   323
10.9541   336
10.9641   335
10.9741   318
10.9841   308
10.9941   324
11.0041   329
11.0141   294
11.0241   301
11.0341   291
11.0441   290
11.0541   293
11.0641   291
11.0741   289
11.0841   297
11.0941   308
11.1041   296
11.1141   292
11.1241   298
11.1341   303
11.1441   292
11.1541   304
11.1641   342
11.1741   341
11.1841   319
11.1941   345
11.2041   360
11.2141   402
11.2241   401
11.2341   382
11.2441   401
11.2541   441
11.2641   459
11.2741   450
11.2841   445
11.2941   419
11.3041   420
11.3141   431
11.3241   403
11.3341   409
11.3441   404
11.3541   390
11.3641   365
11.3741   359
11.3841   339
11.3941   304
11.4041   288
11.4141   297
11.4241   300
11.4341   307
11.4441   273
11.4541   247
11.4641   263
11.4741   238
11.4841   250
11.4941   257
11.5041   263
11.5141   250
11.5241   250
11.5341   256
11.5441   252
11.5541   271
11.5641   272
11.5741   253
11.5841   242
11.5941   266
11.6041   251
11.6141   253
11.6241   274
11.6341   264
11.6441   255
11.6541   248
11.6641   249
11.6741   236
11.6841   231
11.6941   245
11.7041   244
11.7141   231
11.7241   221
11.7341   241
11.7441   221
11.7541   207
11.7641   204
11.7741   206
11.7841   208
11.7941   199
11.8041   186
11.8141   181
11.8241   196
11.8341   197
11.8441   198
11.8541   194
11.8641   180
11.8741   185
11.8841   205
11.8941   217
11.9041   204
11.9141   185
11.9241   185
11.9341   194
11.9441   208
11.9541   198
11.9641   183
11.9741   182
11.9841   173
11.9941   184
12.0041   188
12.0141   185
12.0241   188
12.0341   188
12.0441   199
12.0541   189
12.0641   178
12.0741   195
12.0841   189
12.0941   188
12.1041   184
12.1141   192
12.1241   183
12.1341   185
12.1441   183
12.1541   173
12.1641   170
12.1741   185
12.1841   183
12.1941   170
12.2041   163
12.2141   162
12.2241   183
12.2341   179
12.2441   169
12.2541   173
12.2641   186
12.2741   174
12.2841   169
12.2941   181
12.3041   167
12.3141   166
12.3241   175
12.3341   172
12.3441   170
12.3541   173
12.3641   170
12.3741   170
12.3841   160
12.3941   171
12.4041   182
12.4141   182
12.4241   199
12.4341   184
12.4441   177
12.4541   182
12.4641   190
12.4741   192
12.4841   196
12.4941   197
12.5041   192
12.5141   183
12.5241   176
12.5341   186
12.5441   208
12.5541   201
12.5641   203
12.5741   199
12.5841   196
12.5941   211
12.6041   211
12.6141   196
12.6241   183
12.6341   194
12.6441   203
12.6541   202
12.6641   206
12.6741   212
12.6841   206
12.6941   191
12.7041   194
12.7141   208
12.7241   215
12.7341   210
12.7441   212
12.7541   209
12.7641   206
12.7741   199
12.7841   211
12.7941   215
12.8041   204
12.8141   201
12.8241   202
12.8341   210
12.8441   215
12.8541   218
12.8641   233
12.8741   224
12.8841   198
12.8941   203
12.9041   223
12.9141   205
12.9241   193
12.9341   201
12.9441   215
12.9541   215
12.9641   203
12.9741   205
12.9841   206
12.9941   200
13.0041   208
13.0141   219
13.0241   210
13.0341   220
13.0441   231
13.0541   212
13.0641   203
13.0741   216
13.0841   213
13.0941   215
13.1041   225
13.1141   223
13.1241   213
13.1341   229
13.1441   233
13.1541   228
13.1641   228
13.1741   218
13.1841   213
13.1941   227
13.2041   228
13.2141   232
13.2241   241
13.2341   247
13.2441   260
13.2541   269
13.2641   269
13.2741   287
13.2841   285
13.2941   262
13.3041   278
13.3141   283
13.3241   278
13.3341   310
13.3441   320
13.3541   305
13.3641   313
13.3741   301
13.3841   298
13.3941   308
13.4041   316
13.4141   313
13.4241   307
13.4341   303
13.4441   298
13.4541   290
13.4641   286
13.4741   278
13.4841   282
13.4941   293
13.5041   292
13.5141   277
13.5241   260
13.5341   256
13.5441   273
13.5541   278
13.5641   258
13.5741   251
13.5841   243
13.5941   258
13.6041   270
13.6141   268
13.6241   262
13.6341   237
13.6441   250
13.6541   269
13.6641   267
13.6741   265
13.6841   270
13.6941   268
13.7041   250
13.7141   243
13.7241   236
13.7341   257
13.7441   261
13.7541   257
13.7641   279
13.7741   266
13.7841   258
13.7941   262
13.8041   254
13.8141   261
13.8241   264
13.8341   279
13.8441   268
13.8541   252
13.8641   265
13.8741   273
13.8841   280
13.8941   279
13.9041   277
13.9141   277
13.9241   281
13.9341   281
13.9441   286
13.9541   302
13.9641   300
13.9741   292
13.9841   301
13.9941   303
14.0041   317
14.0141   340
14.0241   350
14.0341   368
14.0441   375
14.0541   384
14.0641   411
14.0741   401
14.0841   415
14.0941   424
14.1041   423
14.1141   474
14.1241   477
14.1341   454
14.1441   455
14.1541   450
14.1641   426
14.1741   429
14.1841   445
14.1941   443
14.2041   412
14.2141   400
14.2241   408
14.2341   390
14.2441   357
14.2541   345
14.2641   351
14.2741   351
14.2841   343
14.2941   334
14.3041   326
14.3141   302
14.3241   307
14.3341   298
14.3441   312
14.3541   330
14.3641   301
14.3741   290
14.3841   286
14.3941   293
14.4041   312
14.4141   302
14.4241   284
14.4341   277
14.4441   306
14.4541   325
14.4641   302
14.4741   298
14.4841   291
14.4941   288
14.5041   296
14.5141   286
14.5241   290
14.5341   293
14.5441   299
14.5541   312
14.5641   332
14.5741   315
14.5841   301
14.5941   313
14.6041   323
14.6141   308
14.6241   294
14.6341   296
14.6441   304
14.6541   313
14.6641   318
14.6741   304
14.6841   316
14.6941   321
14.7041   310
14.7141   322
14.7241   308
14.7341   295
14.7441   328
14.7541   349
14.7641   340
14.7741   329
14.7841   325
14.7941   347
14.8041   368
14.8141   353
14.8241   340
14.8341   327
14.8441   321
14.8541   338
14.8641   360
14.8741   379
14.8841   394
14.8941   404
14.9041   379
14.9141   361
14.9241   372
14.9341   362
14.9441   349
14.9541   359
14.9641   372
14.9741   357
14.9841   359
14.9941   382
15.0041   373
15.0141   364
15.0241   353
15.0341   362
15.0441   360
15.0541   357
15.0641   358
15.0741   333
15.0841   334
15.0941   354
15.1041   345
15.1141   339
15.1241   332
15.1341   339
15.1441   353
15.1541   338
15.1641   321
15.1741   334
15.1841   328
15.1941   315
15.2041   336
15.2141   339
15.2241   346
15.2341   359
15.2441   369
15.2541   361
15.2641   344
15.2741   359
15.2841   358
15.2941   349
15.3041   343
15.3141   356
15.3241   352
15.3341   331
15.3441   338
15.3541   343
15.3641   335
15.3741   328
15.3841   318
15.3941   329
15.4041   335
15.4141   348
15.4241   373
15.4341   363
15.4441   355
15.4541   362
15.4641   355
15.4741   338
15.4841   335
15.4941   363
15.5041   379
15.5141   347
15.5241   353
15.5341   365
15.5441   358
15.5541   369
15.5641   370
15.5741   377
15.5841   379
15.5941   384
15.6041   377
15.6141   375
15.6241   394
15.6341   407
15.6441   418
15.6541   447
15.6641   480
15.6741   476
15.6841   457
15.6941   451
15.7041   462
15.7141   496
15.7241   473
15.7341   483
15.7441   515
15.7541   528
15.7641   509
15.7741   486
15.7841   512
15.7941   524
15.8041   500
15.8141   490
15.8241   482
15.8341   489
15.8441   493
15.8541   486
15.8641   474
15.8741   454
15.8841   445
15.8941   444
15.9041   418
15.9141   397
15.9241   426
15.9341   412
15.9441   390
15.9541   399
15.9641   386
15.9741   410
15.9841   430
15.9941   402
16.0041   399
16.0141   426
16.0241   418
16.0341   405
16.0441   396
16.0541   388
16.0641   394
16.0741   401
16.0841   410
16.0941   409
16.1041   413
16.1141   402
16.1241   412
16.1341   428
16.1441   454
16.1541   435
16.1641   455
16.1741   432
16.1841   400
16.1941   402
16.2041   399
16.2141   368
16.2241   397
16.2341   420
16.2441   403
16.2541   392
16.2641   432
16.2741   434
16.2841   417
16.2941   394
16.3041   393
16.3141   412
16.3241   438
16.3341   449
16.3441   431
16.3541   416
16.3641   410
16.3741   411
16.3841   417
16.3941   418
16.4041   412
16.4141   415
16.4241   436
16.4341   439
16.4441   412
16.4541   431
16.4641   428
16.4741   414
16.4841   447
16.4941   427
16.5041   438
16.5141   431
16.5241   438
16.5341   425
16.5441   452
16.5541   434
16.5641   449
16.5741   447
16.5841   427
16.5941   411
16.6041   447
16.6141   449
16.6241   430
16.6341   416
16.6441   447
16.6541   437
16.6641   438
16.6741   465
16.6841   467
16.6941   443
16.7041   455
16.7141   464
16.7241   468
16.7341   468
16.7441   443
16.7541   436
16.7641   450
16.7741   429
16.7841   443
16.7941   470
16.8041   490
16.8141   459
16.8241   439
16.8341   431
16.8441   431
16.8541   429
16.8641   458
16.8741   473
16.8841   479
16.8941   441
16.9041   431
16.9141   453
16.9241   458
16.9341   450
16.9441   450
16.9541   447
16.9641   456
16.9741   457
16.9841   446
16.9941   458
17.0041   460
17.0141   441
17.0241   459
17.0341   470
17.0441   484
17.0541   474
17.0641   457
17.0741   494
17.0841   509
17.0941   461
17.1041   472
17.1141   468
17.1241   442
17.1341   462
17.1441   515
17.1541   514
17.1641   490
17.1741   482
17.1841   452
17.1941   459
17.2041   502
17.2141   489
17.2241   443
17.2341   481
17.2441   507
17.2541   484
17.2641   479
17.2741   485
17.2841   475
17.2941   464
17.3041   482
17.3141   473
17.3241   463
17.3341   492
17.3441   494
17.3541   473
17.3641   484
17.3741   511
17.3841   500
17.3941   485
17.4041   485
17.4141   468
17.4241   482
17.4341   472
17.4441   491
17.4541   529
17.4641   481
17.4741   506
17.4841   520
17.4941   492
17.5041   493
17.5141   478
17.5241   494
17.5341   500
17.5441   508
17.5541   509
17.5641   518
17.5741   555
17.5841   514
17.5941   517
17.6041   521
17.6141   524
17.6241   481
17.6341   516
17.6441   543
17.6541   523
17.6641   503
17.6741   515
17.6841   479
17.6941   514
17.7041   537
17.7141   532
17.7241   534
17.7341   506
17.7441   507
17.7541   516
17.7641   513
17.7741   504
17.7841   526
17.7941   570
17.8041   561
17.8141   535
17.8241   493
17.8341   478
17.8441   548
17.8541   550
17.8641   520
17.8741   528
17.8841   538
17.8941   538
17.9041   539
17.9141   524
17.9241   530
17.9341   519
17.9441   505
17.9541   531
17.9641   514
17.9741   521
17.9841   539
17.9941   578
18.0041   541
18.0141   503
18.0241   517
18.0341   539
18.0441   552
18.0541   550
18.0641   537
18.0741   554
18.0841   541
18.0941   532
18.1041   504
18.1141   534
18.1241   573
18.1341   538
18.1441   548
18.1541   548
18.1641   564
18.1741   529
18.1841   520
18.1941   527
18.2041   516
18.2141   505
18.2241   525
18.2341   541
18.2441   511
18.2541   543
18.2641   558
18.2741   521
18.2841   548
18.2941   529
18.3041   548
18.3141   537
18.3241   569
18.3341   530
18.3441   548
18.3541   530
18.3641   529
18.3741   531
18.3841   590
18.3941   541
18.4041   558
18.4141   555
18.4241   535
18.4341   590
18.4441   567
18.4541   543
18.4641   544
18.4741   547
18.4841   590
18.4941   569
18.5041   560
18.5141   562
18.5241   532
18.5341   574
18.5441   540
18.5541   510
18.5641   557
18.5741   542
18.5841   546
18.5941   524
18.6041   518
18.6141   542
18.6241   524
18.6341   543
18.6441   530
18.6541   562
18.6641   551
18.6741   537
18.6841   566
18.6941   579
18.7041   565
18.7141   567
18.7241   525
18.7341   567
18.7441   610
18.7541   579
18.7641   582
18.7741   577
18.7841   560
18.7941   553
18.8041   551
18.8141   577
18.8241   562
18.8341   568
18.8441   538
18.8541   561
18.8641   558
18.8741   577
18.8841   611
18.8941   573
18.9041   535
18.9141   556
18.9241   553
18.9341   545
18.9441   520
18.9541   567
18.9641   567
18.9741   586
18.9841   571
18.9941   550
19.0041   563
19.0141   557
19.0241   594
19.0341   566
19.0441   569
19.0541   552
19.0641   574
19.0741   591
19.0841   580
19.0941   626
19.1041   574
19.1141   574
19.1241   605
19.1341   579
19.1441   577
19.1541   549
19.1641   578
19.1741   597
19.1841   564
19.1941   564
19.2041   557
19.2141   578
19.2241   613
19.2341   596
19.2441   551
19.2541   556
19.2641   586
19.2741   584
19.2841   563
19.2941   584
19.3041   586
19.3141   595
19.3241   609
19.3341   586
19.3441   603
19.3541   611
19.3641   562
19.3741   562
19.3841   581
19.3941   562
19.4041   588
19.4141   570
19.4241   560
19.4341   575
19.4441   595
19.4541   586
19.4641   592
19.4741   605
19.4841   567
19.4941   600
19.5041   585
19.5141   580
19.5241   566
19.5341   619
19.5441   632
19.5541   593
19.5641   595
19.5741   599
19.5841   570
19.5941   584
19.6041   578
19.6141   576
19.6241   574
19.6341   579
19.6441   626
19.6541   604
19.6641   602
19.6741   588
19.6841   577
19.6941   586
19.7041   586
19.7141   614
19.7241   636
19.7341   618
19.7441   607
19.7541   581
19.7641   602
19.7741   615
19.7841   592
19.7941   613
19.8041   584
19.8141   606
19.8241   641
19.8341   604
19.8441   600
19.8541   611
19.8641   585
19.8741   619
19.8841   567
19.8941   598
19.9041   577
19.9141   586
19.9241   588
19.9341   582
19.9441   611
19.9541   615
19.9641   594
19.9741   583
19.9841   607
19.9941   596
20.0041   594
20.0141   585
20.0241   556
20.0341   583
20.0441   609
20.0541   587
20.0641   596
20.0741   556
20.0841   608
20.0941   623
20.1041   587
20.1141   585
20.1241   586
20.1341   600
20.1441   588
20.1541   584
20.1641   610
20.1741   589
20.1841   584
20.1941   609
20.2041   604
20.2141   605
20.2241   588
20.2341   599
20.2441   613
20.2541   627
20.2641   595
20.2741   616
20.2841   629
20.2941   621
20.3041   613
20.3141   595
20.3241   600
20.3341   602
20.3441   587
20.3541   606
20.3641   609
20.3741   590
20.3841   622
20.3941   568
20.4041   612
20.4141   639
20.4241   590
20.4341   601
20.4441   605
20.4541   632
20.4641   615
20.4741   656
20.4841   634
20.4941   607
20.5041   614
20.5141   637
20.5241   638
20.5341   612
20.5441   589
20.5541   621
20.5641   616
20.5741   593
20.5841   592
20.5941   593
20.6041   641
20.6141   627
20.6241   620
20.6341   578
20.6441   586
20.6541   634
20.6641   620
20.6741   594
20.6841   627
20.6941   584
20.7041   631
20.7141   628
20.7241   617
20.7341   624
20.7441   598
20.7541   592
20.7641   662
20.7741   616
20.7841   610
20.7941   624
20.8041   635
20.8141   657
20.8241   648
20.8341   637
20.8441   663
20.8541   670
20.8641   679
20.8741   637
20.8841   652
20.8941   665
20.9041   697
20.9141   733
20.9241   755
20.9341   759
20.9441   757
20.9541   755
20.9641   744
20.9741   796
20.9841   796
20.9941   865
21.0041   803
21.0141   842
21.0241   819
21.0341   829
21.0441   890
21.0541   877
21.0641   890
21.0741   884
21.0841   854
21.0941   915
21.1041   910
21.1141   913
21.1241   916
21.1341   917
21.1441   968
21.1541   922
21.1641   869
21.1741   890
21.1841   898
21.1941   916
21.2041   892
21.2141   861
21.2241   845
21.2341   845
21.2441   870
21.2541   769
21.2641   739
21.2741   746
21.2841   759
21.2941   773
21.3041   741
21.3141   710
21.3241   712
21.3341   666
21.3441   667
21.3541   674
21.3641   680
21.3741   676
21.3841   662
21.3941   648
21.4041   647
21.4141   636
21.4241   587
21.4341   587
21.4441   624
21.4541   634
21.4641   594
21.4741   637
21.4841   645
21.4941   606
21.5041   617
21.5141   649
21.5241   627
21.5341   652
21.5441   615
21.5541   616
21.5641   594
21.5741   623
21.5841   589
21.5941   645
21.6041   584
21.6141   642
21.6241   638
21.6341   612
21.6441   643
21.6541   631
21.6641   628
21.6741   643
21.6841   616
21.6941   634
21.7041   629
21.7141   610
21.7241   604
21.7341   619
21.7441   623
21.7541   604
21.7641   618
21.7741   625
21.7841   621
21.7941   594
21.8041   679
21.8141   609
21.8241   613
21.8341   584
21.8441   608
21.8541   612
21.8641   588
21.8741   640
21.8841   665
21.8941   614
21.9041   601
21.9141   592
21.9241   589
21.9341   619
21.9441   566
21.9541   619
21.9641   608
21.9741   621
21.9841   656
21.9941   591
22.0041   630
22.0141   609
22.0241   641
22.0341   595
22.0441   626
22.0541   643
22.0641   627
22.0741   600
22.0841   641
22.0941   605
22.1041   660
22.1141   607
22.1241   606
22.1341   645
22.1441   622
22.1541   638
22.1641   609
22.1741   647
22.1841   624
22.1941   637
22.2041   631
22.2141   622
22.2241   637
22.2341   621
22.2441   605
22.2541   604
22.2641   617
22.2741   601
22.2841   628
22.2941   609
22.3041   628
22.3141   586
22.3241   597
22.3341   577
22.3441   642
22.3541   597
22.3641   595
22.3741   577
22.3841   609
22.3941   599
22.4041   622
22.4141   631
22.4241   613
22.4341   634
22.4441   627
22.4541   606
22.4641   581
22.4741   602
22.4841   641
22.4941   673
22.5041   586
22.5141   611
22.5241   608
22.5341   568
22.5441   574
22.5541   637
22.5641   629
22.5741   559
22.5841   581
22.5941   593
22.6041   614
22.6141   600
22.6241   610
22.6341   613
22.6441   634
22.6541   590
22.6641   608
22.6741   600
22.6841   607
22.6941   597
22.7041   583
22.7141   593
22.7241   577
22.7341   639
22.7441   614
22.7541   581
22.7641   617
22.7741   588
22.7841   590
22.7941   622
22.8041   651
22.8141   607
22.8241   593
22.8341   607
22.8441   570
22.8541   582
22.8641   597
22.8741   561
22.8841   589
22.8941   589
22.9041   606
22.9141   587
22.9241   603
22.9341   583
22.9441   605
22.9541   599
22.9641   559
22.9741   622
22.9841   520
22.9941   594
23.0041   592
23.0141   610
23.0241   591
23.0341   567
23.0441   599
23.0541   594
23.0641   585
23.0741   589
23.0841   587
23.0941   627
23.1041   631
23.1141   556
23.1241   574
23.1341   597
23.1441   572
23.1541   581
23.1641   589
23.1741   594
23.1841   570
23.1941   578
23.2041   597
23.2141   565
23.2241   606
23.2341   580
23.2441   559
23.2541   606
23.2641   528
23.2741   572
23.2841   589
23.2941   554
23.3041   577
23.3141   615
23.3241   577
23.3341   608
23.3441   624
23.3541   541
23.3641   597
23.3741   584
23.3841   628
23.3941   586
23.4041   601
23.4141   567
23.4241   620
23.4341   566
23.4441   559
23.4541   600
23.4641   592
23.4741   590
23.4841   530
23.4941   596
23.5041   578
23.5141   603
23.5241   583
23.5341   584
23.5441   594
23.5541   563
23.5641   561
23.5741   580
23.5841   625
23.5941   565
23.6041   621
23.6141   571
23.6241   571
23.6341   583
23.6441   589
23.6541   613
23.6641   621
23.6741   620
23.6841   627
23.6941   609
23.7041   609
23.7141   612
23.7241   672
23.7341   561
23.7441   566
23.7541   626
23.7641   585
23.7741   631
23.7841   628
23.7941   656
23.8041   615
23.8141   592
23.8241   624
23.8341   654
23.8441   635
23.8541   596
23.8641   618
23.8741   585
23.8841   618
23.8941   627
23.9041   619
23.9141   552
23.9241   608
23.9341   610
23.9441   634
23.9541   594
23.9641   567
23.9741   592
23.9841   558
23.9941   543
24.0041   588
24.0141   561
24.0241   587
24.0341   528
24.0441   532
24.0541   546
24.0641   516
24.0741   566
24.0841   580
24.0941   599
24.1041   588
24.1141   551
24.1241   542
24.1341   537
24.1441   577
24.1541   522
24.1641   517
24.1741   571
24.1841   557
24.1941   555
24.2041   538
24.2141   565
24.2241   592
24.2341   580
24.2441   548
24.2541   585
24.2641   538
24.2741   561
24.2841   507
24.2941   516
24.3041   567
24.3141   571
24.3241   592
24.3341   627
24.3441   528
24.3541   508
24.3641   507
24.3741   554
24.3841   586
24.3941   580
24.4041   564
24.4141   553
24.4241   578
24.4341   547
24.4441   527
24.4541   579
24.4641   536
24.4741   582
24.4841   536
24.4941   553
24.5041   542
24.5141   541
24.5241   511
24.5341   520
24.5441   537
24.5541   516
24.5641   535
24.5741   522
24.5841   531
24.5941   522
24.6041   535
24.6141   510
24.6241   526
24.6341   546
24.6441   510
24.6541   579
24.6641   533
24.6741   531
24.6841   540
24.6941   511
24.7041   515
24.7141   549
24.7241   518
24.7341   576
24.7441   548
24.7541   512
24.7641   522
24.7741   536
24.7841   528
24.7941   531
24.8041   551
24.8141   562
24.8241   533
24.8341   511
24.8441   539
24.8541   508
24.8641   539
24.8741   518
24.8841   543
24.8941   490
24.9041   509
24.9141   519
24.9241   521
24.9341   486
24.9441   542
24.9541   527
24.9641   496
24.9741   530
24.9841   532
24.9941   546
25.0041   546
25.0141   519
25.0241   527
25.0341   538
25.0441   564
25.0541   534
25.0641   548
25.0741   538
25.0841   551
25.0941   520
25.1041   532
25.1141   521
25.1241   541
25.1341   562
25.1441   503
25.1541   524
25.1641   523
25.1741   524
25.1841   554
25.1941   530
25.2041   543
25.2141   485
25.2241   523
25.2341   523
25.2441   508
25.2541   536
25.2641   558
25.2741   533
25.2841   514
25.2941   555
25.3041   516
25.3141   501
25.3241   498
25.3341   519
25.3441   507
25.3541   513
25.3641   465
25.3741   459
25.3841   516
25.3941   494
25.4041   515
25.4141   488
25.4241   509
25.4341   483
25.4441   486
25.4541   500
25.4641   508
25.4741   506
25.4841   511
25.4941   462
25.5041   491
25.5141   498
25.5241   517
25.5341   516
25.5441   527
25.5541   472
25.5641   518
25.5741   475
25.5841   473
25.5941   485
25.6041   473
25.6141   527
25.6241   530
25.6341   472
25.6441   496
25.6541   477
25.6641   456
25.6741   516
25.6841   482
25.6941   491
25.7041   465
25.7141   509
25.7241   491
25.7341   461
25.7441   509
25.7541   500
25.7641   507
25.7741   488
25.7841   498
25.7941   463
25.8041   493
25.8141   506
25.8241   523
25.8341   507
25.8441   485
25.8541   485
25.8641   508
25.8741   476
25.8841   516
25.8941   491
25.9041   512
25.9141   464
25.9241   481
25.9341   487
25.9441   456
25.9541   499
25.9641   437
25.9741   464
25.9841   483
25.9941   478
26.0041   467
26.0141   476
26.0241   464
26.0341   522
26.0441   478
26.0541   470
26.0641   453
26.0741   518
26.0841   448
26.0941   483
26.1041   475
26.1141   470
26.1241   466
26.1341   472
26.1441   474
26.1541   490
26.1641   505
26.1741   482
26.1841   482
26.1941   526
26.2041   516
26.2141   460
26.2241   492
26.2341   448
26.2441   460
26.2541   486
26.2641   441
26.2741   452
26.2841   436
26.2941   493
26.3041   474
26.3141   453
26.3241   461
26.3341   450
26.3441   484
26.3541   479
26.3641   477
26.3741   532
26.3841   458
26.3941   481
26.4041   483
26.4141   458
26.4241   453
26.4341   485
26.4441   475
26.4541   439
26.4641   432
26.4741   454
26.4841   482
26.4941   497
26.5041   471
26.5141   451
26.5241   468
26.5341   465
26.5441   461
26.5541   439
26.5641   433
26.5741   462
26.5841   457
26.5941   446
26.6041   477
26.6141   425
26.6241   447
26.6341   427
26.6441   447
26.6541   434
26.6641   424
26.6741   464
26.6841   460
26.6941   465
26.7041   437
26.7141   469
26.7241   407
26.7341   450
26.7441   416
26.7541   435
26.7641   430
26.7741   478
26.7841   441
26.7941   423
26.8041   397
26.8141   440
26.8241   418
26.8341   430
26.8441   475
26.8541   456
26.8641   447
26.8741   452
26.8841   445
26.8941   447
26.9041   432
26.9141   452
26.9241   426
26.9341   420
26.9441   409
26.9541   463
26.9641   417
26.9741   420
26.9841   440
26.9941   453
27.0041   438
27.0141   442
27.0241   439
27.0341   430
27.0441   425
27.0541   459
27.0641   437
27.0741   438
27.0841   421
27.0941   448
27.1041   408
27.1141   417
27.1241   434
27.1341   455
27.1441   466
27.1541   426
27.1641   416
27.1741   401
27.1841   433
27.1941   438
27.2041   412
27.2141   453
27.2241   465
27.2341   425
27.2441   426
27.2541   396
27.2641   413
27.2741   477
27.2841   429
27.2941   389
27.3041   406
27.3141   397
27.3241   424
27.3341   397
27.3441   444
27.3541   415
27.3641   417
27.3741   424
27.3841   449
27.3941   454
27.4041   452
27.4141   404
27.4241   403
27.4341   419
27.4441   425
27.4541   430
27.4641   416
27.4741   425
27.4841   421
27.4941   414
27.5041   442
27.5141   401
27.5241   380
27.5341   413
27.5441   382
27.5541   404
27.5641   376
27.5741   409
27.5841   402
27.5941   378
27.6041   402
27.6141   400
27.6241   419
27.6341   414
27.6441   411
27.6541   395
27.6641   433
27.6741   400
27.6841   422
27.6941   415
27.7041   414
27.7141   402
27.7241   389
27.7341   387
27.7441   381
27.7541   442
27.7641   400
27.7741   388
27.7841   420
27.7941   419
27.8041   412
27.8141   380
27.8241   410
27.8341   379
27.8441   393
27.8541   401
27.8641   398
27.8741   362
27.8841   383
27.8941   413
27.9041   383
27.9141   414
27.9241   390
27.9341   383
27.9441   398
27.9541   389
27.9641   376
27.9741   392
27.9841   389
27.9941   379
28.0041   381
28.0141   406
28.0241   343
28.0341   384
28.0441   390
28.0541   391
28.0641   367
28.0741   382
28.0841   392
28.0941   361
28.1041   375
28.1141   352
28.1241   335
28.1341   394
28.1441   375
28.1541   381
28.1641   367
28.1741   359
28.1841   356
28.1941   415
28.2041   342
28.2141   366
28.2241   376
28.2341   351
28.2441   372
28.2541   357
28.2641   348
28.2741   405
28.2841   364
28.2941   377
28.3041   381
28.3141   354
28.3241   336
28.3341   349
28.3441   361
28.3541   332
28.3641   340
28.3741   372
28.3841   376
28.3941   346
28.4041   370
28.4141   352
28.4241   386
28.4341   354
28.4441   380
28.4541   378
28.4641   390
28.4741   361
28.4841   384
28.4941   361
28.5041   347
28.5141   363
28.5241   366
28.5341   354
28.5441   365
28.5541   346
28.5641   368
28.5741   394
28.5841   398
28.5941   362
28.6041   347
28.6141   360
28.6241   346
28.6341   366
28.6441   366
28.6541   360
28.6641   335
28.6741   333
28.6841   376
28.6941   364
28.7041   352
28.7141   382
28.7241   351
28.7341   368
28.7441   342
28.7541   351
28.7641   348
28.7741   350
28.7841   367
28.7941   354
28.8041   370
28.8141   354
28.8241   373
28.8341   333
28.8441   314
28.8541   355
28.8641   352
28.8741   359
28.8841   345
28.8941   329
28.9041   384
28.9141   347
28.9241   358
28.9341   343
28.9441   338
28.9541   323
28.9641   370
28.9741   367
28.9841   340
28.9941   344
29.0041   329
29.0141   311
29.0241   366
29.0341   324
29.0441   313
29.0541   353
29.0641   336
29.0741   324
29.0841   325
29.0941   340
29.1041   339
29.1141   363
29.1241   299
29.1341   323
29.1441   332
29.1541   306
29.1641   313
29.1741   322
29.1841   345
29.1941   352
29.2041   337
29.2141   324
29.2241   320
29.2341   331
29.2441   320
29.2541   320
29.2641   315
29.2741   323
29.2841   316
29.2941   345
29.3041   299
29.3141   337
29.3241   352
29.3341   318
29.3441   325
29.3541   319
29.3641   334
29.3741   312
29.3841   301
29.3941   358
29.4041   334
29.4141   318
29.4241   350
29.4341   349
29.4441   325
29.4541   308
29.4641   327
29.4741   345
29.4841   323
29.4941   295
29.5041   323
29.5141   299
29.5241   303
29.5341   317
29.5441   321
29.5541   314
29.5641   329
29.5741   306
29.5841   300
29.5941   318
29.6041   350
29.6141   297
29.6241   308
29.6341   310
29.6441   306
29.6541   302
29.6641   298
29.6741   320
29.6841   338
29.6941   331
29.7041   292
29.7141   316
29.7241   307
29.7341   339
29.7441   307
29.7541   297
29.7641   315
29.7741   312
29.7841   315
29.7941   299
29.8041   274
29.8141   298
29.8241   331
29.8341   299
29.8441   317
29.8541   309
29.8641   318
29.8741   299
29.8841   293
29.8941   275
29.9041   283
29.9141   308
29.9241   303
29.9341   289
29.9441   320
29.9541   287
29.9641   289
29.9741   293
29.9841   261
29.9941   289
30.0041   282
30.0141   292
30.0241   262
30.0341   299
30.0441   286
30.0541   309
30.0641   314
30.0741   293
30.0841   286
30.0941   283
30.1041   299
30.1141   311
30.1241   295
30.1341   289
30.1441   266
30.1541   290
30.1641   292
30.1741   266
30.1841   277
30.1941   292
30.2041   288
30.2141   279
30.2241   285
30.2341   263
30.2441   275
30.2541   267
30.2641   285
30.2741   279
30.2841   253
30.2941   299
30.3041   269
30.3141   296
30.3241   271
30.3341   298
30.3441   276
30.3541   234
30.3641   277
30.3741   303
30.3841   271
30.3941   263
30.4041   261
30.4141   290
30.4241   266
30.4341   303
30.4441   261
30.4541   263
30.4641   275
30.4741   289
30.4841   258
30.4941   285
30.5041   259
30.5141   273
30.5241   281
30.5341   248
30.5441   254
30.5541   258
30.5641   247
30.5741   245
30.5841   307
30.5941   263
30.6041   270
30.6141   266
30.6241   265
30.6341   290
30.6441   266
30.6541   289
30.6641   292
30.6741   278
30.6841   249
30.6941   281
30.7041   264
30.7141   289
30.7241   265
30.7341   278
30.7441   262
30.7541   264
30.7641   262
30.7741   296
30.7841   240
30.7941   287
30.8041   274
30.8141   291
30.8241   270
30.8341   258
30.8441   252
30.8541   245
30.8641   254
30.8741   276
30.8841   261
30.8941   231
30.9041   260
30.9141   260
30.9241   269
30.9341   268
30.9441   253
30.9541   232
30.9641   252
30.9741   266
30.9841   259
30.9941   250
31.0041   244
31.0141   236
31.0241   271
31.0341   231
31.0441   269
31.0541   251
31.0641   253
31.0741   244
31.0841   244
31.0941   237
31.1041   239
31.1141   235
31.1241   242
31.1341   272
31.1441   256
31.1541   271
31.1641   233
31.1741   234
31.1841   259
31.1941   265
31.2041   243
31.2141   273
31.2241   239
31.2341   240
31.2441   230
31.2541   238
31.2641   245
31.2741   242
31.2841   271
31.2941   240
31.3041   247
31.3141   219
31.3241   241
31.3341   224
31.3441   268
31.3541   238
31.3641   225
31.3741   240
31.3841   244
31.3941   226
31.4041   212
31.4141   230
31.4241   254
31.4341   246
31.4441   231
31.4541   228
31.4641   216
31.4741   233
31.4841   237
31.4941   221
31.5041   248
31.5141   249
31.5241   251
31.5341   212
31.5441   238
31.5541   227
31.5641   218
31.5741   234
31.5841   239
31.5941   246
31.6041   243
31.6141   225
31.6241   256
31.6341   219
31.6441   233
31.6541   224
31.6641   232
31.6741   258
31.6841   241
31.6941   229
31.7041   221
31.7141   237
31.7241   239
31.7341   233
31.7441   246
31.7541   229
31.7641   212
31.7741   225
31.7841   228
31.7941   230
31.8041   242
31.8141   253
31.8241   218
31.8341   224
31.8441   225
31.8541   252
31.8641   201
31.8741   219
31.8841   224
31.8941   239
31.9041   241
31.9141   239
31.9241   247
31.9341   230
31.9441   226
31.9541   240
31.9641   198
31.9741   238
31.9841   219
31.9941   226
32.0041   240
32.0141   219
32.0241   237
32.0341   231
32.0441   236
32.0541   249
32.0641   226
32.0741   226
32.0841   232
32.0941   231
32.1041   246
32.1141   255
32.1241   233
32.1341   238
32.1441   205
32.1541   208
32.1641   236
32.1741   247
32.1841   252
32.1941   245
32.2041   263
32.2141   221
32.2241   226
32.2341   227
32.2441   237
32.2541   234
32.2641   222
32.2741   228
32.2841   212
32.2941   219
32.3041   214
32.3141   257
32.3241   225
32.3341   206
32.3441   213
32.3541   223
32.3641   220
32.3741   215
32.3841   193
32.3941   196
32.4041   227
32.4141   209
32.4241   208
32.4341   212
32.4441   210
32.4541   197
32.4641   191
32.4741   189
32.4841   188
32.4941   202
32.5041   200
32.5141   202
32.5241   214
32.5341   184
32.5441   190
32.5541   217
32.5641   197
32.5741   182
32.5841   178
32.5941   192
32.6041   210
32.6141   188
32.6241   189
32.6341   198
32.6441   205
32.6541   178
32.6641   188
32.6741   177
32.6841   188
32.6941   195
32.7041   193
32.7141   189
32.7241   194
32.7341   214
32.7441   175
32.7541   203
32.7641   200
32.7741   186
32.7841   176
32.7941   173
32.8041   194
32.8141   155
32.8241   186
32.8341   199
32.8441   167
32.8541   184
32.8641   166
32.8741   197
32.8841   181
32.8941   188
32.9041   190
32.9141   195
32.9241   202
32.9341   196
32.9441   188
32.9541   190
32.9641   178
32.9741   202
32.9841   186
32.9941   207
33.0041   182
33.0141   167
33.0241   174
33.0341   183
33.0441   161
33.0541   176
33.0641   190
33.0741   180
33.0841   191
33.0941   173
33.1041   184
33.1141   183
33.1241   164
33.1341   176
33.1441   187
33.1541   161
33.1641   194
33.1741   192
33.1841   183
33.1941   191
33.2041   196
33.2141   168
33.2241   178
33.2341   191
33.2441   170
33.2541   166
33.2641   173
33.2741   179
33.2841   165
33.2941   176
33.3041   181
33.3141   196
33.3241   163
33.3341   173
33.3441   177
33.3541   172
33.3641   158
33.3741   174
33.3841   180
33.3941   177
33.4041   172
33.4141   163
33.4241   153
33.4341   155
33.4441   165
33.4541   176
33.4641   167
33.4741   161
33.4841   167
33.4941   173
33.5041   162
33.5141   153
33.5241   143
33.5341   161
33.5441   157
33.5541   182
33.5641   173
33.5741   169
33.5841   165
33.5941   142
33.6041   148
33.6141   164
33.6241   163
33.6341   165
33.6441   159
33.6541   161
33.6641   163
33.6741   156
33.6841   152
33.6941   158
33.7041   159
33.7141   156
33.7241   174
33.7341   170
33.7441   155
33.7541   149
33.7641   154
33.7741   177
33.7841   165
33.7941   147
33.8041   142
33.8141   162
33.8241   152
33.8341   168
33.8441   153
33.8541   163
33.8641   166
33.8741   158
33.8841   146
33.8941   161
33.9041   155
33.9141   150
33.9241   159
33.9341   150
33.9441   147
33.9541   142
33.9641   146
33.9741   149
33.9841   165
33.9941   171
34.0041   162
34.0141   165
34.0241   159
34.0341   138
34.0441   155
34.0541   147
34.0641   167
34.0741   153
34.0841   142
34.0941   154
34.1041   133
34.1141   166
34.1241   158
34.1341   169
34.1441   154
34.1541   151
34.1641   144
34.1741   143
34.1841   148
34.1941   144
34.2041   159
34.2141   140
34.2241   161
34.2341   134
34.2441   154
34.2541   158
34.2641   134
34.2741   147
34.2841   144
34.2941   168
34.3041   143
34.3141   162
34.3241   130
34.3341   130
34.3441   140
34.3541   121
34.3641   141
34.3741   146
34.3841   137
34.3941   134
34.4041   153
34.4141   143
34.4241   126
34.4341   140
34.4441   135
34.4541   140
34.4641   143
34.4741   130
34.4841   141
34.4941   141
34.5041   136
34.5141   122
34.5241   137
34.5341   120
34.5441   141
34.5541   132
34.5641   132
34.5741   142
34.5841   140
34.5941   129
34.6041   139
34.6141   136
34.6241   142
34.6341   144
34.6441   130
34.6541   153
34.6641   167
34.6741   137
34.6841   140
34.6941   144
34.7041   137
34.7141   133
34.7241   134
34.7341   135
34.7441   128
34.7541   149
34.7641   121
34.7741   139
34.7841   134
34.7941   135
34.8041   127
34.8141   131
34.8241   132
34.8341   141
34.8441   120
34.8541   142
34.8641   144
34.8741   123
34.8841   134
34.8941   129
34.9041   120
34.9141   114
34.9241   133
34.9341   133
34.9441   113
34.9541   139
34.9641   125
34.9741   110
34.9841   109
34.9941   121
35.0041   131
35.0141   141
35.0241   127
35.0341   135
35.0441   122
35.0541   111
35.0641   139
35.0741   126
35.0841   136
35.0941   128
35.1041   114
35.1141   100
35.1241   139
35.1341   133
35.1441   115
35.1541   110
35.1641   123
35.1741   107
35.1841   108
35.1941   120
35.2041   118
35.2141   127
35.2241   107
35.2341   108
35.2441   108
35.2541   102
35.2641   123
35.2741   121
35.2841   130
35.2941   130
35.3041   118
35.3141   156
35.3241   135
35.3341   132
35.3441   111
35.3541   107
35.3641   121
35.3741    99
35.3841   105
35.3941   123
35.4041   119
35.4141   137
35.4241   114
35.4341   110
35.4441   130
35.4541   134
35.4641   120
35.4741   129
35.4841   119
35.4941   120
35.5041   105
35.5141   121
35.5241   107
35.5341   118
35.5441   119
35.5541    95
35.5641   113
35.5741   106
35.5841   111
35.5941   120
35.6041    99
35.6141   121
35.6241   115
35.6341   114
35.6441   117
35.6541   104
35.6641    88
35.6741    90
35.6841   103
35.6941   120
35.7041   116
35.7141   104
35.7241   110
35.7341   120
35.7441   126
35.7541   112
35.7641   113
35.7741   112
35.7841    87
35.7941    95
35.8041   105
35.8141   108
35.8241   100
35.8341    95
35.8441   108
35.8541   111
35.8641    99
35.8741   100
35.8841   103
35.8941   103
35.9041   118
35.9141   106
35.9241    98
35.9341   107
35.9441    94
35.9541    91
35.9641    84
35.9741   103
35.9841   101
35.9941   103
36.0041    92
36.0141    97
36.0241    89
36.0341   102
36.0441    92
36.0541   101
36.0641    92
36.0741    96
36.0841    96
36.0941   100
36.1041    92
36.1141   101
36.1241   105
36.1341    96
36.1441    95
36.1541    89
36.1641    98
36.1741   111
36.1841   105
36.1941    93
36.2041    84
36.2141   102
36.2241   103
36.2341    96
36.2441   105
36.2541   101
36.2641    96
36.2741   103
36.2841   115
36.2941    98
36.3041   100
36.3141    92
36.3241    85
36.3341   114
36.3441   106
36.3541   104
36.3641   101
36.3741    87
36.3841   104
36.3941   100
36.4041   115
36.4141    92
36.4241   100
36.4341   114
36.4441   103
36.4541    88
36.4641   102
36.4741    82
36.4841    98
36.4941   102
36.5041    75
36.5141    82
36.5241    99
36.5341    91
36.5441    80
36.5541    88
36.5641    79
36.5741    76
36.5841    92
36.5941    92
36.6041    83
36.6141    86
36.6241   103
36.6341    96
36.6441    93
36.6541    91
36.6641   101
36.6741    85
36.6841    95
36.6941    87
36.7041    69
36.7141    99
36.7241    90
36.7341    89
36.7441    81
36.7541    80
36.7641    72
36.7741    80
36.7841    78
36.7941    85
36.8041    78
36.8141    84
36.8241    94
36.8341    88
36.8441    92
36.8541    84
36.8641    77
36.8741    94
36.8841   100
36.8941    79
36.9041    93
36.9141    86
36.9241    87
36.9341    81
36.9441    81
36.9541    84
36.9641    75
36.9741    85
36.9841    81
36.9941    78
37.0041    77
37.0141    74
37.0241    69
37.0341   109
37.0441    92
37.0541    93
37.0641    83
37.0741    77
37.0841    74
37.0941    72
37.1041    89
37.1141    89
37.1241    65
37.1341    82
37.1441    79
37.1541    70
37.1641    66
37.1741    60
37.1841    89
37.1941    70
37.2041    72
37.2141    77
37.2241    70
37.2341    75
37.2441    67
37.2541    71
37.2641    73
37.2741    73
37.2841    82
37.2941    73
37.3041    76
37.3141    79
37.3241    84
37.3341    81
37.3441    68
37.3541    67
37.3641    56
37.3741    57
37.3841    88
37.3941    82
37.4041    58
37.4141    64
37.4241    74
37.4341    66
37.4441    74
37.4541    64
37.4641    77
37.4741    72
37.4841    74
37.4941    71
37.5041    81
37.5141    51
37.5241    66
37.5341    60
37.5441    71
37.5541    69
37.5641    73
37.5741    77
37.5841    68
37.5941    64
37.6041    75
37.6141    72
37.6241    54
37.6341    71
37.6441    68
37.6541    63
37.6641    77
37.6741    70
37.6841    56
37.6941    63
37.7041    62
37.7141    76
37.7241    68
37.7341    66
37.7441    65
37.7541    80
37.7641    70
37.7741    64
37.7841    60
37.7941    58
37.8041    66
37.8141    66
37.8241    69
37.8341    54
37.8441    51
37.8541    63
37.8641    77
37.8741    66
37.8841    58
37.8941    68
37.9041    70
37.9141    73
37.9241    62
37.9341    59
37.9441    78
37.9541    56
37.9641    56
37.9741    61
37.9841    72
37.9941    49
38.0041    79
38.0141    64
38.0241    73
38.0341    59
38.0441    67
38.0541    58
38.0641    67
38.0741    62
38.0841    58
38.0941    66
38.1041    57
38.1141    72
38.1241    55
38.1341    70
38.1441    77
38.1541    60
38.1641    72
38.1741    49
38.1841    63
38.1941    58
38.2041    40
38.2141    63
38.2241    71
38.2341    55
38.2441    61
38.2541    46
38.2641    62
38.2741    54
38.2841    54
38.2941    70
38.3041    75
38.3141    55
38.3241    57
38.3341    54
38.3441    45
38.3541    55
38.3641    70
38.3741    60
38.3841    61
38.3941    55
38.4041    57
38.4141    53
38.4241    60
38.4341    53
38.4441    68
38.4541    55
38.4641    51
38.4741    48
38.4841    45
38.4941    56
38.5041    54
38.5141    45
38.5241    49
38.5341    58
38.5441    49
38.5541    44
38.5641    39
38.5741    54
38.5841    51
38.5941    48
38.6041    58
38.6141    55
38.6241    40
38.6341    54
38.6441    47
38.6541    55
38.6641    59
38.6741    45
38.6841    44
38.6941    51
38.7041    48
38.7141    49
38.7241    52
38.7341    36
38.7441    60
38.7541    51
38.7641    50
38.7741    49
38.7841    44
38.7941    44
38.8041    54
38.8141    51
38.8241    62
38.8341    52
38.8441    62
38.8541    55
38.8641    52
38.8741    48
38.8841    49
38.8941    59
38.9041    50
38.9141    43
38.9241    32
38.9341    60
38.9441    47
38.9541    45
38.9641    54
38.9741    55
38.9841    56
38.9941    44
39.0041    51
39.0141    58
39.0241    62
39.0341    38
39.0441    47
39.0541    56
39.0641    51
39.0741    35
39.0841    52
39.0941    43
39.1041    50
39.1141    30
39.1241    38
39.1341    50
39.1441    44
39.1541    55
39.1641    38
39.1741    52
39.1841    51
39.1941    40
39.2041    44
39.2141    41
39.2241    44
39.2341    44
39.2441    35
39.2541    47
39.2641    43
39.2741    43
39.2841    43
39.2941    40
39.3041    41
39.3141    34
39.3241    46
39.3341    42
39.3441    46
39.3541    37
39.3641    42
39.3741    28
39.3841    40
39.3941    55
39.4041    40
39.4141    36
39.4241    42
39.4341    39
39.4441    43
39.4541    36
39.4641    50
39.4741    47
39.4841    42
39.4941    33
39.5041    42
39.5141    33
39.5241    27
39.5341    30
39.5441    38
39.5541    41
39.5641    41
39.5741    27
39.5841    41
39.5941    44
39.6041    33
39.6141    47
39.6241    46
39.6341    37
39.6441    40
39.6541    36
39.6641    49
39.6741    35
39.6841    37
39.6941    28
39.7041    28
39.7141    25
39.7241    31
39.7341    33
39.7441    33
39.7541    28
39.7641    34
39.7741    31
39.7841    50
39.7941    39
39.8041    36
39.8141    33
39.8241    39
39.8341    29
39.8441    40
39.8541    38
39.8641    24
39.8741    37
39.8841    41
39.8941    41
39.9041    33
39.9141    40
39.9241    31
39.9341    35
39.9441    27
39.9541    28
39.9641    31
39.9741    26
39.9841    40
39.9941    37
