Bruker Nano GmbH Berlin, Germany
Esprit 1.9

Date: 4/21/2021 2:32:17 PM
Real time: 15196
Life time: 14022
Pulse density: 117904


Detector type: XFlash 430
Window type: Custom type
Detector thickness: 0.45
Si dead layer:0.029

Calibration, lin.: 10
Calibration, abs.: -955.9
Mn FWHM: 137.05
Fano factor: 0.121
Channels: 4095

Energy Counts
-0.9559     0
-0.9459     0
-0.9359     0
-0.9259     0
-0.9159     0
-0.9059     0
-0.8959     0
-0.8859     0
-0.8759     0
-0.8659     0
-0.8559     0
-0.8459     0
-0.8359     0
-0.8259     0
-0.8159     0
-0.8059     0
-0.7959     0
-0.7859     0
-0.7759     0
-0.7659     0
-0.7559     0
-0.7459     0
-0.7359     0
-0.7259     0
-0.7159     0
-0.7059     0
-0.6959     0
-0.6859     0
-0.6759     0
-0.6659     0
-0.6559     0
-0.6459     0
-0.6359     0
-0.6259     0
-0.6159     0
-0.6059     0
-0.5959     0
-0.5859     0
-0.5759     0
-0.5659     0
-0.5559     0
-0.5459     0
-0.5359     0
-0.5259     0
-0.5159     0
-0.5059     0
-0.4959     0
-0.4859     0
-0.4759     0
-0.4659     0
-0.4559     0
-0.4459     0
-0.4359     0
-0.4259     0
-0.4159     0
-0.4059     0
-0.3959     0
-0.3859     0
-0.3759     0
-0.3659     0
-0.3559     0
-0.3459     0
-0.3359     0
-0.3259     0
-0.3159     0
-0.3059     0
-0.2959     0
-0.2859     0
-0.2759     0
-0.2659     0
-0.2559     0
-0.2459     0
-0.2359     0
-0.2259     0
-0.2159     0
-0.2059     0
-0.1959     0
-0.1859     0
-0.1759     0
-0.1659     0
-0.1559     0
-0.1459     0
-0.1359     1
-0.1259     0
-0.1159     6
-0.1059     9
-0.0959    47
-0.0859   178
-0.0759   539
-0.0659  1585
-0.0559  4059
-0.0459  8981
-0.0359 16767
-0.0259 26760
-0.0159 36406
-0.0059 42967
 0.0041 43459
 0.0141 37026
 0.0241 27801
 0.0341 17019
 0.0441  9419
 0.0541  4402
 0.0641  1683
 0.0741   636
 0.0841   195
 0.0941    48
 0.1041    25
 0.1141    12
 0.1241     6
 0.1341     4
 0.1441     5
 0.1541     1
 0.1641     1
 0.1741    20
 0.1841   158
 0.1941   269
 0.2041   247
 0.2141   239
 0.2241   248
 0.2341   233
 0.2441   226
 0.2541   238
 0.2641   235
 0.2741   217
 0.2841   222
 0.2941   250
 0.3041   242
 0.3141   255
 0.3241   224
 0.3341   198
 0.3441   218
 0.3541   217
 0.3641   214
 0.3741   205
 0.3841   225
 0.3941   202
 0.4041   199
 0.4141   206
 0.4241   189
 0.4341   203
 0.4441   213
 0.4541   210
 0.4641   207
 0.4741   197
 0.4841   209
 0.4941   187
 0.5041   189
 0.5141   197
 0.5241   197
 0.5341   187
 0.5441   184
 0.5541   194
 0.5641   192
 0.5741   192
 0.5841   189
 0.5941   188
 0.6041   188
 0.6141   194
 0.6241   191
 0.6341   187
 0.6441   188
 0.6541   183
 0.6641   182
 0.6741   191
 0.6841   197
 0.6941   185
 0.7041   162
 0.7141   159
 0.7241   161
 0.7341   181
 0.7441   188
 0.7541   170
 0.7641   165
 0.7741   162
 0.7841   163
 0.7941   171
 0.8041   171
 0.8141   156
 0.8241   175
 0.8341   173
 0.8441   170
 0.8541   165
 0.8641   160
 0.8741   156
 0.8841   165
 0.8941   163
 0.9041   160
 0.9141   145
 0.9241   158
 0.9341   151
 0.9441   151
 0.9541   160
 0.9641   166
 0.9741   159
 0.9841   159
 0.9941   133
 1.0041   134
 1.0141   164
 1.0241   166
 1.0341   152
 1.0441   138
 1.0541   149
 1.0641   161
 1.0741   154
 1.0841   147
 1.0941   164
 1.1041   144
 1.1141   150
 1.1241   142
 1.1341   140
 1.1441   154
 1.1541   138
 1.1641   140
 1.1741   158
 1.1841   150
 1.1941   148
 1.2041   160
 1.2141   143
 1.2241   147
 1.2341   136
 1.2441   136
 1.2541   137
 1.2641   152
 1.2741   134
 1.2841   124
 1.2941   132
 1.3041   126
 1.3141   137
 1.3241   139
 1.3341   146
 1.3441   143
 1.3541   157
 1.3641   153
 1.3741   150
 1.3841   137
 1.3941   131
 1.4041   135
 1.4141   135
 1.4241   135
 1.4341   150
 1.4441   141
 1.4541   134
 1.4641   137
 1.4741   125
 1.4841   151
 1.4941   149
 1.5041   143
 1.5141   133
 1.5241   137
 1.5341   141
 1.5441   141
 1.5541   151
 1.5641   140
 1.5741   159
 1.5841   145
 1.5941   126
 1.6041   148
 1.6141   132
 1.6241   140
 1.6341   137
 1.6441   151
 1.6541   162
 1.6641   188
 1.6741   230
 1.6841   309
 1.6941   359
 1.7041   365
 1.7141   434
 1.7241   500
 1.7341   560
 1.7441   591
 1.7541   543
 1.7641   444
 1.7741   443
 1.7841   356
 1.7941   289
 1.8041   236
 1.8141   206
 1.8241   185
 1.8341   197
 1.8441   145
 1.8541   174
 1.8641   162
 1.8741   146
 1.8841   149
 1.8941   156
 1.9041   144
 1.9141   152
 1.9241   151
 1.9341   154
 1.9441   131
 1.9541   144
 1.9641   155
 1.9741   157
 1.9841   150
 1.9941   164
 2.0041   187
 2.0141   187
 2.0241   183
 2.0341   176
 2.0441   174
 2.0541   151
 2.0641   164
 2.0741   162
 2.0841   139
 2.0941   129
 2.1041   127
 2.1141   141
 2.1241   141
 2.1341   139
 2.1441   140
 2.1541   126
 2.1641   126
 2.1741   129
 2.1841   125
 2.1941   102
 2.2041   104
 2.2141   140
 2.2241   128
 2.2341   129
 2.2441   130
 2.2541   135
 2.2641   129
 2.2741   122
 2.2841   111
 2.2941   123
 2.3041   129
 2.3141   120
 2.3241    98
 2.3341    99
 2.3441   132
 2.3541   115
 2.3641   115
 2.3741   113
 2.3841   103
 2.3941   113
 2.4041   121
 2.4141   108
 2.4241    89
 2.4341   128
 2.4441   122
 2.4541   127
 2.4641   118
 2.4741   117
 2.4841   120
 2.4941   114
 2.5041   128
 2.5141   124
 2.5241   109
 2.5341   111
 2.5441   121
 2.5541   110
 2.5641   121
 2.5741   113
 2.5841    95
 2.5941   103
 2.6041   105
 2.6141    92
 2.6241   122
 2.6341   116
 2.6441   114
 2.6541    89
 2.6641   111
 2.6741   101
 2.6841   112
 2.6941   117
 2.7041   106
 2.7141   109
 2.7241    94
 2.7341   101
 2.7441   101
 2.7541   112
 2.7641   103
 2.7741    98
 2.7841   123
 2.7941   125
 2.8041   119
 2.8141   105
 2.8241   103
 2.8341   117
 2.8441   101
 2.8541   101
 2.8641   108
 2.8741   108
 2.8841    94
 2.8941   100
 2.9041   117
 2.9141   112
 2.9241   108
 2.9341   106
 2.9441    91
 2.9541    78
 2.9641   119
 2.9741   109
 2.9841   116
 2.9941    99
 3.0041   103
 3.0141   105
 3.0241    86
 3.0341   100
 3.0441    83
 3.0541    99
 3.0641    93
 3.0741    95
 3.0841   105
 3.0941    87
 3.1041    84
 3.1141    95
 3.1241   103
 3.1341    86
 3.1441    95
 3.1541    79
 3.1641   102
 3.1741    78
 3.1841    83
 3.1941    81
 3.2041    84
 3.2141   107
 3.2241   103
 3.2341   104
 3.2441   112
 3.2541   149
 3.2641   154
 3.2741   197
 3.2841   178
 3.2941   213
 3.3041   223
 3.3141   219
 3.3241   209
 3.3341   201
 3.3441   168
 3.3541   168
 3.3641   169
 3.3741   134
 3.3841   100
 3.3941   108
 3.4041    85
 3.4141    84
 3.4241    82
 3.4341    72
 3.4441    72
 3.4541    80
 3.4641    80
 3.4741    64
 3.4841    83
 3.4941    80
 3.5041    69
 3.5141    96
 3.5241   100
 3.5341    92
 3.5441   124
 3.5541   112
 3.5641   119
 3.5741   144
 3.5841   188
 3.5941   228
 3.6041   275
 3.6141   331
 3.6241   415
 3.6341   522
 3.6441   600
 3.6541   692
 3.6641   754
 3.6741   827
 3.6841   877
 3.6941   876
 3.7041   826
 3.7141   791
 3.7241   685
 3.7341   587
 3.7441   504
 3.7541   392
 3.7641   317
 3.7741   253
 3.7841   192
 3.7941   144
 3.8041   123
 3.8141    93
 3.8241    88
 3.8341    71
 3.8441    61
 3.8541    69
 3.8641    67
 3.8741    68
 3.8841    65
 3.8941    80
 3.9041    72
 3.9141    78
 3.9241    94
 3.9341    93
 3.9441   110
 3.9541   126
 3.9641   154
 3.9741   134
 3.9841   168
 3.9941   175
 4.0041   197
 4.0141   188
 4.0241   193
 4.0341   162
 4.0441   157
 4.0541   136
 4.0641    98
 4.0741   116
 4.0841   113
 4.0941    93
 4.1041    87
 4.1141    88
 4.1241    76
 4.1341    72
 4.1441    79
 4.1541    64
 4.1641    67
 4.1741    61
 4.1841    63
 4.1941    57
 4.2041    52
 4.2141    53
 4.2241    60
 4.2341    63
 4.2441    66
 4.2541    69
 4.2641    53
 4.2741    61
 4.2841    62
 4.2941    70
 4.3041    58
 4.3141    49
 4.3241    58
 4.3341    62
 4.3441    67
 4.3541    70
 4.3641    86
 4.3741    88
 4.3841    98
 4.3941   110
 4.4041   139
 4.4141   185
 4.4241   210
 4.4341   245
 4.4441   325
 4.4541   394
 4.4641   431
 4.4741   457
 4.4841   495
 4.4941   523
 4.5041   553
 4.5141   529
 4.5241   493
 4.5341   459
 4.5441   435
 4.5541   401
 4.5641   337
 4.5741   292
 4.5841   228
 4.5941   179
 4.6041   158
 4.6141   116
 4.6241   106
 4.6341   125
 4.6441   102
 4.6541    94
 4.6641    94
 4.6741    77
 4.6841    71
 4.6941    77
 4.7041    69
 4.7141    63
 4.7241    76
 4.7341    75
 4.7441    64
 4.7541    92
 4.7641    80
 4.7741    80
 4.7841    85
 4.7941    88
 4.8041   106
 4.8141   103
 4.8241   102
 4.8341   119
 4.8441   126
 4.8541   142
 4.8641   114
 4.8741   160
 4.8841   175
 4.8941   163
 4.9041   176
 4.9141   162
 4.9241   217
 4.9341   188
 4.9441   184
 4.9541   192
 4.9641   170
 4.9741   154
 4.9841   142
 4.9941   134
 5.0041   124
 5.0141   102
 5.0241    97
 5.0341    87
 5.0441    91
 5.0541    90
 5.0641    72
 5.0741    85
 5.0841    84
 5.0941    79
 5.1041    91
 5.1141    82
 5.1241    76
 5.1341    67
 5.1441    71
 5.1541    75
 5.1641    85
 5.1741    91
 5.1841    82
 5.1941    78
 5.2041    89
 5.2141    83
 5.2241    86
 5.2341    97
 5.2441    73
 5.2541    90
 5.2641    98
 5.2741    87
 5.2841    72
 5.2941    70
 5.3041    81
 5.3141    92
 5.3241    89
 5.3341   100
 5.3441    88
 5.3541    96
 5.3641   105
 5.3741    99
 5.3841   115
 5.3941   114
 5.4041   129
 5.4141   128
 5.4241   134
 5.4341   126
 5.4441   115
 5.4541   130
 5.4641   112
 5.4741   109
 5.4841    89
 5.4941    96
 5.5041    92
 5.5141   114
 5.5241    95
 5.5341   110
 5.5441    90
 5.5541    81
 5.5641    73
 5.5741    85
 5.5841    86
 5.5941    88
 5.6041   100
 5.6141    82
 5.6241    75
 5.6341    86
 5.6441    82
 5.6541    99
 5.6641    76
 5.6741    76
 5.6841    86
 5.6941    87
 5.7041    80
 5.7141    85
 5.7241    93
 5.7341    72
 5.7441   118
 5.7541   104
 5.7641   121
 5.7741   129
 5.7841   152
 5.7941   192
 5.8041   219
 5.8141   260
 5.8241   318
 5.8341   368
 5.8441   412
 5.8541   452
 5.8641   514
 5.8741   564
 5.8841   559
 5.8941   612
 5.9041   544
 5.9141   517
 5.9241   499
 5.9341   467
 5.9441   429
 5.9541   378
 5.9641   322
 5.9741   316
 5.9841   232
 5.9941   208
 6.0041   180
 6.0141   184
 6.0241   148
 6.0341   137
 6.0441   142
 6.0541   137
 6.0641   118
 6.0741   118
 6.0841   133
 6.0941   126
 6.1041   150
 6.1141   142
 6.1241   157
 6.1341   154
 6.1441   189
 6.1541   204
 6.1641   210
 6.1741   229
 6.1841   287
 6.1941   340
 6.2041   432
 6.2141   559
 6.2241   783
 6.2341  1107
 6.2441  1566
 6.2541  2248
 6.2641  3229
 6.2741  4235
 6.2841  5826
 6.2941  7864
 6.3041 10176
 6.3141 12765
 6.3241 15939
 6.3341 18778
 6.3441 22629
 6.3541 25630
 6.3641 28524
 6.3741 30933
 6.3841 32545
 6.3941 33514
 6.4041 33580
 6.4141 32897
 6.4241 30770
 6.4341 28381
 6.4441 25326
 6.4541 21662
 6.4641 18330
 6.4741 15350
 6.4841 12230
 6.4941  9475
 6.5041  7349
 6.5141  5401
 6.5241  3945
 6.5341  2842
 6.5441  1958
 6.5541  1432
 6.5641   959
 6.5741   640
 6.5841   440
 6.5941   390
 6.6041   277
 6.6141   221
 6.6241   202
 6.6341   188
 6.6441   204
 6.6541   152
 6.6641   182
 6.6741   159
 6.6841   153
 6.6941   151
 6.7041   169
 6.7141   170
 6.7241   135
 6.7341   174
 6.7441   174
 6.7541   183
 6.7641   168
 6.7741   195
 6.7841   163
 6.7941   219
 6.8041   207
 6.8141   231
 6.8241   243
 6.8341   236
 6.8441   256
 6.8541   291
 6.8641   345
 6.8741   380
 6.8841   444
 6.8941   555
 6.9041   638
 6.9141   784
 6.9241  1033
 6.9341  1213
 6.9441  1540
 6.9541  1897
 6.9641  2293
 6.9741  2862
 6.9841  3312
 6.9941  3759
 7.0041  4250
 7.0141  4724
 7.0241  5159
 7.0341  5453
 7.0441  5564
 7.0541  5579
 7.0641  5539
 7.0741  5406
 7.0841  5134
 7.0941  4596
 7.1041  4090
 7.1141  3648
 7.1241  3126
 7.1341  2523
 7.1441  2176
 7.1541  1719
 7.1641  1304
 7.1741  1039
 7.1841   807
 7.1941   607
 7.2041   495
 7.2141   373
 7.2241   298
 7.2341   251
 7.2441   235
 7.2541   208
 7.2641   163
 7.2741   164
 7.2841   171
 7.2941   156
 7.3041   149
 7.3141   184
 7.3241   185
 7.3341   170
 7.3441   175
 7.3541   200
 7.3641   213
 7.3741   206
 7.3841   212
 7.3941   223
 7.4041   215
 7.4141   213
 7.4241   232
 7.4341   232
 7.4441   254
 7.4541   222
 7.4641   238
 7.4741   225
 7.4841   219
 7.4941   233
 7.5041   191
 7.5141   205
 7.5241   200
 7.5341   181
 7.5441   155
 7.5541   155
 7.5641   143
 7.5741   160
 7.5841   158
 7.5941   156
 7.6041   161
 7.6141   114
 7.6241   146
 7.6341   141
 7.6441   170
 7.6541   156
 7.6641   137
 7.6741   163
 7.6841   134
 7.6941   142
 7.7041   146
 7.7141   161
 7.7241   151
 7.7341   156
 7.7441   176
 7.7541   160
 7.7641   176
 7.7741   169
 7.7841   179
 7.7941   171
 7.8041   185
 7.8141   169
 7.8241   205
 7.8341   200
 7.8441   211
 7.8541   213
 7.8641   194
 7.8741   218
 7.8841   229
 7.8941   241
 7.9041   229
 7.9141   258
 7.9241   254
 7.9341   260
 7.9441   323
 7.9541   338
 7.9641   328
 7.9741   359
 7.9841   374
 7.9941   410
 8.0041   439
 8.0141   484
 8.0241   503
 8.0341   573
 8.0441   575
 8.0541   583
 8.0641   675
 8.0741   722
 8.0841   700
 8.0941   795
 8.1041   807
 8.1141   856
 8.1241   897
 8.1341   924
 8.1441   934
 8.1541   987
 8.1641   954
 8.1741   980
 8.1841   969
 8.1941   995
 8.2041  1013
 8.2141  1017
 8.2241  1062
 8.2341  1122
 8.2441  1124
 8.2541  1157
 8.2641  1219
 8.2741  1233
 8.2841  1353
 8.2941  1448
 8.3041  1544
 8.3141  1646
 8.3241  1828
 8.3341  1952
 8.3441  2043
 8.3541  2069
 8.3641  2230
 8.3741  2225
 8.3841  2336
 8.3941  2339
 8.4041  2254
 8.4141  2176
 8.4241  2071
 8.4341  1968
 8.4441  1802
 8.4541  1592
 8.4641  1447
 8.4741  1233
 8.4841  1055
 8.4941   921
 8.5041   734
 8.5141   687
 8.5241   533
 8.5341   461
 8.5441   455
 8.5541   410
 8.5641   347
 8.5741   357
 8.5841   350
 8.5941   360
 8.6041   326
 8.6141   345
 8.6241   346
 8.6341   316
 8.6441   330
 8.6541   354
 8.6641   322
 8.6741   325
 8.6841   295
 8.6941   312
 8.7041   287
 8.7141   287
 8.7241   285
 8.7341   273
 8.7441   262
 8.7541   247
 8.7641   245
 8.7741   260
 8.7841   207
 8.7941   206
 8.8041   221
 8.8141   228
 8.8241   223
 8.8341   229
 8.8441   221
 8.8541   236
 8.8641   215
 8.8741   220
 8.8841   222
 8.8941   233
 8.9041   241
 8.9141   239
 8.9241   221
 8.9341   230
 8.9441   255
 8.9541   241
 8.9641   206
 8.9741   234
 8.9841   251
 8.9941   278
 9.0041   282
 9.0141   255
 9.0241   299
 9.0341   256
 9.0441   279
 9.0541   287
 9.0641   291
 9.0741   312
 9.0841   299
 9.0941   323
 9.1041   360
 9.1141   364
 9.1241   337
 9.1341   384
 9.1441   359
 9.1541   386
 9.1641   390
 9.1741   435
 9.1841   466
 9.1941   514
 9.2041   473
 9.2141   524
 9.2241   581
 9.2341   550
 9.2441   612
 9.2541   641
 9.2641   724
 9.2741   705
 9.2841   705
 9.2941   708
 9.3041   796
 9.3141   813
 9.3241   850
 9.3341   880
 9.3441   898
 9.3541   878
 9.3641   871
 9.3741   943
 9.3841   959
 9.3941   961
 9.4041   998
 9.4141  1019
 9.4241  1012
 9.4341  1029
 9.4441  1058
 9.4541   997
 9.4641  1034
 9.4741  1061
 9.4841  1077
 9.4941  1121
 9.5041  1115
 9.5141  1149
 9.5241  1174
 9.5341  1259
 9.5441  1345
 9.5541  1373
 9.5641  1432
 9.5741  1521
 9.5841  1569
 9.5941  1618
 9.6041  1739
 9.6141  1882
 9.6241  1967
 9.6341  2072
 9.6441  2073
 9.6541  2118
 9.6641  2131
 9.6741  2172
 9.6841  2046
 9.6941  2086
 9.7041  2047
 9.7141  1860
 9.7241  1841
 9.7341  1721
 9.7441  1537
 9.7541  1482
 9.7641  1360
 9.7741  1239
 9.7841  1085
 9.7941  1015
 9.8041   978
 9.8141   918
 9.8241   922
 9.8341   853
 9.8441   840
 9.8541   873
 9.8641   856
 9.8741   825
 9.8841   861
 9.8941   917
 9.9041   900
 9.9141   914
 9.9241   941
 9.9341   974
 9.9441   956
 9.9541   916
 9.9641   891
 9.9741   919
 9.9841   880
 9.9941   777
10.0041   777
10.0141   739
10.0241   667
10.0341   615
10.0441   549
10.0541   504
10.0641   481
10.0741   413
10.0841   361
10.0941   332
10.1041   302
10.1141   258
10.1241   259
10.1341   228
10.1441   204
10.1541   180
10.1641   186
10.1741   182
10.1841   190
10.1941   167
10.2041   158
10.2141   146
10.2241   151
10.2341   143
10.2441   126
10.2541   149
10.2641   147
10.2741   136
10.2841   127
10.2941   128
10.3041   129
10.3141   131
10.3241   132
10.3341   120
10.3441   115
10.3541   135
10.3641   134
10.3741   124
10.3841   125
10.3941   137
10.4041   135
10.4141   117
10.4241   120
10.4341   122
10.4441   130
10.4541   125
10.4641   141
10.4741   136
10.4841   135
10.4941   130
10.5041   143
10.5141   143
10.5241   135
10.5341   139
10.5441   141
10.5541   142
10.5641   149
10.5741   153
10.5841   146
10.5941   147
10.6041   137
10.6141   150
10.6241   142
10.6341   151
10.6441   137
10.6541   142
10.6641   140
10.6741   145
10.6841   143
10.6941   156
10.7041   153
10.7141   164
10.7241   187
10.7341   172
10.7441   164
10.7541   151
10.7641   162
10.7741   186
10.7841   187
10.7941   173
10.8041   189
10.8141   187
10.8241   180
10.8341   189
10.8441   194
10.8541   211
10.8641   212
10.8741   205
10.8841   217
10.8941   224
10.9041   225
10.9141   226
10.9241   228
10.9341   204
10.9441   213
10.9541   216
10.9641   213
10.9741   203
10.9841   207
10.9941   210
11.0041   210
11.0141   196
11.0241   191
11.0341   197
11.0441   188
11.0541   183
11.0641   200
11.0741   189
11.0841   191
11.0941   190
11.1041   194
11.1141   194
11.1241   180
11.1341   177
11.1441   189
11.1541   201
11.1641   203
11.1741   215
11.1841   226
11.1941   245
11.2041   253
11.2141   268
11.2241   267
11.2341   268
11.2441   264
11.2541   303
11.2641   308
11.2741   289
11.2841   288
11.2941   279
11.3041   293
11.3141   273
11.3241   288
11.3341   296
11.3441   284
11.3541   254
11.3641   223
11.3741   199
11.3841   219
11.3941   211
11.4041   201
11.4141   177
11.4241   176
11.4341   161
11.4441   156
11.4541   157
11.4641   146
11.4741   142
11.4841   138
11.4941   142
11.5041   145
11.5141   136
11.5241   141
11.5341   143
11.5441   147
11.5541   152
11.5641   141
11.5741   154
11.5841   163
11.5941   162
11.6041   157
11.6141   152
11.6241   158
11.6341   154
11.6441   166
11.6541   173
11.6641   171
11.6741   172
11.6841   149
11.6941   160
11.7041   152
11.7141   155
11.7241   149
11.7341   147
11.7441   129
11.7541   133
11.7641   136
11.7741   127
11.7841   111
11.7941   114
11.8041   136
11.8141   130
11.8241   117
11.8341   102
11.8441    99
11.8541   104
11.8641   114
11.8741   109
11.8841   113
11.8941   112
11.9041   108
11.9141   117
11.9241   113
11.9341   113
11.9441   129
11.9541   115
11.9641   112
11.9741   108
11.9841   106
11.9941   106
12.0041   116
12.0141   115
12.0241   113
12.0341   119
12.0441   126
12.0541   110
12.0641   113
12.0741   121
12.0841   114
12.0941   113
12.1041   106
12.1141   119
12.1241   132
12.1341   114
12.1441   113
12.1541    98
12.1641   111
12.1741   115
12.1841   113
12.1941   112
12.2041    94
12.2141    94
12.2241   108
12.2341   102
12.2441   107
12.2541   124
12.2641   108
12.2741   109
12.2841   107
12.2941   100
12.3041   102
12.3141    98
12.3241   100
12.3341   106
12.3441   114
12.3541   107
12.3641   109
12.3741   118
12.3841   114
12.3941    96
12.4041   104
12.4141   109
12.4241   117
12.4341   122
12.4441   105
12.4541    97
12.4641   106
12.4741   118
12.4841   117
12.4941   115
12.5041   112
12.5141   113
12.5241   105
12.5341   112
12.5441   111
12.5541   117
12.5641   132
12.5741   129
12.5841   120
12.5941   131
12.6041   122
12.6141   113
12.6241   120
12.6341   123
12.6441   127
12.6541   126
12.6641   118
12.6741   120
12.6841   130
12.6941   129
12.7041   121
12.7141   113
12.7241   111
12.7341   115
12.7441   122
12.7541   128
12.7641   128
12.7741   128
12.7841   130
12.7941   128
12.8041   122
12.8141   119
12.8241   118
12.8341   117
12.8441   114
12.8541   114
12.8641   113
12.8741   115
12.8841   121
12.8941   129
12.9041   134
12.9141   134
12.9241   130
12.9341   129
12.9441   126
12.9541   121
12.9641   121
12.9741   121
12.9841   118
12.9941   119
13.0041   126
13.0141   138
13.0241   137
13.0341   131
13.0441   123
13.0541   119
13.0641   123
13.0741   117
13.0841   120
13.0941   130
13.1041   134
13.1141   131
13.1241   117
13.1341   125
13.1441   124
13.1541   127
13.1641   139
13.1741   148
13.1841   141
13.1941   150
13.2041   147
13.2141   144
13.2241   148
13.2341   149
13.2441   157
13.2541   163
13.2641   174
13.2741   178
13.2841   191
13.2941   190
13.3041   179
13.3141   191
13.3241   203
13.3341   201
13.3441   200
13.3541   204
13.3641   207
13.3741   208
13.3841   215
13.3941   221
13.4041   219
13.4141   211
13.4241   206
13.4341   205
13.4441   203
13.4541   201
13.4641   194
13.4741   185
13.4841   176
13.4941   171
13.5041   173
13.5141   174
13.5241   168
13.5341   162
13.5441   161
13.5541   163
13.5641   167
13.5741   166
13.5841   163
13.5941   157
13.6041   152
13.6141   150
13.6241   149
13.6341   148
13.6441   158
13.6541   156
13.6641   141
13.6741   146
13.6841   164
13.6941   162
13.7041   159
13.7141   157
13.7241   157
13.7341   162
13.7441   163
13.7541   158
13.7641   157
13.7741   163
13.7841   158
13.7941   148
13.8041   146
13.8141   154
13.8241   158
13.8341   159
13.8441   162
13.8541   164
13.8641   165
13.8741   167
13.8841   167
13.8941   167
13.9041   173
13.9141   179
13.9241   183
13.9341   185
13.9441   190
13.9541   202
13.9641   217
13.9741   228
13.9841   236
13.9941   243
14.0041   257
14.0141   277
14.0241   299
14.0341   329
14.0441   356
14.0541   375
14.0641   393
14.0741   410
14.0841   429
14.0941   452
14.1041   474
14.1141   492
14.1241   498
14.1341   495
14.1441   493
14.1541   491
14.1641   485
14.1741   474
14.1841   463
14.1941   452
14.2041   439
14.2141   422
14.2241   407
14.2341   393
14.2441   370
14.2541   337
14.2641   306
14.2741   285
14.2841   257
14.2941   238
14.3041   240
14.3141   240
14.3241   222
14.3341   195
14.3441   190
14.3541   187
14.3641   189
14.3741   190
14.3841   178
14.3941   166
14.4041   167
14.4141   188
14.4241   182
14.4341   158
14.4441   168
14.4541   172
14.4641   174
14.4741   181
14.4841   176
14.4941   191
14.5041   185
14.5141   185
14.5241   192
14.5341   184
14.5441   178
14.5541   188
14.5641   183
14.5741   176
14.5841   180
14.5941   176
14.6041   178
14.6141   166
14.6241   176
14.6341   182
14.6441   176
14.6541   172
14.6641   169
14.6741   183
14.6841   199
14.6941   189
14.7041   191
14.7141   197
14.7241   193
14.7341   190
14.7441   189
14.7541   192
14.7641   193
14.7741   196
14.7841   200
14.7941   192
14.8041   177
14.8141   174
14.8241   202
14.8341   219
14.8441   205
14.8541   201
14.8641   214
14.8741   206
14.8841   217
14.8941   234
14.9041   228
14.9141   210
14.9241   209
14.9341   220
14.9441   207
14.9541   209
14.9641   215
14.9741   221
14.9841   222
14.9941   231
15.0041   236
15.0141   218
15.0241   231
15.0341   231
15.0441   220
15.0541   220
15.0641   199
15.0741   203
15.0841   203
15.0941   193
15.1041   200
15.1141   202
15.1241   208
15.1341   210
15.1441   196
15.1541   199
15.1641   209
15.1741   194
15.1841   200
15.1941   218
15.2041   208
15.2141   203
15.2241   225
15.2341   223
15.2441   214
15.2541   214
15.2641   205
15.2741   215
15.2841   215
15.2941   201
15.3041   209
15.3141   215
15.3241   199
15.3341   202
15.3441   216
15.3541   225
15.3641   227
15.3741   214
15.3841   203
15.3941   204
15.4041   220
15.4141   212
15.4241   220
15.4341   235
15.4441   220
15.4541   200
15.4641   209
15.4741   222
15.4841   218
15.4941   217
15.5041   229
15.5141   232
15.5241   232
15.5341   234
15.5441   256
15.5541   268
15.5641   249
15.5741   276
15.5841   303
15.5941   309
15.6041   313
15.6141   332
15.6241   349
15.6341   390
15.6441   393
15.6541   402
15.6641   446
15.6741   450
15.6841   453
15.6941   462
15.7041   472
15.7141   514
15.7241   517
15.7341   517
15.7441   518
15.7541   543
15.7641   517
15.7741   518
15.7841   543
15.7941   529
15.8041   493
15.8141   498
15.8241   495
15.8341   482
15.8441   461
15.8541   441
15.8641   422
15.8741   413
15.8841   382
15.8941   352
15.9041   347
15.9141   318
15.9241   310
15.9341   300
15.9441   284
15.9541   266
15.9641   265
15.9741   292
15.9841   272
15.9941   268
16.0041   296
16.0141   285
16.0241   271
16.0341   265
16.0441   256
16.0541   256
16.0641   262
16.0741   254
16.0841   249
16.0941   252
16.1041   254
16.1141   250
16.1241   256
16.1341   252
16.1441   254
16.1541   257
16.1641   250
16.1741   261
16.1841   267
16.1941   265
16.2041   263
16.2141   245
16.2241   233
16.2341   233
16.2441   249
16.2541   266
16.2641   265
16.2741   252
16.2841   244
16.2941   250
16.3041   245
16.3141   248
16.3241   238
16.3341   255
16.3441   271
16.3541   253
16.3641   254
16.3741   257
16.3841   250
16.3941   253
16.4041   276
16.4141   285
16.4241   259
16.4341   256
16.4441   265
16.4541   269
16.4641   268
16.4741   261
16.4841   293
16.4941   284
16.5041   270
16.5141   273
16.5241   273
16.5341   273
16.5441   286
16.5541   300
16.5641   292
16.5741   284
16.5841   272
16.5941   245
16.6041   279
16.6141   274
16.6241   286
16.6341   299
16.6441   276
16.6541   293
16.6641   293
16.6741   288
16.6841   271
16.6941   281
16.7041   273
16.7141   261
16.7241   295
16.7341   299
16.7441   284
16.7541   294
16.7641   314
16.7741   292
16.7841   282
16.7941   275
16.8041   313
16.8141   306
16.8241   301
16.8341   300
16.8441   286
16.8541   283
16.8641   296
16.8741   288
16.8841   287
16.8941   293
16.9041   285
16.9141   292
16.9241   304
16.9341   278
16.9441   267
16.9541   273
16.9641   299
16.9741   284
16.9841   287
16.9941   312
17.0041   300
17.0141   303
17.0241   301
17.0341   281
17.0441   289
17.0541   317
17.0641   291
17.0741   297
17.0841   299
17.0941   291
17.1041   272
17.1141   298
17.1241   326
17.1341   307
17.1441   310
17.1541   314
17.1641   304
17.1741   316
17.1841   292
17.1941   291
17.2041   313
17.2141   305
17.2241   309
17.2341   321
17.2441   300
17.2541   296
17.2641   314
17.2741   314
17.2841   290
17.2941   303
17.3041   317
17.3141   333
17.3241   319
17.3341   313
17.3441   319
17.3541   296
17.3641   310
17.3741   322
17.3841   326
17.3941   324
17.4041   330
17.4141   326
17.4241   340
17.4341   322
17.4441   309
17.4541   304
17.4641   315
17.4741   312
17.4841   312
17.4941   340
17.5041   327
17.5141   314
17.5241   307
17.5341   299
17.5441   342
17.5541   354
17.5641   322
17.5741   319
17.5841   347
17.5941   349
17.6041   358
17.6141   354
17.6241   368
17.6341   368
17.6441   365
17.6541   360
17.6641   374
17.6741   351
17.6841   369
17.6941   372
17.7041   361
17.7141   359
17.7241   345
17.7341   320
17.7441   361
17.7541   351
17.7641   368
17.7741   350
17.7841   344
17.7941   360
17.8041   352
17.8141   332
17.8241   354
17.8341   334
17.8441   355
17.8541   342
17.8641   331
17.8741   349
17.8841   364
17.8941   346
17.9041   350
17.9141   333
17.9241   371
17.9341   366
17.9441   352
17.9541   360
17.9641   362
17.9741   349
17.9841   327
17.9941   335
18.0041   348
18.0141   358
18.0241   373
18.0341   366
18.0441   336
18.0541   341
18.0641   346
18.0741   370
18.0841   345
18.0941   359
18.1041   352
18.1141   347
18.1241   330
18.1341   354
18.1441   344
18.1541   354
18.1641   353
18.1741   348
18.1841   335
18.1941   357
18.2041   355
18.2141   359
18.2241   381
18.2341   360
18.2441   361
18.2541   348
18.2641   367
18.2741   359
18.2841   342
18.2941   348
18.3041   362
18.3141   349
18.3241   378
18.3341   369
18.3441   359
18.3541   357
18.3641   347
18.3741   347
18.3841   352
18.3941   340
18.4041   354
18.4141   365
18.4241   359
18.4341   358
18.4441   358
18.4541   337
18.4641   334
18.4741   351
18.4841   374
18.4941   397
18.5041   377
18.5141   377
18.5241   336
18.5341   357
18.5441   381
18.5541   371
18.5641   358
18.5741   343
18.5841   372
18.5941   365
18.6041   367
18.6141   369
18.6241   366
18.6341   360
18.6441   352
18.6541   371
18.6641   369
18.6741   356
18.6841   366
18.6941   355
18.7041   367
18.7141   383
18.7241   358
18.7341   335
18.7441   365
18.7541   362
18.7641   402
18.7741   396
18.7841   353
18.7941   383
18.8041   390
18.8141   397
18.8241   399
18.8341   361
18.8441   385
18.8541   405
18.8641   378
18.8741   364
18.8841   372
18.8941   390
18.9041   373
18.9141   384
18.9241   372
18.9341   392
18.9441   402
18.9541   390
18.9641   390
18.9741   415
18.9841   377
18.9941   382
19.0041   385
19.0141   394
19.0241   370
19.0341   424
19.0441   400
19.0541   412
19.0641   403
19.0741   381
19.0841   376
19.0941   392
19.1041   397
19.1141   386
19.1241   384
19.1341   381
19.1441   374
19.1541   365
19.1641   402
19.1741   396
19.1841   367
19.1941   387
19.2041   396
19.2141   389
19.2241   382
19.2341   381
19.2441   389
19.2541   395
19.2641   389
19.2741   425
19.2841   383
19.2941   376
19.3041   405
19.3141   383
19.3241   380
19.3341   398
19.3441   399
19.3541   390
19.3641   415
19.3741   397
19.3841   396
19.3941   412
19.4041   381
19.4141   369
19.4241   366
19.4341   373
19.4441   384
19.4541   386
19.4641   393
19.4741   415
19.4841   389
19.4941   401
19.5041   408
19.5141   354
19.5241   370
19.5341   404
19.5441   443
19.5541   409
19.5641   393
19.5741   402
19.5841   421
19.5941   374
19.6041   417
19.6141   360
19.6241   369
19.6341   404
19.6441   363
19.6541   380
19.6641   383
19.6741   387
19.6841   383
19.6941   422
19.7041   395
19.7141   399
19.7241   412
19.7341   424
19.7441   404
19.7541   399
19.7641   380
19.7741   411
19.7841   416
19.7941   412
19.8041   417
19.8141   436
19.8241   384
19.8341   388
19.8441   407
19.8541   404
19.8641   411
19.8741   425
19.8841   380
19.8941   361
19.9041   388
19.9141   420
19.9241   417
19.9341   405
19.9441   372
19.9541   398
19.9641   431
19.9741   421
19.9841   428
19.9941   426
20.0041   417
20.0141   399
20.0241   404
20.0341   389
20.0441   412
20.0541   388
20.0641   417
20.0741   397
20.0841   408
20.0941   425
20.1041   390
20.1141   395
20.1241   413
20.1341   409
20.1441   432
20.1541   446
20.1641   434
20.1741   412
20.1841   411
20.1941   422
20.2041   393
20.2141   407
20.2241   425
20.2341   408
20.2441   430
20.2541   411
20.2641   433
20.2741   399
20.2841   425
20.2941   388
20.3041   397
20.3141   434
20.3241   433
20.3341   453
20.3441   411
20.3541   455
20.3641   417
20.3741   424
20.3841   439
20.3941   426
20.4041   406
20.4141   423
20.4241   415
20.4341   426
20.4441   404
20.4541   469
20.4641   428
20.4741   438
20.4841   442
20.4941   381
20.5041   381
20.5141   433
20.5241   433
20.5341   445
20.5441   467
20.5541   430
20.5641   425
20.5741   408
20.5841   423
20.5941   434
20.6041   403
20.6141   429
20.6241   462
20.6341   457
20.6441   410
20.6541   404
20.6641   415
20.6741   447
20.6841   433
20.6941   416
20.7041   413
20.7141   434
20.7241   414
20.7341   422
20.7441   447
20.7541   433
20.7641   428
20.7741   410
20.7841   436
20.7941   419
20.8041   444
20.8141   421
20.8241   438
20.8341   447
20.8441   438
20.8541   452
20.8641   476
20.8741   474
20.8841   513
20.8941   481
20.9041   493
20.9141   457
20.9241   529
20.9341   499
20.9441   543
20.9541   539
20.9641   561
20.9741   548
20.9841   535
20.9941   555
21.0041   598
21.0141   579
21.0241   604
21.0341   573
21.0441   615
21.0541   605
21.0641   655
21.0741   637
21.0841   634
21.0941   619
21.1041   614
21.1141   640
21.1241   635
21.1341   648
21.1441   656
21.1541   649
21.1641   643
21.1741   658
21.1841   638
21.1941   655
21.2041   650
21.2141   612
21.2241   629
21.2341   667
21.2441   610
21.2541   567
21.2641   587
21.2741   566
21.2841   538
21.2941   521
21.3041   533
21.3141   509
21.3241   482
21.3341   506
21.3441   498
21.3541   510
21.3641   462
21.3741   497
21.3841   483
21.3941   446
21.4041   409
21.4141   422
21.4241   443
21.4341   439
21.4441   462
21.4541   458
21.4641   423
21.4741   433
21.4841   419
21.4941   468
21.5041   438
21.5141   423
21.5241   424
21.5341   442
21.5441   424
21.5541   439
21.5641   446
21.5741   468
21.5841   430
21.5941   446
21.6041   419
21.6141   427
21.6241   413
21.6341   436
21.6441   468
21.6541   455
21.6641   440
21.6741   452
21.6841   440
21.6941   404
21.7041   470
21.7141   454
21.7241   467
21.7341   474
21.7441   439
21.7541   450
21.7641   448
21.7741   444
21.7841   396
21.7941   432
21.8041   437
21.8141   434
21.8241   440
21.8341   411
21.8441   422
21.8541   407
21.8641   399
21.8741   428
21.8841   440
21.8941   441
21.9041   453
21.9141   428
21.9241   420
21.9341   433
21.9441   460
21.9541   452
21.9641   453
21.9741   443
21.9841   436
21.9941   433
22.0041   389
22.0141   447
22.0241   422
22.0341   439
22.0441   461
22.0541   422
22.0641   452
22.0741   446
22.0841   427
22.0941   425
22.1041   438
22.1141   419
22.1241   445
22.1341   442
22.1441   424
22.1541   422
22.1641   425
22.1741   427
22.1841   467
22.1941   443
22.2041   445
22.2141   476
22.2241   455
22.2341   436
22.2441   433
22.2541   454
22.2641   435
22.2741   433
22.2841   436
22.2941   448
22.3041   397
22.3141   464
22.3241   413
22.3341   411
22.3441   433
22.3541   408
22.3641   430
22.3741   426
22.3841   418
22.3941   428
22.4041   422
22.4141   440
22.4241   418
22.4341   414
22.4441   401
22.4541   461
22.4641   443
22.4741   461
22.4841   420
22.4941   447
22.5041   432
22.5141   391
22.5241   415
22.5341   412
22.5441   445
22.5541   439
22.5641   449
22.5741   384
22.5841   439
22.5941   458
22.6041   440
22.6141   407
22.6241   446
22.6341   402
22.6441   427
22.6541   418
22.6641   454
22.6741   420
22.6841   429
22.6941   404
22.7041   435
22.7141   454
22.7241   434
22.7341   446
22.7441   420
22.7541   456
22.7641   436
22.7741   425
22.7841   438
22.7941   455
22.8041   392
22.8141   410
22.8241   444
22.8341   396
22.8441   421
22.8541   441
22.8641   396
22.8741   414
22.8841   439
22.8941   410
22.9041   443
22.9141   424
22.9241   423
22.9341   412
22.9441   458
22.9541   456
22.9641   409
22.9741   430
22.9841   441
22.9941   404
23.0041   416
23.0141   452
23.0241   435
23.0341   417
23.0441   382
23.0541   423
23.0641   405
23.0741   426
23.0841   429
23.0941   412
23.1041   440
23.1141   428
23.1241   466
23.1341   417
23.1441   430
23.1541   394
23.1641   432
23.1741   439
23.1841   392
23.1941   423
23.2041   429
23.2141   431
23.2241   408
23.2341   426
23.2441   386
23.2541   429
23.2641   419
23.2741   421
23.2841   412
23.2941   398
23.3041   446
23.3141   443
23.3241   452
23.3341   424
23.3441   432
23.3541   436
23.3641   433
23.3741   420
23.3841   425
23.3941   403
23.4041   381
23.4141   433
23.4241   437
23.4341   388
23.4441   419
23.4541   419
23.4641   404
23.4741   406
23.4841   414
23.4941   414
23.5041   384
23.5141   393
23.5241   432
23.5341   411
23.5441   422
23.5541   411
23.5641   416
23.5741   412
23.5841   423
23.5941   460
23.6041   419
23.6141   399
23.6241   401
23.6341   417
23.6441   452
23.6541   460
23.6641   405
23.6741   444
23.6841   491
23.6941   424
23.7041   423
23.7141   415
23.7241   437
23.7341   457
23.7441   459
23.7541   425
23.7641   465
23.7741   454
23.7841   459
23.7941   450
23.8041   454
23.8141   452
23.8241   429
23.8341   436
23.8441   434
23.8541   460
23.8641   431
23.8741   447
23.8841   445
23.8941   468
23.9041   408
23.9141   435
23.9241   460
23.9341   422
23.9441   409
23.9541   466
23.9641   449
23.9741   401
23.9841   394
23.9941   423
24.0041   419
24.0141   447
24.0241   413
24.0341   376
24.0441   385
24.0541   412
24.0641   408
24.0741   399
24.0841   427
24.0941   402
24.1041   396
24.1141   396
24.1241   409
24.1341   456
24.1441   423
24.1541   413
24.1641   423
24.1741   382
24.1841   419
24.1941   392
24.2041   416
24.2141   358
24.2241   449
24.2341   404
24.2441   389
24.2541   426
24.2641   449
24.2741   415
24.2841   412
24.2941   394
24.3041   414
24.3141   416
24.3241   435
24.3341   358
24.3441   423
24.3541   383
24.3641   390
24.3741   388
24.3841   415
24.3941   411
24.4041   421
24.4141   415
24.4241   422
24.4341   387
24.4441   381
24.4541   426
24.4641   418
24.4741   399
24.4841   382
24.4941   382
24.5041   421
24.5141   405
24.5241   401
24.5341   399
24.5441   423
24.5541   410
24.5641   373
24.5741   360
24.5841   388
24.5941   391
24.6041   398
24.6141   389
24.6241   394
24.6341   410
24.6441   406
24.6541   439
24.6641   397
24.6741   442
24.6841   394
24.6941   383
24.7041   391
24.7141   410
24.7241   384
24.7341   370
24.7441   349
24.7541   383
24.7641   428
24.7741   349
24.7841   371
24.7941   393
24.8041   388
24.8141   369
24.8241   385
24.8341   386
24.8441   390
24.8541   388
24.8641   383
24.8741   388
24.8841   380
24.8941   363
24.9041   397
24.9141   393
24.9241   377
24.9341   411
24.9441   392
24.9541   382
24.9641   383
24.9741   365
24.9841   405
24.9941   392
25.0041   405
25.0141   372
25.0241   382
25.0341   411
25.0441   350
25.0541   394
25.0641   391
25.0741   376
25.0841   409
25.0941   369
25.1041   374
25.1141   369
25.1241   374
25.1341   392
25.1441   385
25.1541   407
25.1641   403
25.1741   425
25.1841   406
25.1941   380
25.2041   403
25.2141   399
25.2241   389
25.2341   419
25.2441   389
25.2541   381
25.2641   373
25.2741   366
25.2841   409
25.2941   375
25.3041   397
25.3141   384
25.3241   377
25.3341   412
25.3441   383
25.3541   363
25.3641   404
25.3741   403
25.3841   355
25.3941   351
25.4041   375
25.4141   392
25.4241   361
25.4341   367
25.4441   326
25.4541   349
25.4641   351
25.4741   407
25.4841   377
25.4941   372
25.5041   377
25.5141   405
25.5241   358
25.5341   373
25.5441   393
25.5541   394
25.5641   374
25.5741   367
25.5841   372
25.5941   353
25.6041   355
25.6141   386
25.6241   339
25.6341   384
25.6441   385
25.6541   370
25.6641   366
25.6741   368
25.6841   346
25.6941   350
25.7041   374
25.7141   357
25.7241   341
25.7341   338
25.7441   366
25.7541   371
25.7641   365
25.7741   371
25.7841   362
25.7941   397
25.8041   345
25.8141   345
25.8241   326
25.8341   390
25.8441   369
25.8541   352
25.8641   375
25.8741   373
25.8841   358
25.8941   369
25.9041   359
25.9141   380
25.9241   377
25.9341   395
25.9441   366
25.9541   362
25.9641   328
25.9741   378
25.9841   365
25.9941   337
26.0041   376
26.0141   343
26.0241   371
26.0341   342
26.0441   323
26.0541   321
26.0641   353
26.0741   327
26.0841   350
26.0941   363
26.1041   354
26.1141   356
26.1241   375
26.1341   359
26.1441   370
26.1541   376
26.1641   392
26.1741   388
26.1841   339
26.1941   329
26.2041   356
26.2141   372
26.2241   332
26.2341   369
26.2441   362
26.2541   330
26.2641   320
26.2741   371
26.2841   368
26.2941   347
26.3041   351
26.3141   350
26.3241   353
26.3341   344
26.3441   361
26.3541   345
26.3641   372
26.3741   359
26.3841   343
26.3941   370
26.4041   337
26.4141   345
26.4241   359
26.4341   354
26.4441   328
26.4541   328
26.4641   342
26.4741   336
26.4841   348
26.4941   322
26.5041   348
26.5141   358
26.5241   327
26.5341   356
26.5441   358
26.5541   355
26.5641   310
26.5741   357
26.5841   357
26.5941   335
26.6041   312
26.6141   312
26.6241   330
26.6341   338
26.6441   294
26.6541   313
26.6641   324
26.6741   325
26.6841   327
26.6941   332
26.7041   348
26.7141   335
26.7241   343
26.7341   336
26.7441   355
26.7541   330
26.7641   327
26.7741   321
26.7841   328
26.7941   351
26.8041   322
26.8141   314
26.8241   306
26.8341   343
26.8441   348
26.8541   334
26.8641   336
26.8741   335
26.8841   323
26.8941   317
26.9041   362
26.9141   341
26.9241   321
26.9341   333
26.9441   350
26.9541   322
26.9641   315
26.9741   323
26.9841   307
26.9941   339
27.0041   339
27.0141   328
27.0241   318
27.0341   312
27.0441   334
27.0541   317
27.0641   324
27.0741   316
27.0841   342
27.0941   348
27.1041   352
27.1141   294
27.1241   290
27.1341   316
27.1441   335
27.1541   331
27.1641   327
27.1741   329
27.1841   302
27.1941   324
27.2041   320
27.2141   324
27.2241   326
27.2341   311
27.2441   360
27.2541   322
27.2641   338
27.2741   340
27.2841   341
27.2941   319
27.3041   298
27.3141   333
27.3241   308
27.3341   286
27.3441   293
27.3541   325
27.3641   319
27.3741   340
27.3841   322
27.3941   314
27.4041   311
27.4141   287
27.4241   320
27.4341   308
27.4441   317
27.4541   305
27.4641   292
27.4741   314
27.4841   316
27.4941   315
27.5041   301
27.5141   314
27.5241   298
27.5341   304
27.5441   311
27.5541   303
27.5641   315
27.5741   310
27.5841   289
27.5941   299
27.6041   276
27.6141   293
27.6241   301
27.6341   290
27.6441   294
27.6541   319
27.6641   291
27.6741   270
27.6841   310
27.6941   289
27.7041   307
27.7141   292
27.7241   318
27.7341   294
27.7441   324
27.7541   312
27.7641   285
27.7741   327
27.7841   302
27.7941   293
27.8041   292
27.8141   304
27.8241   327
27.8341   303
27.8441   290
27.8541   301
27.8641   321
27.8741   295
27.8841   269
27.8941   300
27.9041   289
27.9141   294
27.9241   274
27.9341   284
27.9441   305
27.9541   307
27.9641   283
27.9741   290
27.9841   289
27.9941   280
28.0041   279
28.0141   291
28.0241   302
28.0341   293
28.0441   260
28.0541   273
28.0641   298
28.0741   286
28.0841   290
28.0941   311
28.1041   282
28.1141   282
28.1241   263
28.1341   288
28.1441   299
28.1541   311
28.1641   278
28.1741   291
28.1841   287
28.1941   268
28.2041   306
28.2141   259
28.2241   262
28.2341   272
28.2441   241
28.2541   278
28.2641   281
28.2741   293
28.2841   285
28.2941   298
28.3041   271
28.3141   279
28.3241   260
28.3341   292
28.3441   294
28.3541   285
28.3641   296
28.3741   289
28.3841   292
28.3941   307
28.4041   280
28.4141   293
28.4241   289
28.4341   291
28.4441   270
28.4541   291
28.4641   275
28.4741   268
28.4841   302
28.4941   284
28.5041   236
28.5141   264
28.5241   290
28.5341   292
28.5441   280
28.5541   284
28.5641   292
28.5741   285
28.5841   256
28.5941   266
28.6041   239
28.6141   276
28.6241   273
28.6341   274
28.6441   275
28.6541   255
28.6641   287
28.6741   262
28.6841   256
28.6941   257
28.7041   259
28.7141   272
28.7241   265
28.7341   272
28.7441   278
28.7541   291
28.7641   264
28.7741   253
28.7841   258
28.7941   265
28.8041   273
28.8141   244
28.8241   271
28.8341   264
28.8441   290
28.8541   283
28.8641   261
28.8741   243
28.8841   265
28.8941   252
28.9041   272
28.9141   288
28.9241   248
28.9341   249
28.9441   246
28.9541   284
28.9641   276
28.9741   259
28.9841   258
28.9941   260
29.0041   246
29.0141   285
29.0241   272
29.0341   278
29.0441   258
29.0541   284
29.0641   258
29.0741   255
29.0841   241
29.0941   231
29.1041   265
29.1141   277
29.1241   270
29.1341   258
29.1441   253
29.1541   253
29.1641   251
29.1741   253
29.1841   255
29.1941   281
29.2041   250
29.2141   233
29.2241   248
29.2341   249
29.2441   266
29.2541   276
29.2641   260
29.2741   247
29.2841   247
29.2941   259
29.3041   248
29.3141   274
29.3241   219
29.3341   233
29.3441   249
29.3541   234
29.3641   245
29.3741   234
29.3841   234
29.3941   213
29.4041   245
29.4141   228
29.4241   242
29.4341   241
29.4441   231
29.4541   245
29.4641   237
29.4741   233
29.4841   223
29.4941   241
29.5041   224
29.5141   232
29.5241   223
29.5341   261
29.5441   238
29.5541   215
29.5641   232
29.5741   235
29.5841   261
29.5941   233
29.6041   219
29.6141   256
29.6241   240
29.6341   240
29.6441   244
29.6541   260
29.6641   243
29.6741   224
29.6841   247
29.6941   240
29.7041   245
29.7141   236
29.7241   248
29.7341   238
29.7441   250
29.7541   231
29.7641   210
29.7741   242
29.7841   252
29.7941   245
29.8041   247
29.8141   254
29.8241   259
29.8341   248
29.8441   244
29.8541   223
29.8641   232
29.8741   243
29.8841   252
29.8941   230
29.9041   239
29.9141   219
29.9241   221
29.9341   244
29.9441   216
29.9541   212
29.9641   225
29.9741   220
29.9841   233
29.9941   219
30.0041   229
30.0141   233
30.0241   243
30.0341   226
30.0441   242
30.0541   211
30.0641   241
30.0741   237
30.0841   206
30.0941   222
30.1041   235
30.1141   218
30.1241   227
30.1341   217
30.1441   243
30.1541   217
30.1641   213
30.1741   214
30.1841   215
30.1941   227
30.2041   215
30.2141   238
30.2241   205
30.2341   220
30.2441   219
30.2541   221
30.2641   205
30.2741   217
30.2841   208
30.2941   227
30.3041   212
30.3141   236
30.3241   216
30.3341   205
30.3441   199
30.3541   204
30.3641   207
30.3741   220
30.3841   227
30.3941   228
30.4041   230
30.4141   202
30.4241   237
30.4341   216
30.4441   206
30.4541   215
30.4641   219
30.4741   203
30.4841   212
30.4941   223
30.5041   238
30.5141   214
30.5241   213
30.5341   232
30.5441   204
30.5541   224
30.5641   209
30.5741   212
30.5841   229
30.5941   218
30.6041   195
30.6141   214
30.6241   192
30.6341   223
30.6441   194
30.6541   219
30.6641   203
30.6741   219
30.6841   214
30.6941   201
30.7041   209
30.7141   186
30.7241   225
30.7341   207
30.7441   193
30.7541   188
30.7641   198
30.7741   214
30.7841   193
30.7941   205
30.8041   219
30.8141   219
30.8241   200
30.8341   207
30.8441   212
30.8541   219
30.8641   194
30.8741   206
30.8841   212
30.8941   203
30.9041   199
30.9141   200
30.9241   184
30.9341   175
30.9441   205
30.9541   199
30.9641   220
30.9741   216
30.9841   188
30.9941   200
31.0041   198
31.0141   200
31.0241   227
31.0341   215
31.0441   191
31.0541   167
31.0641   186
31.0741   198
31.0841   182
31.0941   187
31.1041   191
31.1141   175
31.1241   207
31.1341   180
31.1441   177
31.1541   173
31.1641   172
31.1741   177
31.1841   223
31.1941   178
31.2041   187
31.2141   187
31.2241   168
31.2341   193
31.2441   188
31.2541   166
31.2641   188
31.2741   176
31.2841   198
31.2941   179
31.3041   194
31.3141   199
31.3241   190
31.3341   191
31.3441   185
31.3541   185
31.3641   171
31.3741   204
31.3841   176
31.3941   196
31.4041   189
31.4141   172
31.4241   167
31.4341   195
31.4441   184
31.4541   212
31.4641   180
31.4741   178
31.4841   181
31.4941   168
31.5041   187
31.5141   193
31.5241   190
31.5341   174
31.5441   206
31.5541   198
31.5641   184
31.5741   171
31.5841   178
31.5941   176
31.6041   179
31.6141   182
31.6241   177
31.6341   194
31.6441   191
31.6541   181
31.6641   173
31.6741   185
31.6841   173
31.6941   183
31.7041   182
31.7141   178
31.7241   189
31.7341   157
31.7441   159
31.7541   192
31.7641   181
31.7741   195
31.7841   175
31.7941   172
31.8041   197
31.8141   220
31.8241   215
31.8341   204
31.8441   166
31.8541   185
31.8641   176
31.8741   195
31.8841   182
31.8941   163
31.9041   189
31.9141   164
31.9241   193
31.9341   165
31.9441   203
31.9541   189
31.9641   183
31.9741   181
31.9841   172
31.9941   171
32.0041   178
32.0141   163
32.0241   160
32.0341   182
32.0441   172
32.0541   165
32.0641   186
32.0741   193
32.0841   172
32.0941   167
32.1041   199
32.1141   158
32.1241   167
32.1341   172
32.1441   168
32.1541   186
32.1641   193
32.1741   224
32.1841   195
32.1941   180
32.2041   158
32.2141   170
32.2241   175
32.2341   183
32.2441   171
32.2541   174
32.2641   183
32.2741   191
32.2841   173
32.2941   164
32.3041   185
32.3141   194
32.3241   177
32.3341   173
32.3441   177
32.3541   182
32.3641   183
32.3741   160
32.3841   146
32.3941   154
32.4041   158
32.4141   154
32.4241   174
32.4341   157
32.4441   168
32.4541   167
32.4641   165
32.4741   164
32.4841   132
32.4941   149
32.5041   142
32.5141   155
32.5241   148
32.5341   152
32.5441   169
32.5541   152
32.5641   167
32.5741   157
32.5841   159
32.5941   155
32.6041   148
32.6141   152
32.6241   157
32.6341   137
32.6441   149
32.6541   128
32.6641   132
32.6741   158
32.6841   174
32.6941   175
32.7041   155
32.7141   154
32.7241   154
32.7341   144
32.7441   150
32.7541   147
32.7641   146
32.7741   152
32.7841   127
32.7941   170
32.8041   136
32.8141   133
32.8241   139
32.8341   153
32.8441   133
32.8541   160
32.8641   149
32.8741   151
32.8841   143
32.8941   148
32.9041   128
32.9141   132
32.9241   122
32.9341   129
32.9441   146
32.9541   147
32.9641   138
32.9741   161
32.9841   149
32.9941   147
33.0041   150
33.0141   129
33.0241   143
33.0341   161
33.0441   146
33.0541   138
33.0641   130
33.0741   126
33.0841   137
33.0941   150
33.1041   173
33.1141   138
33.1241   133
33.1341   117
33.1441   125
33.1541   148
33.1641   119
33.1741   129
33.1841   126
33.1941   130
33.2041   123
33.2141   138
33.2241   140
33.2341   147
33.2441   141
33.2541   139
33.2641   123
33.2741   131
33.2841   155
33.2941   139
33.3041   126
33.3141   139
33.3241   146
33.3341   123
33.3441   139
33.3541   143
33.3641   113
33.3741   138
33.3841   154
33.3941   132
33.4041   125
33.4141   140
33.4241   133
33.4341   139
33.4441   124
33.4541   122
33.4641   109
33.4741   121
33.4841   137
33.4941   123
33.5041   115
33.5141   134
33.5241   128
33.5341   125
33.5441   154
33.5541   121
33.5641   124
33.5741   115
33.5841   149
33.5941   128
33.6041   143
33.6141   124
33.6241   110
33.6341   130
33.6441   127
33.6541   135
33.6641   144
33.6741   121
33.6841   135
33.6941   133
33.7041   122
33.7141   116
33.7241   109
33.7341   132
33.7441   110
33.7541   128
33.7641   108
33.7741   126
33.7841   135
33.7941   130
33.8041   124
33.8141   123
33.8241   128
33.8341   106
33.8441   119
33.8541   115
33.8641   131
33.8741   113
33.8841   113
33.8941   121
33.9041   102
33.9141   128
33.9241   119
33.9341   103
33.9441   128
33.9541   101
33.9641   122
33.9741   125
33.9841   130
33.9941   115
34.0041   120
34.0141   120
34.0241   100
34.0341   113
34.0441   136
34.0541   134
34.0641   116
34.0741   118
34.0841   113
34.0941   111
34.1041   127
34.1141   114
34.1241   126
34.1341   127
34.1441   131
34.1541   120
34.1641   124
34.1741   126
34.1841   107
34.1941   114
34.2041   119
34.2141   112
34.2241   102
34.2341   114
34.2441   124
34.2541   127
34.2641   129
34.2741   109
34.2841   117
34.2941   111
34.3041   105
34.3141   122
34.3241   102
34.3341    93
34.3441   109
34.3541   115
34.3641   117
34.3741   104
34.3841   113
34.3941   100
34.4041    90
34.4141    98
34.4241   105
34.4341   116
34.4441   107
34.4541   100
34.4641   103
34.4741   108
34.4841    99
34.4941   108
34.5041   101
34.5141   107
34.5241   104
34.5341   122
34.5441   102
34.5541   104
34.5641   112
34.5741    92
34.5841    98
34.5941   117
34.6041   111
34.6141    89
34.6241   108
34.6341   105
34.6441    94
34.6541    90
34.6641   101
34.6741    89
34.6841   108
34.6941   112
34.7041    78
34.7141   106
34.7241   115
34.7341   117
34.7441   113
34.7541    92
34.7641    97
34.7741   101
34.7841   118
34.7941   114
34.8041    97
34.8141   112
34.8241    95
34.8341    99
34.8441   117
34.8541    86
34.8641    97
34.8741    96
34.8841   102
34.8941   107
34.9041    93
34.9141   102
34.9241   100
34.9341    94
34.9441   110
34.9541   114
34.9641    92
34.9741    91
34.9841    86
34.9941    95
35.0041    87
35.0141    94
35.0241    98
35.0341    94
35.0441   105
35.0541    83
35.0641   107
35.0741    88
35.0841    82
35.0941   103
35.1041    96
35.1141    95
35.1241    98
35.1341    93
35.1441    93
35.1541   112
35.1641    97
35.1741    87
35.1841   109
35.1941   103
35.2041    92
35.2141   110
35.2241    99
35.2341   102
35.2441    86
35.2541    83
35.2641    74
35.2741    68
35.2841    80
35.2941    78
35.3041    76
35.3141    82
35.3241    83
35.3341    91
35.3441    85
35.3541    89
35.3641    82
35.3741    86
35.3841    79
35.3941    87
35.4041    93
35.4141    87
35.4241    81
35.4341    80
35.4441    79
35.4541    86
35.4641    94
35.4741    80
35.4841    87
35.4941    86
35.5041    78
35.5141    77
35.5241    89
35.5341    85
35.5441    75
35.5541    76
35.5641    82
35.5741    66
35.5841    91
35.5941    97
35.6041    93
35.6141    83
35.6241    74
35.6341    76
35.6441    82
35.6541    79
35.6641    86
35.6741    79
35.6841    69
35.6941    98
35.7041    75
35.7141    93
35.7241    76
35.7341    88
35.7441    86
35.7541    62
35.7641    96
35.7741    79
35.7841    84
35.7941    83
35.8041    91
35.8141    78
35.8241    79
35.8341    84
35.8441    90
35.8541    74
35.8641    92
35.8741    83
35.8841    79
35.8941    95
35.9041    63
35.9141    77
35.9241    87
35.9341    72
35.9441    67
35.9541    79
35.9641    89
35.9741    93
35.9841    80
35.9941    77
36.0041    91
36.0141    78
36.0241    80
36.0341    78
36.0441    78
36.0541    79
36.0641    73
36.0741    92
36.0841    74
36.0941    67
36.1041    70
36.1141    85
36.1241    85
36.1341    83
36.1441    84
36.1541    73
36.1641    63
36.1741    81
36.1841    89
36.1941    72
36.2041    76
36.2141    87
36.2241    71
36.2341    67
36.2441    99
36.2541    79
36.2641    62
36.2741    81
36.2841    71
36.2941    70
36.3041    97
36.3141    87
36.3241    77
36.3341    89
36.3441    81
36.3541    76
36.3641    80
36.3741    60
36.3841    56
36.3941    72
36.4041    60
36.4141    69
36.4241    83
36.4341    76
36.4441    79
36.4541    68
36.4641    79
36.4741    75
36.4841    84
36.4941    69
36.5041    74
36.5141    68
36.5241    63
36.5341    68
36.5441    61
36.5541    67
36.5641    67
36.5741    69
36.5841    60
36.5941    58
36.6041    42
36.6141    73
36.6241    66
36.6341    66
36.6441    69
36.6541    66
36.6641    62
36.6741    65
36.6841    64
36.6941    64
36.7041    77
36.7141    74
36.7241    77
36.7341    69
36.7441    67
36.7541    66
36.7641    65
36.7741    77
36.7841    42
36.7941    64
36.8041    58
36.8141    66
36.8241    49
36.8341    70
36.8441    73
36.8541    68
36.8641    70
36.8741    51
36.8841    49
36.8941    67
36.9041    66
36.9141    56
36.9241    64
36.9341    55
36.9441    62
36.9541    71
36.9641    60
36.9741    60
36.9841    60
36.9941    58
37.0041    59
37.0141    58
37.0241    55
37.0341    53
37.0441    58
37.0541    68
37.0641    73
37.0741    68
37.0841    53
37.0941    69
37.1041    70
37.1141    73
37.1241    62
37.1341    64
37.1441    47
37.1541    51
37.1641    55
37.1741    64
37.1841    60
37.1941    58
37.2041    65
37.2141    55
37.2241    73
37.2341    54
37.2441    62
37.2541    57
37.2641    69
37.2741    53
37.2841    54
37.2941    55
37.3041    57
37.3141    61
37.3241    60
37.3341    49
37.3441    67
37.3541    44
37.3641    58
37.3741    59
37.3841    57
37.3941    53
37.4041    56
37.4141    56
37.4241    67
37.4341    54
37.4441    64
37.4541    51
37.4641    50
37.4741    56
37.4841    52
37.4941    54
37.5041    51
37.5141    48
37.5241    57
37.5341    59
37.5441    61
37.5541    42
37.5641    62
37.5741    56
37.5841    62
37.5941    54
37.6041    42
37.6141    54
37.6241    50
37.6341    54
37.6441    38
37.6541    43
37.6641    39
37.6741    50
37.6841    48
37.6941    43
37.7041    57
37.7141    52
37.7241    44
37.7341    38
37.7441    38
37.7541    55
37.7641    56
37.7741    48
37.7841    57
37.7941    46
37.8041    57
37.8141    50
37.8241    51
37.8341    47
37.8441    47
37.8541    53
37.8641    70
37.8741    45
37.8841    44
37.8941    53
37.9041    41
37.9141    49
37.9241    41
37.9341    45
37.9441    51
37.9541    53
37.9641    54
37.9741    53
37.9841    45
37.9941    49
38.0041    49
38.0141    39
38.0241    39
38.0341    44
38.0441    53
38.0541    47
38.0641    43
38.0741    49
38.0841    39
38.0941    49
38.1041    45
38.1141    39
38.1241    47
38.1341    53
38.1441    40
38.1541    40
38.1641    40
38.1741    41
38.1841    39
38.1941    52
38.2041    55
38.2141    34
38.2241    44
38.2341    38
38.2441    46
38.2541    30
38.2641    38
38.2741    43
38.2841    28
38.2941    45
38.3041    33
38.3141    50
38.3241    42
38.3341    39
38.3441    47
38.3541    49
38.3641    48
38.3741    41
38.3841    26
38.3941    40
38.4041    37
38.4141    35
38.4241    38
38.4341    40
38.4441    36
38.4541    40
38.4641    43
38.4741    40
38.4841    39
38.4941    33
38.5041    26
38.5141    39
38.5241    29
38.5341    33
38.5441    36
38.5541    49
38.5641    44
38.5741    30
38.5841    35
38.5941    38
38.6041    41
38.6141    41
38.6241    34
38.6341    33
38.6441    29
38.6541    32
38.6641    43
38.6741    34
38.6841    44
38.6941    30
38.7041    39
38.7141    33
38.7241    43
38.7341    47
38.7441    42
38.7541    42
38.7641    40
38.7741    43
38.7841    47
38.7941    45
38.8041    28
38.8141    27
38.8241    30
38.8341    43
38.8441    45
38.8541    40
38.8641    43
38.8741    34
38.8841    33
38.8941    32
38.9041    34
38.9141    33
38.9241    28
38.9341    41
38.9441    32
38.9541    44
38.9641    41
38.9741    45
38.9841    36
38.9941    37
39.0041    31
39.0141    39
39.0241    31
39.0341    35
39.0441    37
39.0541    39
39.0641    40
39.0741    28
39.0841    32
39.0941    35
39.1041    41
39.1141    27
39.1241    31
39.1341    33
39.1441    34
39.1541    30
39.1641    40
39.1741    35
39.1841    29
39.1941    29
39.2041    32
39.2141    33
39.2241    26
39.2341    31
39.2441    33
39.2541    31
39.2641    36
39.2741    26
39.2841    27
39.2941    38
39.3041    27
39.3141    41
39.3241    28
39.3341    32
39.3441    37
39.3541    31
39.3641    28
39.3741    28
39.3841    40
39.3941    25
39.4041    27
39.4141    22
39.4241    31
39.4341    18
39.4441    26
39.4541    33
39.4641    31
39.4741    24
39.4841    31
39.4941    28
39.5041    26
39.5141    31
39.5241    29
39.5341    33
39.5441    30
39.5541    26
39.5641    41
39.5741    24
39.5841    35
39.5941    19
39.6041    37
39.6141    33
39.6241    19
39.6341    25
39.6441    27
39.6541    28
39.6641    31
39.6741    30
39.6841    24
39.6941    22
39.7041    25
39.7141    28
39.7241    18
39.7341    20
39.7441    19
39.7541    30
39.7641    24
39.7741    32
39.7841    17
39.7941    18
39.8041    24
39.8141    26
39.8241    34
39.8341    33
39.8441    30
39.8541    27
39.8641    33
39.8741    29
39.8841    18
39.8941    44
39.9041    21
39.9141    34
39.9241    29
39.9341    18
39.9441    21
39.9541    34
39.9641    24
39.9741    29
39.9841    20
