Bruker Nano GmbH Berlin, Germany
Esprit 1.9

Date: 4/21/2021 1:42:34 PM
Real time: 21698
Life time: 20276
Pulse density: 95803


Detector type: XFlash 430
Window type: Custom type
Detector thickness: 0.45
Si dead layer:0.029

Calibration, lin.: 10
Calibration, abs.: -955.9
Mn FWHM: 137.05
Fano factor: 0.121
Channels: 4095

Energy Counts
-0.9559     0
-0.9459     0
-0.9359     0
-0.9259     0
-0.9159     0
-0.9059     0
-0.8959     0
-0.8859     0
-0.8759     0
-0.8659     0
-0.8559     0
-0.8459     0
-0.8359     0
-0.8259     0
-0.8159     0
-0.8059     0
-0.7959     0
-0.7859     0
-0.7759     0
-0.7659     0
-0.7559     0
-0.7459     0
-0.7359     0
-0.7259     0
-0.7159     0
-0.7059     0
-0.6959     0
-0.6859     0
-0.6759     0
-0.6659     0
-0.6559     0
-0.6459     0
-0.6359     0
-0.6259     0
-0.6159     0
-0.6059     0
-0.5959     0
-0.5859     0
-0.5759     0
-0.5659     0
-0.5559     0
-0.5459     0
-0.5359     0
-0.5259     0
-0.5159     0
-0.5059     0
-0.4959     0
-0.4859     0
-0.4759     0
-0.4659     0
-0.4559     0
-0.4459     0
-0.4359     0
-0.4259     0
-0.4159     0
-0.4059     0
-0.3959     0
-0.3859     0
-0.3759     0
-0.3659     0
-0.3559     0
-0.3459     0
-0.3359     0
-0.3259     0
-0.3159     0
-0.3059     0
-0.2959     0
-0.2859     0
-0.2759     0
-0.2659     0
-0.2559     0
-0.2459     0
-0.2359     0
-0.2259     0
-0.2159     0
-0.2059     0
-0.1959     0
-0.1859     0
-0.1759     0
-0.1659     0
-0.1559     0
-0.1459     0
-0.1359     0
-0.1259     1
-0.1159     4
-0.1059    12
-0.0959    56
-0.0859   232
-0.0759   774
-0.0659  2314
-0.0559  5931
-0.0459 12856
-0.0359 24126
-0.0259 38862
-0.0159 52619
-0.0059 62464
 0.0041 62074
 0.0141 53626
 0.0241 39983
 0.0341 25362
 0.0441 13686
 0.0541  6171
 0.0641  2454
 0.0741   888
 0.0841   291
 0.0941    83
 0.1041    25
 0.1141     7
 0.1241     6
 0.1341     8
 0.1441     2
 0.1541     7
 0.1641     3
 0.1741     0
 0.1841   184
 0.1941   375
 0.2041   332
 0.2141   329
 0.2241   330
 0.2341   309
 0.2441   336
 0.2541   345
 0.2641   351
 0.2741   353
 0.2841   368
 0.2941   347
 0.3041   333
 0.3141   331
 0.3241   317
 0.3341   309
 0.3441   324
 0.3541   314
 0.3641   301
 0.3741   314
 0.3841   295
 0.3941   313
 0.4041   292
 0.4141   317
 0.4241   316
 0.4341   296
 0.4441   301
 0.4541   319
 0.4641   321
 0.4741   309
 0.4841   285
 0.4941   276
 0.5041   283
 0.5141   310
 0.5241   306
 0.5341   295
 0.5441   287
 0.5541   280
 0.5641   276
 0.5741   268
 0.5841   268
 0.5941   270
 0.6041   275
 0.6141   267
 0.6241   236
 0.6341   243
 0.6441   258
 0.6541   254
 0.6641   266
 0.6741   278
 0.6841   243
 0.6941   250
 0.7041   272
 0.7141   264
 0.7241   263
 0.7341   246
 0.7441   243
 0.7541   238
 0.7641   252
 0.7741   268
 0.7841   257
 0.7941   246
 0.8041   235
 0.8141   248
 0.8241   262
 0.8341   224
 0.8441   224
 0.8541   251
 0.8641   255
 0.8741   241
 0.8841   239
 0.8941   224
 0.9041   214
 0.9141   259
 0.9241   258
 0.9341   263
 0.9441   233
 0.9541   231
 0.9641   238
 0.9741   224
 0.9841   212
 0.9941   207
 1.0041   216
 1.0141   215
 1.0241   216
 1.0341   237
 1.0441   239
 1.0541   234
 1.0641   221
 1.0741   203
 1.0841   214
 1.0941   215
 1.1041   221
 1.1141   207
 1.1241   236
 1.1341   230
 1.1441   206
 1.1541   187
 1.1641   197
 1.1741   220
 1.1841   208
 1.1941   213
 1.2041   223
 1.2141   225
 1.2241   216
 1.2341   213
 1.2441   219
 1.2541   198
 1.2641   220
 1.2741   196
 1.2841   197
 1.2941   204
 1.3041   212
 1.3141   210
 1.3241   209
 1.3341   204
 1.3441   198
 1.3541   191
 1.3641   195
 1.3741   217
 1.3841   216
 1.3941   207
 1.4041   192
 1.4141   205
 1.4241   204
 1.4341   203
 1.4441   183
 1.4541   197
 1.4641   200
 1.4741   206
 1.4841   205
 1.4941   209
 1.5041   216
 1.5141   210
 1.5241   199
 1.5341   180
 1.5441   218
 1.5541   186
 1.5641   193
 1.5741   199
 1.5841   202
 1.5941   207
 1.6041   204
 1.6141   163
 1.6241   181
 1.6341   187
 1.6441   232
 1.6541   259
 1.6641   288
 1.6741   313
 1.6841   386
 1.6941   466
 1.7041   576
 1.7141   643
 1.7241   728
 1.7341   787
 1.7441   786
 1.7541   714
 1.7641   645
 1.7741   569
 1.7841   466
 1.7941   414
 1.8041   355
 1.8141   295
 1.8241   252
 1.8341   222
 1.8441   232
 1.8541   217
 1.8641   225
 1.8741   187
 1.8841   210
 1.8941   206
 1.9041   205
 1.9141   226
 1.9241   214
 1.9341   215
 1.9441   190
 1.9541   200
 1.9641   219
 1.9741   234
 1.9841   229
 1.9941   224
 2.0041   228
 2.0141   235
 2.0241   239
 2.0341   213
 2.0441   212
 2.0541   189
 2.0641   204
 2.0741   187
 2.0841   189
 2.0941   187
 2.1041   172
 2.1141   185
 2.1241   191
 2.1341   204
 2.1441   162
 2.1541   193
 2.1641   220
 2.1741   196
 2.1841   183
 2.1941   178
 2.2041   168
 2.2141   157
 2.2241   186
 2.2341   167
 2.2441   174
 2.2541   159
 2.2641   154
 2.2741   153
 2.2841   157
 2.2941   174
 2.3041   176
 2.3141   181
 2.3241   175
 2.3341   171
 2.3441   159
 2.3541   157
 2.3641   150
 2.3741   150
 2.3841   162
 2.3941   162
 2.4041   157
 2.4141   142
 2.4241   166
 2.4341   185
 2.4441   135
 2.4541   144
 2.4641   135
 2.4741   148
 2.4841   149
 2.4941   144
 2.5041   147
 2.5141   152
 2.5241   161
 2.5341   132
 2.5441   157
 2.5541   140
 2.5641   146
 2.5741   154
 2.5841   146
 2.5941   155
 2.6041   136
 2.6141   157
 2.6241   173
 2.6341   161
 2.6441   152
 2.6541   178
 2.6641   154
 2.6741   149
 2.6841   143
 2.6941   171
 2.7041   144
 2.7141   132
 2.7241   148
 2.7341   154
 2.7441   135
 2.7541   142
 2.7641   126
 2.7741   147
 2.7841   173
 2.7941   155
 2.8041   157
 2.8141   164
 2.8241   146
 2.8341   172
 2.8441   149
 2.8541   137
 2.8641   134
 2.8741   148
 2.8841   153
 2.8941   147
 2.9041   148
 2.9141   125
 2.9241   150
 2.9341   129
 2.9441   132
 2.9541   137
 2.9641   146
 2.9741   124
 2.9841   133
 2.9941   142
 3.0041   145
 3.0141   137
 3.0241   151
 3.0341   154
 3.0441   126
 3.0541   125
 3.0641   123
 3.0741   129
 3.0841   122
 3.0941   112
 3.1041   131
 3.1141   138
 3.1241   138
 3.1341   110
 3.1441   127
 3.1541   135
 3.1641   127
 3.1741   116
 3.1841   128
 3.1941   140
 3.2041   141
 3.2141   168
 3.2241   172
 3.2341   209
 3.2441   221
 3.2541   261
 3.2641   374
 3.2741   370
 3.2841   430
 3.2941   442
 3.3041   477
 3.3141   449
 3.3241   495
 3.3341   408
 3.3441   416
 3.3541   352
 3.3641   324
 3.3741   252
 3.3841   211
 3.3941   174
 3.4041   182
 3.4141   164
 3.4241   126
 3.4341   125
 3.4441   110
 3.4541   111
 3.4641   116
 3.4741   124
 3.4841    99
 3.4941   131
 3.5041   146
 3.5141   132
 3.5241   148
 3.5341   174
 3.5441   195
 3.5541   210
 3.5641   232
 3.5741   252
 3.5841   280
 3.5941   358
 3.6041   393
 3.6141   503
 3.6241   568
 3.6341   737
 3.6441   894
 3.6541  1005
 3.6641  1098
 3.6741  1146
 3.6841  1237
 3.6941  1192
 3.7041  1185
 3.7141  1112
 3.7241   956
 3.7341   886
 3.7441   732
 3.7541   550
 3.7641   443
 3.7741   354
 3.7841   286
 3.7941   216
 3.8041   175
 3.8141   140
 3.8241   131
 3.8341   105
 3.8441   117
 3.8541    98
 3.8641    90
 3.8741    90
 3.8841    97
 3.8941   116
 3.9041   124
 3.9141   116
 3.9241   143
 3.9341   149
 3.9441   159
 3.9541   176
 3.9641   194
 3.9741   189
 3.9841   211
 3.9941   241
 4.0041   243
 4.0141   251
 4.0241   246
 4.0341   237
 4.0441   223
 4.0541   195
 4.0641   175
 4.0741   167
 4.0841   145
 4.0941   131
 4.1041   117
 4.1141   116
 4.1241    91
 4.1341   102
 4.1441    97
 4.1541   102
 4.1641    97
 4.1741    84
 4.1841    75
 4.1941    93
 4.2041   103
 4.2141    85
 4.2241    91
 4.2341    84
 4.2441   104
 4.2541   109
 4.2641   102
 4.2741    78
 4.2841    86
 4.2941    70
 4.3041    81
 4.3141    83
 4.3241    83
 4.3341    86
 4.3441    87
 4.3541    89
 4.3641    88
 4.3741    96
 4.3841   113
 4.3941   127
 4.4041   161
 4.4141   184
 4.4241   210
 4.4341   257
 4.4441   286
 4.4541   342
 4.4641   383
 4.4741   415
 4.4841   451
 4.4941   493
 4.5041   495
 4.5141   494
 4.5241   478
 4.5341   433
 4.5441   374
 4.5541   332
 4.5641   287
 4.5741   261
 4.5841   206
 4.5941   176
 4.6041   171
 4.6141   143
 4.6241   120
 4.6341   118
 4.6441   108
 4.6541   116
 4.6641   110
 4.6741   105
 4.6841   119
 4.6941    97
 4.7041    92
 4.7141    93
 4.7241   102
 4.7341    96
 4.7441   113
 4.7541   105
 4.7641    99
 4.7741    88
 4.7841   130
 4.7941   131
 4.8041   131
 4.8141   118
 4.8241   138
 4.8341   150
 4.8441   129
 4.8541   137
 4.8641   143
 4.8741   160
 4.8841   153
 4.8941   177
 4.9041   168
 4.9141   176
 4.9241   170
 4.9341   186
 4.9441   162
 4.9541   180
 4.9641   172
 4.9741   162
 4.9841   149
 4.9941   142
 5.0041   142
 5.0141   123
 5.0241   115
 5.0341   127
 5.0441   117
 5.0541   104
 5.0641    87
 5.0741   105
 5.0841    88
 5.0941    91
 5.1041    82
 5.1141   107
 5.1241    93
 5.1341    99
 5.1441   113
 5.1541   110
 5.1641   110
 5.1741   108
 5.1841   117
 5.1941   105
 5.2041   119
 5.2141    95
 5.2241    93
 5.2341    89
 5.2441    98
 5.2541   100
 5.2641   107
 5.2741    88
 5.2841   117
 5.2941   124
 5.3041   133
 5.3141   127
 5.3241   120
 5.3341   161
 5.3441   162
 5.3541   199
 5.3641   186
 5.3741   208
 5.3841   213
 5.3941   253
 5.4041   232
 5.4141   223
 5.4241   223
 5.4341   219
 5.4441   215
 5.4541   178
 5.4641   173
 5.4741   182
 5.4841   169
 5.4941   153
 5.5041   151
 5.5141   121
 5.5241   147
 5.5341   110
 5.5441   107
 5.5541   104
 5.5641   125
 5.5741   100
 5.5841   110
 5.5941    92
 5.6041    97
 5.6141   101
 5.6241    87
 5.6341   105
 5.6441   101
 5.6541    88
 5.6641   109
 5.6741   120
 5.6841   107
 5.6941   110
 5.7041   117
 5.7141   114
 5.7241   121
 5.7341   105
 5.7441   141
 5.7541   141
 5.7641   154
 5.7741   163
 5.7841   218
 5.7941   210
 5.8041   262
 5.8141   307
 5.8241   338
 5.8341   363
 5.8441   466
 5.8541   530
 5.8641   523
 5.8741   579
 5.8841   593
 5.8941   620
 5.9041   587
 5.9141   589
 5.9241   520
 5.9341   459
 5.9441   449
 5.9541   406
 5.9641   382
 5.9741   316
 5.9841   279
 5.9941   265
 6.0041   211
 6.0141   177
 6.0241   149
 6.0341   163
 6.0441   141
 6.0541   160
 6.0641   151
 6.0741   134
 6.0841   135
 6.0941   142
 6.1041   154
 6.1141   144
 6.1241   164
 6.1341   166
 6.1441   139
 6.1541   192
 6.1641   184
 6.1741   205
 6.1841   249
 6.1941   286
 6.2041   358
 6.2141   465
 6.2241   569
 6.2341   763
 6.2441  1130
 6.2541  1513
 6.2641  2128
 6.2741  2905
 6.2841  3895
 6.2941  5152
 6.3041  6731
 6.3141  8474
 6.3241 10529
 6.3341 12689
 6.3441 14905
 6.3541 16873
 6.3641 18687
 6.3741 20511
 6.3841 21928
 6.3941 22194
 6.4041 22273
 6.4141 21415
 6.4241 20597
 6.4341 18692
 6.4441 16765
 6.4541 14725
 6.4641 12595
 6.4741 10255
 6.4841  8121
 6.4941  6496
 6.5041  4885
 6.5141  3723
 6.5241  2708
 6.5341  1917
 6.5441  1395
 6.5541   953
 6.5641   692
 6.5741   538
 6.5841   395
 6.5941   318
 6.6041   243
 6.6141   223
 6.6241   217
 6.6341   205
 6.6441   173
 6.6541   167
 6.6641   170
 6.6741   186
 6.6841   158
 6.6941   182
 6.7041   187
 6.7141   185
 6.7241   199
 6.7341   186
 6.7441   187
 6.7541   179
 6.7641   175
 6.7741   201
 6.7841   194
 6.7941   195
 6.8041   200
 6.8141   224
 6.8241   196
 6.8341   239
 6.8441   241
 6.8541   265
 6.8641   270
 6.8741   329
 6.8841   401
 6.8941   446
 6.9041   483
 6.9141   601
 6.9241   769
 6.9341   901
 6.9441  1132
 6.9541  1315
 6.9641  1517
 6.9741  1885
 6.9841  2260
 6.9941  2519
 7.0041  3021
 7.0141  3180
 7.0241  3496
 7.0341  3560
 7.0441  3802
 7.0541  3877
 7.0641  3932
 7.0741  3681
 7.0841  3475
 7.0941  3117
 7.1041  2813
 7.1141  2578
 7.1241  2139
 7.1341  1828
 7.1441  1568
 7.1541  1199
 7.1641  1000
 7.1741   782
 7.1841   684
 7.1941   508
 7.2041   419
 7.2141   376
 7.2241   316
 7.2341   261
 7.2441   256
 7.2541   243
 7.2641   258
 7.2741   226
 7.2841   231
 7.2941   250
 7.3041   247
 7.3141   242
 7.3241   256
 7.3341   329
 7.3441   323
 7.3541   316
 7.3641   318
 7.3741   386
 7.3841   401
 7.3941   438
 7.4041   422
 7.4141   447
 7.4241   475
 7.4341   451
 7.4441   505
 7.4541   495
 7.4641   485
 7.4741   439
 7.4841   498
 7.4941   514
 7.5041   470
 7.5141   405
 7.5241   431
 7.5341   375
 7.5441   323
 7.5541   333
 7.5641   312
 7.5741   272
 7.5841   255
 7.5941   252
 7.6041   225
 7.6141   225
 7.6241   227
 7.6341   216
 7.6441   230
 7.6541   211
 7.6641   240
 7.6741   237
 7.6841   229
 7.6941   208
 7.7041   236
 7.7141   241
 7.7241   247
 7.7341   262
 7.7441   246
 7.7541   238
 7.7641   235
 7.7741   266
 7.7841   288
 7.7941   278
 7.8041   292
 7.8141   277
 7.8241   270
 7.8341   268
 7.8441   314
 7.8541   334
 7.8641   333
 7.8741   343
 7.8841   323
 7.8941   352
 7.9041   388
 7.9141   400
 7.9241   452
 7.9341   493
 7.9441   508
 7.9541   508
 7.9641   608
 7.9741   617
 7.9841   581
 7.9941   708
 8.0041   785
 8.0141   794
 8.0241   861
 8.0341   935
 8.0441   941
 8.0541   979
 8.0641  1126
 8.0741  1157
 8.0841  1210
 8.0941  1235
 8.1041  1331
 8.1141  1319
 8.1241  1385
 8.1341  1380
 8.1441  1437
 8.1541  1491
 8.1641  1426
 8.1741  1544
 8.1841  1583
 8.1941  1571
 8.2041  1568
 8.2141  1564
 8.2241  1587
 8.2341  1651
 8.2441  1718
 8.2541  1766
 8.2641  1954
 8.2741  1923
 8.2841  2104
 8.2941  2292
 8.3041  2371
 8.3141  2793
 8.3241  2913
 8.3341  3075
 8.3441  3416
 8.3541  3620
 8.3641  3684
 8.3741  3832
 8.3841  3910
 8.3941  3919
 8.4041  3883
 8.4141  3631
 8.4241  3535
 8.4341  3342
 8.4441  2926
 8.4541  2713
 8.4641  2402
 8.4741  2077
 8.4841  1795
 8.4941  1504
 8.5041  1265
 8.5141  1089
 8.5241   915
 8.5341   799
 8.5441   667
 8.5541   578
 8.5641   503
 8.5741   460
 8.5841   503
 8.5941   482
 8.6041   436
 8.6141   470
 8.6241   457
 8.6341   443
 8.6441   465
 8.6541   434
 8.6641   450
 8.6741   450
 8.6841   435
 8.6941   399
 8.7041   401
 8.7141   383
 8.7241   417
 8.7341   393
 8.7441   377
 8.7541   376
 8.7641   355
 8.7741   333
 8.7841   356
 8.7941   336
 8.8041   365
 8.8141   343
 8.8241   331
 8.8341   356
 8.8441   331
 8.8541   324
 8.8641   346
 8.8741   337
 8.8841   352
 8.8941   351
 8.9041   382
 8.9141   372
 8.9241   390
 8.9341   394
 8.9441   427
 8.9541   401
 8.9641   402
 8.9741   383
 8.9841   385
 8.9941   388
 9.0041   410
 9.0141   413
 9.0241   441
 9.0341   456
 9.0441   456
 9.0541   444
 9.0641   479
 9.0741   503
 9.0841   491
 9.0941   498
 9.1041   517
 9.1141   529
 9.1241   543
 9.1341   571
 9.1441   611
 9.1541   631
 9.1641   675
 9.1741   652
 9.1841   713
 9.1941   722
 9.2041   810
 9.2141   845
 9.2241   913
 9.2341   915
 9.2441   954
 9.2541   987
 9.2641  1063
 9.2741  1106
 9.2841  1150
 9.2941  1154
 9.3041  1223
 9.3141  1247
 9.3241  1308
 9.3341  1331
 9.3441  1362
 9.3541  1368
 9.3641  1396
 9.3741  1429
 9.3841  1448
 9.3941  1520
 9.4041  1567
 9.4141  1536
 9.4241  1575
 9.4341  1565
 9.4441  1568
 9.4541  1583
 9.4641  1580
 9.4741  1686
 9.4841  1679
 9.4941  1703
 9.5041  1761
 9.5141  1703
 9.5241  1834
 9.5341  1905
 9.5441  1966
 9.5541  2024
 9.5641  2164
 9.5741  2284
 9.5841  2410
 9.5941  2633
 9.6041  2737
 9.6141  2942
 9.6241  3036
 9.6341  3150
 9.6441  3222
 9.6541  3211
 9.6641  3276
 9.6741  3276
 9.6841  3228
 9.6941  3082
 9.7041  3106
 9.7141  2905
 9.7241  2658
 9.7341  2514
 9.7441  2435
 9.7541  2283
 9.7641  2054
 9.7741  1941
 9.7841  1825
 9.7941  1627
 9.8041  1476
 9.8141  1398
 9.8241  1396
 9.8341  1299
 9.8441  1288
 9.8541  1375
 9.8641  1311
 9.8741  1339
 9.8841  1390
 9.8941  1356
 9.9041  1377
 9.9141  1436
 9.9241  1470
 9.9341  1496
 9.9441  1499
 9.9541  1445
 9.9641  1460
 9.9741  1434
 9.9841  1353
 9.9941  1285
10.0041  1196
10.0141  1156
10.0241  1058
10.0341   941
10.0441   838
10.0541   800
10.0641   738
10.0741   640
10.0841   563
10.0941   508
10.1041   452
10.1141   409
10.1241   382
10.1341   354
10.1441   343
10.1541   309
10.1641   292
10.1741   268
10.1841   260
10.1941   255
10.2041   259
10.2141   247
10.2241   234
10.2341   238
10.2441   236
10.2541   210
10.2641   221
10.2741   210
10.2841   224
10.2941   204
10.3041   193
10.3141   196
10.3241   171
10.3341   165
10.3441   178
10.3541   169
10.3641   166
10.3741   181
10.3841   177
10.3941   185
10.4041   182
10.4141   202
10.4241   190
10.4341   192
10.4441   199
10.4541   199
10.4641   195
10.4741   200
10.4841   218
10.4941   214
10.5041   205
10.5141   185
10.5241   193
10.5341   210
10.5441   216
10.5541   229
10.5641   219
10.5741   221
10.5841   226
10.5941   226
10.6041   227
10.6141   239
10.6241   231
10.6341   238
10.6441   241
10.6541   226
10.6641   258
10.6741   249
10.6841   249
10.6941   238
10.7041   232
10.7141   268
10.7241   289
10.7341   270
10.7441   247
10.7541   269
10.7641   287
10.7741   273
10.7841   264
10.7941   293
10.8041   305
10.8141   275
10.8241   290
10.8341   290
10.8441   291
10.8541   282
10.8641   304
10.8741   331
10.8841   347
10.8941   337
10.9041   326
10.9141   346
10.9241   362
10.9341   334
10.9441   342
10.9541   299
10.9641   287
10.9741   286
10.9841   304
10.9941   330
11.0041   315
11.0141   290
11.0241   296
11.0341   316
11.0441   318
11.0541   301
11.0641   271
11.0741   284
11.0841   293
11.0941   291
11.1041   281
11.1141   285
11.1241   302
11.1341   297
11.1441   305
11.1541   299
11.1641   304
11.1741   315
11.1841   357
11.1941   366
11.2041   380
11.2141   402
11.2241   431
11.2341   427
11.2441   442
11.2541   433
11.2641   426
11.2741   452
11.2841   475
11.2941   475
11.3041   445
11.3141   419
11.3241   433
11.3341   439
11.3441   428
11.3541   399
11.3641   378
11.3741   370
11.3841   358
11.3941   306
11.4041   269
11.4141   260
11.4241   264
11.4341   269
11.4441   228
11.4541   229
11.4641   236
11.4741   241
11.4841   223
11.4941   229
11.5041   247
11.5141   242
11.5241   235
11.5341   236
11.5441   243
11.5541   225
11.5641   238
11.5741   221
11.5841   237
11.5941   261
11.6041   243
11.6141   237
11.6241   245
11.6341   222
11.6441   230
11.6541   230
11.6641   259
11.6741   253
11.6841   234
11.6941   229
11.7041   236
11.7141   222
11.7241   222
11.7341   214
11.7441   191
11.7541   190
11.7641   196
11.7741   198
11.7841   206
11.7941   206
11.8041   188
11.8141   184
11.8241   181
11.8341   161
11.8441   171
11.8541   179
11.8641   185
11.8741   173
11.8841   165
11.8941   160
11.9041   171
11.9141   167
11.9241   172
11.9341   182
11.9441   183
11.9541   172
11.9641   187
11.9741   183
11.9841   163
11.9941   186
12.0041   181
12.0141   194
12.0241   188
12.0341   184
12.0441   196
12.0541   182
12.0641   193
12.0741   187
12.0841   168
12.0941   168
12.1041   164
12.1141   179
12.1241   173
12.1341   171
12.1441   176
12.1541   181
12.1641   166
12.1741   159
12.1841   158
12.1941   157
12.2041   155
12.2141   160
12.2241   149
12.2341   170
12.2441   187
12.2541   169
12.2641   145
12.2741   149
12.2841   157
12.2941   167
12.3041   169
12.3141   166
12.3241   163
12.3341   176
12.3441   185
12.3541   171
12.3641   163
12.3741   169
12.3841   194
12.3941   176
12.4041   160
12.4141   174
12.4241   179
12.4341   174
12.4441   164
12.4541   160
12.4641   168
12.4741   173
12.4841   169
12.4941   182
12.5041   187
12.5141   166
12.5241   189
12.5341   198
12.5441   193
12.5541   215
12.5641   220
12.5741   199
12.5841   187
12.5941   179
12.6041   186
12.6141   186
12.6241   176
12.6341   192
12.6441   190
12.6541   190
12.6641   207
12.6741   200
12.6841   194
12.6941   191
12.7041   185
12.7141   181
12.7241   197
12.7341   188
12.7441   189
12.7541   197
12.7641   188
12.7741   178
12.7841   176
12.7941   180
12.8041   186
12.8141   187
12.8241   190
12.8341   199
12.8441   203
12.8541   195
12.8641   177
12.8741   170
12.8841   181
12.8941   190
12.9041   191
12.9141   200
12.9241   198
12.9341   200
12.9441   191
12.9541   190
12.9641   193
12.9741   199
12.9841   211
12.9941   192
13.0041   181
13.0141   199
13.0241   199
13.0341   216
13.0441   204
13.0541   197
13.0641   208
13.0741   211
13.0841   209
13.0941   203
13.1041   206
13.1141   203
13.1241   204
13.1341   230
13.1441   233
13.1541   225
13.1641   235
13.1741   247
13.1841   259
13.1941   271
13.2041   280
13.2141   290
13.2241   310
13.2341   349
13.2441   378
13.2541   384
13.2641   419
13.2741   450
13.2841   471
13.2941   506
13.3041   534
13.3141   563
13.3241   581
13.3341   607
13.3441   630
13.3541   638
13.3641   640
13.3741   647
13.3841   658
13.3941   655
13.4041   633
13.4141   629
13.4241   605
13.4341   569
13.4441   539
13.4541   532
13.4641   509
13.4741   464
13.4841   434
13.4941   413
13.5041   379
13.5141   355
13.5241   365
13.5341   331
13.5441   287
13.5541   275
13.5641   280
13.5741   256
13.5841   242
13.5941   248
13.6041   255
13.6141   263
13.6241   242
13.6341   229
13.6441   245
13.6541   245
13.6641   236
13.6741   238
13.6841   228
13.6941   227
13.7041   228
13.7141   240
13.7241   253
13.7341   251
13.7441   236
13.7541   231
13.7641   245
13.7741   235
13.7841   225
13.7941   230
13.8041   238
13.8141   249
13.8241   246
13.8341   237
13.8441   230
13.8541   230
13.8641   243
13.8741   246
13.8841   256
13.8941   258
13.9041   231
13.9141   249
13.9241   268
13.9341   256
13.9441   263
13.9541   279
13.9641   308
13.9741   307
13.9841   313
13.9941   331
14.0041   328
14.0141   350
14.0241   368
14.0341   377
14.0441   409
14.0541   429
14.0641   445
14.0741   471
14.0841   494
14.0941   511
14.1041   513
14.1141   539
14.1241   545
14.1341   552
14.1441   568
14.1541   550
14.1641   544
14.1741   534
14.1841   537
14.1941   528
14.2041   484
14.2141   460
14.2241   449
14.2341   424
14.2441   401
14.2541   373
14.2641   381
14.2741   392
14.2841   369
14.2941   367
14.3041   352
14.3141   325
14.3241   295
14.3341   284
14.3441   297
14.3541   313
14.3641   285
14.3741   266
14.3841   265
14.3941   265
14.4041   279
14.4141   268
14.4241   281
14.4341   278
14.4441   258
14.4541   257
14.4641   254
14.4741   267
14.4841   278
14.4941   260
14.5041   255
14.5141   293
14.5241   292
14.5341   274
14.5441   274
14.5541   264
14.5641   266
14.5741   261
14.5841   264
14.5941   267
14.6041   254
14.6141   258
14.6241   268
14.6341   264
14.6441   274
14.6541   265
14.6641   246
14.6741   267
14.6841   299
14.6941   299
14.7041   280
14.7141   278
14.7241   266
14.7341   271
14.7441   295
14.7541   295
14.7641   287
14.7741   308
14.7841   309
14.7941   300
14.8041   311
14.8141   327
14.8241   316
14.8341   309
14.8441   336
14.8541   354
14.8641   353
14.8741   374
14.8841   374
14.8941   370
14.9041   386
14.9141   379
14.9241   400
14.9341   419
14.9441   415
14.9541   421
14.9641   410
14.9741   388
14.9841   356
14.9941   378
15.0041   390
15.0141   385
15.0241   381
15.0341   385
15.0441   390
15.0541   359
15.0641   355
15.0741   362
15.0841   343
15.0941   329
15.1041   325
15.1141   338
15.1241   340
15.1341   326
15.1441   318
15.1541   309
15.1641   303
15.1741   300
15.1841   328
15.1941   329
15.2041   317
15.2141   308
15.2241   310
15.2341   318
15.2441   309
15.2541   304
15.2641   319
15.2741   336
15.2841   319
15.2941   323
15.3041   320
15.3141   308
15.3241   313
15.3341   326
15.3441   336
15.3541   313
15.3641   312
15.3741   314
15.3841   302
15.3941   311
15.4041   321
15.4141   318
15.4241   322
15.4341   342
15.4441   332
15.4541   335
15.4641   355
15.4741   360
15.4841   344
15.4941   327
15.5041   349
15.5141   354
15.5241   330
15.5341   358
15.5441   346
15.5541   352
15.5641   342
15.5741   356
15.5841   361
15.5941   360
15.6041   372
15.6141   389
15.6241   405
15.6341   399
15.6441   400
15.6541   407
15.6641   416
15.6741   428
15.6841   448
15.6941   468
15.7041   443
15.7141   472
15.7241   478
15.7341   498
15.7441   475
15.7541   504
15.7641   526
15.7741   505
15.7841   513
15.7941   537
15.8041   528
15.8141   522
15.8241   479
15.8341   490
15.8441   479
15.8541   464
15.8641   469
15.8741   461
15.8841   434
15.8941   416
15.9041   407
15.9141   404
15.9241   405
15.9341   413
15.9441   412
15.9541   385
15.9641   375
15.9741   378
15.9841   358
15.9941   367
16.0041   384
16.0141   392
16.0241   364
16.0341   347
16.0441   349
16.0541   335
16.0641   328
16.0741   351
16.0841   356
16.0941   367
16.1041   362
16.1141   380
16.1241   372
16.1341   349
16.1441   371
16.1541   369
16.1641   355
16.1741   386
16.1841   386
16.1941   375
16.2041   353
16.2141   358
16.2241   393
16.2341   412
16.2441   391
16.2541   403
16.2641   382
16.2741   370
16.2841   379
16.2941   387
16.3041   380
16.3141   406
16.3241   394
16.3341   392
16.3441   389
16.3541   382
16.3641   393
16.3741   388
16.3841   387
16.3941   379
16.4041   381
16.4141   383
16.4241   375
16.4341   373
16.4441   389
16.4541   376
16.4641   402
16.4741   404
16.4841   399
16.4941   422
16.5041   440
16.5141   422
16.5241   399
16.5341   410
16.5441   434
16.5541   425
16.5641   428
16.5741   427
16.5841   414
16.5941   438
16.6041   442
16.6141   431
16.6241   437
16.6341   442
16.6441   437
16.6541   429
16.6641   407
16.6741   428
16.6841   423
16.6941   421
16.7041   426
16.7141   427
16.7241   418
16.7341   413
16.7441   421
16.7541   410
16.7641   432
16.7741   436
16.7841   452
16.7941   455
16.8041   428
16.8141   412
16.8241   416
16.8341   421
16.8441   418
16.8541   420
16.8641   406
16.8741   420
16.8841   410
16.8941   403
16.9041   404
16.9141   419
16.9241   420
16.9341   414
16.9441   422
16.9541   429
16.9641   438
16.9741   424
16.9841   422
16.9941   443
17.0041   438
17.0141   419
17.0241   420
17.0341   413
17.0441   446
17.0541   432
17.0641   451
17.0741   440
17.0841   435
17.0941   416
17.1041   434
17.1141   453
17.1241   448
17.1341   460
17.1441   464
17.1541   432
17.1641   432
17.1741   434
17.1841   446
17.1941   448
17.2041   476
17.2141   440
17.2241   445
17.2341   430
17.2441   451
17.2541   453
17.2641   456
17.2741   474
17.2841   468
17.2941   449
17.3041   443
17.3141   474
17.3241   479
17.3341   477
17.3441   488
17.3541   447
17.3641   442
17.3741   471
17.3841   465
17.3941   479
17.4041   466
17.4141   471
17.4241   461
17.4341   484
17.4441   498
17.4541   492
17.4641   542
17.4741   503
17.4841   476
17.4941   488
17.5041   482
17.5141   460
17.5241   482
17.5341   496
17.5441   498
17.5541   488
17.5641   475
17.5741   506
17.5841   491
17.5941   466
17.6041   470
17.6141   474
17.6241   482
17.6341   499
17.6441   481
17.6541   482
17.6641   500
17.6741   510
17.6841   486
17.6941   483
17.7041   459
17.7141   492
17.7241   522
17.7341   474
17.7441   482
17.7541   497
17.7641   530
17.7741   516
17.7841   479
17.7941   484
17.8041   513
17.8141   473
17.8241   468
17.8341   504
17.8441   512
17.8541   512
17.8641   471
17.8741   488
17.8841   507
17.8941   497
17.9041   502
17.9141   509
17.9241   474
17.9341   484
17.9441   510
17.9541   484
17.9641   508
17.9741   492
17.9841   491
17.9941   510
18.0041   506
18.0141   520
18.0241   518
18.0341   506
18.0441   533
18.0541   529
18.0641   535
18.0741   473
18.0841   510
18.0941   547
18.1041   537
18.1141   497
18.1241   467
18.1341   502
18.1441   526
18.1541   504
18.1641   509
18.1741   505
18.1841   464
18.1941   490
18.2041   521
18.2141   507
18.2241   487
18.2341   523
18.2441   479
18.2541   488
18.2641   488
18.2741   490
18.2841   514
18.2941   502
18.3041   521
18.3141   516
18.3241   527
18.3341   521
18.3441   506
18.3541   557
18.3641   534
18.3741   511
18.3841   527
18.3941   510
18.4041   523
18.4141   517
18.4241   524
18.4341   502
18.4441   528
18.4541   489
18.4641   507
18.4741   544
18.4841   549
18.4941   516
18.5041   525
18.5141   532
18.5241   527
18.5341   528
18.5441   562
18.5541   548
18.5641   511
18.5741   545
18.5841   556
18.5941   538
18.6041   536
18.6141   526
18.6241   495
18.6341   535
18.6441   504
18.6541   536
18.6641   539
18.6741   537
18.6841   513
18.6941   531
18.7041   525
18.7141   542
18.7241   518
18.7341   548
18.7441   533
18.7541   544
18.7641   533
18.7741   539
18.7841   517
18.7941   528
18.8041   548
18.8141   504
18.8241   523
18.8341   515
18.8441   528
18.8541   535
18.8641   577
18.8741   554
18.8841   558
18.8941   565
18.9041   546
18.9141   550
18.9241   558
18.9341   538
18.9441   525
18.9541   557
18.9641   567
18.9741   566
18.9841   550
18.9941   579
19.0041   565
19.0141   571
19.0241   585
19.0341   571
19.0441   567
19.0541   549
19.0641   520
19.0741   569
19.0841   554
19.0941   544
19.1041   556
19.1141   576
19.1241   602
19.1341   567
19.1441   592
19.1541   565
19.1641   579
19.1741   568
19.1841   564
19.1941   526
19.2041   535
19.2141   563
19.2241   538
19.2341   549
19.2441   579
19.2541   557
19.2641   561
19.2741   557
19.2841   573
19.2941   583
19.3041   559
19.3141   590
19.3241   586
19.3341   544
19.3441   575
19.3541   581
19.3641   534
19.3741   526
19.3841   570
19.3941   574
19.4041   576
19.4141   568
19.4241   581
19.4341   559
19.4441   598
19.4541   591
19.4641   602
19.4741   578
19.4841   576
19.4941   610
19.5041   616
19.5141   586
19.5241   577
19.5341   569
19.5441   554
19.5541   529
19.5641   577
19.5741   582
19.5841   582
19.5941   596
19.6041   581
19.6141   578
19.6241   571
19.6341   580
19.6441   581
19.6541   543
19.6641   590
19.6741   616
19.6841   610
19.6941   583
19.7041   557
19.7141   577
19.7241   611
19.7341   592
19.7441   620
19.7541   589
19.7641   574
19.7741   560
19.7841   591
19.7941   597
19.8041   582
19.8141   598
19.8241   593
19.8341   561
19.8441   584
19.8541   570
19.8641   590
19.8741   591
19.8841   591
19.8941   565
19.9041   535
19.9141   563
19.9241   602
19.9341   587
19.9441   571
19.9541   566
19.9641   600
19.9741   558
19.9841   594
19.9941   589
20.0041   546
20.0141   611
20.0241   586
20.0341   595
20.0441   569
20.0541   584
20.0641   598
20.0741   586
20.0841   588
20.0941   594
20.1041   598
20.1141   613
20.1241   605
20.1341   619
20.1441   594
20.1541   556
20.1641   602
20.1741   586
20.1841   591
20.1941   597
20.2041   604
20.2141   648
20.2241   591
20.2341   600
20.2441   608
20.2541   618
20.2641   620
20.2741   589
20.2841   595
20.2941   613
20.3041   625
20.3141   583
20.3241   609
20.3341   621
20.3441   597
20.3541   650
20.3641   604
20.3741   603
20.3841   588
20.3941   598
20.4041   619
20.4141   602
20.4241   634
20.4341   632
20.4441   588
20.4541   596
20.4641   618
20.4741   638
20.4841   637
20.4941   630
20.5041   588
20.5141   617
20.5241   609
20.5341   620
20.5441   624
20.5541   580
20.5641   593
20.5741   607
20.5841   633
20.5941   607
20.6041   575
20.6141   624
20.6241   619
20.6341   598
20.6441   645
20.6541   614
20.6641   619
20.6741   629
20.6841   595
20.6941   616
20.7041   650
20.7141   632
20.7241   639
20.7341   627
20.7441   628
20.7541   613
20.7641   638
20.7741   615
20.7841   684
20.7941   649
20.8041   654
20.8141   637
20.8241   643
20.8341   702
20.8441   660
20.8541   675
20.8641   666
20.8741   654
20.8841   696
20.8941   737
20.9041   757
20.9141   734
20.9241   760
20.9341   723
20.9441   735
20.9541   758
20.9641   794
20.9741   785
20.9841   846
20.9941   813
21.0041   865
21.0141   837
21.0241   884
21.0341   889
21.0441   934
21.0541   946
21.0641   960
21.0741   905
21.0841   918
21.0941   920
21.1041   940
21.1141  1001
21.1241   952
21.1341   972
21.1441   909
21.1541   899
21.1641   965
21.1741   932
21.1841   953
21.1941   989
21.2041   952
21.2141   923
21.2241   937
21.2341   912
21.2441   830
21.2541   846
21.2641   829
21.2741   841
21.2841   797
21.2941   746
21.3041   773
21.3141   723
21.3241   734
21.3341   725
21.3441   737
21.3541   658
21.3641   704
21.3741   704
21.3841   658
21.3941   660
21.4041   666
21.4141   629
21.4241   642
21.4341   671
21.4441   635
21.4541   618
21.4641   623
21.4741   626
21.4841   619
21.4941   639
21.5041   678
21.5141   640
21.5241   597
21.5341   600
21.5441   641
21.5541   659
21.5641   633
21.5741   627
21.5841   632
21.5941   642
21.6041   670
21.6141   585
21.6241   600
21.6341   606
21.6441   637
21.6541   643
21.6641   609
21.6741   595
21.6841   675
21.6941   655
21.7041   653
21.7141   636
21.7241   644
21.7341   644
21.7441   648
21.7541   655
21.7641   620
21.7741   614
21.7841   634
21.7941   621
21.8041   613
21.8141   654
21.8241   690
21.8341   651
21.8441   643
21.8541   634
21.8641   617
21.8741   626
21.8841   628
21.8941   655
21.9041   638
21.9141   653
21.9241   653
21.9341   645
21.9441   673
21.9541   630
21.9641   631
21.9741   608
21.9841   631
21.9941   637
22.0041   635
22.0141   599
22.0241   631
22.0341   632
22.0441   680
22.0541   636
22.0641   638
22.0741   652
22.0841   612
22.0941   585
22.1041   657
22.1141   643
22.1241   625
22.1341   664
22.1441   648
22.1541   644
22.1641   648
22.1741   655
22.1841   609
22.1941   641
22.2041   595
22.2141   618
22.2241   633
22.2341   619
22.2441   636
22.2541   631
22.2641   650
22.2741   639
22.2841   651
22.2941   617
22.3041   663
22.3141   647
22.3241   632
22.3341   619
22.3441   626
22.3541   615
22.3641   612
22.3741   603
22.3841   636
22.3941   642
22.4041   626
22.4141   631
22.4241   639
22.4341   643
22.4441   618
22.4541   629
22.4641   623
22.4741   627
22.4841   621
22.4941   623
22.5041   645
22.5141   642
22.5241   602
22.5341   613
22.5441   655
22.5541   663
22.5641   670
22.5741   634
22.5841   655
22.5941   664
22.6041   591
22.6141   559
22.6241   616
22.6341   648
22.6441   634
22.6541   632
22.6641   643
22.6741   660
22.6841   635
22.6941   621
22.7041   639
22.7141   640
22.7241   616
22.7341   617
22.7441   629
22.7541   647
22.7641   642
22.7741   664
22.7841   616
22.7941   675
22.8041   684
22.8141   565
22.8241   591
22.8341   596
22.8441   630
22.8541   627
22.8641   618
22.8741   607
22.8841   617
22.8941   632
22.9041   611
22.9141   629
22.9241   611
22.9341   610
22.9441   658
22.9541   630
22.9641   618
22.9741   608
22.9841   623
22.9941   601
23.0041   592
23.0141   637
23.0241   626
23.0341   651
23.0441   638
23.0541   611
23.0641   611
23.0741   592
23.0841   664
23.0941   668
23.1041   582
23.1141   614
23.1241   614
23.1341   610
23.1441   648
23.1541   661
23.1641   639
23.1741   615
23.1841   620
23.1941   614
23.2041   631
23.2141   552
23.2241   592
23.2341   608
23.2441   581
23.2541   565
23.2641   610
23.2741   592
23.2841   628
23.2941   639
23.3041   620
23.3141   621
23.3241   574
23.3341   610
23.3441   639
23.3541   594
23.3641   617
23.3741   597
23.3841   672
23.3941   624
23.4041   643
23.4141   590
23.4241   634
23.4341   593
23.4441   645
23.4541   632
23.4641   564
23.4741   603
23.4841   634
23.4941   583
23.5041   614
23.5141   598
23.5241   615
23.5341   612
23.5441   582
23.5541   600
23.5641   571
23.5741   584
23.5841   619
23.5941   660
23.6041   601
23.6141   609
23.6241   635
23.6341   659
23.6441   632
23.6541   708
23.6641   642
23.6741   627
23.6841   641
23.6941   639
23.7041   612
23.7141   639
23.7241   635
23.7341   658
23.7441   665
23.7541   616
23.7641   637
23.7741   650
23.7841   681
23.7941   677
23.8041   667
23.8141   680
23.8241   648
23.8341   682
23.8441   630
23.8541   643
23.8641   662
23.8741   645
23.8841   640
23.8941   630
23.9041   686
23.9141   645
23.9241   631
23.9341   632
23.9441   646
23.9541   597
23.9641   626
23.9741   588
23.9841   609
23.9941   587
24.0041   596
24.0141   590
24.0241   616
24.0341   600
24.0441   596
24.0541   585
24.0641   631
24.0741   604
24.0841   540
24.0941   622
24.1041   549
24.1141   579
24.1241   581
24.1341   601
24.1441   611
24.1541   581
24.1641   593
24.1741   569
24.1841   632
24.1941   608
24.2041   613
24.2141   603
24.2241   571
24.2341   603
24.2441   606
24.2541   599
24.2641   578
24.2741   593
24.2841   548
24.2941   559
24.3041   622
24.3141   552
24.3241   547
24.3341   572
24.3441   574
24.3541   551
24.3641   583
24.3741   556
24.3841   583
24.3941   608
24.4041   588
24.4141   573
24.4241   625
24.4341   553
24.4441   626
24.4541   609
24.4641   583
24.4741   590
24.4841   588
24.4941   563
24.5041   611
24.5141   548
24.5241   564
24.5341   597
24.5441   547
24.5541   536
24.5641   544
24.5741   561
24.5841   572
24.5941   629
24.6041   564
24.6141   603
24.6241   615
24.6341   551
24.6441   611
24.6541   607
24.6641   621
24.6741   524
24.6841   539
24.6941   581
24.7041   655
24.7141   581
24.7241   607
24.7341   600
24.7441   566
24.7541   585
24.7641   584
24.7741   609
24.7841   530
24.7941   576
24.8041   558
24.8141   543
24.8241   614
24.8341   557
24.8441   554
24.8541   614
24.8641   570
24.8741   566
24.8841   583
24.8941   578
24.9041   561
24.9141   566
24.9241   637
24.9341   589
24.9441   596
24.9541   569
24.9641   561
24.9741   566
24.9841   564
24.9941   581
25.0041   568
25.0141   549
25.0241   564
25.0341   566
25.0441   526
25.0541   554
25.0641   571
25.0741   563
25.0841   575
25.0941   558
25.1041   572
25.1141   568
25.1241   564
25.1341   591
25.1441   598
25.1541   579
25.1641   605
25.1741   554
25.1841   562
25.1941   558
25.2041   572
25.2141   575
25.2241   585
25.2341   606
25.2441   554
25.2541   567
25.2641   598
25.2741   539
25.2841   579
25.2941   537
25.3041   586
25.3141   604
25.3241   591
25.3341   551
25.3441   613
25.3541   577
25.3641   596
25.3741   568
25.3841   560
25.3941   496
25.4041   582
25.4141   541
25.4241   531
25.4341   566
25.4441   554
25.4541   588
25.4641   578
25.4741   570
25.4841   538
25.4941   547
25.5041   545
25.5141   522
25.5241   546
25.5341   537
25.5441   538
25.5541   533
25.5641   539
25.5741   507
25.5841   534
25.5941   578
25.6041   550
25.6141   571
25.6241   507
25.6341   487
25.6441   518
25.6541   522
25.6641   525
25.6741   539
25.6841   550
25.6941   534
25.7041   533
25.7141   533
25.7241   545
25.7341   532
25.7441   545
25.7541   530
25.7641   526
25.7741   553
25.7841   529
25.7941   519
25.8041   495
25.8141   468
25.8241   499
25.8341   533
25.8441   514
25.8541   531
25.8641   545
25.8741   515
25.8841   506
25.8941   501
25.9041   495
25.9141   499
25.9241   546
25.9341   527
25.9441   546
25.9541   511
25.9641   533
25.9741   555
25.9841   548
25.9941   524
26.0041   517
26.0141   540
26.0241   488
26.0341   512
26.0441   522
26.0541   481
26.0641   462
26.0741   532
26.0841   566
26.0941   539
26.1041   513
26.1141   494
26.1241   523
26.1341   550
26.1441   522
26.1541   512
26.1641   519
26.1741   527
26.1841   512
26.1941   516
26.2041   525
26.2141   503
26.2241   534
26.2341   503
26.2441   502
26.2541   511
26.2641   498
26.2741   515
26.2841   493
26.2941   460
26.3041   515
26.3141   496
26.3241   542
26.3341   539
26.3441   502
26.3541   503
26.3641   516
26.3741   487
26.3841   508
26.3941   503
26.4041   526
26.4141   520
26.4241   509
26.4341   502
26.4441   497
26.4541   530
26.4641   492
26.4741   525
26.4841   477
26.4941   523
26.5041   476
26.5141   482
26.5241   483
26.5341   518
26.5441   552
26.5541   486
26.5641   478
26.5741   469
26.5841   492
26.5941   488
26.6041   476
26.6141   513
26.6241   521
26.6341   485
26.6441   474
26.6541   471
26.6641   485
26.6741   448
26.6841   495
26.6941   496
26.7041   479
26.7141   488
26.7241   495
26.7341   491
26.7441   490
26.7541   474
26.7641   539
26.7741   475
26.7841   463
26.7941   479
26.8041   530
26.8141   460
26.8241   493
26.8341   469
26.8441   458
26.8541   468
26.8641   501
26.8741   476
26.8841   530
26.8941   502
26.9041   471
26.9141   455
26.9241   516
26.9341   468
26.9441   495
26.9541   493
26.9641   477
26.9741   467
26.9841   514
26.9941   524
27.0041   450
27.0141   476
27.0241   486
27.0341   464
27.0441   486
27.0541   489
27.0641   454
27.0741   464
27.0841   471
27.0941   452
27.1041   492
27.1141   478
27.1241   452
27.1341   479
27.1441   456
27.1541   476
27.1641   463
27.1741   486
27.1841   465
27.1941   468
27.2041   461
27.2141   480
27.2241   454
27.2341   496
27.2441   476
27.2541   461
27.2641   433
27.2741   445
27.2841   457
27.2941   472
27.3041   450
27.3141   482
27.3241   457
27.3341   481
27.3441   485
27.3541   434
27.3641   446
27.3741   441
27.3841   441
27.3941   438
27.4041   414
27.4141   398
27.4241   483
27.4341   484
27.4441   475
27.4541   467
27.4641   503
27.4741   489
27.4841   422
27.4941   408
27.5041   487
27.5141   437
27.5241   455
27.5341   433
27.5441   436
27.5541   436
27.5641   462
27.5741   484
27.5841   441
27.5941   419
27.6041   422
27.6141   476
27.6241   482
27.6341   439
27.6441   436
27.6541   418
27.6641   470
27.6741   482
27.6841   445
27.6941   452
27.7041   417
27.7141   427
27.7241   393
27.7341   444
27.7441   436
27.7541   402
27.7641   425
27.7741   429
27.7841   442
27.7941   437
27.8041   453
27.8141   465
27.8241   454
27.8341   444
27.8441   451
27.8541   418
27.8641   449
27.8741   399
27.8841   450
27.8941   381
27.9041   424
27.9141   427
27.9241   446
27.9341   448
27.9441   418
27.9541   421
27.9641   433
27.9741   426
27.9841   408
27.9941   415
28.0041   409
28.0141   438
28.0241   410
28.0341   423
28.0441   414
28.0541   430
28.0641   413
28.0741   435
28.0841   438
28.0941   427
28.1041   416
28.1141   427
28.1241   424
28.1341   423
28.1441   400
28.1541   415
28.1641   421
28.1741   402
28.1841   414
28.1941   412
28.2041   436
28.2141   381
28.2241   407
28.2341   406
28.2441   437
28.2541   410
28.2641   426
28.2741   440
28.2841   403
28.2941   421
28.3041   409
28.3141   410
28.3241   418
28.3341   427
28.3441   413
28.3541   403
28.3641   427
28.3741   420
28.3841   385
28.3941   426
28.4041   411
28.4141   373
28.4241   424
28.4341   371
28.4441   396
28.4541   391
28.4641   407
28.4741   437
28.4841   401
28.4941   447
28.5041   434
28.5141   402
28.5241   455
28.5341   422
28.5441   411
28.5541   416
28.5641   407
28.5741   422
28.5841   390
28.5941   397
28.6041   411
28.6141   421
28.6241   388
28.6341   380
28.6441   396
28.6541   389
28.6641   379
28.6741   401
28.6841   399
28.6941   377
28.7041   402
28.7141   384
28.7241   371
28.7341   417
28.7441   405
28.7541   373
28.7641   375
28.7741   377
28.7841   380
28.7941   361
28.8041   383
28.8141   388
28.8241   371
28.8341   394
28.8441   343
28.8541   370
28.8641   395
28.8741   385
28.8841   395
28.8941   381
28.9041   404
28.9141   398
28.9241   363
28.9341   381
28.9441   379
28.9541   365
28.9641   380
28.9741   373
28.9841   353
28.9941   395
29.0041   386
29.0141   378
29.0241   359
29.0341   349
29.0441   376
29.0541   354
29.0641   376
29.0741   370
29.0841   397
29.0941   377
29.1041   373
29.1141   348
29.1241   380
29.1341   370
29.1441   360
29.1541   347
29.1641   357
29.1741   382
29.1841   375
29.1941   390
29.2041   351
29.2141   356
29.2241   397
29.2341   357
29.2441   359
29.2541   372
29.2641   360
29.2741   368
29.2841   375
29.2941   346
29.3041   368
29.3141   303
29.3241   368
29.3341   347
29.3441   355
29.3541   338
29.3641   349
29.3741   348
29.3841   380
29.3941   382
29.4041   325
29.4141   329
29.4241   350
29.4341   372
29.4441   370
29.4541   364
29.4641   355
29.4741   345
29.4841   356
29.4941   345
29.5041   361
29.5141   316
29.5241   350
29.5341   350
29.5441   377
29.5541   336
29.5641   371
29.5741   365
29.5841   342
29.5941   355
29.6041   337
29.6141   334
29.6241   331
29.6341   366
29.6441   311
29.6541   363
29.6641   348
29.6741   334
29.6841   375
29.6941   325
29.7041   347
29.7141   325
29.7241   371
29.7341   334
29.7441   308
29.7541   299
29.7641   341
29.7741   303
29.7841   317
29.7941   303
29.8041   324
29.8141   345
29.8241   364
29.8341   336
29.8441   340
29.8541   314
29.8641   349
29.8741   336
29.8841   313
29.8941   320
29.9041   323
29.9141   329
29.9241   344
29.9341   320
29.9441   331
29.9541   316
29.9641   370
29.9741   325
29.9841   311
29.9941   334
30.0041   334
30.0141   303
30.0241   331
30.0341   292
30.0441   363
30.0541   329
30.0641   303
30.0741   315
30.0841   319
30.0941   345
30.1041   338
30.1141   322
30.1241   327
30.1341   326
30.1441   351
30.1541   304
30.1641   313
30.1741   315
30.1841   315
30.1941   321
30.2041   312
30.2141   324
30.2241   327
30.2341   318
30.2441   295
30.2541   329
30.2641   288
30.2741   299
30.2841   326
30.2941   302
30.3041   313
30.3141   321
30.3241   313
30.3341   299
30.3441   328
30.3541   335
30.3641   334
30.3741   336
30.3841   301
30.3941   308
30.4041   324
30.4141   336
30.4241   318
30.4341   295
30.4441   309
30.4541   327
30.4641   284
30.4741   317
30.4841   322
30.4941   307
30.5041   295
30.5141   290
30.5241   292
30.5341   277
30.5441   292
30.5541   294
30.5641   307
30.5741   280
30.5841   314
30.5941   308
30.6041   302
30.6141   305
30.6241   276
30.6341   318
30.6441   298
30.6541   289
30.6641   271
30.6741   282
30.6841   316
30.6941   285
30.7041   330
30.7141   289
30.7241   317
30.7341   307
30.7441   300
30.7541   289
30.7641   305
30.7741   285
30.7841   285
30.7941   289
30.8041   293
30.8141   294
30.8241   303
30.8341   290
30.8441   266
30.8541   277
30.8641   292
30.8741   281
30.8841   279
30.8941   283
30.9041   303
30.9141   272
30.9241   259
30.9341   278
30.9441   276
30.9541   290
30.9641   284
30.9741   292
30.9841   265
30.9941   287
31.0041   295
31.0141   265
31.0241   288
31.0341   313
31.0441   293
31.0541   273
31.0641   272
31.0741   280
31.0841   271
31.0941   292
31.1041   282
31.1141   294
31.1241   291
31.1341   272
31.1441   277
31.1541   284
31.1641   276
31.1741   287
31.1841   281
31.1941   262
31.2041   274
31.2141   253
31.2241   269
31.2341   269
31.2441   272
31.2541   245
31.2641   275
31.2741   295
31.2841   286
31.2941   272
31.3041   277
31.3141   256
31.3241   260
31.3341   264
31.3441   263
31.3541   266
31.3641   276
31.3741   257
31.3841   254
31.3941   247
31.4041   263
31.4141   277
31.4241   287
31.4341   262
31.4441   276
31.4541   277
31.4641   273
31.4741   230
31.4841   261
31.4941   234
31.5041   289
31.5141   254
31.5241   246
31.5341   274
31.5441   263
31.5541   244
31.5641   256
31.5741   258
31.5841   276
31.5941   244
31.6041   270
31.6141   261
31.6241   273
31.6341   266
31.6441   288
31.6541   244
31.6641   226
31.6741   267
31.6841   251
31.6941   258
31.7041   246
31.7141   263
31.7241   279
31.7341   271
31.7441   251
31.7541   263
31.7641   248
31.7741   240
31.7841   262
31.7941   264
31.8041   257
31.8141   250
31.8241   303
31.8341   290
31.8441   257
31.8541   257
31.8641   259
31.8741   267
31.8841   290
31.8941   249
31.9041   276
31.9141   270
31.9241   267
31.9341   244
31.9441   287
31.9541   259
31.9641   272
31.9741   233
31.9841   264
31.9941   261
32.0041   264
32.0141   268
32.0241   272
32.0341   273
32.0441   286
32.0541   267
32.0641   244
32.0741   259
32.0841   272
32.0941   288
32.1041   256
32.1141   254
32.1241   242
32.1341   268
32.1441   259
32.1541   262
32.1641   269
32.1741   262
32.1841   272
32.1941   245
32.2041   265
32.2141   249
32.2241   250
32.2341   272
32.2441   243
32.2541   285
32.2641   250
32.2741   249
32.2841   245
32.2941   263
32.3041   248
32.3141   273
32.3241   255
32.3341   253
32.3441   240
32.3541   245
32.3641   251
32.3741   228
32.3841   225
32.3941   244
32.4041   228
32.4141   228
32.4241   222
32.4341   233
32.4441   234
32.4541   233
32.4641   230
32.4741   216
32.4841   224
32.4941   215
32.5041   213
32.5141   250
32.5241   240
32.5341   222
32.5441   205
32.5541   229
32.5641   209
32.5741   225
32.5841   200
32.5941   222
32.6041   207
32.6141   242
32.6241   230
32.6341   226
32.6441   214
32.6541   194
32.6641   189
32.6741   232
32.6841   206
32.6941   211
32.7041   209
32.7141   220
32.7241   226
32.7341   216
32.7441   204
32.7541   193
32.7641   221
32.7741   218
32.7841   206
32.7941   213
32.8041   219
32.8141   218
32.8241   197
32.8341   227
32.8441   214
32.8541   221
32.8641   190
32.8741   193
32.8841   210
32.8941   202
32.9041   191
32.9141   196
32.9241   200
32.9341   178
32.9441   204
32.9541   219
32.9641   212
32.9741   211
32.9841   218
32.9941   184
33.0041   199
33.0141   199
33.0241   215
33.0341   226
33.0441   196
33.0541   192
33.0641   206
33.0741   202
33.0841   195
33.0941   211
33.1041   201
33.1141   231
33.1241   216
33.1341   213
33.1441   193
33.1541   191
33.1641   198
33.1741   218
33.1841   182
33.1941   177
33.2041   177
33.2141   206
33.2241   207
33.2341   178
33.2441   200
33.2541   206
33.2641   179
33.2741   192
33.2841   198
33.2941   189
33.3041   199
33.3141   192
33.3241   170
33.3341   225
33.3441   177
33.3541   193
33.3641   182
33.3741   198
33.3841   167
33.3941   194
33.4041   204
33.4141   185
33.4241   182
33.4341   192
33.4441   200
33.4541   215
33.4641   168
33.4741   162
33.4841   191
33.4941   179
33.5041   184
33.5141   193
33.5241   176
33.5341   207
33.5441   203
33.5541   181
33.5641   202
33.5741   171
33.5841   198
33.5941   195
33.6041   188
33.6141   173
33.6241   181
33.6341   190
33.6441   199
33.6541   181
33.6641   223
33.6741   161
33.6841   191
33.6941   175
33.7041   187
33.7141   205
33.7241   157
33.7341   159
33.7441   184
33.7541   180
33.7641   164
33.7741   190
33.7841   181
33.7941   173
33.8041   164
33.8141   172
33.8241   144
33.8341   163
33.8441   173
33.8541   167
33.8641   169
33.8741   179
33.8841   175
33.8941   170
33.9041   175
33.9141   187
33.9241   169
33.9341   174
33.9441   154
33.9541   166
33.9641   186
33.9741   164
33.9841   185
33.9941   165
34.0041   154
34.0141   152
34.0241   170
34.0341   191
34.0441   175
34.0541   152
34.0641   165
34.0741   169
34.0841   176
34.0941   165
34.1041   176
34.1141   181
34.1241   161
34.1341   167
34.1441   160
34.1541   157
34.1641   162
34.1741   184
34.1841   169
34.1941   166
34.2041   158
34.2141   172
34.2241   163
34.2341   149
34.2441   143
34.2541   150
34.2641   171
34.2741   165
34.2841   154
34.2941   159
34.3041   145
34.3141   150
34.3241   158
34.3341   168
34.3441   148
34.3541   139
34.3641   153
34.3741   177
34.3841   152
34.3941   158
34.4041   161
34.4141   157
34.4241   153
34.4341   166
34.4441   156
34.4541   160
34.4641   150
34.4741   182
34.4841   148
34.4941   152
34.5041   169
34.5141   155
34.5241   146
34.5341   149
34.5441   161
34.5541   160
34.5641   155
34.5741   150
34.5841   158
34.5941   155
34.6041   162
34.6141   163
34.6241   160
34.6341   147
34.6441   160
34.6541   154
34.6641   163
34.6741   167
34.6841   160
34.6941   162
34.7041   160
34.7141   164
34.7241   151
34.7341   141
34.7441   140
34.7541   148
34.7641   142
34.7741   173
34.7841   163
34.7941   154
34.8041   153
34.8141   155
34.8241   140
34.8341   141
34.8441   153
34.8541   136
34.8641   131
34.8741   158
34.8841   138
34.8941   156
34.9041   136
34.9141   137
34.9241   135
34.9341   149
34.9441   150
34.9541   142
34.9641   115
34.9741   139
34.9841   122
34.9941   131
35.0041   165
35.0141   139
35.0241   149
35.0341   147
35.0441   123
35.0541   123
35.0641   116
35.0741   142
35.0841   140
35.0941   138
35.1041   130
35.1141   110
35.1241   134
35.1341   136
35.1441   142
35.1541   135
35.1641   148
35.1741   145
35.1841   138
35.1941   161
35.2041   134
35.2141   147
35.2241   110
35.2341   133
35.2441   124
35.2541   125
35.2641   119
35.2741   138
35.2841   136
35.2941   149
35.3041   125
35.3141   121
35.3241   132
35.3341   139
35.3441   132
35.3541   127
35.3641   124
35.3741   127
35.3841   115
35.3941   122
35.4041   137
35.4141   128
35.4241   123
35.4341   138
35.4441   125
35.4541   121
35.4641   127
35.4741   125
35.4841   137
35.4941   130
35.5041   109
35.5141   111
35.5241   116
35.5341   119
35.5441   128
35.5541   106
35.5641   108
35.5741   112
35.5841   123
35.5941   128
35.6041   120
35.6141   108
35.6241   100
35.6341   107
35.6441   118
35.6541   123
35.6641   130
35.6741   108
35.6841   120
35.6941   126
35.7041   133
35.7141   117
35.7241   121
35.7341   115
35.7441   101
35.7541   117
35.7641   113
35.7741   110
35.7841   132
35.7941   130
35.8041    99
35.8141   116
35.8241   108
35.8341   128
35.8441   116
35.8541   106
35.8641   110
35.8741   106
35.8841   109
35.8941   104
35.9041   101
35.9141   111
35.9241   118
35.9341   117
35.9441   108
35.9541   115
35.9641   121
35.9741   107
35.9841   144
35.9941   117
36.0041   135
36.0141   108
36.0241   119
36.0341    88
36.0441   118
36.0541   134
36.0641   116
36.0741   104
36.0841   111
36.0941   122
36.1041   108
36.1141   116
36.1241   102
36.1341   131
36.1441    85
36.1541   113
36.1641    93
36.1741   103
36.1841    94
36.1941   115
36.2041   124
36.2141   115
36.2241   113
36.2341   108
36.2441   116
36.2541    91
36.2641   112
36.2741   112
36.2841    97
36.2941   120
36.3041   122
36.3141   106
36.3241   104
36.3341   101
36.3441   107
36.3541   120
36.3641   100
36.3741   101
36.3841   121
36.3941   132
36.4041   109
36.4141   111
36.4241   101
36.4341   105
36.4441   106
36.4541   109
36.4641   107
36.4741   114
36.4841   110
36.4941   102
36.5041   112
36.5141   108
36.5241    96
36.5341   103
36.5441   115
36.5541    96
36.5641   102
36.5741   109
36.5841    99
36.5941   108
36.6041   106
36.6141   109
36.6241    98
36.6341    91
36.6441    95
36.6541   101
36.6641    94
36.6741   100
36.6841   108
36.6941   103
36.7041   105
36.7141    87
36.7241    96
36.7341    95
36.7441    91
36.7541    88
36.7641    87
36.7741   101
36.7841    92
36.7941   103
36.8041    84
36.8141    86
36.8241    93
36.8341   105
36.8441    94
36.8541   111
36.8641    86
36.8741    86
36.8841   101
36.8941    97
36.9041   107
36.9141    95
36.9241    90
36.9341    82
36.9441    90
36.9541    95
36.9641   119
36.9741    83
36.9841    97
36.9941   106
37.0041    78
37.0141   122
37.0241    88
37.0341    88
37.0441    74
37.0541    71
37.0641    86
37.0741    94
37.0841   102
37.0941    92
37.1041    86
37.1141    98
37.1241    97
37.1341    83
37.1441    88
37.1541    87
37.1641    93
37.1741    80
37.1841    88
37.1941    89
37.2041    76
37.2141   102
37.2241    90
37.2341    90
37.2441    85
37.2541    85
37.2641    88
37.2741    90
37.2841    91
37.2941    75
37.3041   104
37.3141    92
37.3241    84
37.3341    86
37.3441    76
37.3541    79
37.3641    78
37.3741    82
37.3841    76
37.3941    75
37.4041    83
37.4141    70
37.4241   100
37.4341    79
37.4441    73
37.4541    70
37.4641    99
37.4741    81
37.4841    81
37.4941    88
37.5041    80
37.5141    68
37.5241    83
37.5341    74
37.5441    77
37.5541    86
37.5641    79
37.5741    83
37.5841    84
37.5941    89
37.6041    80
37.6141    76
37.6241    82
37.6341    83
37.6441    82
37.6541    74
37.6641    76
37.6741    80
37.6841    78
37.6941    63
37.7041    79
37.7141    82
37.7241    68
37.7341    76
37.7441    71
37.7541    72
37.7641    61
37.7741    77
37.7841    74
37.7941    72
37.8041    69
37.8141    63
37.8241    79
37.8341    61
37.8441    58
37.8541    77
37.8641   101
37.8741    66
37.8841    63
37.8941    72
37.9041    93
37.9141    73
37.9241    62
37.9341    70
37.9441    74
37.9541    61
37.9641    62
37.9741    69
37.9841    67
37.9941    72
38.0041    63
38.0141    64
38.0241    74
38.0341    83
38.0441    71
38.0541    72
38.0641    71
38.0741    47
38.0841    68
38.0941    76
38.1041    73
38.1141    70
38.1241    67
38.1341    70
38.1441    55
38.1541    68
38.1641    65
38.1741    61
38.1841    55
38.1941    66
38.2041    71
38.2141    64
38.2241    56
38.2341    66
38.2441    64
38.2541    62
38.2641    54
38.2741    63
38.2841    59
38.2941    77
38.3041    66
38.3141    63
38.3241    72
38.3341    60
38.3441    56
38.3541    75
38.3641    61
38.3741    67
38.3841    58
38.3941    55
38.4041    70
38.4141    58
38.4241    67
38.4341    40
38.4441    57
38.4541    72
38.4641    57
38.4741    58
38.4841    66
38.4941    57
38.5041    67
38.5141    62
38.5241    61
38.5341    64
38.5441    56
38.5541    55
38.5641    53
38.5741    55
38.5841    59
38.5941    54
38.6041    65
38.6141    51
38.6241    52
38.6341    51
38.6441    70
38.6541    53
38.6641    57
38.6741    42
38.6841    62
38.6941    51
38.7041    65
38.7141    40
38.7241    47
38.7341    61
38.7441    49
38.7541    68
38.7641    49
38.7741    58
38.7841    55
38.7941    34
38.8041    63
38.8141    58
38.8241    54
38.8341    55
38.8441    53
38.8541    50
38.8641    49
38.8741    51
38.8841    53
38.8941    52
38.9041    46
38.9141    54
38.9241    43
38.9341    59
38.9441    49
38.9541    55
38.9641    50
38.9741    60
38.9841    55
38.9941    45
39.0041    63
39.0141    42
39.0241    46
39.0341    44
39.0441    51
39.0541    52
39.0641    60
39.0741    47
39.0841    54
39.0941    46
39.1041    65
39.1141    41
39.1241    53
39.1341    37
39.1441    42
39.1541    48
39.1641    37
39.1741    54
39.1841    37
39.1941    49
39.2041    55
39.2141    53
39.2241    48
39.2341    50
39.2441    44
39.2541    61
39.2641    47
39.2741    59
39.2841    43
39.2941    46
39.3041    42
39.3141    50
39.3241    42
39.3341    39
39.3441    44
39.3541    43
39.3641    43
39.3741    53
39.3841    50
39.3941    48
39.4041    42
39.4141    54
39.4241    34
39.4341    45
39.4441    34
39.4541    44
39.4641    55
39.4741    34
39.4841    37
39.4941    49
39.5041    40
39.5141    43
39.5241    45
39.5341    41
39.5441    40
39.5541    36
39.5641    43
39.5741    55
39.5841    41
39.5941    50
39.6041    35
39.6141    36
39.6241    43
39.6341    39
39.6441    47
39.6541    36
39.6641    38
39.6741    47
39.6841    47
39.6941    36
39.7041    35
39.7141    57
39.7241    30
39.7341    48
39.7441    48
39.7541    39
39.7641    25
39.7741    38
39.7841    42
39.7941    46
39.8041    33
39.8141    37
39.8241    37
39.8341    39
39.8441    48
39.8541    51
39.8641    39
39.8741    45
39.8841    42
39.8941    30
39.9041    43
39.9141    42
39.9241    37
39.9341    35
39.9441    32
39.9541    28
39.9641    34
39.9741    33
39.9841    40
