Bruker Nano GmbH Berlin, Germany
Esprit 1.9

Date: 4/21/2021 2:36:15 PM
Real time: 18826
Life time: 17574
Pulse density: 99616


Detector type: XFlash 430
Window type: Custom type
Detector thickness: 0.45
Si dead layer:0.029

Calibration, lin.: 10
Calibration, abs.: -955.9
Mn FWHM: 137.05
Fano factor: 0.121
Channels: 4095

Energy Counts
-0.9559     0
-0.9459     0
-0.9359     0
-0.9259     0
-0.9159     0
-0.9059     0
-0.8959     0
-0.8859     0
-0.8759     0
-0.8659     0
-0.8559     0
-0.8459     0
-0.8359     0
-0.8259     0
-0.8159     0
-0.8059     0
-0.7959     0
-0.7859     0
-0.7759     0
-0.7659     0
-0.7559     0
-0.7459     0
-0.7359     0
-0.7259     0
-0.7159     0
-0.7059     0
-0.6959     0
-0.6859     0
-0.6759     0
-0.6659     0
-0.6559     0
-0.6459     0
-0.6359     0
-0.6259     0
-0.6159     0
-0.6059     0
-0.5959     0
-0.5859     0
-0.5759     0
-0.5659     0
-0.5559     0
-0.5459     0
-0.5359     0
-0.5259     0
-0.5159     0
-0.5059     0
-0.4959     0
-0.4859     0
-0.4759     0
-0.4659     0
-0.4559     0
-0.4459     0
-0.4359     0
-0.4259     0
-0.4159     0
-0.4059     0
-0.3959     0
-0.3859     0
-0.3759     0
-0.3659     0
-0.3559     0
-0.3459     0
-0.3359     0
-0.3259     0
-0.3159     0
-0.3059     0
-0.2959     0
-0.2859     0
-0.2759     0
-0.2659     0
-0.2559     0
-0.2459     0
-0.2359     0
-0.2259     0
-0.2159     0
-0.2059     0
-0.1959     0
-0.1859     0
-0.1759     0
-0.1659     0
-0.1559     0
-0.1459     0
-0.1359     0
-0.1259     1
-0.1159     4
-0.1059    10
-0.0959    55
-0.0859   205
-0.0759   723
-0.0659  1970
-0.0559  5056
-0.0459 11117
-0.0359 21274
-0.0259 33519
-0.0159 45829
-0.0059 53694
 0.0041 54298
 0.0141 46556
 0.0241 34325
 0.0341 21829
 0.0441 11674
 0.0541  5559
 0.0641  2190
 0.0741   756
 0.0841   248
 0.0941    72
 0.1041    16
 0.1141    10
 0.1241     3
 0.1341     8
 0.1441     4
 0.1541     6
 0.1641     3
 0.1741     2
 0.1841   149
 0.1941   282
 0.2041   252
 0.2141   266
 0.2241   257
 0.2341   251
 0.2441   272
 0.2541   295
 0.2641   272
 0.2741   305
 0.2841   258
 0.2941   272
 0.3041   256
 0.3141   284
 0.3241   269
 0.3341   250
 0.3441   267
 0.3541   252
 0.3641   231
 0.3741   245
 0.3841   254
 0.3941   253
 0.4041   240
 0.4141   229
 0.4241   233
 0.4341   241
 0.4441   252
 0.4541   215
 0.4641   235
 0.4741   217
 0.4841   232
 0.4941   221
 0.5041   246
 0.5141   231
 0.5241   243
 0.5341   238
 0.5441   226
 0.5541   239
 0.5641   228
 0.5741   231
 0.5841   206
 0.5941   211
 0.6041   219
 0.6141   227
 0.6241   236
 0.6341   218
 0.6441   203
 0.6541   215
 0.6641   214
 0.6741   209
 0.6841   212
 0.6941   204
 0.7041   202
 0.7141   211
 0.7241   197
 0.7341   192
 0.7441   204
 0.7541   190
 0.7641   191
 0.7741   191
 0.7841   212
 0.7941   202
 0.8041   193
 0.8141   208
 0.8241   200
 0.8341   194
 0.8441   194
 0.8541   209
 0.8641   192
 0.8741   173
 0.8841   182
 0.8941   192
 0.9041   172
 0.9141   192
 0.9241   195
 0.9341   181
 0.9441   179
 0.9541   184
 0.9641   176
 0.9741   186
 0.9841   173
 0.9941   173
 1.0041   181
 1.0141   166
 1.0241   172
 1.0341   180
 1.0441   180
 1.0541   164
 1.0641   170
 1.0741   194
 1.0841   180
 1.0941   178
 1.1041   181
 1.1141   179
 1.1241   163
 1.1341   156
 1.1441   181
 1.1541   205
 1.1641   177
 1.1741   171
 1.1841   161
 1.1941   171
 1.2041   170
 1.2141   169
 1.2241   170
 1.2341   178
 1.2441   165
 1.2541   167
 1.2641   175
 1.2741   184
 1.2841   167
 1.2941   162
 1.3041   179
 1.3141   176
 1.3241   154
 1.3341   163
 1.3441   157
 1.3541   163
 1.3641   158
 1.3741   155
 1.3841   144
 1.3941   186
 1.4041   175
 1.4141   178
 1.4241   146
 1.4341   144
 1.4441   179
 1.4541   160
 1.4641   147
 1.4741   158
 1.4841   168
 1.4941   146
 1.5041   156
 1.5141   142
 1.5241   163
 1.5341   154
 1.5441   155
 1.5541   144
 1.5641   156
 1.5741   143
 1.5841   146
 1.5941   157
 1.6041   149
 1.6141   141
 1.6241   154
 1.6341   169
 1.6441   166
 1.6541   182
 1.6641   235
 1.6741   286
 1.6841   314
 1.6941   400
 1.7041   499
 1.7141   552
 1.7241   660
 1.7341   659
 1.7441   641
 1.7541   611
 1.7641   554
 1.7741   502
 1.7841   382
 1.7941   309
 1.8041   289
 1.8141   245
 1.8241   219
 1.8341   217
 1.8441   188
 1.8541   194
 1.8641   200
 1.8741   165
 1.8841   158
 1.8941   154
 1.9041   158
 1.9141   158
 1.9241   178
 1.9341   161
 1.9441   147
 1.9541   166
 1.9641   180
 1.9741   186
 1.9841   192
 1.9941   194
 2.0041   189
 2.0141   194
 2.0241   200
 2.0341   184
 2.0441   157
 2.0541   173
 2.0641   183
 2.0741   166
 2.0841   168
 2.0941   165
 2.1041   156
 2.1141   149
 2.1241   160
 2.1341   169
 2.1441   159
 2.1541   146
 2.1641   141
 2.1741   128
 2.1841   144
 2.1941   144
 2.2041   158
 2.2141   149
 2.2241   133
 2.2341   126
 2.2441   118
 2.2541   141
 2.2641   135
 2.2741   136
 2.2841   137
 2.2941   137
 2.3041   137
 2.3141   137
 2.3241   143
 2.3341   117
 2.3441   142
 2.3541   141
 2.3641   139
 2.3741   150
 2.3841   140
 2.3941   137
 2.4041   117
 2.4141   132
 2.4241   131
 2.4341   135
 2.4441   147
 2.4541   121
 2.4641   134
 2.4741   132
 2.4841   129
 2.4941   120
 2.5041   123
 2.5141   114
 2.5241   130
 2.5341   130
 2.5441   122
 2.5541   126
 2.5641   129
 2.5741   119
 2.5841   120
 2.5941   134
 2.6041   131
 2.6141   125
 2.6241   142
 2.6341   120
 2.6441   122
 2.6541   130
 2.6641   118
 2.6741   113
 2.6841   130
 2.6941   138
 2.7041   114
 2.7141   135
 2.7241   112
 2.7341   131
 2.7441   122
 2.7541   112
 2.7641   113
 2.7741   155
 2.7841   120
 2.7941   134
 2.8041   128
 2.8141   144
 2.8241   133
 2.8341   137
 2.8441   124
 2.8541   138
 2.8641   125
 2.8741   141
 2.8841   129
 2.8941   112
 2.9041   130
 2.9141   112
 2.9241   102
 2.9341   121
 2.9441   107
 2.9541   111
 2.9641   136
 2.9741   101
 2.9841   104
 2.9941   119
 3.0041   119
 3.0141   118
 3.0241   117
 3.0341   116
 3.0441   119
 3.0541   114
 3.0641   108
 3.0741   102
 3.0841    96
 3.0941    93
 3.1041   112
 3.1141    76
 3.1241    84
 3.1341   102
 3.1441    94
 3.1541   110
 3.1641    95
 3.1741   104
 3.1841   109
 3.1941    94
 3.2041    99
 3.2141   114
 3.2241   119
 3.2341   132
 3.2441   151
 3.2541   175
 3.2641   181
 3.2741   164
 3.2841   216
 3.2941   188
 3.3041   220
 3.3141   262
 3.3241   236
 3.3341   225
 3.3441   178
 3.3541   192
 3.3641   139
 3.3741   153
 3.3841   142
 3.3941   127
 3.4041   104
 3.4141    78
 3.4241    92
 3.4341    87
 3.4441   113
 3.4541    79
 3.4641    99
 3.4741    86
 3.4841   101
 3.4941    95
 3.5041   105
 3.5141   101
 3.5241   112
 3.5341   111
 3.5441   118
 3.5541   143
 3.5641   153
 3.5741   170
 3.5841   205
 3.5941   249
 3.6041   315
 3.6141   361
 3.6241   462
 3.6341   547
 3.6441   715
 3.6541   758
 3.6641   853
 3.6741   930
 3.6841  1030
 3.6941   995
 3.7041   977
 3.7141   962
 3.7241   806
 3.7341   657
 3.7441   563
 3.7541   434
 3.7641   367
 3.7741   278
 3.7841   211
 3.7941   148
 3.8041   148
 3.8141   121
 3.8241    84
 3.8341    94
 3.8441    80
 3.8541    80
 3.8641    86
 3.8741    73
 3.8841    72
 3.8941    77
 3.9041    95
 3.9141    91
 3.9241   120
 3.9341   123
 3.9441   134
 3.9541   144
 3.9641   137
 3.9741   163
 3.9841   170
 3.9941   197
 4.0041   201
 4.0141   225
 4.0241   195
 4.0341   210
 4.0441   190
 4.0541   181
 4.0641   155
 4.0741   142
 4.0841   108
 4.0941   101
 4.1041    82
 4.1141    88
 4.1241    73
 4.1341    86
 4.1441    68
 4.1541    82
 4.1641    71
 4.1741    73
 4.1841    78
 4.1941    68
 4.2041    59
 4.2141    75
 4.2241    65
 4.2341    77
 4.2441    76
 4.2541    67
 4.2641    66
 4.2741    70
 4.2841    78
 4.2941    78
 4.3041    61
 4.3141    75
 4.3241    73
 4.3341    74
 4.3441    90
 4.3541    81
 4.3641    81
 4.3741    90
 4.3841    94
 4.3941   130
 4.4041   142
 4.4141   181
 4.4241   195
 4.4341   209
 4.4441   292
 4.4541   315
 4.4641   387
 4.4741   440
 4.4841   449
 4.4941   507
 4.5041   520
 4.5141   525
 4.5241   506
 4.5341   429
 4.5441   401
 4.5541   382
 4.5641   338
 4.5741   258
 4.5841   229
 4.5941   186
 4.6041   141
 4.6141   142
 4.6241    99
 4.6341   127
 4.6441    89
 4.6541    78
 4.6641   102
 4.6741    84
 4.6841    89
 4.6941    86
 4.7041   109
 4.7141   108
 4.7241    90
 4.7341    79
 4.7441    88
 4.7541    73
 4.7641    92
 4.7741    86
 4.7841    97
 4.7941   115
 4.8041   112
 4.8141   119
 4.8241   117
 4.8341   118
 4.8441   135
 4.8541   129
 4.8641   133
 4.8741   152
 4.8841   154
 4.8941   160
 4.9041   183
 4.9141   184
 4.9241   178
 4.9341   176
 4.9441   172
 4.9541   157
 4.9641   157
 4.9741   167
 4.9841   151
 4.9941   133
 5.0041    96
 5.0141   106
 5.0241   124
 5.0341   112
 5.0441   102
 5.0541    85
 5.0641    80
 5.0741    93
 5.0841    88
 5.0941    82
 5.1041    91
 5.1141   106
 5.1241   103
 5.1341   108
 5.1441    98
 5.1541    96
 5.1641    91
 5.1741    95
 5.1841    91
 5.1941    97
 5.2041    83
 5.2141   107
 5.2241    99
 5.2341   101
 5.2441   107
 5.2541    96
 5.2641    90
 5.2741   102
 5.2841    97
 5.2941    75
 5.3041    98
 5.3141    87
 5.3241    98
 5.3341    99
 5.3441   111
 5.3541   105
 5.3641   117
 5.3741   123
 5.3841   132
 5.3941   125
 5.4041   130
 5.4141   141
 5.4241   126
 5.4341   136
 5.4441   123
 5.4541   131
 5.4641    97
 5.4741   126
 5.4841   105
 5.4941   113
 5.5041   106
 5.5141    92
 5.5241   127
 5.5341    94
 5.5441   120
 5.5541   100
 5.5641   124
 5.5741    98
 5.5841    75
 5.5941    81
 5.6041   102
 5.6141    97
 5.6241    88
 5.6341    91
 5.6441    84
 5.6541    87
 5.6641    77
 5.6741    89
 5.6841   102
 5.6941    94
 5.7041    87
 5.7141   107
 5.7241   102
 5.7341   134
 5.7441   102
 5.7541   117
 5.7641   143
 5.7741   136
 5.7841   164
 5.7941   213
 5.8041   212
 5.8141   243
 5.8241   296
 5.8341   315
 5.8441   391
 5.8541   420
 5.8641   416
 5.8741   504
 5.8841   500
 5.8941   524
 5.9041   546
 5.9141   482
 5.9241   458
 5.9341   427
 5.9441   359
 5.9541   383
 5.9641   329
 5.9741   278
 5.9841   261
 5.9941   219
 6.0041   178
 6.0141   162
 6.0241   160
 6.0341   145
 6.0441   132
 6.0541   150
 6.0641   134
 6.0741   131
 6.0841   155
 6.0941   131
 6.1041   146
 6.1141   158
 6.1241   152
 6.1341   154
 6.1441   189
 6.1541   198
 6.1641   203
 6.1741   242
 6.1841   261
 6.1941   289
 6.2041   389
 6.2141   509
 6.2241   713
 6.2341   951
 6.2441  1408
 6.2541  1976
 6.2641  2644
 6.2741  3781
 6.2841  5180
 6.2941  6897
 6.3041  8898
 6.3141 11212
 6.3241 13743
 6.3341 16945
 6.3441 19825
 6.3541 22527
 6.3641 25221
 6.3741 27371
 6.3841 28809
 6.3941 29428
 6.4041 29588
 6.4141 28694
 6.4241 27356
 6.4341 24914
 6.4441 22372
 6.4541 19545
 6.4641 16538
 6.4741 13451
 6.4841 10742
 6.4941  8495
 6.5041  6481
 6.5141  4818
 6.5241  3560
 6.5341  2409
 6.5441  1684
 6.5541  1233
 6.5641   824
 6.5741   554
 6.5841   412
 6.5941   308
 6.6041   254
 6.6141   196
 6.6241   196
 6.6341   179
 6.6441   177
 6.6541   165
 6.6641   164
 6.6741   165
 6.6841   150
 6.6941   167
 6.7041   182
 6.7141   177
 6.7241   138
 6.7341   135
 6.7441   191
 6.7541   158
 6.7641   187
 6.7741   173
 6.7841   182
 6.7941   181
 6.8041   193
 6.8141   198
 6.8241   226
 6.8341   234
 6.8441   260
 6.8541   277
 6.8641   354
 6.8741   369
 6.8841   402
 6.8941   473
 6.9041   560
 6.9141   707
 6.9241   892
 6.9341  1085
 6.9441  1294
 6.9541  1600
 6.9641  1991
 6.9741  2354
 6.9841  2811
 6.9941  3167
 7.0041  3819
 7.0141  4216
 7.0241  4435
 7.0341  4786
 7.0441  4990
 7.0541  4946
 7.0641  4907
 7.0741  4767
 7.0841  4555
 7.0941  4043
 7.1041  3641
 7.1141  3171
 7.1241  2737
 7.1341  2400
 7.1441  1914
 7.1541  1537
 7.1641  1224
 7.1741  1028
 7.1841   771
 7.1941   588
 7.2041   475
 7.2141   372
 7.2241   318
 7.2341   268
 7.2441   234
 7.2541   195
 7.2641   186
 7.2741   197
 7.2841   180
 7.2941   187
 7.3041   198
 7.3141   171
 7.3241   191
 7.3341   193
 7.3441   216
 7.3541   230
 7.3641   236
 7.3741   221
 7.3841   210
 7.3941   237
 7.4041   241
 7.4141   259
 7.4241   253
 7.4341   243
 7.4441   251
 7.4541   279
 7.4641   242
 7.4741   244
 7.4841   244
 7.4941   218
 7.5041   212
 7.5141   198
 7.5241   229
 7.5341   201
 7.5441   179
 7.5541   198
 7.5641   203
 7.5741   206
 7.5841   195
 7.5941   201
 7.6041   184
 7.6141   172
 7.6241   173
 7.6341   203
 7.6441   185
 7.6541   196
 7.6641   207
 7.6741   160
 7.6841   191
 7.6941   193
 7.7041   183
 7.7141   193
 7.7241   195
 7.7341   198
 7.7441   194
 7.7541   193
 7.7641   193
 7.7741   190
 7.7841   220
 7.7941   213
 7.8041   225
 7.8141   214
 7.8241   213
 7.8341   256
 7.8441   237
 7.8541   248
 7.8641   221
 7.8741   248
 7.8841   270
 7.8941   255
 7.9041   301
 7.9141   280
 7.9241   330
 7.9341   290
 7.9441   330
 7.9541   356
 7.9641   406
 7.9741   403
 7.9841   434
 7.9941   465
 8.0041   518
 8.0141   534
 8.0241   580
 8.0341   604
 8.0441   640
 8.0541   723
 8.0641   749
 8.0741   792
 8.0841   822
 8.0941   854
 8.1041   915
 8.1141   967
 8.1241  1033
 8.1341  1113
 8.1441  1077
 8.1541  1143
 8.1641  1101
 8.1741  1158
 8.1841  1209
 8.1941  1231
 8.2041  1246
 8.2141  1266
 8.2241  1205
 8.2341  1255
 8.2441  1304
 8.2541  1339
 8.2641  1406
 8.2741  1494
 8.2841  1655
 8.2941  1767
 8.3041  1942
 8.3141  2108
 8.3241  2215
 8.3341  2397
 8.3441  2626
 8.3541  2790
 8.3641  2817
 8.3741  2991
 8.3841  2993
 8.3941  2906
 8.4041  2977
 8.4141  2803
 8.4241  2720
 8.4341  2498
 8.4441  2239
 8.4541  2074
 8.4641  1806
 8.4741  1593
 8.4841  1372
 8.4941  1216
 8.5041  1017
 8.5141   823
 8.5241   717
 8.5341   590
 8.5441   518
 8.5541   476
 8.5641   437
 8.5741   436
 8.5841   388
 8.5941   387
 8.6041   366
 8.6141   331
 8.6241   348
 8.6341   365
 8.6441   384
 8.6541   368
 8.6641   354
 8.6741   360
 8.6841   353
 8.6941   332
 8.7041   342
 8.7141   346
 8.7241   313
 8.7341   303
 8.7441   312
 8.7541   265
 8.7641   240
 8.7741   242
 8.7841   227
 8.7941   247
 8.8041   265
 8.8141   240
 8.8241   222
 8.8341   260
 8.8441   264
 8.8541   274
 8.8641   264
 8.8741   288
 8.8841   230
 8.8941   271
 8.9041   271
 8.9141   253
 8.9241   296
 8.9341   278
 8.9441   287
 8.9541   292
 8.9641   285
 8.9741   285
 8.9841   304
 8.9941   268
 9.0041   275
 9.0141   330
 9.0241   312
 9.0341   328
 9.0441   356
 9.0541   351
 9.0641   330
 9.0741   354
 9.0841   361
 9.0941   397
 9.1041   400
 9.1141   415
 9.1241   394
 9.1341   442
 9.1441   410
 9.1541   482
 9.1641   494
 9.1741   504
 9.1841   544
 9.1941   566
 9.2041   535
 9.2141   642
 9.2241   623
 9.2341   668
 9.2441   667
 9.2541   760
 9.2641   788
 9.2741   865
 9.2841   796
 9.2941   897
 9.3041   957
 9.3141   921
 9.3241   946
 9.3341  1027
 9.3441  1064
 9.3541  1058
 9.3641  1103
 9.3741  1144
 9.3841  1120
 9.3941  1163
 9.4041  1226
 9.4141  1220
 9.4241  1190
 9.4341  1205
 9.4441  1235
 9.4541  1205
 9.4641  1277
 9.4741  1219
 9.4841  1327
 9.4941  1386
 9.5041  1418
 9.5141  1390
 9.5241  1399
 9.5341  1450
 9.5441  1529
 9.5541  1578
 9.5641  1672
 9.5741  1759
 9.5841  1912
 9.5941  1977
 9.6041  1995
 9.6141  2206
 9.6241  2347
 9.6341  2414
 9.6441  2381
 9.6541  2484
 9.6641  2596
 9.6741  2526
 9.6841  2396
 9.6941  2439
 9.7041  2382
 9.7141  2195
 9.7241  2024
 9.7341  1943
 9.7441  1767
 9.7541  1596
 9.7641  1540
 9.7741  1464
 9.7841  1337
 9.7941  1241
 9.8041  1119
 9.8141  1027
 9.8241  1033
 9.8341  1071
 9.8441  1019
 9.8541   987
 9.8641  1006
 9.8741   959
 9.8841  1009
 9.8941  1055
 9.9041  1092
 9.9141  1115
 9.9241  1123
 9.9341  1168
 9.9441  1180
 9.9541  1186
 9.9641  1182
 9.9741  1121
 9.9841  1073
 9.9941  1004
10.0041  1009
10.0141   877
10.0241   813
10.0341   784
10.0441   706
10.0541   607
10.0641   526
10.0741   495
10.0841   455
10.0941   388
10.1041   376
10.1141   317
10.1241   324
10.1341   293
10.1441   257
10.1541   257
10.1641   244
10.1741   210
10.1841   216
10.1941   217
10.2041   199
10.2141   201
10.2241   214
10.2341   208
10.2441   200
10.2541   181
10.2641   187
10.2741   188
10.2841   185
10.2941   175
10.3041   163
10.3141   174
10.3241   165
10.3341   154
10.3441   155
10.3541   154
10.3641   159
10.3741   155
10.3841   150
10.3941   157
10.4041   141
10.4141   146
10.4241   149
10.4341   162
10.4441   159
10.4541   157
10.4641   165
10.4741   162
10.4841   167
10.4941   146
10.5041   163
10.5141   175
10.5241   174
10.5341   167
10.5441   188
10.5541   179
10.5641   168
10.5741   177
10.5841   182
10.5941   184
10.6041   180
10.6141   187
10.6241   186
10.6341   188
10.6441   167
10.6541   175
10.6641   153
10.6741   156
10.6841   191
10.6941   185
10.7041   193
10.7141   201
10.7241   190
10.7341   207
10.7441   201
10.7541   199
10.7641   193
10.7741   205
10.7841   227
10.7941   217
10.8041   201
10.8141   230
10.8241   227
10.8341   237
10.8441   229
10.8541   248
10.8641   243
10.8741   256
10.8841   267
10.8941   266
10.9041   269
10.9141   266
10.9241   251
10.9341   253
10.9441   257
10.9541   276
10.9641   259
10.9741   240
10.9841   265
10.9941   257
11.0041   284
11.0141   269
11.0241   236
11.0341   260
11.0441   254
11.0541   237
11.0641   247
11.0741   250
11.0841   238
11.0941   224
11.1041   256
11.1141   223
11.1241   244
11.1341   246
11.1441   245
11.1541   257
11.1641   262
11.1741   292
11.1841   272
11.1941   271
11.2041   313
11.2141   323
11.2241   348
11.2341   369
11.2441   373
11.2541   373
11.2641   386
11.2741   391
11.2841   375
11.2941   383
11.3041   393
11.3141   366
11.3241   363
11.3341   346
11.3441   302
11.3541   283
11.3641   283
11.3741   280
11.3841   272
11.3941   270
11.4041   241
11.4141   219
11.4241   223
11.4341   214
11.4441   186
11.4541   202
11.4641   182
11.4741   187
11.4841   192
11.4941   187
11.5041   173
11.5141   196
11.5241   202
11.5341   194
11.5441   191
11.5541   199
11.5641   204
11.5741   200
11.5841   206
11.5941   203
11.6041   203
11.6141   186
11.6241   189
11.6341   186
11.6441   191
11.6541   183
11.6641   202
11.6741   209
11.6841   188
11.6941   195
11.7041   185
11.7141   212
11.7241   193
11.7341   167
11.7441   168
11.7541   174
11.7641   168
11.7741   160
11.7841   159
11.7941   134
11.8041   122
11.8141   147
11.8241   156
11.8341   146
11.8441   135
11.8541   129
11.8641   147
11.8741   133
11.8841   145
11.8941   145
11.9041   131
11.9141   130
11.9241   146
11.9341   131
11.9441   143
11.9541   134
11.9641   149
11.9741   161
11.9841   171
11.9941   152
12.0041   140
12.0141   131
12.0241   133
12.0341   160
12.0441   147
12.0541   126
12.0641   140
12.0741   142
12.0841   137
12.0941   149
12.1041   137
12.1141   129
12.1241   139
12.1341   142
12.1441   151
12.1541   138
12.1641   127
12.1741   117
12.1841   128
12.1941   134
12.2041   132
12.2141   134
12.2241   134
12.2341   131
12.2441   129
12.2541   133
12.2641   147
12.2741   137
12.2841   133
12.2941   143
12.3041   139
12.3141   140
12.3241   128
12.3341   132
12.3441   141
12.3541   155
12.3641   164
12.3741   153
12.3841   145
12.3941   147
12.4041   139
12.4141   139
12.4241   162
12.4341   162
12.4441   147
12.4541   142
12.4641   129
12.4741   128
12.4841   130
12.4941   143
12.5041   148
12.5141   156
12.5241   151
12.5341   142
12.5441   144
12.5541   159
12.5641   147
12.5741   130
12.5841   143
12.5941   148
12.6041   149
12.6141   159
12.6241   163
12.6341   172
12.6441   172
12.6541   158
12.6641   151
12.6741   153
12.6841   156
12.6941   157
12.7041   157
12.7141   153
12.7241   151
12.7341   159
12.7441   165
12.7541   158
12.7641   146
12.7741   141
12.7841   143
12.7941   147
12.8041   152
12.8141   159
12.8241   161
12.8341   157
12.8441   158
12.8541   161
12.8641   158
12.8741   156
12.8841   155
12.8941   157
12.9041   158
12.9141   153
12.9241   149
12.9341   149
12.9441   148
12.9541   151
12.9641   161
12.9741   169
12.9841   175
12.9941   170
13.0041   161
13.0141   159
13.0241   159
13.0341   159
13.0441   151
13.0541   164
13.0641   180
13.0741   166
13.0841   162
13.0941   161
13.1041   159
13.1141   156
13.1241   149
13.1341   147
13.1441   154
13.1541   157
13.1641   157
13.1741   162
13.1841   171
13.1941   173
13.2041   190
13.2141   210
13.2241   195
13.2341   178
13.2441   184
13.2541   191
13.2641   199
13.2741   210
13.2841   225
13.2941   230
13.3041   250
13.3141   273
13.3241   270
13.3341   262
13.3441   258
13.3541   259
13.3641   267
13.3741   278
13.3841   285
13.3941   292
13.4041   298
13.4141   283
13.4241   257
13.4341   247
13.4441   245
13.4541   242
13.4641   237
13.4741   230
13.4841   224
13.4941   222
13.5041   216
13.5141   207
13.5241   208
13.5341   207
13.5441   196
13.5541   187
13.5641   193
13.5741   203
13.5841   203
13.5941   191
13.6041   183
13.6141   184
13.6241   188
13.6341   192
13.6441   192
13.6541   188
13.6641   190
13.6741   197
13.6841   195
13.6941   196
13.7041   195
13.7141   196
13.7241   202
13.7341   193
13.7441   194
13.7541   201
13.7641   191
13.7741   190
13.7841   186
13.7941   186
13.8041   187
13.8141   177
13.8241   191
13.8341   206
13.8441   200
13.8541   203
13.8641   199
13.8741   205
13.8841   208
13.8941   195
13.9041   203
13.9141   226
13.9241   245
13.9341   245
13.9441   244
13.9541   261
13.9641   279
13.9741   289
13.9841   310
13.9941   335
14.0041   345
14.0141   353
14.0241   380
14.0341   421
14.0441   462
14.0541   502
14.0641   534
14.0741   541
14.0841   539
14.0941   554
14.1041   589
14.1141   624
14.1241   645
14.1341   658
14.1441   656
14.1541   637
14.1641   627
14.1741   627
14.1841   625
14.1941   609
14.2041   574
14.2141   545
14.2241   531
14.2341   506
14.2441   472
14.2541   439
14.2641   406
14.2741   378
14.2841   355
14.2941   333
14.3041   312
14.3141   306
14.3241   295
14.3341   274
14.3441   265
14.3541   254
14.3641   254
14.3741   247
14.3841   234
14.3941   230
14.4041   229
14.4141   218
14.4241   213
14.4341   231
14.4441   213
14.4541   221
14.4641   231
14.4741   208
14.4841   197
14.4941   224
14.5041   243
14.5141   231
14.5241   232
14.5341   233
14.5441   239
14.5541   234
14.5641   216
14.5741   204
14.5841   210
14.5941   226
14.6041   235
14.6141   238
14.6241   240
14.6341   232
14.6441   235
14.6541   241
14.6641   230
14.6741   227
14.6841   237
14.6941   230
14.7041   220
14.7141   230
14.7241   216
14.7341   219
14.7441   239
14.7541   243
14.7641   230
14.7741   235
14.7841   254
14.7941   253
14.8041   247
14.8141   246
14.8241   259
14.8341   269
14.8441   267
14.8541   260
14.8641   262
14.8741   267
14.8841   271
14.8941   270
14.9041   269
14.9141   271
14.9241   272
14.9341   259
14.9441   275
14.9541   287
14.9641   272
14.9741   273
14.9841   293
14.9941   284
15.0041   274
15.0141   264
15.0241   273
15.0341   291
15.0441   282
15.0541   271
15.0641   256
15.0741   256
15.0841   256
15.0941   250
15.1041   268
15.1141   270
15.1241   282
15.1341   268
15.1441   241
15.1541   230
15.1641   241
15.1741   260
15.1841   253
15.1941   242
15.2041   260
15.2141   262
15.2241   252
15.2341   260
15.2441   272
15.2541   268
15.2641   251
15.2741   259
15.2841   250
15.2941   252
15.3041   265
15.3141   251
15.3241   247
15.3341   255
15.3441   276
15.3541   261
15.3641   264
15.3741   254
15.3841   256
15.3941   250
15.4041   251
15.4141   261
15.4241   281
15.4341   279
15.4441   274
15.4541   261
15.4641   256
15.4741   265
15.4841   282
15.4941   271
15.5041   262
15.5141   265
15.5241   267
15.5341   275
15.5441   282
15.5541   302
15.5641   296
15.5741   293
15.5841   308
15.5941   325
15.6041   339
15.6141   329
15.6241   316
15.6341   325
15.6441   341
15.6541   370
15.6641   423
15.6741   441
15.6841   422
15.6941   427
15.7041   432
15.7141   427
15.7241   439
15.7341   442
15.7441   462
15.7541   479
15.7641   483
15.7741   497
15.7841   475
15.7941   477
15.8041   480
15.8141   472
15.8241   517
15.8341   477
15.8441   452
15.8541   430
15.8641   429
15.8741   412
15.8841   399
15.8941   394
15.9041   376
15.9141   381
15.9241   396
15.9341   366
15.9441   355
15.9541   326
15.9641   321
15.9741   325
15.9841   343
15.9941   344
16.0041   322
16.0141   311
16.0241   314
16.0341   318
16.0441   310
16.0541   309
16.0641   313
16.0741   297
16.0841   288
16.0941   313
16.1041   291
16.1141   304
16.1241   300
16.1341   332
16.1441   307
16.1541   303
16.1641   341
16.1741   324
16.1841   309
16.1941   304
16.2041   294
16.2141   303
16.2241   303
16.2341   326
16.2441   323
16.2541   313
16.2641   297
16.2741   311
16.2841   325
16.2941   305
16.3041   302
16.3141   314
16.3241   307
16.3341   319
16.3441   304
16.3541   315
16.3641   303
16.3741   315
16.3841   303
16.3941   325
16.4041   301
16.4141   294
16.4241   320
16.4341   338
16.4441   327
16.4541   316
16.4641   325
16.4741   340
16.4841   328
16.4941   317
16.5041   321
16.5141   320
16.5241   302
16.5341   318
16.5441   338
16.5541   327
16.5641   323
16.5741   325
16.5841   333
16.5941   348
16.6041   342
16.6141   352
16.6241   343
16.6341   358
16.6441   336
16.6541   318
16.6641   337
16.6741   333
16.6841   334
16.6941   336
16.7041   342
16.7141   346
16.7241   331
16.7341   348
16.7441   343
16.7541   353
16.7641   353
16.7741   342
16.7841   348
16.7941   331
16.8041   344
16.8141   344
16.8241   319
16.8341   311
16.8441   332
16.8541   337
16.8641   312
16.8741   302
16.8841   321
16.8941   359
16.9041   313
16.9141   330
16.9241   338
16.9341   340
16.9441   311
16.9541   322
16.9641   345
16.9741   343
16.9841   357
16.9941   337
17.0041   342
17.0141   332
17.0241   361
17.0341   363
17.0441   360
17.0541   382
17.0641   372
17.0741   322
17.0841   321
17.0941   367
17.1041   375
17.1141   371
17.1241   368
17.1341   351
17.1441   374
17.1541   372
17.1641   367
17.1741   346
17.1841   320
17.1941   325
17.2041   353
17.2141   390
17.2241   357
17.2341   348
17.2441   346
17.2541   379
17.2641   376
17.2741   373
17.2841   387
17.2941   380
17.3041   381
17.3141   377
17.3241   354
17.3341   351
17.3441   377
17.3541   359
17.3641   324
17.3741   345
17.3841   372
17.3941   372
17.4041   380
17.4141   394
17.4241   385
17.4341   384
17.4441   373
17.4541   388
17.4641   377
17.4741   396
17.4841   381
17.4941   396
17.5041   400
17.5141   364
17.5241   392
17.5341   380
17.5441   362
17.5541   383
17.5641   392
17.5741   378
17.5841   384
17.5941   397
17.6041   362
17.6141   397
17.6241   391
17.6341   431
17.6441   426
17.6541   420
17.6641   425
17.6741   429
17.6841   405
17.6941   380
17.7041   414
17.7141   402
17.7241   413
17.7341   409
17.7441   421
17.7541   415
17.7641   397
17.7741   408
17.7841   408
17.7941   404
17.8041   379
17.8141   395
17.8241   390
17.8341   383
17.8441   388
17.8541   388
17.8641   388
17.8741   406
17.8841   418
17.8941   416
17.9041   413
17.9141   403
17.9241   408
17.9341   422
17.9441   432
17.9541   409
17.9641   406
17.9741   423
17.9841   416
17.9941   394
18.0041   395
18.0141   377
18.0241   403
18.0341   406
18.0441   412
18.0541   412
18.0641   389
18.0741   420
18.0841   389
18.0941   410
18.1041   430
18.1141   395
18.1241   417
18.1341   405
18.1441   425
18.1541   450
18.1641   421
18.1741   393
18.1841   412
18.1941   413
18.2041   431
18.2141   394
18.2241   409
18.2341   436
18.2441   409
18.2541   379
18.2641   412
18.2741   422
18.2841   411
18.2941   386
18.3041   385
18.3141   395
18.3241   388
18.3341   400
18.3441   413
18.3541   392
18.3641   403
18.3741   414
18.3841   426
18.3941   444
18.4041   445
18.4141   408
18.4241   411
18.4341   383
18.4441   400
18.4541   416
18.4641   408
18.4741   449
18.4841   450
18.4941   427
18.5041   426
18.5141   428
18.5241   424
18.5341   424
18.5441   423
18.5541   446
18.5641   451
18.5741   429
18.5841   446
18.5941   428
18.6041   391
18.6141   397
18.6241   454
18.6341   427
18.6441   456
18.6541   436
18.6641   452
18.6741   441
18.6841   453
18.6941   452
18.7041   433
18.7141   434
18.7241   432
18.7341   428
18.7441   461
18.7541   439
18.7641   409
18.7741   434
18.7841   429
18.7941   450
18.8041   438
18.8141   432
18.8241   435
18.8341   431
18.8441   444
18.8541   438
18.8641   416
18.8741   457
18.8841   461
18.8941   438
18.9041   411
18.9141   441
18.9241   467
18.9341   445
18.9441   418
18.9541   426
18.9641   416
18.9741   441
18.9841   458
18.9941   438
19.0041   443
19.0141   455
19.0241   460
19.0341   449
19.0441   459
19.0541   450
19.0641   452
19.0741   438
19.0841   448
19.0941   463
19.1041   451
19.1141   466
19.1241   452
19.1341   451
19.1441   433
19.1541   433
19.1641   470
19.1741   438
19.1841   452
19.1941   426
19.2041   439
19.2141   472
19.2241   468
19.2341   438
19.2441   450
19.2541   482
19.2641   432
19.2741   437
19.2841   476
19.2941   465
19.3041   473
19.3141   450
19.3241   474
19.3341   450
19.3441   458
19.3541   426
19.3641   423
19.3741   477
19.3841   472
19.3941   476
19.4041   466
19.4141   449
19.4241   435
19.4341   430
19.4441   449
19.4541   449
19.4641   489
19.4741   502
19.4841   484
19.4941   492
19.5041   468
19.5141   478
19.5241   485
19.5341   468
19.5441   476
19.5541   430
19.5641   460
19.5741   486
19.5841   479
19.5941   456
19.6041   464
19.6141   466
19.6241   487
19.6341   424
19.6441   471
19.6541   468
19.6641   446
19.6741   451
19.6841   483
19.6941   490
19.7041   453
19.7141   479
19.7241   480
19.7341   463
19.7441   504
19.7541   461
19.7641   473
19.7741   465
19.7841   445
19.7941   457
19.8041   450
19.8141   473
19.8241   490
19.8341   461
19.8441   449
19.8541   456
19.8641   449
19.8741   453
19.8841   480
19.8941   446
19.9041   467
19.9141   513
19.9241   489
19.9341   492
19.9441   492
19.9541   478
19.9641   452
19.9741   507
19.9841   507
19.9941   437
20.0041   474
20.0141   477
20.0241   487
20.0341   487
20.0441   479
20.0541   511
20.0641   492
20.0741   485
20.0841   506
20.0941   457
20.1041   504
20.1141   486
20.1241   496
20.1341   488
20.1441   480
20.1541   484
20.1641   487
20.1741   509
20.1841   508
20.1941   490
20.2041   494
20.2141   476
20.2241   470
20.2341   496
20.2441   484
20.2541   476
20.2641   495
20.2741   494
20.2841   456
20.2941   481
20.3041   458
20.3141   465
20.3241   484
20.3341   505
20.3441   482
20.3541   481
20.3641   506
20.3741   482
20.3841   471
20.3941   496
20.4041   472
20.4141   458
20.4241   482
20.4341   491
20.4441   481
20.4541   487
20.4641   475
20.4741   478
20.4841   498
20.4941   508
20.5041   498
20.5141   484
20.5241   493
20.5341   520
20.5441   489
20.5541   458
20.5641   487
20.5741   479
20.5841   498
20.5941   478
20.6041   499
20.6141   505
20.6241   504
20.6341   532
20.6441   469
20.6541   461
20.6641   505
20.6741   519
20.6841   481
20.6941   486
20.7041   484
20.7141   462
20.7241   484
20.7341   541
20.7441   516
20.7541   513
20.7641   538
20.7741   526
20.7841   523
20.7941   522
20.8041   516
20.8141   488
20.8241   515
20.8341   513
20.8441   549
20.8541   521
20.8641   520
20.8741   525
20.8841   561
20.8941   574
20.9041   548
20.9141   556
20.9241   585
20.9341   602
20.9441   620
20.9541   629
20.9641   617
20.9741   598
20.9841   632
20.9941   651
21.0041   665
21.0141   649
21.0241   675
21.0341   663
21.0441   747
21.0541   758
21.0641   720
21.0741   769
21.0841   748
21.0941   738
21.1041   787
21.1141   774
21.1241   765
21.1341   737
21.1441   737
21.1541   749
21.1641   772
21.1741   718
21.1841   708
21.1941   738
21.2041   703
21.2141   721
21.2241   689
21.2341   683
21.2441   678
21.2541   678
21.2641   675
21.2741   653
21.2841   630
21.2941   593
21.3041   626
21.3141   625
21.3241   588
21.3341   563
21.3441   539
21.3541   558
21.3641   568
21.3741   565
21.3841   544
21.3941   529
21.4041   506
21.4141   543
21.4241   562
21.4341   532
21.4441   504
21.4541   528
21.4641   510
21.4741   506
21.4841   475
21.4941   526
21.5041   507
21.5141   518
21.5241   534
21.5341   471
21.5441   465
21.5541   496
21.5641   481
21.5741   516
21.5841   469
21.5941   490
21.6041   469
21.6141   526
21.6241   496
21.6341   544
21.6441   531
21.6541   502
21.6641   514
21.6741   464
21.6841   506
21.6941   477
21.7041   500
21.7141   491
21.7241   521
21.7341   480
21.7441   514
21.7541   476
21.7641   491
21.7741   523
21.7841   496
21.7941   546
21.8041   497
21.8141   506
21.8241   473
21.8341   552
21.8441   522
21.8541   525
21.8641   527
21.8741   512
21.8841   522
21.8941   489
21.9041   490
21.9141   487
21.9241   498
21.9341   517
21.9441   508
21.9541   516
21.9641   475
21.9741   471
21.9841   476
21.9941   510
22.0041   503
22.0141   480
22.0241   518
22.0341   537
22.0441   484
22.0541   480
22.0641   575
22.0741   487
22.0841   536
22.0941   499
22.1041   532
22.1141   505
22.1241   548
22.1341   524
22.1441   494
22.1541   517
22.1641   537
22.1741   509
22.1841   505
22.1941   520
22.2041   474
22.2141   528
22.2241   496
22.2341   464
22.2441   506
22.2541   483
22.2641   512
22.2741   501
22.2841   500
22.2941   496
22.3041   479
22.3141   524
22.3241   502
22.3341   482
22.3441   493
22.3541   477
22.3641   499
22.3741   488
22.3841   522
22.3941   493
22.4041   496
22.4141   497
22.4241   489
22.4341   502
22.4441   488
22.4541   488
22.4641   495
22.4741   460
22.4841   528
22.4941   520
22.5041   512
22.5141   515
22.5241   555
22.5341   511
22.5441   500
22.5541   491
22.5641   526
22.5741   516
22.5841   515
22.5941   494
22.6041   530
22.6141   470
22.6241   463
22.6341   486
22.6441   512
22.6541   457
22.6641   479
22.6741   507
22.6841   465
22.6941   478
22.7041   487
22.7141   521
22.7241   494
22.7341   505
22.7441   495
22.7541   476
22.7641   500
22.7741   522
22.7841   540
22.7941   538
22.8041   483
22.8141   488
22.8241   493
22.8341   498
22.8441   476
22.8541   485
22.8641   493
22.8741   508
22.8841   440
22.8941   503
22.9041   500
22.9141   535
22.9241   498
22.9341   493
22.9441   519
22.9541   506
22.9641   513
22.9741   495
22.9841   520
22.9941   475
23.0041   525
23.0141   462
23.0241   487
23.0341   523
23.0441   487
23.0541   455
23.0641   518
23.0741   486
23.0841   486
23.0941   507
23.1041   505
23.1141   468
23.1241   503
23.1341   538
23.1441   436
23.1541   482
23.1641   509
23.1741   535
23.1841   505
23.1941   519
23.2041   488
23.2141   494
23.2241   481
23.2341   483
23.2441   478
23.2541   473
23.2641   476
23.2741   531
23.2841   502
23.2941   476
23.3041   481
23.3141   502
23.3241   469
23.3341   437
23.3441   474
23.3541   481
23.3641   518
23.3741   513
23.3841   506
23.3941   497
23.4041   511
23.4141   472
23.4241   476
23.4341   489
23.4441   455
23.4541   488
23.4641   491
23.4741   529
23.4841   499
23.4941   463
23.5041   493
23.5141   524
23.5241   496
23.5341   499
23.5441   488
23.5541   467
23.5641   532
23.5741   500
23.5841   520
23.5941   496
23.6041   475
23.6141   501
23.6241   486
23.6341   494
23.6441   526
23.6541   473
23.6641   505
23.6741   551
23.6841   513
23.6941   515
23.7041   477
23.7141   510
23.7241   520
23.7341   493
23.7441   526
23.7541   470
23.7641   532
23.7741   513
23.7841   536
23.7941   523
23.8041   484
23.8141   517
23.8241   576
23.8341   487
23.8441   496
23.8541   505
23.8641   517
23.8741   514
23.8841   529
23.8941   502
23.9041   520
23.9141   510
23.9241   520
23.9341   465
23.9441   488
23.9541   496
23.9641   459
23.9741   526
23.9841   463
23.9941   475
24.0041   442
24.0141   468
24.0241   456
24.0341   482
24.0441   460
24.0541   477
24.0641   462
24.0741   462
24.0841   468
24.0941   469
24.1041   469
24.1141   445
24.1241   462
24.1341   468
24.1441   473
24.1541   465
24.1641   455
24.1741   452
24.1841   484
24.1941   479
24.2041   492
24.2141   483
24.2241   528
24.2341   456
24.2441   489
24.2541   444
24.2641   482
24.2741   459
24.2841   507
24.2941   454
24.3041   451
24.3141   509
24.3241   450
24.3341   457
24.3441   475
24.3541   450
24.3641   477
24.3741   490
24.3841   488
24.3941   508
24.4041   473
24.4141   453
24.4241   436
24.4341   469
24.4441   491
24.4541   434
24.4641   452
24.4741   447
24.4841   450
24.4941   456
24.5041   445
24.5141   494
24.5241   478
24.5341   467
24.5441   451
24.5541   440
24.5641   445
24.5741   468
24.5841   462
24.5941   438
24.6041   477
24.6141   460
24.6241   466
24.6341   421
24.6441   442
24.6541   441
24.6641   500
24.6741   477
24.6841   473
24.6941   461
24.7041   413
24.7141   467
24.7241   466
24.7341   436
24.7441   479
24.7541   457
24.7641   468
24.7741   456
24.7841   419
24.7941   427
24.8041   429
24.8141   399
24.8241   449
24.8341   450
24.8441   442
24.8541   471
24.8641   444
24.8741   444
24.8841   449
24.8941   460
24.9041   456
24.9141   473
24.9241   437
24.9341   448
24.9441   440
24.9541   481
24.9641   477
24.9741   460
24.9841   432
24.9941   483
25.0041   427
25.0141   453
25.0241   472
25.0341   448
25.0441   452
25.0541   455
25.0641   472
25.0741   464
25.0841   466
25.0941   441
25.1041   462
25.1141   420
25.1241   452
25.1341   460
25.1441   462
25.1541   446
25.1641   442
25.1741   466
25.1841   453
25.1941   448
25.2041   455
25.2141   416
25.2241   416
25.2341   422
25.2441   462
25.2541   429
25.2641   439
25.2741   469
25.2841   480
25.2941   484
25.3041   457
25.3141   479
25.3241   446
25.3341   466
25.3441   429
25.3541   473
25.3641   464
25.3741   430
25.3841   422
25.3941   449
25.4041   438
25.4141   405
25.4241   391
25.4341   430
25.4441   439
25.4541   409
25.4641   421
25.4741   449
25.4841   455
25.4941   445
25.5041   415
25.5141   430
25.5241   421
25.5341   423
25.5441   429
25.5541   446
25.5641   426
25.5741   402
25.5841   401
25.5941   435
25.6041   443
25.6141   405
25.6241   417
25.6341   376
25.6441   450
25.6541   421
25.6641   416
25.6741   392
25.6841   391
25.6941   411
25.7041   410
25.7141   409
25.7241   389
25.7341   378
25.7441   422
25.7541   418
25.7641   428
25.7741   428
25.7841   411
25.7941   398
25.8041   396
25.8141   406
25.8241   408
25.8341   431
25.8441   417
25.8541   409
25.8641   392
25.8741   395
25.8841   399
25.8941   415
25.9041   438
25.9141   436
25.9241   387
25.9341   429
25.9441   398
25.9541   400
25.9641   391
25.9741   438
25.9841   423
25.9941   403
26.0041   413
26.0141   406
26.0241   400
26.0341   391
26.0441   410
26.0541   392
26.0641   424
26.0741   419
26.0841   396
26.0941   433
26.1041   432
26.1141   388
26.1241   394
26.1341   382
26.1441   416
26.1541   391
26.1641   417
26.1741   445
26.1841   382
26.1941   387
26.2041   410
26.2141   417
26.2241   403
26.2341   410
26.2441   387
26.2541   400
26.2641   417
26.2741   408
26.2841   392
26.2941   420
26.3041   402
26.3141   392
26.3241   387
26.3341   419
26.3441   381
26.3541   378
26.3641   373
26.3741   409
26.3841   382
26.3941   388
26.4041   389
26.4141   402
26.4241   400
26.4341   401
26.4441   357
26.4541   369
26.4641   408
26.4741   388
26.4841   368
26.4941   371
26.5041   377
26.5141   389
26.5241   396
26.5341   390
26.5441   413
26.5541   392
26.5641   367
26.5741   399
26.5841   372
26.5941   372
26.6041   405
26.6141   409
26.6241   386
26.6341   360
26.6441   372
26.6541   411
26.6641   355
26.6741   368
26.6841   417
26.6941   412
26.7041   378
26.7141   387
26.7241   390
26.7341   412
26.7441   366
26.7541   369
26.7641   365
26.7741   369
26.7841   398
26.7941   362
26.8041   362
26.8141   361
26.8241   405
26.8341   415
26.8441   364
26.8541   426
26.8641   361
26.8741   373
26.8841   392
26.8941   375
26.9041   351
26.9141   370
26.9241   358
26.9341   353
26.9441   406
26.9541   404
26.9641   379
26.9741   392
26.9841   374
26.9941   378
27.0041   340
27.0141   331
27.0241   374
27.0341   351
27.0441   363
27.0541   366
27.0641   374
27.0741   369
27.0841   353
27.0941   386
27.1041   390
27.1141   356
27.1241   372
27.1341   363
27.1441   359
27.1541   336
27.1641   371
27.1741   360
27.1841   346
27.1941   348
27.2041   334
27.2141   376
27.2241   342
27.2341   385
27.2441   373
27.2541   373
27.2641   369
27.2741   378
27.2841   380
27.2941   354
27.3041   345
27.3141   357
27.3241   352
27.3341   394
27.3441   398
27.3541   329
27.3641   373
27.3741   357
27.3841   342
27.3941   329
27.4041   374
27.4141   365
27.4241   365
27.4341   370
27.4441   359
27.4541   378
27.4641   336
27.4741   393
27.4841   369
27.4941   334
27.5041   376
27.5141   374
27.5241   367
27.5341   360
27.5441   389
27.5541   346
27.5641   359
27.5741   345
27.5841   384
27.5941   364
27.6041   333
27.6141   360
27.6241   387
27.6341   348
27.6441   366
27.6541   337
27.6641   316
27.6741   337
27.6841   338
27.6941   353
27.7041   332
27.7141   343
27.7241   345
27.7341   339
27.7441   331
27.7541   340
27.7641   332
27.7741   347
27.7841   356
27.7941   318
27.8041   333
27.8141   326
27.8241   318
27.8341   319
27.8441   328
27.8541   337
27.8641   350
27.8741   344
27.8841   337
27.8941   334
27.9041   325
27.9141   334
27.9241   350
27.9341   358
27.9441   333
27.9541   364
27.9641   325
27.9741   329
27.9841   319
27.9941   326
28.0041   341
28.0141   347
28.0241   330
28.0341   361
28.0441   327
28.0541   331
28.0641   336
28.0741   358
28.0841   312
28.0941   331
28.1041   363
28.1141   320
28.1241   299
28.1341   302
28.1441   305
28.1541   318
28.1641   364
28.1741   325
28.1841   306
28.1941   313
28.2041   309
28.2141   313
28.2241   296
28.2341   331
28.2441   336
28.2541   307
28.2641   299
28.2741   303
28.2841   298
28.2941   329
28.3041   310
28.3141   290
28.3241   331
28.3341   314
28.3441   331
28.3541   332
28.3641   305
28.3741   325
28.3841   307
28.3941   309
28.4041   326
28.4141   321
28.4241   310
28.4341   348
28.4441   330
28.4541   333
28.4641   345
28.4741   332
28.4841   310
28.4941   312
28.5041   332
28.5141   317
28.5241   305
28.5341   277
28.5441   311
28.5541   328
28.5641   302
28.5741   316
28.5841   328
28.5941   308
28.6041   330
28.6141   342
28.6241   331
28.6341   302
28.6441   309
28.6541   311
28.6641   294
28.6741   318
28.6841   305
28.6941   319
28.7041   305
28.7141   320
28.7241   305
28.7341   307
28.7441   289
28.7541   279
28.7641   293
28.7741   300
28.7841   294
28.7941   286
28.8041   287
28.8141   295
28.8241   309
28.8341   278
28.8441   285
28.8541   311
28.8641   299
28.8741   302
28.8841   282
28.8941   269
28.9041   286
28.9141   263
28.9241   282
28.9341   288
28.9441   303
28.9541   297
28.9641   293
28.9741   305
28.9841   312
28.9941   302
29.0041   257
29.0141   279
29.0241   295
29.0341   282
29.0441   304
29.0541   279
29.0641   323
29.0741   295
29.0841   304
29.0941   283
29.1041   286
29.1141   320
29.1241   300
29.1341   274
29.1441   299
29.1541   319
29.1641   264
29.1741   282
29.1841   275
29.1941   241
29.2041   285
29.2141   289
29.2241   297
29.2341   274
29.2441   273
29.2541   271
29.2641   288
29.2741   289
29.2841   300
29.2941   300
29.3041   254
29.3141   254
29.3241   255
29.3341   280
29.3441   244
29.3541   279
29.3641   276
29.3741   277
29.3841   286
29.3941   304
29.4041   293
29.4141   279
29.4241   304
29.4341   279
29.4441   285
29.4541   260
29.4641   297
29.4741   264
29.4841   255
29.4941   236
29.5041   258
29.5141   289
29.5241   282
29.5341   262
29.5441   259
29.5541   259
29.5641   281
29.5741   256
29.5841   271
29.5941   293
29.6041   275
29.6141   255
29.6241   294
29.6341   252
29.6441   261
29.6541   274
29.6641   257
29.6741   266
29.6841   262
29.6941   250
29.7041   273
29.7141   252
29.7241   280
29.7341   276
29.7441   271
29.7541   252
29.7641   270
29.7741   289
29.7841   251
29.7941   248
29.8041   286
29.8141   292
29.8241   270
29.8341   247
29.8441   242
29.8541   289
29.8641   274
29.8741   236
29.8841   242
29.8941   241
29.9041   267
29.9141   262
29.9241   280
29.9341   266
29.9441   254
29.9541   264
29.9641   266
29.9741   244
29.9841   252
29.9941   258
30.0041   277
30.0141   261
30.0241   276
30.0341   247
30.0441   259
30.0541   257
30.0641   235
30.0741   259
30.0841   261
30.0941   278
30.1041   263
30.1141   269
30.1241   236
30.1341   244
30.1441   236
30.1541   267
30.1641   246
30.1741   259
30.1841   256
30.1941   264
30.2041   259
30.2141   273
30.2241   259
30.2341   259
30.2441   252
30.2541   230
30.2641   229
30.2741   242
30.2841   217
30.2941   230
30.3041   237
30.3141   237
30.3241   241
30.3341   251
30.3441   236
30.3541   262
30.3641   254
30.3741   247
30.3841   259
30.3941   241
30.4041   233
30.4141   237
30.4241   253
30.4341   242
30.4441   249
30.4541   247
30.4641   250
30.4741   254
30.4841   269
30.4941   226
30.5041   211
30.5141   223
30.5241   250
30.5341   266
30.5441   240
30.5541   256
30.5641   226
30.5741   253
30.5841   241
30.5941   256
30.6041   236
30.6141   235
30.6241   213
30.6341   238
30.6441   246
30.6541   237
30.6641   243
30.6741   241
30.6841   230
30.6941   236
30.7041   251
30.7141   232
30.7241   271
30.7341   247
30.7441   245
30.7541   225
30.7641   218
30.7741   222
30.7841   226
30.7941   236
30.8041   234
30.8141   244
30.8241   216
30.8341   235
30.8441   214
30.8541   231
30.8641   238
30.8741   217
30.8841   222
30.8941   215
30.9041   207
30.9141   243
30.9241   236
30.9341   237
30.9441   224
30.9541   228
30.9641   226
30.9741   207
30.9841   224
30.9941   214
31.0041   252
31.0141   230
31.0241   195
31.0341   207
31.0441   216
31.0541   236
31.0641   215
31.0741   243
31.0841   206
31.0941   216
31.1041   197
31.1141   205
31.1241   233
31.1341   224
31.1441   203
31.1541   224
31.1641   227
31.1741   229
31.1841   221
31.1941   212
31.2041   226
31.2141   219
31.2241   212
31.2341   220
31.2441   212
31.2541   194
31.2641   226
31.2741   234
31.2841   205
31.2941   223
31.3041   182
31.3141   190
31.3241   214
31.3341   223
31.3441   218
31.3541   188
31.3641   201
31.3741   200
31.3841   211
31.3941   204
31.4041   192
31.4141   207
31.4241   225
31.4341   189
31.4441   194
31.4541   214
31.4641   197
31.4741   215
31.4841   210
31.4941   196
31.5041   188
31.5141   201
31.5241   212
31.5341   203
31.5441   222
31.5541   236
31.5641   234
31.5741   202
31.5841   225
31.5941   187
31.6041   214
31.6141   197
31.6241   188
31.6341   189
31.6441   208
31.6541   229
31.6641   217
31.6741   194
31.6841   188
31.6941   220
31.7041   221
31.7141   207
31.7241   224
31.7341   218
31.7441   205
31.7541   218
31.7641   200
31.7741   204
31.7841   207
31.7941   211
31.8041   214
31.8141   212
31.8241   226
31.8341   201
31.8441   211
31.8541   201
31.8641   218
31.8741   219
31.8841   211
31.8941   207
31.9041   201
31.9141   220
31.9241   208
31.9341   210
31.9441   190
31.9541   182
31.9641   188
31.9741   195
31.9841   213
31.9941   212
32.0041   203
32.0141   210
32.0241   202
32.0341   214
32.0441   216
32.0541   197
32.0641   196
32.0741   196
32.0841   215
32.0941   222
32.1041   232
32.1141   219
32.1241   243
32.1341   213
32.1441   232
32.1541   217
32.1641   197
32.1741   205
32.1841   203
32.1941   227
32.2041   215
32.2141   218
32.2241   230
32.2341   212
32.2441   203
32.2541   203
32.2641   211
32.2741   237
32.2841   220
32.2941   224
32.3041   215
32.3141   198
32.3241   198
32.3341   210
32.3441   208
32.3541   196
32.3641   211
32.3741   174
32.3841   188
32.3941   183
32.4041   176
32.4141   182
32.4241   160
32.4341   185
32.4441   172
32.4541   181
32.4641   165
32.4741   189
32.4841   172
32.4941   165
32.5041   188
32.5141   185
32.5241   164
32.5341   165
32.5441   179
32.5541   170
32.5641   163
32.5741   179
32.5841   188
32.5941   175
32.6041   162
32.6141   182
32.6241   171
32.6341   168
32.6441   164
32.6541   178
32.6641   156
32.6741   176
32.6841   168
32.6941   156
32.7041   162
32.7141   184
32.7241   171
32.7341   178
32.7441   174
32.7541   158
32.7641   190
32.7741   163
32.7841   179
32.7941   159
32.8041   172
32.8141   165
32.8241   141
32.8341   171
32.8441   149
32.8541   162
32.8641   171
32.8741   164
32.8841   162
32.8941   177
32.9041   163
32.9141   182
32.9241   182
32.9341   162
32.9441   158
32.9541   159
32.9641   172
32.9741   177
32.9841   166
32.9941   180
33.0041   183
33.0141   177
33.0241   166
33.0341   152
33.0441   173
33.0541   142
33.0641   156
33.0741   155
33.0841   168
33.0941   147
33.1041   160
33.1141   143
33.1241   134
33.1341   151
33.1441   168
33.1541   136
33.1641   164
33.1741   162
33.1841   143
33.1941   154
33.2041   147
33.2141   148
33.2241   151
33.2341   149
33.2441   163
33.2541   181
33.2641   163
33.2741   160
33.2841   151
33.2941   160
33.3041   141
33.3141   148
33.3241   181
33.3341   141
33.3441   152
33.3541   172
33.3641   144
33.3741   173
33.3841   150
33.3941   162
33.4041   153
33.4141   148
33.4241   159
33.4341   155
33.4441   153
33.4541   144
33.4641   141
33.4741   159
33.4841   135
33.4941   154
33.5041   136
33.5141   134
33.5241   134
33.5341   165
33.5441   135
33.5541   158
33.5641   146
33.5741   133
33.5841   142
33.5941   161
33.6041   128
33.6141   142
33.6241   157
33.6341   159
33.6441   155
33.6541   136
33.6641   154
33.6741   153
33.6841   138
33.6941   128
33.7041   136
33.7141   132
33.7241   136
33.7341   157
33.7441   141
33.7541   143
33.7641   126
33.7741   133
33.7841   134
33.7941   156
33.8041   142
33.8141   147
33.8241   135
33.8341   150
33.8441   136
33.8541   151
33.8641   137
33.8741   137
33.8841   148
33.8941   130
33.9041   117
33.9141   149
33.9241   140
33.9341   137
33.9441   141
33.9541   138
33.9641   136
33.9741   138
33.9841   123
33.9941   136
34.0041   135
34.0141   130
34.0241   121
34.0341   118
34.0441   123
34.0541   132
34.0641   124
34.0741   143
34.0841   149
34.0941   139
34.1041   118
34.1141   120
34.1241   150
34.1341   135
34.1441   156
34.1541   138
34.1641   130
34.1741   125
34.1841   120
34.1941   121
34.2041   108
34.2141   123
34.2241   124
34.2341   128
34.2441   125
34.2541   148
34.2641   130
34.2741   124
34.2841   142
34.2941   129
34.3041   129
34.3141   132
34.3241   143
34.3341   128
34.3441   122
34.3541   117
34.3641   121
34.3741   125
34.3841   107
34.3941   141
34.4041   107
34.4141   110
34.4241   111
34.4341   104
34.4441   126
34.4541   109
34.4641   111
34.4741   104
34.4841   108
34.4941   108
34.5041   128
34.5141   112
34.5241   123
34.5341   110
34.5441   111
34.5541   118
34.5641   126
34.5741   115
34.5841   120
34.5941   118
34.6041   102
34.6141   115
34.6241    94
34.6341   114
34.6441   122
34.6541   123
34.6641   116
34.6741   128
34.6841   121
34.6941    98
34.7041   120
34.7141   112
34.7241   117
34.7341   117
34.7441   111
34.7541   109
34.7641   108
34.7741   127
34.7841   107
34.7941   107
34.8041   119
34.8141   109
34.8241   133
34.8341   116
34.8441   105
34.8541   116
34.8641   107
34.8741    93
34.8841   127
34.8941   129
34.9041    89
34.9141   103
34.9241   107
34.9341   110
34.9441   123
34.9541   125
34.9641   102
34.9741    98
34.9841    94
34.9941   121
35.0041   114
35.0141   126
35.0241    88
35.0341   102
35.0441   116
35.0541   123
35.0641   126
35.0741   120
35.0841   104
35.0941   106
35.1041   115
35.1141   110
35.1241    91
35.1341   107
35.1441   111
35.1541   105
35.1641   100
35.1741   106
35.1841   104
35.1941    86
35.2041   115
35.2141   108
35.2241   122
35.2341   106
35.2441   111
35.2541   125
35.2641   112
35.2741    92
35.2841   102
35.2941    88
35.3041    87
35.3141    99
35.3241    96
35.3341   104
35.3441   115
35.3541   100
35.3641   112
35.3741    79
35.3841    96
35.3941    99
35.4041   108
35.4141    84
35.4241    95
35.4341   112
35.4441   102
35.4541   109
35.4641    98
35.4741    90
35.4841   102
35.4941    89
35.5041    95
35.5141    97
35.5241   103
35.5341   117
35.5441    96
35.5541   104
35.5641    74
35.5741   106
35.5841    95
35.5941   113
35.6041    96
35.6141    84
35.6241    86
35.6341   101
35.6441    88
35.6541    93
35.6641   110
35.6741   100
35.6841   103
35.6941   104
35.7041    80
35.7141    88
35.7241    90
35.7341   108
35.7441    92
35.7541   105
35.7641    96
35.7741    99
35.7841    94
35.7941    82
35.8041    95
35.8141   100
35.8241    73
35.8341    84
35.8441    72
35.8541    87
35.8641    90
35.8741    97
35.8841    96
35.8941    99
35.9041    85
35.9141    93
35.9241   103
35.9341   103
35.9441    83
35.9541    97
35.9641    98
35.9741    78
35.9841    85
35.9941    84
36.0041    73
36.0141    91
36.0241    87
36.0341    87
36.0441    76
36.0541    91
36.0641   103
36.0741    73
36.0841   101
36.0941    68
36.1041    95
36.1141    81
36.1241    69
36.1341    88
36.1441    79
36.1541    82
36.1641    82
36.1741    85
36.1841    85
36.1941   103
36.2041    81
36.2141    94
36.2241    94
36.2341    91
36.2441    98
36.2541    94
36.2641    93
36.2741    86
36.2841    87
36.2941    89
36.3041    67
36.3141    93
36.3241    97
36.3341    92
36.3441    88
36.3541    87
36.3641    84
36.3741    87
36.3841    88
36.3941    74
36.4041   100
36.4141    90
36.4241    88
36.4341    76
36.4441    68
36.4541    84
36.4641    74
36.4741    86
36.4841    89
36.4941    82
36.5041    71
36.5141    80
36.5241    65
36.5341    85
36.5441    82
36.5541    78
36.5641    72
36.5741    94
36.5841    76
36.5941    80
36.6041    75
36.6141    86
36.6241    70
36.6341    70
36.6441    90
36.6541    69
36.6641    65
36.6741    68
36.6841    75
36.6941    81
36.7041    76
36.7141    72
36.7241    74
36.7341    81
36.7441    77
36.7541    84
36.7641    73
36.7741    73
36.7841    55
36.7941    87
36.8041    73
36.8141    84
36.8241    54
36.8341    62
36.8441    82
36.8541    84
36.8641    67
36.8741    81
36.8841    80
36.8941    83
36.9041    73
36.9141    57
36.9241    75
36.9341    78
36.9441    83
36.9541    70
36.9641    94
36.9741    83
36.9841    92
36.9941    71
37.0041    72
37.0141    86
37.0241    62
37.0341    64
37.0441    65
37.0541    70
37.0641    73
37.0741    69
37.0841    66
37.0941    72
37.1041    59
37.1141    71
37.1241    78
37.1341    78
37.1441    79
37.1541    84
37.1641    74
37.1741    62
37.1841    68
37.1941    61
37.2041    62
37.2141    75
37.2241    69
37.2341    77
37.2441    71
37.2541    58
37.2641    66
37.2741    67
37.2841    68
37.2941    55
37.3041    69
37.3141    70
37.3241    74
37.3341    60
37.3441    71
37.3541    78
37.3641    59
37.3741    56
37.3841    65
37.3941    86
37.4041    76
37.4141    65
37.4241    67
37.4341    71
37.4441    57
37.4541    68
37.4641    68
37.4741    68
37.4841    39
37.4941    62
37.5041    69
37.5141    67
37.5241    67
37.5341    50
37.5441    73
37.5541    66
37.5641    67
37.5741    64
37.5841    70
37.5941    57
37.6041    53
37.6141    74
37.6241    58
37.6341    61
37.6441    54
37.6541    45
37.6641    64
37.6741    48
37.6841    55
37.6941    47
37.7041    60
37.7141    46
37.7241    53
37.7341    67
37.7441    65
37.7541    58
37.7641    75
37.7741    59
37.7841    65
37.7941    62
37.8041    64
37.8141    54
37.8241    56
37.8341    56
37.8441    57
37.8541    64
37.8641    52
37.8741    54
37.8841    65
37.8941    62
37.9041    49
37.9141    66
37.9241    69
37.9341    50
37.9441    58
37.9541    55
37.9641    53
37.9741    62
37.9841    43
37.9941    49
38.0041    56
38.0141    42
38.0241    46
38.0341    45
38.0441    50
38.0541    64
38.0641    58
38.0741    55
38.0841    53
38.0941    50
38.1041    52
38.1141    52
38.1241    56
38.1341    54
38.1441    61
38.1541    43
38.1641    44
38.1741    51
38.1841    47
38.1941    56
38.2041    59
38.2141    42
38.2241    51
38.2341    52
38.2441    51
38.2541    54
38.2641    45
38.2741    51
38.2841    47
38.2941    39
38.3041    41
38.3141    49
38.3241    71
38.3341    53
38.3441    55
38.3541    52
38.3641    51
38.3741    46
38.3841    36
38.3941    52
38.4041    47
38.4141    37
38.4241    52
38.4341    43
38.4441    45
38.4541    35
38.4641    50
38.4741    48
38.4841    49
38.4941    52
38.5041    46
38.5141    49
38.5241    42
38.5341    46
38.5441    50
38.5541    39
38.5641    46
38.5741    40
38.5841    41
38.5941    49
38.6041    50
38.6141    47
38.6241    38
38.6341    45
38.6441    44
38.6541    52
38.6641    45
38.6741    42
38.6841    51
38.6941    35
38.7041    43
38.7141    47
38.7241    41
38.7341    44
38.7441    39
38.7541    56
38.7641    40
38.7741    41
38.7841    39
38.7941    49
38.8041    42
38.8141    36
38.8241    41
38.8341    45
38.8441    50
38.8541    46
38.8641    42
38.8741    39
38.8841    43
38.8941    43
38.9041    51
38.9141    44
38.9241    36
38.9341    41
38.9441    47
38.9541    44
38.9641    35
38.9741    44
38.9841    33
38.9941    39
39.0041    42
39.0141    47
39.0241    35
39.0341    44
39.0441    36
39.0541    35
39.0641    34
39.0741    44
39.0841    40
39.0941    48
39.1041    55
39.1141    43
39.1241    44
39.1341    45
39.1441    43
39.1541    39
39.1641    42
39.1741    41
39.1841    47
39.1941    31
39.2041    41
39.2141    40
39.2241    46
39.2341    34
39.2441    36
39.2541    39
39.2641    35
39.2741    32
39.2841    40
39.2941    31
39.3041    46
39.3141    32
39.3241    44
39.3341    42
39.3441    47
39.3541    40
39.3641    41
39.3741    43
39.3841    38
39.3941    30
39.4041    29
39.4141    37
39.4241    28
39.4341    33
39.4441    40
39.4541    38
39.4641    35
39.4741    29
39.4841    44
39.4941    46
39.5041    39
39.5141    33
39.5241    34
39.5341    23
39.5441    38
39.5541    38
39.5641    36
39.5741    29
39.5841    30
39.5941    35
39.6041    38
39.6141    32
39.6241    33
39.6341    28
39.6441    34
39.6541    29
39.6641    29
39.6741    31
39.6841    40
39.6941    38
39.7041    25
39.7141    37
39.7241    28
39.7341    43
39.7441    31
39.7541    31
39.7641    34
39.7741    26
39.7841    26
39.7941    34
39.8041    27
39.8141    20
39.8241    28
39.8341    31
39.8441    33
39.8541    40
39.8641    26
39.8741    31
39.8841    36
39.8941    23
39.9041    19
39.9141    27
39.9241    36
39.9341    35
39.9441    28
39.9541    31
39.9641    29
39.9741    34
39.9841    35
