Bruker Nano GmbH Berlin, Germany
Esprit 1.9

Date: 4/1/2021 4:59:41 PM
Real time: 20542
Life time: 19055
Pulse density: 106418


Detector type: XFlash 430
Window type: Custom type
Detector thickness: 0.45
Si dead layer:0.029

Calibration, lin.: 10
Calibration, abs.: -955.9
Mn FWHM: 137.05
Fano factor: 0.121
Channels: 4096

Energy Counts
-0.9559     0
-0.9459     0
-0.9359     0
-0.9259     0
-0.9159     0
-0.9059     0
-0.8959     0
-0.8859     0
-0.8759     0
-0.8659     0
-0.8559     0
-0.8459     0
-0.8359     0
-0.8259     0
-0.8159     0
-0.8059     0
-0.7959     0
-0.7859     0
-0.7759     0
-0.7659     0
-0.7559     0
-0.7459     0
-0.7359     0
-0.7259     0
-0.7159     0
-0.7059     0
-0.6959     0
-0.6859     0
-0.6759     0
-0.6659     0
-0.6559     0
-0.6459     0
-0.6359     0
-0.6259     0
-0.6159     0
-0.6059     0
-0.5959     0
-0.5859     0
-0.5759     0
-0.5659     0
-0.5559     0
-0.5459     0
-0.5359     0
-0.5259     0
-0.5159     0
-0.5059     0
-0.4959     0
-0.4859     0
-0.4759     0
-0.4659     0
-0.4559     0
-0.4459     0
-0.4359     0
-0.4259     0
-0.4159     0
-0.4059     0
-0.3959     0
-0.3859     0
-0.3759     0
-0.3659     0
-0.3559     0
-0.3459     0
-0.3359     0
-0.3259     0
-0.3159     0
-0.3059     0
-0.2959     0
-0.2859     0
-0.2759     0
-0.2659     0
-0.2559     0
-0.2459     0
-0.2359     0
-0.2259     0
-0.2159     0
-0.2059     0
-0.1959     0
-0.1859     0
-0.1759     0
-0.1659     0
-0.1559     0
-0.1459     0
-0.1359     1
-0.1259     2
-0.1159     3
-0.1059    12
-0.0959    63
-0.0859   209
-0.0759   727
-0.0659  2177
-0.0559  5560
-0.0459 12227
-0.0359 22478
-0.0259 36280
-0.0159 50052
-0.0059 57809
 0.0041 58913
 0.0141 50570
 0.0241 37363
 0.0341 23614
 0.0441 12940
 0.0541  6003
 0.0641  2293
 0.0741   815
 0.0841   223
 0.0941    70
 0.1041    22
 0.1141    15
 0.1241     9
 0.1341     8
 0.1441     5
 0.1541     8
 0.1641     2
 0.1741     1
 0.1841   193
 0.1941   320
 0.2041   314
 0.2141   318
 0.2241   332
 0.2341   329
 0.2441   313
 0.2541   330
 0.2641   333
 0.2741   309
 0.2841   308
 0.2941   299
 0.3041   311
 0.3141   292
 0.3241   301
 0.3341   310
 0.3441   325
 0.3541   285
 0.3641   286
 0.3741   285
 0.3841   267
 0.3941   267
 0.4041   280
 0.4141   288
 0.4241   268
 0.4341   263
 0.4441   248
 0.4541   282
 0.4641   273
 0.4741   268
 0.4841   270
 0.4941   256
 0.5041   263
 0.5141   269
 0.5241   289
 0.5341   269
 0.5441   294
 0.5541   292
 0.5641   269
 0.5741   257
 0.5841   254
 0.5941   248
 0.6041   248
 0.6141   233
 0.6241   230
 0.6341   251
 0.6441   251
 0.6541   239
 0.6641   261
 0.6741   257
 0.6841   237
 0.6941   246
 0.7041   237
 0.7141   230
 0.7241   233
 0.7341   223
 0.7441   236
 0.7541   233
 0.7641   215
 0.7741   215
 0.7841   224
 0.7941   226
 0.8041   219
 0.8141   211
 0.8241   231
 0.8341   214
 0.8441   209
 0.8541   213
 0.8641   225
 0.8741   228
 0.8841   223
 0.8941   221
 0.9041   240
 0.9141   234
 0.9241   217
 0.9341   216
 0.9441   201
 0.9541   194
 0.9641   209
 0.9741   227
 0.9841   211
 0.9941   191
 1.0041   216
 1.0141   225
 1.0241   219
 1.0341   216
 1.0441   204
 1.0541   220
 1.0641   217
 1.0741   219
 1.0841   208
 1.0941   184
 1.1041   178
 1.1141   191
 1.1241   180
 1.1341   204
 1.1441   205
 1.1541   192
 1.1641   190
 1.1741   191
 1.1841   201
 1.1941   171
 1.2041   196
 1.2141   193
 1.2241   172
 1.2341   189
 1.2441   190
 1.2541   214
 1.2641   191
 1.2741   187
 1.2841   200
 1.2941   195
 1.3041   195
 1.3141   193
 1.3241   194
 1.3341   199
 1.3441   167
 1.3541   185
 1.3641   172
 1.3741   187
 1.3841   187
 1.3941   166
 1.4041   180
 1.4141   188
 1.4241   178
 1.4341   185
 1.4441   168
 1.4541   167
 1.4641   186
 1.4741   199
 1.4841   161
 1.4941   183
 1.5041   177
 1.5141   160
 1.5241   176
 1.5341   181
 1.5441   179
 1.5541   159
 1.5641   163
 1.5741   169
 1.5841   163
 1.5941   188
 1.6041   200
 1.6141   164
 1.6241   198
 1.6341   201
 1.6441   205
 1.6541   223
 1.6641   255
 1.6741   331
 1.6841   376
 1.6941   489
 1.7041   538
 1.7141   622
 1.7241   698
 1.7341   760
 1.7441   724
 1.7541   698
 1.7641   599
 1.7741   538
 1.7841   425
 1.7941   361
 1.8041   319
 1.8141   247
 1.8241   255
 1.8341   230
 1.8441   202
 1.8541   203
 1.8641   202
 1.8741   191
 1.8841   203
 1.8941   194
 1.9041   177
 1.9141   175
 1.9241   159
 1.9341   164
 1.9441   182
 1.9541   158
 1.9641   194
 1.9741   189
 1.9841   200
 1.9941   208
 2.0041   207
 2.0141   250
 2.0241   214
 2.0341   197
 2.0441   202
 2.0541   192
 2.0641   196
 2.0741   175
 2.0841   176
 2.0941   159
 2.1041   158
 2.1141   157
 2.1241   148
 2.1341   156
 2.1441   155
 2.1541   143
 2.1641   162
 2.1741   166
 2.1841   164
 2.1941   170
 2.2041   166
 2.2141   172
 2.2241   145
 2.2341   132
 2.2441   159
 2.2541   147
 2.2641   135
 2.2741   146
 2.2841   155
 2.2941   131
 2.3041   143
 2.3141   155
 2.3241   129
 2.3341   130
 2.3441   157
 2.3541   154
 2.3641   170
 2.3741   140
 2.3841   135
 2.3941   144
 2.4041   135
 2.4141   140
 2.4241   130
 2.4341   121
 2.4441   131
 2.4541   141
 2.4641   130
 2.4741   155
 2.4841   128
 2.4941   147
 2.5041   128
 2.5141   138
 2.5241   122
 2.5341   144
 2.5441   141
 2.5541   128
 2.5641   134
 2.5741   130
 2.5841   141
 2.5941   139
 2.6041   140
 2.6141   111
 2.6241   135
 2.6341   142
 2.6441   110
 2.6541   114
 2.6641   136
 2.6741   133
 2.6841   132
 2.6941   126
 2.7041   132
 2.7141   123
 2.7241   130
 2.7341   123
 2.7441   126
 2.7541   123
 2.7641   113
 2.7741   108
 2.7841   122
 2.7941   106
 2.8041   123
 2.8141   132
 2.8241   123
 2.8341   129
 2.8441   126
 2.8541   129
 2.8641   117
 2.8741   120
 2.8841   119
 2.8941   104
 2.9041   104
 2.9141    99
 2.9241   103
 2.9341   104
 2.9441   104
 2.9541   130
 2.9641   100
 2.9741   122
 2.9841   109
 2.9941   114
 3.0041   113
 3.0141   116
 3.0241   113
 3.0341   111
 3.0441   112
 3.0541    98
 3.0641    91
 3.0741   109
 3.0841    91
 3.0941   108
 3.1041   107
 3.1141    96
 3.1241   112
 3.1341   119
 3.1441   101
 3.1541   105
 3.1641    96
 3.1741    93
 3.1841    95
 3.1941    85
 3.2041   111
 3.2141   103
 3.2241   116
 3.2341   108
 3.2441    88
 3.2541    96
 3.2641    90
 3.2741   125
 3.2841   116
 3.2941   120
 3.3041    98
 3.3141   107
 3.3241   126
 3.3341   131
 3.3441   105
 3.3541   107
 3.3641   105
 3.3741   107
 3.3841   100
 3.3941   111
 3.4041    96
 3.4141    91
 3.4241    95
 3.4341   107
 3.4441   103
 3.4541    78
 3.4641    87
 3.4741    88
 3.4841    78
 3.4941    91
 3.5041    88
 3.5141    96
 3.5241   111
 3.5341   141
 3.5441   141
 3.5541   152
 3.5641   185
 3.5741   228
 3.5841   326
 3.5941   410
 3.6041   566
 3.6141   714
 3.6241  1032
 3.6341  1219
 3.6441  1542
 3.6541  1815
 3.6641  2047
 3.6741  2247
 3.6841  2333
 3.6941  2373
 3.7041  2238
 3.7141  2130
 3.7241  1854
 3.7341  1628
 3.7441  1266
 3.7541  1031
 3.7641   750
 3.7741   559
 3.7841   449
 3.7941   301
 3.8041   222
 3.8141   167
 3.8241   129
 3.8341   107
 3.8441   111
 3.8541   118
 3.8641    94
 3.8741   112
 3.8841   115
 3.8941   114
 3.9041   109
 3.9141   146
 3.9241   176
 3.9341   224
 3.9441   236
 3.9541   293
 3.9641   333
 3.9741   382
 3.9841   439
 3.9941   461
 4.0041   498
 4.0141   470
 4.0241   488
 4.0341   419
 4.0441   407
 4.0541   371
 4.0641   327
 4.0741   265
 4.0841   235
 4.0941   176
 4.1041   146
 4.1141   138
 4.1241   113
 4.1341   101
 4.1441    94
 4.1541    72
 4.1641    64
 4.1741    77
 4.1841    65
 4.1941    82
 4.2041    76
 4.2141    69
 4.2241    72
 4.2341    87
 4.2441    76
 4.2541    66
 4.2641    63
 4.2741    62
 4.2841    66
 4.2941    71
 4.3041    70
 4.3141    75
 4.3241    71
 4.3341    69
 4.3441    72
 4.3541    65
 4.3641    75
 4.3741    79
 4.3841    81
 4.3941    96
 4.4041    98
 4.4141    89
 4.4241   126
 4.4341   127
 4.4441   119
 4.4541   149
 4.4641   162
 4.4741   172
 4.4841   188
 4.4941   221
 4.5041   210
 4.5141   199
 4.5241   188
 4.5341   164
 4.5441   148
 4.5541   146
 4.5641   143
 4.5741   111
 4.5841   111
 4.5941   105
 4.6041   112
 4.6141    89
 4.6241    86
 4.6341    96
 4.6441    73
 4.6541    83
 4.6641   124
 4.6741   102
 4.6841    89
 4.6941    60
 4.7041    85
 4.7141    83
 4.7241    73
 4.7341    81
 4.7441    79
 4.7541    81
 4.7641    70
 4.7741    86
 4.7841    56
 4.7941    83
 4.8041    73
 4.8141    76
 4.8241    74
 4.8341    74
 4.8441    76
 4.8541    67
 4.8641    87
 4.8741    88
 4.8841   104
 4.8941   114
 4.9041    98
 4.9141   111
 4.9241   102
 4.9341   106
 4.9441   114
 4.9541   115
 4.9641   120
 4.9741   116
 4.9841    86
 4.9941    97
 5.0041    80
 5.0141    91
 5.0241   102
 5.0341    92
 5.0441    99
 5.0541    94
 5.0641    96
 5.0741    96
 5.0841    92
 5.0941    93
 5.1041    94
 5.1141    75
 5.1241    91
 5.1341    93
 5.1441    86
 5.1541    85
 5.1641    82
 5.1741    92
 5.1841    70
 5.1941   102
 5.2041    78
 5.2141    75
 5.2241    89
 5.2341    88
 5.2441    96
 5.2541   103
 5.2641    95
 5.2741    77
 5.2841   102
 5.2941   112
 5.3041   115
 5.3141   108
 5.3241   124
 5.3341   135
 5.3441   156
 5.3541   151
 5.3641   152
 5.3741   178
 5.3841   165
 5.3941   180
 5.4041   197
 5.4141   186
 5.4241   219
 5.4341   199
 5.4441   163
 5.4541   176
 5.4641   155
 5.4741   154
 5.4841   139
 5.4941   120
 5.5041   123
 5.5141   118
 5.5241   109
 5.5341   111
 5.5441    88
 5.5541    93
 5.5641   115
 5.5741   118
 5.5841   107
 5.5941   106
 5.6041   106
 5.6141   112
 5.6241   114
 5.6341    86
 5.6441    95
 5.6541    88
 5.6641   100
 5.6741   104
 5.6841   101
 5.6941    88
 5.7041    96
 5.7141   101
 5.7241   104
 5.7341   109
 5.7441    97
 5.7541   106
 5.7641    94
 5.7741   116
 5.7841   114
 5.7941   106
 5.8041   122
 5.8141   134
 5.8241   133
 5.8341   150
 5.8441   135
 5.8541   139
 5.8641   175
 5.8741   154
 5.8841   178
 5.8941   171
 5.9041   190
 5.9141   171
 5.9241   176
 5.9341   158
 5.9441   162
 5.9541   163
 5.9641   184
 5.9741   171
 5.9841   147
 5.9941   150
 6.0041   135
 6.0141   145
 6.0241   149
 6.0341   131
 6.0441   129
 6.0541   135
 6.0641   139
 6.0741   126
 6.0841   124
 6.0941   138
 6.1041   134
 6.1141   123
 6.1241   147
 6.1341   159
 6.1441   166
 6.1541   174
 6.1641   162
 6.1741   187
 6.1841   204
 6.1941   238
 6.2041   288
 6.2141   331
 6.2241   438
 6.2341   554
 6.2441   761
 6.2541   980
 6.2641  1380
 6.2741  1823
 6.2841  2277
 6.2941  3157
 6.3041  4110
 6.3141  5047
 6.3241  6254
 6.3341  7392
 6.3441  8735
 6.3541  9962
 6.3641 11177
 6.3741 11890
 6.3841 12499
 6.3941 12840
 6.4041 12644
 6.4141 12312
 6.4241 11914
 6.4341 10841
 6.4441  9675
 6.4541  8347
 6.4641  7024
 6.4741  5669
 6.4841  4748
 6.4941  3711
 6.5041  2730
 6.5141  2105
 6.5241  1514
 6.5341  1118
 6.5441   869
 6.5541   568
 6.5641   463
 6.5741   350
 6.5841   277
 6.5941   222
 6.6041   209
 6.6141   197
 6.6241   197
 6.6341   187
 6.6441   175
 6.6541   155
 6.6641   178
 6.6741   173
 6.6841   172
 6.6941   177
 6.7041   186
 6.7141   182
 6.7241   184
 6.7341   208
 6.7441   178
 6.7541   196
 6.7641   198
 6.7741   193
 6.7841   222
 6.7941   210
 6.8041   218
 6.8141   217
 6.8241   211
 6.8341   232
 6.8441   241
 6.8541   233
 6.8641   266
 6.8741   301
 6.8841   320
 6.8941   320
 6.9041   362
 6.9141   412
 6.9241   519
 6.9341   640
 6.9441   699
 6.9541   848
 6.9641   957
 6.9741  1200
 6.9841  1424
 6.9941  1641
 7.0041  1779
 7.0141  1973
 7.0241  2103
 7.0341  2225
 7.0441  2237
 7.0541  2257
 7.0641  2254
 7.0741  2197
 7.0841  2104
 7.0941  1873
 7.1041  1776
 7.1141  1472
 7.1241  1391
 7.1341  1129
 7.1441   973
 7.1541   817
 7.1641   694
 7.1741   632
 7.1841   531
 7.1941   409
 7.2041   396
 7.2141   344
 7.2241   299
 7.2341   291
 7.2441   252
 7.2541   301
 7.2641   291
 7.2741   315
 7.2841   269
 7.2941   263
 7.3041   280
 7.3141   309
 7.3241   330
 7.3341   347
 7.3441   375
 7.3541   356
 7.3641   377
 7.3741   428
 7.3841   419
 7.3941   472
 7.4041   486
 7.4141   501
 7.4241   457
 7.4341   467
 7.4441   463
 7.4541   483
 7.4641   483
 7.4741   463
 7.4841   453
 7.4941   456
 7.5041   458
 7.5141   377
 7.5241   387
 7.5341   376
 7.5441   358
 7.5541   342
 7.5641   362
 7.5741   329
 7.5841   290
 7.5941   301
 7.6041   321
 7.6141   279
 7.6241   292
 7.6341   285
 7.6441   330
 7.6541   291
 7.6641   284
 7.6741   321
 7.6841   297
 7.6941   314
 7.7041   322
 7.7141   313
 7.7241   335
 7.7341   309
 7.7441   299
 7.7541   347
 7.7641   365
 7.7741   349
 7.7841   365
 7.7941   380
 7.8041   363
 7.8141   409
 7.8241   390
 7.8341   396
 7.8441   409
 7.8541   426
 7.8641   434
 7.8741   471
 7.8841   491
 7.8941   482
 7.9041   518
 7.9141   543
 7.9241   597
 7.9341   602
 7.9441   633
 7.9541   707
 7.9641   727
 7.9741   794
 7.9841   906
 7.9941   952
 8.0041  1020
 8.0141  1077
 8.0241  1233
 8.0341  1315
 8.0441  1345
 8.0541  1477
 8.0641  1577
 8.0741  1700
 8.0841  1849
 8.0941  1860
 8.1041  1945
 8.1141  2098
 8.1241  2134
 8.1341  2226
 8.1441  2308
 8.1541  2459
 8.1641  2562
 8.1741  2381
 8.1841  2422
 8.1941  2536
 8.2041  2502
 8.2141  2460
 8.2241  2537
 8.2341  2537
 8.2441  2516
 8.2541  2477
 8.2641  2572
 8.2741  2616
 8.2841  2739
 8.2941  2919
 8.3041  3025
 8.3141  3171
 8.3241  3319
 8.3341  3559
 8.3441  3716
 8.3541  3815
 8.3641  3871
 8.3741  3973
 8.3841  3956
 8.3941  3950
 8.4041  3780
 8.4141  3730
 8.4241  3596
 8.4341  3239
 8.4441  2831
 8.4541  2653
 8.4641  2341
 8.4741  2096
 8.4841  1792
 8.4941  1530
 8.5041  1225
 8.5141  1087
 8.5241   884
 8.5341   805
 8.5441   728
 8.5541   670
 8.5641   615
 8.5741   552
 8.5841   503
 8.5941   515
 8.6041   481
 8.6141   450
 8.6241   495
 8.6341   486
 8.6441   461
 8.6541   485
 8.6641   459
 8.6741   488
 8.6841   487
 8.6941   472
 8.7041   505
 8.7141   477
 8.7241   474
 8.7341   502
 8.7441   469
 8.7541   454
 8.7641   442
 8.7741   482
 8.7841   431
 8.7941   464
 8.8041   476
 8.8141   477
 8.8241   485
 8.8341   447
 8.8441   476
 8.8541   455
 8.8641   489
 8.8741   459
 8.8841   485
 8.8941   479
 8.9041   485
 8.9141   483
 8.9241   478
 8.9341   518
 8.9441   504
 8.9541   509
 8.9641   495
 8.9741   532
 8.9841   523
 8.9941   521
 9.0041   541
 9.0141   605
 9.0241   606
 9.0341   646
 9.0441   656
 9.0541   675
 9.0641   727
 9.0741   695
 9.0841   701
 9.0941   778
 9.1041   803
 9.1141   857
 9.1241   869
 9.1341   921
 9.1441   896
 9.1541   975
 9.1641   996
 9.1741  1092
 9.1841  1145
 9.1941  1203
 9.2041  1261
 9.2141  1366
 9.2241  1487
 9.2341  1511
 9.2441  1618
 9.2541  1696
 9.2641  1761
 9.2741  1905
 9.2841  1953
 9.2941  2049
 9.3041  2057
 9.3141  2205
 9.3241  2297
 9.3341  2334
 9.3441  2342
 9.3541  2424
 9.3641  2468
 9.3741  2549
 9.3841  2601
 9.3941  2578
 9.4041  2608
 9.4141  2592
 9.4241  2621
 9.4341  2658
 9.4441  2690
 9.4541  2601
 9.4641  2648
 9.4741  2607
 9.4841  2526
 9.4941  2627
 9.5041  2677
 9.5141  2657
 9.5241  2752
 9.5341  2898
 9.5441  2857
 9.5541  2930
 9.5641  3085
 9.5741  3191
 9.5841  3297
 9.5941  3423
 9.6041  3608
 9.6141  3725
 9.6241  3914
 9.6341  3964
 9.6441  4054
 9.6541  3938
 9.6641  4122
 9.6741  4180
 9.6841  4014
 9.6941  3894
 9.7041  3760
 9.7141  3557
 9.7241  3354
 9.7341  3119
 9.7441  2876
 9.7541  2714
 9.7641  2508
 9.7741  2325
 9.7841  2188
 9.7941  1941
 9.8041  1921
 9.8141  1765
 9.8241  1721
 9.8341  1706
 9.8441  1617
 9.8541  1580
 9.8641  1573
 9.8741  1637
 9.8841  1677
 9.8941  1653
 9.9041  1671
 9.9141  1674
 9.9241  1625
 9.9341  1674
 9.9441  1600
 9.9541  1666
 9.9641  1634
 9.9741  1588
 9.9841  1486
 9.9941  1444
10.0041  1408
10.0141  1272
10.0241  1201
10.0341  1092
10.0441   961
10.0541   896
10.0641   806
10.0741   716
10.0841   651
10.0941   617
10.1041   550
10.1141   507
10.1241   499
10.1341   473
10.1441   467
10.1541   406
10.1641   370
10.1741   386
10.1841   383
10.1941   338
10.2041   334
10.2141   349
10.2241   305
10.2341   294
10.2441   292
10.2541   317
10.2641   309
10.2741   293
10.2841   270
10.2941   284
10.3041   286
10.3141   279
10.3241   278
10.3341   261
10.3441   257
10.3541   271
10.3641   267
10.3741   287
10.3841   273
10.3941   293
10.4041   277
10.4141   267
10.4241   292
10.4341   293
10.4441   304
10.4541   303
10.4641   312
10.4741   313
10.4841   300
10.4941   321
10.5041   337
10.5141   332
10.5241   312
10.5341   298
10.5441   318
10.5541   315
10.5641   307
10.5741   330
10.5841   298
10.5941   297
10.6041   337
10.6141   323
10.6241   359
10.6341   374
10.6441   362
10.6541   344
10.6641   381
10.6741   373
10.6841   393
10.6941   379
10.7041   387
10.7141   373
10.7241   426
10.7341   432
10.7441   417
10.7541   396
10.7641   451
10.7741   485
10.7841   516
10.7941   527
10.8041   534
10.8141   546
10.8241   555
10.8341   555
10.8441   549
10.8541   563
10.8641   538
10.8741   554
10.8841   579
10.8941   559
10.9041   561
10.9141   552
10.9241   545
10.9341   571
10.9441   580
10.9541   587
10.9641   557
10.9741   555
10.9841   549
10.9941   534
11.0041   520
11.0141   506
11.0241   459
11.0341   502
11.0441   518
11.0541   493
11.0641   523
11.0741   509
11.0841   496
11.0941   489
11.1041   465
11.1141   486
11.1241   485
11.1341   486
11.1441   498
11.1541   524
11.1641   532
11.1741   525
11.1841   549
11.1941   569
11.2041   590
11.2141   578
11.2241   567
11.2341   614
11.2441   653
11.2541   666
11.2641   685
11.2741   672
11.2841   656
11.2941   697
11.3041   690
11.3141   640
11.3241   617
11.3341   582
11.3441   586
11.3541   555
11.3641   539
11.3741   498
11.3841   491
11.3941   474
11.4041   429
11.4141   398
11.4241   419
11.4341   392
11.4441   369
11.4541   377
11.4641   361
11.4741   345
11.4841   338
11.4941   375
11.5041   348
11.5141   344
11.5241   369
11.5341   365
11.5441   352
11.5541   366
11.5641   361
11.5741   384
11.5841   372
11.5941   356
11.6041   374
11.6141   397
11.6241   402
11.6341   373
11.6441   373
11.6541   389
11.6641   376
11.6741   356
11.6841   363
11.6941   401
11.7041   397
11.7141   372
11.7241   420
11.7341   458
11.7441   445
11.7541   438
11.7641   463
11.7741   509
11.7841   541
11.7941   563
11.8041   620
11.8141   643
11.8241   709
11.8341   725
11.8441   789
11.8541   830
11.8641   894
11.8741   926
11.8841   945
11.8941   984
11.9041   988
11.9141   968
11.9241   964
11.9341   956
11.9441   923
11.9541   870
11.9641   842
11.9741   819
11.9841   715
11.9941   631
12.0041   618
12.0141   584
12.0241   508
12.0341   490
12.0441   460
12.0541   417
12.0641   407
12.0741   379
12.0841   358
12.0941   353
12.1041   309
12.1141   341
12.1241   335
12.1341   296
12.1441   290
12.1541   287
12.1641   275
12.1741   277
12.1841   295
12.1941   289
12.2041   275
12.2141   269
12.2241   281
12.2341   285
12.2441   282
12.2541   271
12.2641   270
12.2741   280
12.2841   284
12.2941   301
12.3041   300
12.3141   275
12.3241   270
12.3341   287
12.3441   274
12.3541   263
12.3641   280
12.3741   307
12.3841   302
12.3941   289
12.4041   283
12.4141   288
12.4241   299
12.4341   293
12.4441   290
12.4541   284
12.4641   277
12.4741   296
12.4841   305
12.4941   298
12.5041   288
12.5141   303
12.5241   308
12.5341   307
12.5441   299
12.5541   312
12.5641   312
12.5741   317
12.5841   316
12.5941   314
12.6041   324
12.6141   334
12.6241   328
12.6341   313
12.6441   314
12.6541   318
12.6641   326
12.6741   336
12.6841   335
12.6941   305
12.7041   287
12.7141   299
12.7241   328
12.7341   325
12.7441   305
12.7541   306
12.7641   305
12.7741   311
12.7841   336
12.7941   340
12.8041   319
12.8141   326
12.8241   321
12.8341   307
12.8441   327
12.8541   325
12.8641   316
12.8741   343
12.8841   351
12.8941   342
12.9041   323
12.9141   308
12.9241   325
12.9341   326
12.9441   324
12.9541   342
12.9641   350
12.9741   342
12.9841   345
12.9941   360
13.0041   372
13.0141   336
13.0241   340
13.0341   369
13.0441   356
13.0541   348
13.0641   334
13.0741   347
13.0841   363
13.0941   367
13.1041   380
13.1141   361
13.1241   363
13.1341   388
13.1441   377
13.1541   377
13.1641   393
13.1741   421
13.1841   408
13.1941   392
13.2041   412
13.2141   436
13.2241   444
13.2341   437
13.2441   441
13.2541   471
13.2641   494
13.2741   486
13.2841   488
13.2941   481
13.3041   477
13.3141   481
13.3241   498
13.3341   500
13.3441   494
13.3541   493
13.3641   456
13.3741   446
13.3841   437
13.3941   427
13.4041   435
13.4141   432
13.4241   409
13.4341   396
13.4441   413
13.4541   437
13.4641   442
13.4741   426
13.4841   414
13.4941   416
13.5041   404
13.5141   398
13.5241   398
13.5341   409
13.5441   437
13.5541   425
13.5641   396
13.5741   389
13.5841   417
13.5941   424
13.6041   399
13.6141   410
13.6241   421
13.6341   424
13.6441   429
13.6541   414
13.6641   411
13.6741   420
13.6841   417
13.6941   423
13.7041   414
13.7141   414
13.7241   439
13.7341   437
13.7441   429
13.7541   427
13.7641   417
13.7741   409
13.7841   424
13.7941   443
13.8041   429
13.8141   436
13.8241   425
13.8341   437
13.8441   433
13.8541   413
13.8641   428
13.8741   430
13.8841   443
13.8941   440
13.9041   457
13.9141   460
13.9241   452
13.9341   456
13.9441   463
13.9541   477
13.9641   480
13.9741   494
13.9841   505
13.9941   513
14.0041   518
14.0141   522
14.0241   549
14.0341   564
14.0441   588
14.0541   643
14.0641   662
14.0741   659
14.0841   668
14.0941   677
14.1041   704
14.1141   729
14.1241   743
14.1341   749
14.1441   742
14.1541   738
14.1641   730
14.1741   708
14.1841   696
14.1941   710
14.2041   685
14.2141   638
14.2241   631
14.2341   633
14.2441   613
14.2541   588
14.2641   591
14.2741   567
14.2841   560
14.2941   565
14.3041   539
14.3141   523
14.3241   541
14.3341   520
14.3441   481
14.3541   496
14.3641   505
14.3741   507
14.3841   488
14.3941   486
14.4041   485
14.4141   465
14.4241   485
14.4341   491
14.4441   501
14.4541   517
14.4641   514
14.4741   497
14.4841   492
14.4941   483
14.5041   493
14.5141   515
14.5241   516
14.5341   526
14.5441   512
14.5541   500
14.5641   510
14.5741   511
14.5841   515
14.5941   507
14.6041   489
14.6141   520
14.6241   517
14.6341   491
14.6441   525
14.6541   536
14.6641   541
14.6741   538
14.6841   525
14.6941   520
14.7041   498
14.7141   513
14.7241   526
14.7341   519
14.7441   548
14.7541   551
14.7641   542
14.7741   544
14.7841   541
14.7941   523
14.8041   515
14.8141   534
14.8241   530
14.8341   518
14.8441   529
14.8541   547
14.8641   534
14.8741   545
14.8841   591
14.8941   549
14.9041   520
14.9141   518
14.9241   539
14.9341   546
14.9441   527
14.9541   542
14.9641   576
14.9741   567
14.9841   546
14.9941   559
15.0041   564
15.0141   563
15.0241   534
15.0341   540
15.0441   532
15.0541   543
15.0641   559
15.0741   543
15.0841   529
15.0941   545
15.1041   568
15.1141   550
15.1241   555
15.1341   577
15.1441   580
15.1541   562
15.1641   527
15.1741   549
15.1841   577
15.1941   560
15.2041   555
15.2141   580
15.2241   574
15.2341   566
15.2441   558
15.2541   580
15.2641   592
15.2741   569
15.2841   556
15.2941   559
15.3041   586
15.3141   580
15.3241   564
15.3341   561
15.3441   555
15.3541   547
15.3641   597
15.3741   582
15.3841   554
15.3941   585
15.4041   596
15.4141   598
15.4241   593
15.4341   587
15.4441   622
15.4541   631
15.4641   616
15.4741   602
15.4841   577
15.4941   601
15.5041   597
15.5141   603
15.5241   597
15.5341   599
15.5441   632
15.5541   636
15.5641   584
15.5741   591
15.5841   630
15.5941   617
15.6041   610
15.6141   642
15.6241   620
15.6341   612
15.6441   641
15.6541   662
15.6641   680
15.6741   675
15.6841   660
15.6941   653
15.7041   653
15.7141   681
15.7241   657
15.7341   670
15.7441   678
15.7541   709
15.7641   702
15.7741   700
15.7841   684
15.7941   670
15.8041   696
15.8141   712
15.8241   685
15.8341   714
15.8441   727
15.8541   686
15.8641   699
15.8741   716
15.8841   681
15.8941   658
15.9041   666
15.9141   678
15.9241   704
15.9341   701
15.9441   657
15.9541   643
15.9641   630
15.9741   636
15.9841   647
15.9941   665
16.0041   660
16.0141   647
16.0241   651
16.0341   658
16.0441   668
16.0541   678
16.0641   652
16.0741   659
16.0841   689
16.0941   689
16.1041   642
16.1141   646
16.1241   661
16.1341   648
16.1441   642
16.1541   648
16.1641   683
16.1741   667
16.1841   661
16.1941   661
16.2041   672
16.2141   679
16.2241   688
16.2341   675
16.2441   684
16.2541   708
16.2641   663
16.2741   670
16.2841   685
16.2941   664
16.3041   673
16.3141   648
16.3241   667
16.3341   660
16.3441   675
16.3541   688
16.3641   666
16.3741   644
16.3841   681
16.3941   684
16.4041   700
16.4141   679
16.4241   671
16.4341   704
16.4441   719
16.4541   682
16.4641   672
16.4741   688
16.4841   677
16.4941   627
16.5041   665
16.5141   690
16.5241   670
16.5341   667
16.5441   698
16.5541   646
16.5641   659
16.5741   729
16.5841   720
16.5941   723
16.6041   740
16.6141   705
16.6241   679
16.6341   667
16.6441   693
16.6541   699
16.6641   718
16.6741   693
16.6841   652
16.6941   697
16.7041   694
16.7141   674
16.7241   704
16.7341   719
16.7441   714
16.7541   690
16.7641   673
16.7741   693
16.7841   675
16.7941   706
16.8041   714
16.8141   746
16.8241   699
16.8341   710
16.8441   710
16.8541   698
16.8641   670
16.8741   711
16.8841   704
16.8941   709
16.9041   728
16.9141   716
16.9241   724
16.9341   740
16.9441   723
16.9541   727
16.9641   703
16.9741   718
16.9841   711
16.9941   727
17.0041   730
17.0141   710
17.0241   710
17.0341   733
17.0441   727
17.0541   709
17.0641   725
17.0741   716
17.0841   710
17.0941   719
17.1041   725
17.1141   706
17.1241   731
17.1341   726
17.1441   707
17.1541   736
17.1641   749
17.1741   730
17.1841   699
17.1941   740
17.2041   733
17.2141   748
17.2241   732
17.2341   727
17.2441   746
17.2541   746
17.2641   732
17.2741   710
17.2841   736
17.2941   753
17.3041   715
17.3141   712
17.3241   738
17.3341   705
17.3441   723
17.3541   740
17.3641   719
17.3741   727
17.3841   747
17.3941   757
17.4041   734
17.4141   739
17.4241   763
17.4341   735
17.4441   743
17.4541   773
17.4641   738
17.4741   745
17.4841   750
17.4941   741
17.5041   759
17.5141   758
17.5241   761
17.5341   767
17.5441   774
17.5541   752
17.5641   743
17.5741   777
17.5841   754
17.5941   711
17.6041   695
17.6141   760
17.6241   815
17.6341   784
17.6441   783
17.6541   770
17.6641   712
17.6741   714
17.6841   743
17.6941   749
17.7041   774
17.7141   802
17.7241   776
17.7341   780
17.7441   765
17.7541   758
17.7641   778
17.7741   783
17.7841   772
17.7941   731
17.8041   743
17.8141   755
17.8241   770
17.8341   750
17.8441   740
17.8541   743
17.8641   764
17.8741   764
17.8841   767
17.8941   745
17.9041   776
17.9141   735
17.9241   766
17.9341   765
17.9441   751
17.9541   797
17.9641   767
17.9741   787
17.9841   752
17.9941   781
18.0041   765
18.0141   717
18.0241   770
18.0341   758
18.0441   748
18.0541   787
18.0641   762
18.0741   765
18.0841   781
18.0941   792
18.1041   773
18.1141   770
18.1241   787
18.1341   768
18.1441   742
18.1541   749
18.1641   763
18.1741   773
18.1841   789
18.1941   804
18.2041   820
18.2141   771
18.2241   771
18.2341   739
18.2441   770
18.2541   770
18.2641   780
18.2741   754
18.2841   765
18.2941   780
18.3041   822
18.3141   794
18.3241   770
18.3341   775
18.3441   832
18.3541   795
18.3641   785
18.3741   785
18.3841   721
18.3941   746
18.4041   747
18.4141   773
18.4241   765
18.4341   783
18.4441   830
18.4541   781
18.4641   744
18.4741   794
18.4841   805
18.4941   807
18.5041   762
18.5141   774
18.5241   793
18.5341   760
18.5441   767
18.5541   746
18.5641   735
18.5741   735
18.5841   748
18.5941   751
18.6041   750
18.6141   806
18.6241   761
18.6341   789
18.6441   807
18.6541   787
18.6641   790
18.6741   815
18.6841   778
18.6941   798
18.7041   803
18.7141   783
18.7241   745
18.7341   766
18.7441   751
18.7541   793
18.7641   758
18.7741   757
18.7841   771
18.7941   781
18.8041   765
18.8141   793
18.8241   781
18.8341   789
18.8441   811
18.8541   801
18.8641   778
18.8741   768
18.8841   774
18.8941   754
18.9041   799
18.9141   822
18.9241   781
18.9341   765
18.9441   775
18.9541   779
18.9641   801
18.9741   805
18.9841   797
18.9941   781
19.0041   798
19.0141   754
19.0241   786
19.0341   797
19.0441   812
19.0541   797
19.0641   789
19.0741   797
19.0841   749
19.0941   798
19.1041   782
19.1141   800
19.1241   806
19.1341   790
19.1441   803
19.1541   800
19.1641   785
19.1741   789
19.1841   800
19.1941   807
19.2041   823
19.2141   753
19.2241   792
19.2341   814
19.2441   849
19.2541   794
19.2641   786
19.2741   803
19.2841   780
19.2941   772
19.3041   832
19.3141   801
19.3241   786
19.3341   780
19.3441   782
19.3541   776
19.3641   777
19.3741   794
19.3841   761
19.3941   772
19.4041   805
19.4141   812
19.4241   795
19.4341   828
19.4441   817
19.4541   816
19.4641   798
19.4741   822
19.4841   770
19.4941   767
19.5041   809
19.5141   770
19.5241   824
19.5341   781
19.5441   768
19.5541   769
19.5641   749
19.5741   772
19.5841   757
19.5941   766
19.6041   721
19.6141   797
19.6241   822
19.6341   771
19.6441   802
19.6541   786
19.6641   780
19.6741   760
19.6841   793
19.6941   816
19.7041   818
19.7141   775
19.7241   758
19.7341   763
19.7441   777
19.7541   783
19.7641   770
19.7741   745
19.7841   774
19.7941   737
19.8041   765
19.8141   782
19.8241   770
19.8341   768
19.8441   818
19.8541   761
19.8641   772
19.8741   812
19.8841   772
19.8941   747
19.9041   807
19.9141   810
19.9241   785
19.9341   813
19.9441   789
19.9541   788
19.9641   781
19.9741   796
19.9841   827
19.9941   807
20.0041   810
20.0141   793
20.0241   779
20.0341   766
20.0441   749
20.0541   762
20.0641   815
20.0741   780
20.0841   782
20.0941   747
20.1041   713
20.1141   748
20.1241   782
20.1341   761
20.1441   774
20.1541   770
20.1641   752
20.1741   783
20.1841   788
20.1941   793
20.2041   793
20.2141   789
20.2241   734
20.2341   772
20.2441   746
20.2541   781
20.2641   823
20.2741   791
20.2841   728
20.2941   757
20.3041   796
20.3141   819
20.3241   824
20.3341   764
20.3441   788
20.3541   807
20.3641   759
20.3741   763
20.3841   822
20.3941   763
20.4041   774
20.4141   758
20.4241   714
20.4341   785
20.4441   769
20.4541   771
20.4641   735
20.4741   720
20.4841   743
20.4941   784
20.5041   799
20.5141   763
20.5241   708
20.5341   721
20.5441   741
20.5541   744
20.5641   770
20.5741   754
20.5841   786
20.5941   743
20.6041   734
20.6141   766
20.6241   726
20.6341   769
20.6441   815
20.6541   788
20.6641   755
20.6741   765
20.6841   784
20.6941   789
20.7041   746
20.7141   751
20.7241   741
20.7341   769
20.7441   790
20.7541   751
20.7641   760
20.7741   801
20.7841   755
20.7941   760
20.8041   774
20.8141   753
20.8241   805
20.8341   799
20.8441   802
20.8541   762
20.8641   782
20.8741   794
20.8841   839
20.8941   827
20.9041   850
20.9141   850
20.9241   818
20.9341   873
20.9441   897
20.9541   862
20.9641   881
20.9741   885
20.9841   841
20.9941   943
21.0041   918
21.0141   963
21.0241   944
21.0341   927
21.0441   940
21.0541   995
21.0641  1009
21.0741   958
21.0841   979
21.0941   984
21.1041   982
21.1141   986
21.1241   965
21.1341  1007
21.1441  1008
21.1541   991
21.1641   998
21.1741   944
21.1841  1008
21.1941   982
21.2041  1018
21.2141   929
21.2241   921
21.2341   933
21.2441   880
21.2541   935
21.2641   893
21.2741   877
21.2841   929
21.2941   864
21.3041   840
21.3141   825
21.3241   811
21.3341   803
21.3441   808
21.3541   808
21.3641   739
21.3741   715
21.3841   747
21.3941   722
21.4041   759
21.4141   722
21.4241   770
21.4341   742
21.4441   760
21.4541   742
21.4641   730
21.4741   720
21.4841   779
21.4941   728
21.5041   763
21.5141   743
21.5241   687
21.5341   736
21.5441   758
21.5541   686
21.5641   750
21.5741   747
21.5841   740
21.5941   701
21.6041   742
21.6141   751
21.6241   735
21.6341   740
21.6441   727
21.6541   744
21.6641   733
21.6741   725
21.6841   787
21.6941   762
21.7041   688
21.7141   756
21.7241   711
21.7341   667
21.7441   748
21.7541   711
21.7641   725
21.7741   707
21.7841   716
21.7941   750
21.8041   694
21.8141   738
21.8241   704
21.8341   696
21.8441   739
21.8541   699
21.8641   712
21.8741   738
21.8841   761
21.8941   693
21.9041   713
21.9141   706
21.9241   685
21.9341   709
21.9441   728
21.9541   757
21.9641   758
21.9741   689
21.9841   671
21.9941   694
22.0041   706
22.0141   736
22.0241   721
22.0341   730
22.0441   691
22.0541   726
22.0641   703
22.0741   684
22.0841   714
22.0941   708
22.1041   663
22.1141   690
22.1241   692
22.1341   690
22.1441   713
22.1541   685
22.1641   699
22.1741   717
22.1841   724
22.1941   684
22.2041   687
22.2141   723
22.2241   708
22.2341   710
22.2441   710
22.2541   698
22.2641   710
22.2741   708
22.2841   671
22.2941   719
22.3041   703
22.3141   652
22.3241   716
22.3341   704
22.3441   721
22.3541   674
22.3641   688
22.3741   705
22.3841   719
22.3941   637
22.4041   710
22.4141   688
22.4241   689
22.4341   641
22.4441   703
22.4541   671
22.4641   649
22.4741   670
22.4841   671
22.4941   729
22.5041   724
22.5141   678
22.5241   681
22.5341   655
22.5441   686
22.5541   657
22.5641   702
22.5741   724
22.5841   695
22.5941   676
22.6041   709
22.6141   675
22.6241   682
22.6341   698
22.6441   648
22.6541   701
22.6641   697
22.6741   681
22.6841   716
22.6941   716
22.7041   645
22.7141   696
22.7241   636
22.7341   697
22.7441   657
22.7541   683
22.7641   698
22.7741   714
22.7841   644
22.7941   642
22.8041   637
22.8141   659
22.8241   674
22.8341   650
22.8441   664
22.8541   640
22.8641   636
22.8741   654
22.8841   658
22.8941   679
22.9041   656
22.9141   707
22.9241   694
22.9341   733
22.9441   693
22.9541   615
22.9641   652
22.9741   634
22.9841   661
22.9941   681
23.0041   674
23.0141   666
23.0241   644
23.0341   629
23.0441   704
23.0541   628
23.0641   659
23.0741   663
23.0841   653
23.0941   675
23.1041   641
23.1141   641
23.1241   611
23.1341   657
23.1441   638
23.1541   617
23.1641   669
23.1741   667
23.1841   630
23.1941   635
23.2041   672
23.2141   662
23.2241   625
23.2341   642
23.2441   645
23.2541   638
23.2641   617
23.2741   633
23.2841   629
23.2941   633
23.3041   629
23.3141   704
23.3241   629
23.3341   617
23.3441   617
23.3541   682
23.3641   672
23.3741   620
23.3841   640
23.3941   632
23.4041   604
23.4141   652
23.4241   615
23.4341   563
23.4441   615
23.4541   632
23.4641   607
23.4741   624
23.4841   634
23.4941   584
23.5041   611
23.5141   631
23.5241   594
23.5341   623
23.5441   663
23.5541   662
23.5641   609
23.5741   631
23.5841   604
23.5941   596
23.6041   666
23.6141   630
23.6241   626
23.6341   636
23.6441   611
23.6541   662
23.6641   654
23.6741   643
23.6841   605
23.6941   664
23.7041   663
23.7141   626
23.7241   629
23.7341   639
23.7441   660
23.7541   647
23.7641   692
23.7741   682
23.7841   636
23.7941   666
23.8041   696
23.8141   664
23.8241   647
23.8341   658
23.8441   714
23.8541   652
23.8641   652
23.8741   697
23.8841   628
23.8941   618
23.9041   622
23.9141   614
23.9241   627
23.9341   633
23.9441   656
23.9541   616
23.9641   641
23.9741   578
23.9841   595
23.9941   579
24.0041   623
24.0141   596
24.0241   602
24.0341   613
24.0441   537
24.0541   599
24.0641   572
24.0741   589
24.0841   596
24.0941   597
24.1041   582
24.1141   599
24.1241   574
24.1341   586
24.1441   605
24.1541   592
24.1641   596
24.1741   582
24.1841   589
24.1941   607
24.2041   588
24.2141   570
24.2241   588
24.2341   608
24.2441   569
24.2541   593
24.2641   595
24.2741   588
24.2841   576
24.2941   606
24.3041   623
24.3141   619
24.3241   536
24.3341   612
24.3441   571
24.3541   567
24.3641   580
24.3741   574
24.3841   596
24.3941   577
24.4041   573
24.4141   527
24.4241   548
24.4341   541
24.4441   595
24.4541   615
24.4641   557
24.4741   555
24.4841   563
24.4941   572
24.5041   558
24.5141   535
24.5241   548
24.5341   571
24.5441   549
24.5541   548
24.5641   553
24.5741   509
24.5841   523
24.5941   537
24.6041   538
24.6141   547
24.6241   557
24.6341   549
24.6441   544
24.6541   568
24.6641   541
24.6741   555
24.6841   559
24.6941   540
24.7041   572
24.7141   559
24.7241   510
24.7341   543
24.7441   517
24.7541   518
24.7641   561
24.7741   566
24.7841   576
24.7941   536
24.8041   585
24.8141   569
24.8241   568
24.8341   532
24.8441   541
24.8541   536
24.8641   535
24.8741   561
24.8841   575
24.8941   531
24.9041   525
24.9141   512
24.9241   550
24.9341   565
24.9441   531
24.9541   523
24.9641   507
24.9741   541
24.9841   516
24.9941   569
25.0041   570
25.0141   579
25.0241   530
25.0341   512
25.0441   519
25.0541   551
25.0641   554
25.0741   538
25.0841   536
25.0941   504
25.1041   511
25.1141   552
25.1241   540
25.1341   514
25.1441   551
25.1541   543
25.1641   552
25.1741   518
25.1841   519
25.1941   543
25.2041   558
25.2141   556
25.2241   534
25.2341   545
25.2441   519
25.2541   551
25.2641   526
25.2741   568
25.2841   525
25.2941   516
25.3041   561
25.3141   554
25.3241   511
25.3341   518
25.3441   506
25.3541   524
25.3641   515
25.3741   532
25.3841   519
25.3941   564
25.4041   541
25.4141   544
25.4241   533
25.4341   509
25.4441   513
25.4541   502
25.4641   510
25.4741   511
25.4841   511
25.4941   531
25.5041   516
25.5141   483
25.5241   494
25.5341   483
25.5441   500
25.5541   491
25.5641   518
25.5741   553
25.5841   513
25.5941   506
25.6041   530
25.6141   511
25.6241   486
25.6341   488
25.6441   520
25.6541   479
25.6641   469
25.6741   507
25.6841   470
25.6941   477
25.7041   481
25.7141   476
25.7241   477
25.7341   485
25.7441   486
25.7541   437
25.7641   411
25.7741   517
25.7841   511
25.7941   474
25.8041   495
25.8141   516
25.8241   499
25.8341   465
25.8441   448
25.8541   478
25.8641   500
25.8741   515
25.8841   461
25.8941   497
25.9041   479
25.9141   484
25.9241   466
25.9341   460
25.9441   461
25.9541   459
25.9641   481
25.9741   487
25.9841   474
25.9941   479
26.0041   467
26.0141   493
26.0241   441
26.0341   492
26.0441   501
26.0541   452
26.0641   446
26.0741   499
26.0841   466
26.0941   460
26.1041   479
26.1141   486
26.1241   498
26.1341   507
26.1441   483
26.1541   488
26.1641   476
26.1741   433
26.1841   452
26.1941   455
26.2041   468
26.2141   453
26.2241   466
26.2341   485
26.2441   438
26.2541   487
26.2641   475
26.2741   474
26.2841   451
26.2941   463
26.3041   456
26.3141   458
26.3241   456
26.3341   418
26.3441   461
26.3541   457
26.3641   453
26.3741   450
26.3841   429
26.3941   447
26.4041   458
26.4141   472
26.4241   455
26.4341   438
26.4441   458
26.4541   471
26.4641   472
26.4741   420
26.4841   455
26.4941   476
26.5041   471
26.5141   458
26.5241   439
26.5341   468
26.5441   456
26.5541   455
26.5641   442
26.5741   436
26.5841   447
26.5941   462
26.6041   433
26.6141   429
26.6241   435
26.6341   436
26.6441   407
26.6541   427
26.6641   420
26.6741   447
26.6841   436
26.6941   444
26.7041   436
26.7141   412
26.7241   422
26.7341   429
26.7441   435
26.7541   451
26.7641   476
26.7741   392
26.7841   441
26.7941   443
26.8041   442
26.8141   417
26.8241   394
26.8341   408
26.8441   445
26.8541   397
26.8641   418
26.8741   425
26.8841   438
26.8941   426
26.9041   442
26.9141   448
26.9241   396
26.9341   439
26.9441   394
26.9541   410
26.9641   426
26.9741   415
26.9841   413
26.9941   443
27.0041   410
27.0141   411
27.0241   422
27.0341   395
27.0441   430
27.0541   431
27.0641   423
27.0741   392
27.0841   436
27.0941   429
27.1041   401
27.1141   382
27.1241   399
27.1341   397
27.1441   422
27.1541   431
27.1641   403
27.1741   397
27.1841   415
27.1941   427
27.2041   418
27.2141   413
27.2241   410
27.2341   410
27.2441   411
27.2541   417
27.2641   400
27.2741   400
27.2841   398
27.2941   415
27.3041   422
27.3141   413
27.3241   391
27.3341   416
27.3441   414
27.3541   382
27.3641   415
27.3741   404
27.3841   429
27.3941   394
27.4041   402
27.4141   397
27.4241   386
27.4341   412
27.4441   390
27.4541   424
27.4641   400
27.4741   398
27.4841   362
27.4941   381
27.5041   382
27.5141   416
27.5241   401
27.5341   413
27.5441   380
27.5541   406
27.5641   384
27.5741   378
27.5841   432
27.5941   419
27.6041   393
27.6141   373
27.6241   357
27.6341   408
27.6441   440
27.6541   370
27.6641   413
27.6741   378
27.6841   371
27.6941   344
27.7041   370
27.7141   359
27.7241   386
27.7341   405
27.7441   362
27.7541   384
27.7641   387
27.7741   354
27.7841   364
27.7941   352
27.8041   392
27.8141   382
27.8241   368
27.8341   346
27.8441   385
27.8541   361
27.8641   370
27.8741   387
27.8841   346
27.8941   373
27.9041   371
27.9141   388
27.9241   369
27.9341   357
27.9441   371
27.9541   354
27.9641   373
27.9741   345
27.9841   375
27.9941   369
28.0041   365
28.0141   339
28.0241   356
28.0341   353
28.0441   369
28.0541   353
28.0641   358
28.0741   335
28.0841   351
28.0941   370
28.1041   338
28.1141   352
28.1241   348
28.1341   354
28.1441   377
28.1541   388
28.1641   363
28.1741   367
28.1841   344
28.1941   341
28.2041   369
28.2141   361
28.2241   367
28.2341   366
28.2441   377
28.2541   341
28.2641   337
28.2741   332
28.2841   370
28.2941   335
28.3041   335
28.3141   352
28.3241   378
28.3341   359
28.3441   346
28.3541   334
28.3641   338
28.3741   342
28.3841   343
28.3941   339
28.4041   361
28.4141   371
28.4241   328
28.4341   330
28.4441   341
28.4541   327
28.4641   362
28.4741   350
28.4841   308
28.4941   321
28.5041   338
28.5141   364
28.5241   328
28.5341   352
28.5441   359
28.5541   340
28.5641   341
28.5741   327
28.5841   347
28.5941   314
28.6041   352
28.6141   310
28.6241   328
28.6341   302
28.6441   310
28.6541   339
28.6641   343
28.6741   315
28.6841   351
28.6941   310
28.7041   349
28.7141   315
28.7241   320
28.7341   351
28.7441   359
28.7541   340
28.7641   333
28.7741   336
28.7841   301
28.7941   342
28.8041   330
28.8141   304
28.8241   326
28.8341   323
28.8441   350
28.8541   325
28.8641   301
28.8741   301
28.8841   335
28.8941   325
28.9041   313
28.9141   330
28.9241   322
28.9341   309
28.9441   311
28.9541   305
28.9641   323
28.9741   321
28.9841   335
28.9941   317
29.0041   327
29.0141   312
29.0241   295
29.0341   320
29.0441   294
29.0541   293
29.0641   335
29.0741   294
29.0841   304
29.0941   280
29.1041   308
29.1141   304
29.1241   316
29.1341   296
29.1441   306
29.1541   311
29.1641   305
29.1741   303
29.1841   268
29.1941   307
29.2041   287
29.2141   315
29.2241   303
29.2341   308
29.2441   320
29.2541   295
29.2641   333
29.2741   317
29.2841   292
29.2941   297
29.3041   285
29.3141   292
29.3241   302
29.3341   306
29.3441   289
29.3541   293
29.3641   265
29.3741   297
29.3841   334
29.3941   288
29.4041   293
29.4141   293
29.4241   311
29.4341   295
29.4441   267
29.4541   282
29.4641   301
29.4741   264
29.4841   288
29.4941   274
29.5041   291
29.5141   289
29.5241   277
29.5341   317
29.5441   283
29.5541   291
29.5641   287
29.5741   305
29.5841   296
29.5941   287
29.6041   279
29.6141   272
29.6241   292
29.6341   299
29.6441   260
29.6541   284
29.6641   265
29.6741   280
29.6841   261
29.6941   293
29.7041   268
29.7141   274
29.7241   296
29.7341   256
29.7441   288
29.7541   287
29.7641   277
29.7741   255
29.7841   258
29.7941   291
29.8041   274
29.8141   237
29.8241   264
29.8341   269
29.8441   240
29.8541   253
29.8641   274
29.8741   268
29.8841   271
29.8941   261
29.9041   275
29.9141   278
29.9241   282
29.9341   291
29.9441   288
29.9541   298
29.9641   294
29.9741   296
29.9841   274
29.9941   259
30.0041   257
30.0141   259
30.0241   251
30.0341   248
30.0441   270
30.0541   269
30.0641   271
30.0741   287
30.0841   270
30.0941   260
30.1041   255
30.1141   254
30.1241   252
30.1341   262
30.1441   272
30.1541   271
30.1641   252
30.1741   268
30.1841   261
30.1941   245
30.2041   246
30.2141   248
30.2241   279
30.2341   263
30.2441   232
30.2541   258
30.2641   262
30.2741   275
30.2841   240
30.2941   269
30.3041   239
30.3141   255
30.3241   237
30.3341   238
30.3441   249
30.3541   244
30.3641   226
30.3741   242
30.3841   224
30.3941   246
30.4041   267
30.4141   260
30.4241   263
30.4341   260
30.4441   259
30.4541   241
30.4641   247
30.4741   233
30.4841   247
30.4941   211
30.5041   250
30.5141   233
30.5241   270
30.5341   243
30.5441   228
30.5541   246
30.5641   242
30.5741   237
30.5841   257
30.5941   222
30.6041   245
30.6141   254
30.6241   240
30.6341   243
30.6441   264
30.6541   258
30.6641   219
30.6741   235
30.6841   235
30.6941   257
30.7041   218
30.7141   248
30.7241   235
30.7341   240
30.7441   231
30.7541   211
30.7641   231
30.7741   232
30.7841   236
30.7941   236
30.8041   222
30.8141   243
30.8241   239
30.8341   233
30.8441   232
30.8541   235
30.8641   249
30.8741   223
30.8841   247
30.8941   237
30.9041   216
30.9141   238
30.9241   234
30.9341   247
30.9441   184
30.9541   214
30.9641   243
30.9741   220
30.9841   205
30.9941   213
31.0041   196
31.0141   199
31.0241   211
31.0341   223
31.0441   220
31.0541   224
31.0641   231
31.0741   206
31.0841   244
31.0941   230
31.1041   236
31.1141   209
31.1241   235
31.1341   214
31.1441   217
31.1541   203
31.1641   249
31.1741   226
31.1841   219
31.1941   199
31.2041   208
31.2141   230
31.2241   232
31.2341   223
31.2441   233
31.2541   219
31.2641   219
31.2741   223
31.2841   218
31.2941   256
31.3041   220
31.3141   214
31.3241   203
31.3341   227
31.3441   200
31.3541   193
31.3641   213
31.3741   217
31.3841   200
31.3941   231
31.4041   215
31.4141   215
31.4241   207
31.4341   224
31.4441   200
31.4541   198
31.4641   212
31.4741   225
31.4841   211
31.4941   230
31.5041   201
31.5141   206
31.5241   211
31.5341   217
31.5441   192
31.5541   207
31.5641   200
31.5741   175
31.5841   180
31.5941   210
31.6041   187
31.6141   191
31.6241   204
31.6341   213
31.6441   209
31.6541   191
31.6641   197
31.6741   207
31.6841   204
31.6941   202
31.7041   195
31.7141   203
31.7241   209
31.7341   210
31.7441   193
31.7541   194
31.7641   182
31.7741   197
31.7841   196
31.7941   203
31.8041   195
31.8141   193
31.8241   190
31.8341   196
31.8441   201
31.8541   196
31.8641   199
31.8741   199
31.8841   208
31.8941   202
31.9041   196
31.9141   190
31.9241   223
31.9341   209
31.9441   167
31.9541   210
31.9641   183
31.9741   194
31.9841   188
31.9941   175
32.0041   189
32.0141   193
32.0241   192
32.0341   168
32.0441   200
32.0541   197
32.0641   184
32.0741   170
32.0841   185
32.0941   169
32.1041   188
32.1141   197
32.1241   185
32.1341   188
32.1441   201
32.1541   185
32.1641   204
32.1741   199
32.1841   164
32.1941   183
32.2041   196
32.2141   179
32.2241   183
32.2341   177
32.2441   174
32.2541   201
32.2641   186
32.2741   193
32.2841   165
32.2941   190
32.3041   189
32.3141   177
32.3241   174
32.3341   180
32.3441   170
32.3541   187
32.3641   156
32.3741   177
32.3841   193
32.3941   192
32.4041   183
32.4141   188
32.4241   171
32.4341   169
32.4441   166
32.4541   161
32.4641   181
32.4741   160
32.4841   168
32.4941   161
32.5041   177
32.5141   181
32.5241   182
32.5341   177
32.5441   181
32.5541   175
32.5641   164
32.5741   164
32.5841   175
32.5941   174
32.6041   157
32.6141   161
32.6241   185
32.6341   176
32.6441   155
32.6541   174
32.6641   165
32.6741   162
32.6841   166
32.6941   182
32.7041   143
32.7141   137
32.7241   165
32.7341   149
32.7441   156
32.7541   157
32.7641   167
32.7741   162
32.7841   187
32.7941   161
32.8041   151
32.8141   157
32.8241   156
32.8341   152
32.8441   166
32.8541   165
32.8641   163
32.8741   130
32.8841   153
32.8941   147
32.9041   181
32.9141   161
32.9241   146
32.9341   142
32.9441   144
32.9541   156
32.9641   156
32.9741   159
32.9841   168
32.9941   165
33.0041   139
33.0141   151
33.0241   145
33.0341   162
33.0441   146
33.0541   152
33.0641   146
33.0741   137
33.0841   167
33.0941   191
33.1041   157
33.1141   161
33.1241   128
33.1341   137
33.1441   162
33.1541   161
33.1641   179
33.1741   140
33.1841   151
33.1941   146
33.2041   141
33.2141   151
33.2241   175
33.2341   138
33.2441   144
33.2541   159
33.2641   164
33.2741   179
33.2841   159
33.2941   140
33.3041   146
33.3141   160
33.3241   148
33.3341   152
33.3441   143
33.3541   159
33.3641   145
33.3741   143
33.3841   149
33.3941   138
33.4041   140
33.4141   149
33.4241   168
33.4341   143
33.4441   147
33.4541   142
33.4641   144
33.4741   140
33.4841   150
33.4941   146
33.5041   143
33.5141   135
33.5241   158
33.5341   137
33.5441   147
33.5541   147
33.5641   158
33.5741   170
33.5841   141
33.5941   149
33.6041   158
33.6141   147
33.6241   155
33.6341   155
33.6441   136
33.6541   135
33.6641   137
33.6741   158
33.6841   162
33.6941   125
33.7041   135
33.7141   118
33.7241   129
33.7341   136
33.7441   158
33.7541   118
33.7641   140
33.7741   144
33.7841   141
33.7941   144
33.8041   127
33.8141   137
33.8241   121
33.8341   135
33.8441   138
33.8541   134
33.8641   119
33.8741   126
33.8841   148
33.8941   139
33.9041   132
33.9141   138
33.9241   144
33.9341   133
33.9441   125
33.9541   120
33.9641   138
33.9741   124
33.9841   145
33.9941   131
34.0041   138
34.0141   135
34.0241   132
34.0341   140
34.0441   116
34.0541   129
34.0641   127
34.0741   141
34.0841   136
34.0941   134
34.1041   127
34.1141   149
34.1241   138
34.1341   123
34.1441   125
34.1541   136
34.1641   147
34.1741   140
34.1841   120
34.1941   132
34.2041   133
34.2141   118
34.2241   120
34.2341   128
34.2441   119
34.2541   111
34.2641   114
34.2741   111
34.2841    99
34.2941   134
34.3041   120
34.3141   129
34.3241   118
34.3341   128
34.3441   122
34.3541   112
34.3641   126
34.3741   125
34.3841   130
34.3941   114
34.4041   127
34.4141   124
34.4241   138
34.4341   123
34.4441   132
34.4541   121
34.4641   120
34.4741   125
34.4841   122
34.4941   129
34.5041   113
34.5141   115
34.5241   124
34.5341   116
34.5441   118
34.5541   119
34.5641   126
34.5741   119
34.5841   118
34.5941   115
34.6041   109
34.6141   117
34.6241   117
34.6341   128
34.6441   130
34.6541   116
34.6641   127
34.6741   114
34.6841    99
34.6941   111
34.7041   104
34.7141   120
34.7241   122
34.7341   123
34.7441   110
34.7541   117
34.7641   110
34.7741   120
34.7841   118
34.7941   116
34.8041   110
34.8141   117
34.8241   106
34.8341    98
34.8441   104
34.8541   112
34.8641   124
34.8741    82
34.8841   128
34.8941   105
34.9041   114
34.9141   112
34.9241   111
34.9341   116
34.9441   117
34.9541   106
34.9641   116
34.9741    96
34.9841   107
34.9941    85
35.0041   103
35.0141   102
35.0241   116
35.0341   126
35.0441   119
35.0541    95
35.0641   120
35.0741   103
35.0841   118
35.0941    98
35.1041    86
35.1141   105
35.1241    99
35.1341   100
35.1441    93
35.1541   104
35.1641   115
35.1741   109
35.1841   112
35.1941   106
35.2041   105
35.2141    94
35.2241   115
35.2341    96
35.2441   125
35.2541   107
35.2641    91
35.2741   100
35.2841    94
35.2941   107
35.3041    99
35.3141    84
35.3241    97
35.3341    93
35.3441    95
35.3541   103
35.3641    96
35.3741    95
35.3841   101
35.3941    89
35.4041    93
35.4141    94
35.4241    83
35.4341    87
35.4441    86
35.4541    77
35.4641    98
35.4741    98
35.4841   100
35.4941    82
35.5041    97
35.5141    94
35.5241    94
35.5341   107
35.5441    94
35.5541    88
35.5641    90
35.5741   110
35.5841   108
35.5941   110
35.6041    83
35.6141   103
35.6241    98
35.6341   103
35.6441    96
35.6541    90
35.6641    97
35.6741    89
35.6841   111
35.6941    90
35.7041    94
35.7141    84
35.7241    75
35.7341    85
35.7441   100
35.7541    87
35.7641    98
35.7741    95
35.7841    76
35.7941    94
35.8041    92
35.8141    84
35.8241    89
35.8341    88
35.8441    82
35.8541    63
35.8641    88
35.8741    93
35.8841    86
35.8941    81
35.9041    79
35.9141    82
35.9241   102
35.9341    81
35.9441    87
35.9541    79
35.9641    86
35.9741    93
35.9841    74
35.9941    83
36.0041    91
36.0141    83
36.0241    89
36.0341    89
36.0441    80
36.0541    88
36.0641    98
36.0741    94
36.0841    76
36.0941    93
36.1041    78
36.1141    76
36.1241    76
36.1341    86
36.1441    88
36.1541    89
36.1641    81
36.1741   101
36.1841    85
36.1941    97
36.2041    80
36.2141    84
36.2241    69
36.2341    90
36.2441    76
36.2541    78
36.2641    71
36.2741    67
36.2841    66
36.2941    82
36.3041    88
36.3141    67
36.3241    90
36.3341    72
36.3441    82
36.3541    76
36.3641   103
36.3741    80
36.3841    78
36.3941    76
36.4041    75
36.4141    82
36.4241    74
36.4341    83
36.4441    71
36.4541    69
36.4641    73
36.4741    85
36.4841    84
36.4941    79
36.5041    75
36.5141    92
36.5241    75
36.5341    81
36.5441    69
36.5541    74
36.5641    71
36.5741    74
36.5841    73
36.5941    82
36.6041    69
36.6141    75
36.6241    71
36.6341    72
36.6441    69
36.6541    65
36.6641    66
36.6741    77
36.6841    84
36.6941    69
36.7041    77
36.7141    63
36.7241    66
36.7341    69
36.7441    78
36.7541    73
36.7641    71
36.7741    66
36.7841    64
36.7941    66
36.8041    67
36.8141    60
36.8241    73
36.8341    77
36.8441    74
36.8541    73
36.8641    70
36.8741    65
36.8841    77
36.8941    79
36.9041    71
36.9141    71
36.9241    73
36.9341    75
36.9441    73
36.9541    72
36.9641    69
36.9741    74
36.9841    76
36.9941    70
37.0041    68
37.0141    61
37.0241    57
37.0341    46
37.0441    53
37.0541    81
37.0641    72
37.0741    75
37.0841    68
37.0941    58
37.1041    53
37.1141    73
37.1241    69
37.1341    60
37.1441    77
37.1541    66
37.1641    68
37.1741    65
37.1841    63
37.1941    73
37.2041    68
37.2141    74
37.2241    71
37.2341    72
37.2441    59
37.2541    65
37.2641    54
37.2741    60
37.2841    53
37.2941    66
37.3041    61
37.3141    71
37.3241    63
37.3341    65
37.3441    54
37.3541    55
37.3641    74
37.3741    62
37.3841    52
37.3941    65
37.4041    63
37.4141    61
37.4241    70
37.4341    60
37.4441    82
37.4541    55
37.4641    54
37.4741    67
37.4841    61
37.4941    62
37.5041    57
37.5141    47
37.5241    56
37.5341    50
37.5441    80
37.5541    49
37.5641    57
37.5741    65
37.5841    50
37.5941    51
37.6041    72
37.6141    42
37.6241    63
37.6341    42
37.6441    47
37.6541    62
37.6641    60
37.6741    59
37.6841    60
37.6941    60
37.7041    56
37.7141    60
37.7241    63
37.7341    51
37.7441    49
37.7541    53
37.7641    56
37.7741    51
37.7841    48
37.7941    60
37.8041    52
37.8141    59
37.8241    58
37.8341    50
37.8441    63
37.8541    58
37.8641    53
37.8741    51
37.8841    45
37.8941    53
37.9041    55
37.9141    52
37.9241    55
37.9341    45
37.9441    52
37.9541    61
37.9641    52
37.9741    67
37.9841    59
37.9941    42
38.0041    59
38.0141    43
38.0241    57
38.0341    56
38.0441    56
38.0541    55
38.0641    45
38.0741    49
38.0841    39
38.0941    40
38.1041    53
38.1141    60
38.1241    48
38.1341    45
38.1441    54
38.1541    46
38.1641    52
38.1741    51
38.1841    45
38.1941    42
38.2041    43
38.2141    36
38.2241    52
38.2341    50
38.2441    47
38.2541    58
38.2641    47
38.2741    42
38.2841    41
38.2941    46
38.3041    53
38.3141    48
38.3241    44
38.3341    46
38.3441    60
38.3541    49
38.3641    39
38.3741    41
38.3841    48
38.3941    41
38.4041    49
38.4141    38
38.4241    49
38.4341    39
38.4441    40
38.4541    39
38.4641    59
38.4741    49
38.4841    54
38.4941    40
38.5041    42
38.5141    50
38.5241    37
38.5341    41
38.5441    41
38.5541    44
38.5641    45
38.5741    38
38.5841    38
38.5941    48
38.6041    58
38.6141    43
38.6241    53
38.6341    35
38.6441    47
38.6541    37
38.6641    47
38.6741    34
38.6841    30
38.6941    47
38.7041    37
38.7141    45
38.7241    48
38.7341    39
38.7441    46
38.7541    49
38.7641    45
38.7741    32
38.7841    54
38.7941    48
38.8041    54
38.8141    50
38.8241    41
38.8341    37
38.8441    39
38.8541    43
38.8641    32
38.8741    39
38.8841    35
38.8941    36
38.9041    56
38.9141    32
38.9241    33
38.9341    31
38.9441    40
38.9541    50
38.9641    39
38.9741    37
38.9841    36
38.9941    44
39.0041    35
39.0141    43
39.0241    39
39.0341    39
39.0441    41
39.0541    45
39.0641    36
39.0741    38
39.0841    42
39.0941    30
39.1041    29
39.1141    28
39.1241    33
39.1341    42
39.1441    34
39.1541    39
39.1641    40
39.1741    31
39.1841    39
39.1941    30
39.2041    36
39.2141    38
39.2241    31
39.2341    39
39.2441    29
39.2541    29
39.2641    30
39.2741    25
39.2841    27
39.2941    32
39.3041    28
39.3141    32
39.3241    32
39.3341    45
39.3441    46
39.3541    35
39.3641    26
39.3741    30
39.3841    42
39.3941    41
39.4041    34
39.4141    33
39.4241    32
39.4341    37
39.4441    26
39.4541    31
39.4641    31
39.4741    36
39.4841    34
39.4941    35
39.5041    31
39.5141    32
39.5241    30
39.5341    35
39.5441    29
39.5541    28
39.5641    32
39.5741    32
39.5841    26
39.5941    28
39.6041    28
39.6141    29
39.6241    44
39.6341    41
39.6441    35
39.6541    28
39.6641    38
39.6741    26
39.6841    27
39.6941    28
39.7041    34
39.7141    30
39.7241    33
39.7341    28
39.7441    23
39.7541    22
39.7641    40
39.7741    31
39.7841    28
39.7941    33
39.8041    27
39.8141    32
39.8241    39
39.8341    33
39.8441    27
39.8541    21
39.8641    34
39.8741    23
39.8841    17
39.8941    32
39.9041    28
39.9141    23
39.9241    26
39.9341    31
39.9441    29
39.9541    22
39.9641    30
39.9741    26
39.9841    29
39.9941    27
