Bruker Nano GmbH Berlin, Germany
Esprit 1.9

Date: 5/14/2021 3:54:10 PM
Real time: 13497
Life time: 12567
Pulse density: 106999


Detector type: XFlash 430
Window type: Custom type
Detector thickness: 0.45
Si dead layer:0.029

Calibration, lin.: 10
Calibration, abs.: -955.9
Mn FWHM: 137.05
Fano factor: 0.121
Channels: 4095

Energy Counts
-0.9559     0
-0.9459     0
-0.9359     0
-0.9259     0
-0.9159     0
-0.9059     0
-0.8959     0
-0.8859     0
-0.8759     0
-0.8659     0
-0.8559     0
-0.8459     0
-0.8359     0
-0.8259     0
-0.8159     0
-0.8059     0
-0.7959     0
-0.7859     0
-0.7759     0
-0.7659     0
-0.7559     0
-0.7459     0
-0.7359     0
-0.7259     0
-0.7159     0
-0.7059     0
-0.6959     0
-0.6859     0
-0.6759     0
-0.6659     0
-0.6559     0
-0.6459     0
-0.6359     0
-0.6259     0
-0.6159     0
-0.6059     0
-0.5959     0
-0.5859     0
-0.5759     0
-0.5659     0
-0.5559     0
-0.5459     0
-0.5359     0
-0.5259     0
-0.5159     0
-0.5059     0
-0.4959     0
-0.4859     0
-0.4759     0
-0.4659     0
-0.4559     0
-0.4459     0
-0.4359     0
-0.4259     0
-0.4159     0
-0.4059     0
-0.3959     0
-0.3859     0
-0.3759     0
-0.3659     0
-0.3559     0
-0.3459     0
-0.3359     0
-0.3259     0
-0.3159     0
-0.3059     0
-0.2959     0
-0.2859     0
-0.2759     0
-0.2659     0
-0.2559     0
-0.2459     0
-0.2359     0
-0.2259     0
-0.2159     0
-0.2059     0
-0.1959     0
-0.1859     0
-0.1759     0
-0.1659     0
-0.1559     0
-0.1459     0
-0.1359     0
-0.1259     2
-0.1159     1
-0.1059    13
-0.0959    34
-0.0859   143
-0.0759   506
-0.0659  1487
-0.0559  3648
-0.0459  8076
-0.0359 14881
-0.0259 23793
-0.0159 32842
-0.0059 38575
 0.0041 38722
 0.0141 33195
 0.0241 24669
 0.0341 15630
 0.0441  8515
 0.0541  3900
 0.0641  1560
 0.0741   542
 0.0841   198
 0.0941    52
 0.1041    11
 0.1141     5
 0.1241     5
 0.1341     4
 0.1441     0
 0.1541     3
 0.1641     6
 0.1741     9
 0.1841    82
 0.1941   190
 0.2041   163
 0.2141   147
 0.2241   157
 0.2341   171
 0.2441   188
 0.2541   182
 0.2641   164
 0.2741   170
 0.2841   172
 0.2941   160
 0.3041   177
 0.3141   162
 0.3241   167
 0.3341   167
 0.3441   158
 0.3541   142
 0.3641   155
 0.3741   171
 0.3841   170
 0.3941   161
 0.4041   157
 0.4141   143
 0.4241   143
 0.4341   140
 0.4441   131
 0.4541   148
 0.4641   145
 0.4741   154
 0.4841   141
 0.4941   150
 0.5041   154
 0.5141   137
 0.5241   147
 0.5341   146
 0.5441   137
 0.5541   143
 0.5641   137
 0.5741   151
 0.5841   153
 0.5941   142
 0.6041   133
 0.6141   127
 0.6241   127
 0.6341   132
 0.6441   130
 0.6541   127
 0.6641   124
 0.6741   121
 0.6841   123
 0.6941   134
 0.7041   134
 0.7141   126
 0.7241   118
 0.7341   125
 0.7441   127
 0.7541   119
 0.7641   120
 0.7741   109
 0.7841   114
 0.7941   134
 0.8041   131
 0.8141   116
 0.8241   104
 0.8341   118
 0.8441   123
 0.8541   109
 0.8641   110
 0.8741   130
 0.8841   124
 0.8941   115
 0.9041   108
 0.9141   107
 0.9241   115
 0.9341   118
 0.9441   119
 0.9541   116
 0.9641   110
 0.9741    99
 0.9841   100
 0.9941   105
 1.0041   103
 1.0141   119
 1.0241   119
 1.0341   106
 1.0441   110
 1.0541   107
 1.0641   121
 1.0741   107
 1.0841   111
 1.0941   103
 1.1041   111
 1.1141   103
 1.1241   105
 1.1341    96
 1.1441   121
 1.1541   115
 1.1641   117
 1.1741   114
 1.1841   116
 1.1941   104
 1.2041   120
 1.2141   100
 1.2241    96
 1.2341   111
 1.2441   108
 1.2541   107
 1.2641   119
 1.2741   107
 1.2841   111
 1.2941    99
 1.3041   102
 1.3141   112
 1.3241   111
 1.3341    97
 1.3441    90
 1.3541   104
 1.3641   114
 1.3741   115
 1.3841    97
 1.3941    94
 1.4041    80
 1.4141   102
 1.4241    84
 1.4341    88
 1.4441   107
 1.4541   124
 1.4641   103
 1.4741   101
 1.4841   113
 1.4941    97
 1.5041   110
 1.5141   104
 1.5241   103
 1.5341    92
 1.5441    91
 1.5541   106
 1.5641    94
 1.5741   107
 1.5841   105
 1.5941    90
 1.6041    97
 1.6141    90
 1.6241   102
 1.6341    98
 1.6441   121
 1.6541   143
 1.6641   166
 1.6741   203
 1.6841   223
 1.6941   272
 1.7041   323
 1.7141   424
 1.7241   468
 1.7341   505
 1.7441   494
 1.7541   446
 1.7641   419
 1.7741   361
 1.7841   298
 1.7941   251
 1.8041   224
 1.8141   187
 1.8241   171
 1.8341   141
 1.8441   134
 1.8541   109
 1.8641   121
 1.8741   132
 1.8841   103
 1.8941    87
 1.9041   100
 1.9141   106
 1.9241   111
 1.9341   101
 1.9441   109
 1.9541   134
 1.9641   116
 1.9741   114
 1.9841   125
 1.9941   127
 2.0041   143
 2.0141   140
 2.0241   145
 2.0341   125
 2.0441   116
 2.0541   117
 2.0641   102
 2.0741   116
 2.0841   110
 2.0941   116
 2.1041   120
 2.1141    76
 2.1241    93
 2.1341   111
 2.1441   103
 2.1541   100
 2.1641    95
 2.1741    95
 2.1841    87
 2.1941    75
 2.2041    89
 2.2141    90
 2.2241    84
 2.2341    85
 2.2441    97
 2.2541    90
 2.2641    81
 2.2741   100
 2.2841    75
 2.2941    94
 2.3041    89
 2.3141    93
 2.3241    75
 2.3341   102
 2.3441    89
 2.3541    66
 2.3641    87
 2.3741    91
 2.3841    93
 2.3941    73
 2.4041    86
 2.4141    76
 2.4241    86
 2.4341    83
 2.4441    84
 2.4541    81
 2.4641    97
 2.4741    98
 2.4841    79
 2.4941    76
 2.5041   116
 2.5141    90
 2.5241    76
 2.5341    75
 2.5441    90
 2.5541    77
 2.5641    79
 2.5741    61
 2.5841    73
 2.5941    73
 2.6041    90
 2.6141    62
 2.6241    90
 2.6341    85
 2.6441    82
 2.6541    73
 2.6641    90
 2.6741    76
 2.6841    73
 2.6941    72
 2.7041    65
 2.7141    78
 2.7241    88
 2.7341    91
 2.7441    87
 2.7541    73
 2.7641    65
 2.7741    75
 2.7841    82
 2.7941    72
 2.8041    89
 2.8141    92
 2.8241    93
 2.8341    80
 2.8441    86
 2.8541    71
 2.8641    68
 2.8741    69
 2.8841    76
 2.8941    67
 2.9041    66
 2.9141    82
 2.9241    82
 2.9341    61
 2.9441    74
 2.9541    85
 2.9641    76
 2.9741    65
 2.9841    63
 2.9941    66
 3.0041    75
 3.0141    70
 3.0241    80
 3.0341    71
 3.0441    58
 3.0541    73
 3.0641    84
 3.0741    64
 3.0841    61
 3.0941    75
 3.1041    67
 3.1141    68
 3.1241    51
 3.1341    75
 3.1441    67
 3.1541    72
 3.1641    51
 3.1741    56
 3.1841    55
 3.1941    67
 3.2041    80
 3.2141    82
 3.2241    81
 3.2341    80
 3.2441    76
 3.2541    81
 3.2641    90
 3.2741    88
 3.2841    96
 3.2941    94
 3.3041   107
 3.3141   128
 3.3241    99
 3.3341    85
 3.3441    94
 3.3541    83
 3.3641    80
 3.3741    71
 3.3841    64
 3.3941    70
 3.4041    68
 3.4141    78
 3.4241    60
 3.4341    53
 3.4441    62
 3.4541    52
 3.4641    61
 3.4741    67
 3.4841    73
 3.4941    72
 3.5041    79
 3.5141   106
 3.5241    89
 3.5341   121
 3.5441   158
 3.5541   178
 3.5641   252
 3.5741   316
 3.5841   459
 3.5941   633
 3.6041   919
 3.6141  1238
 3.6241  1621
 3.6341  2078
 3.6441  2643
 3.6541  3021
 3.6641  3551
 3.6741  3855
 3.6841  4003
 3.6941  3996
 3.7041  3769
 3.7141  3554
 3.7241  3179
 3.7341  2625
 3.7441  2130
 3.7541  1662
 3.7641  1213
 3.7741   903
 3.7841   631
 3.7941   463
 3.8041   321
 3.8141   208
 3.8241   159
 3.8341   124
 3.8441   107
 3.8541    94
 3.8641   106
 3.8741    88
 3.8841    94
 3.8941   114
 3.9041   154
 3.9141   215
 3.9241   251
 3.9341   296
 3.9441   370
 3.9541   460
 3.9641   542
 3.9741   628
 3.9841   735
 3.9941   774
 4.0041   821
 4.0141   890
 4.0241   828
 4.0341   770
 4.0441   642
 4.0541   609
 4.0641   500
 4.0741   402
 4.0841   356
 4.0941   258
 4.1041   207
 4.1141   139
 4.1241   101
 4.1341    99
 4.1441    87
 4.1541    85
 4.1641    61
 4.1741    66
 4.1841    50
 4.1941    40
 4.2041    52
 4.2141    53
 4.2241    48
 4.2341    37
 4.2441    52
 4.2541    48
 4.2641    65
 4.2741    51
 4.2841    40
 4.2941    53
 4.3041    60
 4.3141    57
 4.3241    55
 4.3341    61
 4.3441    53
 4.3541    52
 4.3641    70
 4.3741    89
 4.3841    99
 4.3941   135
 4.4041   158
 4.4141   188
 4.4241   259
 4.4341   325
 4.4441   400
 4.4541   485
 4.4641   567
 4.4741   629
 4.4841   685
 4.4941   726
 4.5041   721
 4.5141   755
 4.5241   728
 4.5341   677
 4.5441   635
 4.5541   541
 4.5641   423
 4.5741   349
 4.5841   340
 4.5941   219
 4.6041   207
 4.6141   165
 4.6241   104
 4.6341    88
 4.6441    75
 4.6541    78
 4.6641    80
 4.6741    72
 4.6841    51
 4.6941    75
 4.7041    63
 4.7141    60
 4.7241    55
 4.7341    46
 4.7441    70
 4.7541    67
 4.7641    61
 4.7741    65
 4.7841    64
 4.7941    81
 4.8041    77
 4.8141    94
 4.8241    94
 4.8341    85
 4.8441    88
 4.8541   122
 4.8641   127
 4.8741   150
 4.8841   154
 4.8941   176
 4.9041   186
 4.9141   194
 4.9241   221
 4.9341   200
 4.9441   198
 4.9541   222
 4.9641   188
 4.9741   180
 4.9841   172
 4.9941   139
 5.0041   101
 5.0141   104
 5.0241   102
 5.0341   101
 5.0441    82
 5.0541    83
 5.0641    77
 5.0741    64
 5.0841    52
 5.0941    57
 5.1041    66
 5.1141    63
 5.1241    58
 5.1341    59
 5.1441    59
 5.1541    66
 5.1641    67
 5.1741    52
 5.1841    57
 5.1941    64
 5.2041    56
 5.2141    49
 5.2241    56
 5.2341    60
 5.2441    74
 5.2541    62
 5.2641    70
 5.2741    63
 5.2841    72
 5.2941    58
 5.3041    66
 5.3141    74
 5.3241    89
 5.3341    71
 5.3441    80
 5.3541    80
 5.3641   108
 5.3741   105
 5.3841   101
 5.3941   106
 5.4041   132
 5.4141   114
 5.4241   108
 5.4341    97
 5.4441   108
 5.4541   104
 5.4641   109
 5.4741    85
 5.4841    97
 5.4941    86
 5.5041    82
 5.5141    97
 5.5241    56
 5.5341    83
 5.5441    70
 5.5541    74
 5.5641    63
 5.5741    75
 5.5841    81
 5.5941    67
 5.6041    70
 5.6141    68
 5.6241    62
 5.6341    71
 5.6441    69
 5.6541    50
 5.6641    58
 5.6741    64
 5.6841    68
 5.6941    76
 5.7041    75
 5.7141    78
 5.7241    65
 5.7341    86
 5.7441    62
 5.7541    80
 5.7641   101
 5.7741    90
 5.7841   127
 5.7941   147
 5.8041   186
 5.8141   192
 5.8241   224
 5.8341   254
 5.8441   285
 5.8541   320
 5.8641   333
 5.8741   393
 5.8841   397
 5.8941   391
 5.9041   391
 5.9141   397
 5.9241   325
 5.9341   330
 5.9441   312
 5.9541   264
 5.9641   210
 5.9741   215
 5.9841   196
 5.9941   153
 6.0041   128
 6.0141   129
 6.0241   120
 6.0341    96
 6.0441   111
 6.0541   124
 6.0641    93
 6.0741   129
 6.0841   111
 6.0941   115
 6.1041   154
 6.1141   124
 6.1241   124
 6.1341   143
 6.1441   161
 6.1541   161
 6.1641   168
 6.1741   197
 6.1841   245
 6.1941   337
 6.2041   379
 6.2141   546
 6.2241   701
 6.2341   924
 6.2441  1363
 6.2541  2000
 6.2641  2683
 6.2741  3805
 6.2841  5120
 6.2941  6771
 6.3041  8675
 6.3141 10940
 6.3241 13505
 6.3341 16041
 6.3441 19018
 6.3541 21792
 6.3641 24107
 6.3741 26105
 6.3841 27395
 6.3941 27842
 6.4041 27996
 6.4141 27196
 6.4241 25683
 6.4341 23222
 6.4441 20824
 6.4541 18037
 6.4641 15454
 6.4741 12724
 6.4841 10058
 6.4941  7890
 6.5041  5932
 6.5141  4427
 6.5241  3235
 6.5341  2307
 6.5441  1585
 6.5541  1101
 6.5641   739
 6.5741   562
 6.5841   393
 6.5941   294
 6.6041   221
 6.6141   178
 6.6241   164
 6.6341   138
 6.6441   134
 6.6541   135
 6.6641   141
 6.6741   135
 6.6841   137
 6.6941   131
 6.7041   131
 6.7141   121
 6.7241   136
 6.7341   120
 6.7441   156
 6.7541   145
 6.7641   147
 6.7741   160
 6.7841   185
 6.7941   149
 6.8041   163
 6.8141   186
 6.8241   211
 6.8341   197
 6.8441   218
 6.8541   236
 6.8641   320
 6.8741   343
 6.8841   360
 6.8941   480
 6.9041   541
 6.9141   680
 6.9241   820
 6.9341  1068
 6.9441  1358
 6.9541  1622
 6.9641  2025
 6.9741  2294
 6.9841  2789
 6.9941  3248
 7.0041  3610
 7.0141  4120
 7.0241  4393
 7.0341  4590
 7.0441  4844
 7.0541  4661
 7.0641  4728
 7.0741  4556
 7.0841  4308
 7.0941  4030
 7.1041  3609
 7.1141  3034
 7.1241  2613
 7.1341  2188
 7.1441  1754
 7.1541  1472
 7.1641  1189
 7.1741   850
 7.1841   667
 7.1941   570
 7.2041   403
 7.2141   350
 7.2241   246
 7.2341   227
 7.2441   179
 7.2541   153
 7.2641   133
 7.2741   145
 7.2841   143
 7.2941   132
 7.3041   151
 7.3141   164
 7.3241   156
 7.3341   166
 7.3441   182
 7.3541   172
 7.3641   206
 7.3741   181
 7.3841   192
 7.3941   203
 7.4041   200
 7.4141   232
 7.4241   222
 7.4341   216
 7.4441   214
 7.4541   209
 7.4641   214
 7.4741   198
 7.4841   221
 7.4941   199
 7.5041   206
 7.5141   153
 7.5241   156
 7.5341   153
 7.5441   149
 7.5541   165
 7.5641   152
 7.5741   129
 7.5841   126
 7.5941   128
 7.6041   115
 7.6141   131
 7.6241   126
 7.6341   136
 7.6441   139
 7.6541   119
 7.6641   137
 7.6741   120
 7.6841   135
 7.6941   119
 7.7041   119
 7.7141   149
 7.7241   142
 7.7341   141
 7.7441   133
 7.7541   124
 7.7641   136
 7.7741   151
 7.7841   161
 7.7941   174
 7.8041   176
 7.8141   130
 7.8241   152
 7.8341   169
 7.8441   152
 7.8541   185
 7.8641   167
 7.8741   164
 7.8841   185
 7.8941   173
 7.9041   181
 7.9141   200
 7.9241   215
 7.9341   230
 7.9441   250
 7.9541   291
 7.9641   268
 7.9741   311
 7.9841   334
 7.9941   404
 8.0041   366
 8.0141   429
 8.0241   440
 8.0341   472
 8.0441   488
 8.0541   524
 8.0641   566
 8.0741   579
 8.0841   624
 8.0941   638
 8.1041   708
 8.1141   721
 8.1241   752
 8.1341   755
 8.1441   769
 8.1541   808
 8.1641   820
 8.1741   833
 8.1841   883
 8.1941   859
 8.2041   852
 8.2141   875
 8.2241   908
 8.2341   876
 8.2441   947
 8.2541   967
 8.2641  1044
 8.2741  1086
 8.2841  1132
 8.2941  1130
 8.3041  1275
 8.3141  1367
 8.3241  1436
 8.3341  1576
 8.3441  1707
 8.3541  1852
 8.3641  1824
 8.3741  1870
 8.3841  1836
 8.3941  1927
 8.4041  1835
 8.4141  1793
 8.4241  1760
 8.4341  1548
 8.4441  1421
 8.4541  1305
 8.4641  1165
 8.4741   989
 8.4841   829
 8.4941   731
 8.5041   631
 8.5141   529
 8.5241   434
 8.5341   375
 8.5441   301
 8.5541   312
 8.5641   275
 8.5741   277
 8.5841   289
 8.5941   261
 8.6041   257
 8.6141   261
 8.6241   261
 8.6341   273
 8.6441   257
 8.6541   250
 8.6641   222
 8.6741   219
 8.6841   248
 8.6941   232
 8.7041   229
 8.7141   229
 8.7241   206
 8.7341   225
 8.7441   217
 8.7541   178
 8.7641   179
 8.7741   183
 8.7841   184
 8.7941   170
 8.8041   166
 8.8141   182
 8.8241   163
 8.8341   199
 8.8441   165
 8.8541   179
 8.8641   176
 8.8741   204
 8.8841   195
 8.8941   179
 8.9041   197
 8.9141   210
 8.9241   190
 8.9341   201
 8.9441   195
 8.9541   195
 8.9641   214
 8.9741   203
 8.9841   202
 8.9941   215
 9.0041   216
 9.0141   217
 9.0241   240
 9.0341   232
 9.0441   245
 9.0541   233
 9.0641   242
 9.0741   259
 9.0841   258
 9.0941   253
 9.1041   259
 9.1141   266
 9.1241   287
 9.1341   301
 9.1441   335
 9.1541   331
 9.1641   340
 9.1741   346
 9.1841   381
 9.1941   391
 9.2041   397
 9.2141   428
 9.2241   457
 9.2341   507
 9.2441   507
 9.2541   534
 9.2641   585
 9.2741   601
 9.2841   577
 9.2941   621
 9.3041   624
 9.3141   635
 9.3241   667
 9.3341   718
 9.3441   727
 9.3541   737
 9.3641   787
 9.3741   752
 9.3841   800
 9.3941   788
 9.4041   779
 9.4141   811
 9.4241   833
 9.4341   819
 9.4441   814
 9.4541   879
 9.4641   854
 9.4741   878
 9.4841   912
 9.4941   910
 9.5041   916
 9.5141   988
 9.5241   967
 9.5341  1018
 9.5441  1052
 9.5541  1088
 9.5641  1144
 9.5741  1246
 9.5841  1263
 9.5941  1407
 9.6041  1431
 9.6141  1503
 9.6241  1583
 9.6341  1650
 9.6441  1707
 9.6541  1638
 9.6641  1640
 9.6741  1630
 9.6841  1624
 9.6941  1612
 9.7041  1548
 9.7141  1501
 9.7241  1403
 9.7341  1239
 9.7441  1156
 9.7541  1061
 9.7641   978
 9.7741   999
 9.7841   924
 9.7941   845
 9.8041   779
 9.8141   717
 9.8241   708
 9.8341   653
 9.8441   706
 9.8541   649
 9.8641   632
 9.8741   686
 9.8841   638
 9.8941   657
 9.9041   688
 9.9141   705
 9.9241   732
 9.9341   756
 9.9441   779
 9.9541   716
 9.9641   733
 9.9741   726
 9.9841   707
 9.9941   674
10.0041   624
10.0141   571
10.0241   513
10.0341   462
10.0441   439
10.0541   414
10.0641   367
10.0741   324
10.0841   295
10.0941   264
10.1041   234
10.1141   218
10.1241   214
10.1341   208
10.1441   190
10.1541   168
10.1641   149
10.1741   144
10.1841   151
10.1941   151
10.2041   144
10.2141   134
10.2241   129
10.2341   128
10.2441   121
10.2541   111
10.2641   115
10.2741   108
10.2841   104
10.2941   106
10.3041    95
10.3141   107
10.3241    93
10.3341    92
10.3441    93
10.3541    91
10.3641    93
10.3741   100
10.3841    92
10.3941    91
10.4041    88
10.4141    88
10.4241    96
10.4341   106
10.4441    92
10.4541    96
10.4641    88
10.4741   102
10.4841   106
10.4941    97
10.5041   104
10.5141   111
10.5241   109
10.5341   101
10.5441   112
10.5541   106
10.5641    92
10.5741    99
10.5841    98
10.5941   101
10.6041   107
10.6141   110
10.6241   104
10.6341   103
10.6441   132
10.6541   130
10.6641   118
10.6741   117
10.6841   120
10.6941   121
10.7041   122
10.7141   134
10.7241   132
10.7341   132
10.7441   136
10.7541   143
10.7641   143
10.7741   140
10.7841   145
10.7941   168
10.8041   164
10.8141   154
10.8241   147
10.8341   151
10.8441   166
10.8541   158
10.8641   165
10.8741   157
10.8841   162
10.8941   164
10.9041   182
10.9141   171
10.9241   169
10.9341   182
10.9441   173
10.9541   171
10.9641   163
10.9741   171
10.9841   151
10.9941   153
11.0041   161
11.0141   153
11.0241   144
11.0341   154
11.0441   149
11.0541   150
11.0641   153
11.0741   156
11.0841   167
11.0941   162
11.1041   153
11.1141   151
11.1241   157
11.1341   160
11.1441   150
11.1541   178
11.1641   168
11.1741   178
11.1841   192
11.1941   213
11.2041   212
11.2141   225
11.2241   225
11.2341   233
11.2441   227
11.2541   239
11.2641   255
11.2741   243
11.2841   253
11.2941   237
11.3041   234
11.3141   238
11.3241   238
11.3341   228
11.3441   225
11.3541   198
11.3641   184
11.3741   173
11.3841   175
11.3941   163
11.4041   155
11.4141   167
11.4241   136
11.4341   124
11.4441   127
11.4541   139
11.4641   123
11.4741   120
11.4841   134
11.4941   130
11.5041   118
11.5141   114
11.5241   123
11.5341   114
11.5441   112
11.5541   115
11.5641   127
11.5741   126
11.5841   122
11.5941   137
11.6041   128
11.6141   129
11.6241   129
11.6341   128
11.6441   130
11.6541   132
11.6641   131
11.6741   126
11.6841   132
11.6941   125
11.7041   103
11.7141   113
11.7241   118
11.7341   111
11.7441   118
11.7541   107
11.7641    92
11.7741    93
11.7841    99
11.7941    90
11.8041    99
11.8141   104
11.8241    99
11.8341    89
11.8441    83
11.8541   101
11.8641    96
11.8741   103
11.8841   106
11.8941   100
11.9041   100
11.9141   101
11.9241   109
11.9341    98
11.9441    98
11.9541    93
11.9641    95
11.9741   102
11.9841   101
11.9941   109
12.0041   102
12.0141    96
12.0241    95
12.0341    96
12.0441   106
12.0541   107
12.0641   100
12.0741    92
12.0841    96
12.0941   100
12.1041    91
12.1141    94
12.1241   100
12.1341    93
12.1441    91
12.1541    85
12.1641    76
12.1741    74
12.1841    82
12.1941    86
12.2041    80
12.2141    80
12.2241    78
12.2341    75
12.2441   100
12.2541    98
12.2641    85
12.2741    88
12.2841    85
12.2941    80
12.3041    89
12.3141   100
12.3241    83
12.3341    75
12.3441    92
12.3541    88
12.3641    91
12.3741    98
12.3841    84
12.3941    82
12.4041    80
12.4141    96
12.4241    89
12.4341    85
12.4441    78
12.4541    81
12.4641    86
12.4741    78
12.4841    89
12.4941    93
12.5041    96
12.5141    82
12.5241    80
12.5341    91
12.5441    87
12.5541    95
12.5641    89
12.5741    84
12.5841    92
12.5941    98
12.6041    97
12.6141    92
12.6241    91
12.6341    93
12.6441    95
12.6541    96
12.6641    95
12.6741    98
12.6841   101
12.6941    95
12.7041    90
12.7141    92
12.7241    99
12.7341   105
12.7441   102
12.7541    91
12.7641    82
12.7741    81
12.7841    91
12.7941   106
12.8041   109
12.8141   103
12.8241   100
12.8341    98
12.8441    94
12.8541    96
12.8641   102
12.8741   102
12.8841    97
12.8941    93
12.9041    93
12.9141    95
12.9241    97
12.9341    92
12.9441    87
12.9541    91
12.9641    98
12.9741   107
12.9841   110
12.9941   103
13.0041    97
13.0141    99
13.0241    97
13.0341   103
13.0441   104
13.0541    97
13.0641    93
13.0741   105
13.0841   100
13.0941    99
13.1041    98
13.1141    96
13.1241   102
13.1341   103
13.1441    90
13.1541   105
13.1641   106
13.1741   111
13.1841   112
13.1941   104
13.2041   103
13.2141    88
13.2241   104
13.2341   120
13.2441   123
13.2541   114
13.2641   110
13.2741   109
13.2841   120
13.2941   128
13.3041   121
13.3141   128
13.3241   133
13.3341   130
13.3441   131
13.3541   133
13.3641   130
13.3741   125
13.3841   122
13.3941   122
13.4041   126
13.4141   127
13.4241   124
13.4341   126
13.4441   132
13.4541   132
13.4641   127
13.4741   125
13.4841   126
13.4941   119
13.5041   108
13.5141   103
13.5241   105
13.5341   110
13.5441   112
13.5541   107
13.5641   104
13.5741   110
13.5841   116
13.5941   115
13.6041   112
13.6141   110
13.6241   105
13.6341   106
13.6441   114
13.6541   125
13.6641   118
13.6741   107
13.6841   111
13.6941   110
13.7041   102
13.7141   112
13.7241   123
13.7341   120
13.7441   115
13.7541   117
13.7641   109
13.7741   103
13.7841   115
13.7941   114
13.8041   117
13.8141   129
13.8241   129
13.8341   126
13.8441   123
13.8541   124
13.8641   126
13.8741   119
13.8841   115
13.8941   117
13.9041   123
13.9141   135
13.9241   144
13.9341   146
13.9441   149
13.9541   158
13.9641   171
13.9741   185
13.9841   197
13.9941   213
14.0041   233
14.0141   247
14.0241   256
14.0341   281
14.0441   315
14.0541   340
14.0641   355
14.0741   369
14.0841   383
14.0941   401
14.1041   425
14.1141   443
14.1241   448
14.1341   457
14.1441   470
14.1541   467
14.1641   445
14.1741   416
14.1841   402
14.1941   400
14.2041   394
14.2141   381
14.2241   366
14.2341   344
14.2441   311
14.2541   282
14.2641   267
14.2741   252
14.2841   221
14.2941   188
14.3041   188
14.3141   187
14.3241   168
14.3341   161
14.3441   154
14.3541   144
14.3641   130
14.3741   135
14.3841   140
14.3941   132
14.4041   130
14.4141   129
14.4241   136
14.4341   132
14.4441   129
14.4541   138
14.4641   134
14.4741   131
14.4841   138
14.4941   144
14.5041   128
14.5141   124
14.5241   122
14.5341   133
14.5441   137
14.5541   120
14.5641   133
14.5741   140
14.5841   132
14.5941   131
14.6041   140
14.6141   133
14.6241   117
14.6341   135
14.6441   148
14.6541   142
14.6641   149
14.6741   141
14.6841   142
14.6941   159
14.7041   151
14.7141   149
14.7241   164
14.7341   145
14.7441   139
14.7541   150
14.7641   140
14.7741   147
14.7841   154
14.7941   141
14.8041   148
14.8141   151
14.8241   156
14.8341   165
14.8441   153
14.8541   150
14.8641   161
14.8741   167
14.8841   181
14.8941   184
14.9041   183
14.9141   176
14.9241   165
14.9341   162
14.9441   160
14.9541   169
14.9641   177
14.9741   160
14.9841   167
14.9941   188
15.0041   176
15.0141   156
15.0241   152
15.0341   146
15.0441   162
15.0541   172
15.0641   162
15.0741   164
15.0841   163
15.0941   155
15.1041   168
15.1141   165
15.1241   162
15.1341   160
15.1441   163
15.1541   155
15.1641   132
15.1741   138
15.1841   154
15.1941   153
15.2041   143
15.2141   153
15.2241   157
15.2341   161
15.2441   159
15.2541   158
15.2641   143
15.2741   143
15.2841   157
15.2941   160
15.3041   147
15.3141   148
15.3241   149
15.3341   143
15.3441   142
15.3541   140
15.3641   138
15.3741   153
15.3841   169
15.3941   165
15.4041   167
15.4141   170
15.4241   172
15.4341   165
15.4441   169
15.4541   175
15.4641   174
15.4741   176
15.4841   179
15.4941   177
15.5041   176
15.5141   185
15.5241   192
15.5341   185
15.5441   173
15.5541   189
15.5641   194
15.5741   187
15.5841   209
15.5941   226
15.6041   234
15.6141   232
15.6241   256
15.6341   261
15.6441   252
15.6541   256
15.6641   245
15.6741   282
15.6841   302
15.6941   306
15.7041   343
15.7141   362
15.7241   353
15.7341   361
15.7441   354
15.7541   352
15.7641   362
15.7741   366
15.7841   358
15.7941   349
15.8041   359
15.8141   361
15.8241   352
15.8341   339
15.8441   336
15.8541   319
15.8641   296
15.8741   273
15.8841   268
15.8941   272
15.9041   274
15.9141   281
15.9241   250
15.9341   241
15.9441   243
15.9541   227
15.9641   205
15.9741   208
15.9841   198
15.9941   184
16.0041   187
16.0141   217
16.0241   208
16.0341   213
16.0441   217
16.0541   205
16.0641   181
16.0741   168
16.0841   177
16.0941   177
16.1041   182
16.1141   185
16.1241   178
16.1341   181
16.1441   187
16.1541   181
16.1641   189
16.1741   193
16.1841   189
16.1941   187
16.2041   185
16.2141   192
16.2241   189
16.2341   202
16.2441   199
16.2541   194
16.2641   190
16.2741   192
16.2841   199
16.2941   199
16.3041   180
16.3141   193
16.3241   199
16.3341   195
16.3441   191
16.3541   201
16.3641   218
16.3741   217
16.3841   200
16.3941   207
16.4041   208
16.4141   193
16.4241   201
16.4341   211
16.4441   211
16.4541   201
16.4641   202
16.4741   208
16.4841   201
16.4941   205
16.5041   220
16.5141   226
16.5241   221
16.5341   211
16.5441   216
16.5541   221
16.5641   226
16.5741   214
16.5841   218
16.5941   212
16.6041   235
16.6141   242
16.6241   227
16.6341   222
16.6441   225
16.6541   218
16.6641   216
16.6741   218
16.6841   208
16.6941   228
16.7041   238
16.7141   238
16.7241   213
16.7341   202
16.7441   201
16.7541   220
16.7641   229
16.7741   227
16.7841   212
16.7941   218
16.8041   224
16.8141   228
16.8241   204
16.8341   216
16.8441   202
16.8541   212
16.8641   215
16.8741   208
16.8841   206
16.8941   203
16.9041   209
16.9141   220
16.9241   232
16.9341   222
16.9441   213
16.9541   209
16.9641   216
16.9741   223
16.9841   220
16.9941   210
17.0041   212
17.0141   211
17.0241   212
17.0341   217
17.0441   228
17.0541   222
17.0641   208
17.0741   226
17.0841   224
17.0941   225
17.1041   229
17.1141   214
17.1241   222
17.1341   225
17.1441   222
17.1541   232
17.1641   215
17.1741   203
17.1841   220
17.1941   219
17.2041   217
17.2141   226
17.2241   225
17.2341   234
17.2441   230
17.2541   226
17.2641   231
17.2741   243
17.2841   226
17.2941   251
17.3041   259
17.3141   230
17.3241   212
17.3341   201
17.3441   230
17.3541   229
17.3641   226
17.3741   227
17.3841   225
17.3941   219
17.4041   236
17.4141   239
17.4241   206
17.4341   232
17.4441   207
17.4541   217
17.4641   227
17.4741   230
17.4841   260
17.4941   237
17.5041   235
17.5141   232
17.5241   249
17.5341   270
17.5441   245
17.5541   237
17.5641   275
17.5741   278
17.5841   258
17.5941   251
17.6041   256
17.6141   246
17.6241   264
17.6341   253
17.6441   245
17.6541   259
17.6641   255
17.6741   272
17.6841   273
17.6941   260
17.7041   252
17.7141   248
17.7241   259
17.7341   265
17.7441   264
17.7541   260
17.7641   265
17.7741   264
17.7841   281
17.7941   277
17.8041   262
17.8141   241
17.8241   244
17.8341   264
17.8441   277
17.8541   256
17.8641   247
17.8741   231
17.8841   239
17.8941   249
17.9041   260
17.9141   250
17.9241   270
17.9341   254
17.9441   239
17.9541   258
17.9641   255
17.9741   262
17.9841   255
17.9941   259
18.0041   243
18.0141   245
18.0241   252
18.0341   245
18.0441   249
18.0541   263
18.0641   252
18.0741   253
18.0841   268
18.0941   268
18.1041   247
18.1141   255
18.1241   244
18.1341   268
18.1441   237
18.1541   248
18.1641   250
18.1741   265
18.1841   240
18.1941   224
18.2041   253
18.2141   275
18.2241   265
18.2341   249
18.2441   247
18.2541   264
18.2641   257
18.2741   236
18.2841   243
18.2941   259
18.3041   250
18.3141   271
18.3241   271
18.3341   253
18.3441   229
18.3541   258
18.3641   239
18.3741   239
18.3841   262
18.3941   255
18.4041   252
18.4141   274
18.4241   283
18.4341   277
18.4441   256
18.4541   259
18.4641   254
18.4741   261
18.4841   259
18.4941   272
18.5041   273
18.5141   257
18.5241   273
18.5341   267
18.5441   273
18.5541   269
18.5641   260
18.5741   287
18.5841   280
18.5941   286
18.6041   264
18.6141   270
18.6241   253
18.6341   284
18.6441   289
18.6541   287
18.6641   281
18.6741   299
18.6841   289
18.6941   273
18.7041   280
18.7141   274
18.7241   270
18.7341   261
18.7441   263
18.7541   290
18.7641   298
18.7741   278
18.7841   279
18.7941   246
18.8041   251
18.8141   280
18.8241   282
18.8341   273
18.8441   271
18.8541   265
18.8641   271
18.8741   288
18.8841   277
18.8941   272
18.9041   273
18.9141   273
18.9241   272
18.9341   288
18.9441   276
18.9541   277
18.9641   261
18.9741   266
18.9841   251
18.9941   280
19.0041   311
19.0141   283
19.0241   283
19.0341   294
19.0441   295
19.0541   290
19.0641   284
19.0741   272
19.0841   283
19.0941   315
19.1041   306
19.1141   301
19.1241   286
19.1341   280
19.1441   280
19.1541   303
19.1641   270
19.1741   285
19.1841   284
19.1941   263
19.2041   268
19.2141   275
19.2241   273
19.2341   294
19.2441   291
19.2541   274
19.2641   283
19.2741   256
19.2841   288
19.2941   272
19.3041   291
19.3141   294
19.3241   299
19.3341   273
19.3441   285
19.3541   268
19.3641   267
19.3741   291
19.3841   319
19.3941   296
19.4041   306
19.4141   309
19.4241   309
19.4341   308
19.4441   281
19.4541   281
19.4641   297
19.4741   278
19.4841   280
19.4941   288
19.5041   273
19.5141   309
19.5241   311
19.5341   293
19.5441   293
19.5541   288
19.5641   291
19.5741   299
19.5841   266
19.5941   297
19.6041   305
19.6141   254
19.6241   314
19.6341   315
19.6441   299
19.6541   306
19.6641   303
19.6741   311
19.6841   279
19.6941   280
19.7041   280
19.7141   323
19.7241   300
19.7341   265
19.7441   267
19.7541   284
19.7641   311
19.7741   288
19.7841   305
19.7941   313
19.8041   288
19.8141   297
19.8241   319
19.8341   293
19.8441   299
19.8541   316
19.8641   305
19.8741   318
19.8841   309
19.8941   302
19.9041   271
19.9141   258
19.9241   289
19.9341   288
19.9441   294
19.9541   276
19.9641   302
19.9741   283
19.9841   302
19.9941   313
20.0041   330
20.0141   311
20.0241   330
20.0341   320
20.0441   303
20.0541   310
20.0641   309
20.0741   315
20.0841   301
20.0941   301
20.1041   289
20.1141   299
20.1241   299
20.1341   282
20.1441   284
20.1541   293
20.1641   301
20.1741   302
20.1841   298
20.1941   310
20.2041   311
20.2141   298
20.2241   300
20.2341   291
20.2441   289
20.2541   323
20.2641   325
20.2741   286
20.2841   305
20.2941   324
20.3041   311
20.3141   333
20.3241   302
20.3341   301
20.3441   300
20.3541   306
20.3641   310
20.3741   308
20.3841   304
20.3941   306
20.4041   345
20.4141   325
20.4241   289
20.4341   312
20.4441   292
20.4541   312
20.4641   319
20.4741   336
20.4841   304
20.4941   290
20.5041   293
20.5141   319
20.5241   288
20.5341   313
20.5441   296
20.5541   309
20.5641   293
20.5741   305
20.5841   326
20.5941   305
20.6041   335
20.6141   312
20.6241   317
20.6341   294
20.6441   300
20.6541   315
20.6641   347
20.6741   332
20.6841   303
20.6941   305
20.7041   323
20.7141   313
20.7241   313
20.7341   327
20.7441   322
20.7541   309
20.7641   338
20.7741   313
20.7841   330
20.7941   334
20.8041   333
20.8141   296
20.8241   332
20.8341   310
20.8441   352
20.8541   332
20.8641   316
20.8741   316
20.8841   358
20.8941   341
20.9041   359
20.9141   359
20.9241   375
20.9341   367
20.9441   367
20.9541   412
20.9641   387
20.9741   402
20.9841   401
20.9941   404
21.0041   387
21.0141   420
21.0241   425
21.0341   440
21.0441   454
21.0541   448
21.0641   445
21.0741   471
21.0841   445
21.0941   476
21.1041   449
21.1141   516
21.1241   500
21.1341   469
21.1441   475
21.1541   472
21.1641   470
21.1741   467
21.1841   414
21.1941   453
21.2041   432
21.2141   433
21.2241   413
21.2341   442
21.2441   386
21.2541   423
21.2641   421
21.2741   350
21.2841   391
21.2941   361
21.3041   377
21.3141   344
21.3241   383
21.3341   373
21.3441   380
21.3541   321
21.3641   329
21.3741   337
21.3841   314
21.3941   303
21.4041   312
21.4141   349
21.4241   327
21.4341   335
21.4441   293
21.4541   310
21.4641   317
21.4741   300
21.4841   315
21.4941   324
21.5041   308
21.5141   294
21.5241   349
21.5341   304
21.5441   338
21.5541   306
21.5641   321
21.5741   298
21.5841   329
21.5941   318
21.6041   303
21.6141   301
21.6241   327
21.6341   311
21.6441   306
21.6541   307
21.6641   346
21.6741   328
21.6841   327
21.6941   345
21.7041   332
21.7141   324
21.7241   287
21.7341   317
21.7441   316
21.7541   340
21.7641   316
21.7741   305
21.7841   331
21.7941   339
21.8041   297
21.8141   307
21.8241   308
21.8341   309
21.8441   281
21.8541   293
21.8641   315
21.8741   318
21.8841   311
21.8941   286
21.9041   319
21.9141   317
21.9241   328
21.9341   328
21.9441   327
21.9541   335
21.9641   332
21.9741   318
21.9841   306
21.9941   286
22.0041   335
22.0141   328
22.0241   327
22.0341   340
22.0441   323
22.0541   320
22.0641   325
22.0741   298
22.0841   305
22.0941   318
22.1041   336
22.1141   310
22.1241   322
22.1341   295
22.1441   335
22.1541   338
22.1641   319
22.1741   289
22.1841   340
22.1941   327
22.2041   344
22.2141   325
22.2241   345
22.2341   295
22.2441   325
22.2541   323
22.2641   345
22.2741   311
22.2841   318
22.2941   321
22.3041   277
22.3141   323
22.3241   286
22.3341   267
22.3441   309
22.3541   315
22.3641   311
22.3741   325
22.3841   303
22.3941   315
22.4041   289
22.4141   314
22.4241   286
22.4341   302
22.4441   332
22.4541   298
22.4641   290
22.4741   310
22.4841   293
22.4941   315
22.5041   272
22.5141   301
22.5241   305
22.5341   335
22.5441   320
22.5541   305
22.5641   313
22.5741   300
22.5841   323
22.5941   319
22.6041   330
22.6141   303
22.6241   285
22.6341   338
22.6441   350
22.6541   294
22.6641   295
22.6741   299
22.6841   296
22.6941   316
22.7041   323
22.7141   268
22.7241   278
22.7341   307
22.7441   331
22.7541   292
22.7641   291
22.7741   315
22.7841   288
22.7941   309
22.8041   298
22.8141   293
22.8241   323
22.8341   303
22.8441   314
22.8541   294
22.8641   301
22.8741   277
22.8841   295
22.8941   296
22.9041   290
22.9141   302
22.9241   311
22.9341   308
22.9441   309
22.9541   297
22.9641   329
22.9741   342
22.9841   322
22.9941   284
23.0041   311
23.0141   315
23.0241   283
23.0341   339
23.0441   310
23.0541   311
23.0641   327
23.0741   315
23.0841   316
23.0941   287
23.1041   282
23.1141   270
23.1241   323
23.1341   274
23.1441   312
23.1541   295
23.1641   321
23.1741   290
23.1841   299
23.1941   291
23.2041   299
23.2141   307
23.2241   318
23.2341   285
23.2441   277
23.2541   307
23.2641   299
23.2741   284
23.2841   319
23.2941   327
23.3041   301
23.3141   304
23.3241   297
23.3341   293
23.3441   276
23.3541   275
23.3641   294
23.3741   285
23.3841   285
23.3941   325
23.4041   305
23.4141   280
23.4241   304
23.4341   324
23.4441   273
23.4541   296
23.4641   329
23.4741   312
23.4841   295
23.4941   294
23.5041   321
23.5141   312
23.5241   311
23.5341   302
23.5441   331
23.5541   298
23.5641   311
23.5741   296
23.5841   282
23.5941   306
23.6041   289
23.6141   279
23.6241   290
23.6341   323
23.6441   317
23.6541   333
23.6641   316
23.6741   312
23.6841   282
23.6941   325
23.7041   314
23.7141   300
23.7241   300
23.7341   297
23.7441   342
23.7541   344
23.7641   304
23.7741   329
23.7841   310
23.7941   351
23.8041   312
23.8141   351
23.8241   300
23.8341   322
23.8441   326
23.8541   331
23.8641   332
23.8741   327
23.8841   325
23.8941   302
23.9041   299
23.9141   293
23.9241   327
23.9341   303
23.9441   303
23.9541   302
23.9641   328
23.9741   313
23.9841   301
23.9941   307
24.0041   268
24.0141   306
24.0241   277
24.0341   306
24.0441   319
24.0541   318
24.0641   315
24.0741   296
24.0841   301
24.0941   305
24.1041   316
24.1141   290
24.1241   283
24.1341   278
24.1441   265
24.1541   265
24.1641   279
24.1741   255
24.1841   294
24.1941   270
24.2041   288
24.2141   306
24.2241   290
24.2341   268
24.2441   287
24.2541   278
24.2641   257
24.2741   312
24.2841   288
24.2941   282
24.3041   293
24.3141   313
24.3241   260
24.3341   304
24.3441   287
24.3541   273
24.3641   308
24.3741   309
24.3841   258
24.3941   293
24.4041   282
24.4141   280
24.4241   286
24.4341   313
24.4441   301
24.4541   298
24.4641   295
24.4741   269
24.4841   284
24.4941   290
24.5041   289
24.5141   301
24.5241   276
24.5341   277
24.5441   275
24.5541   289
24.5641   288
24.5741   289
24.5841   275
24.5941   294
24.6041   299
24.6141   288
24.6241   270
24.6341   298
24.6441   284
24.6541   282
24.6641   277
24.6741   275
24.6841   273
24.6941   283
24.7041   270
24.7141   271
24.7241   271
24.7341   262
24.7441   273
24.7541   287
24.7641   304
24.7741   281
24.7841   281
24.7941   296
24.8041   283
24.8141   298
24.8241   270
24.8341   278
24.8441   273
24.8541   290
24.8641   235
24.8741   258
24.8841   284
24.8941   273
24.9041   293
24.9141   276
24.9241   286
24.9341   287
24.9441   269
24.9541   251
24.9641   279
24.9741   267
24.9841   267
24.9941   269
25.0041   302
25.0141   276
25.0241   286
25.0341   293
25.0441   260
25.0541   274
25.0641   241
25.0741   252
25.0841   273
25.0941   285
25.1041   292
25.1141   314
25.1241   254
25.1341   264
25.1441   294
25.1541   303
25.1641   276
25.1741   238
25.1841   281
25.1941   272
25.2041   285
25.2141   304
25.2241   292
25.2341   302
25.2441   283
25.2541   285
25.2641   279
25.2741   282
25.2841   261
25.2941   284
25.3041   289
25.3141   278
25.3241   276
25.3341   282
25.3441   298
25.3541   295
25.3641   298
25.3741   271
25.3841   245
25.3941   274
25.4041   285
25.4141   276
25.4241   270
25.4341   269
25.4441   267
25.4541   284
25.4641   251
25.4741   253
25.4841   257
25.4941   248
25.5041   262
25.5141   282
25.5241   261
25.5341   264
25.5441   279
25.5541   285
25.5641   271
25.5741   249
25.5841   244
25.5941   282
25.6041   280
25.6141   265
25.6241   262
25.6341   259
25.6441   254
25.6541   270
25.6641   253
25.6741   255
25.6841   255
25.6941   252
25.7041   251
25.7141   259
25.7241   283
25.7341   256
25.7441   225
25.7541   238
25.7641   267
25.7741   269
25.7841   268
25.7941   266
25.8041   248
25.8141   265
25.8241   239
25.8341   232
25.8441   249
25.8541   249
25.8641   229
25.8741   264
25.8841   255
25.8941   255
25.9041   270
25.9141   258
25.9241   271
25.9341   235
25.9441   248
25.9541   264
25.9641   244
25.9741   237
25.9841   270
25.9941   238
26.0041   248
26.0141   259
26.0241   262
26.0341   260
26.0441   247
26.0541   238
26.0641   268
26.0741   269
26.0841   245
26.0941   236
26.1041   233
26.1141   251
26.1241   264
26.1341   260
26.1441   263
26.1541   252
26.1641   253
26.1741   238
26.1841   260
26.1941   245
26.2041   240
26.2141   240
26.2241   260
26.2341   203
26.2441   259
26.2541   226
26.2641   223
26.2741   241
26.2841   258
26.2941   228
26.3041   251
26.3141   263
26.3241   255
26.3341   260
26.3441   237
26.3541   250
26.3641   257
26.3741   267
26.3841   240
26.3941   248
26.4041   239
26.4141   237
26.4241   243
26.4341   247
26.4441   261
26.4541   254
26.4641   249
26.4741   234
26.4841   214
26.4941   250
26.5041   227
26.5141   247
26.5241   228
26.5341   226
26.5441   237
26.5541   231
26.5641   259
26.5741   229
26.5841   249
26.5941   236
26.6041   243
26.6141   247
26.6241   227
26.6341   229
26.6441   231
26.6541   263
26.6641   226
26.6741   236
26.6841   223
26.6941   245
26.7041   244
26.7141   250
26.7241   238
26.7341   268
26.7441   236
26.7541   234
26.7641   247
26.7741   234
26.7841   245
26.7941   215
26.8041   238
26.8141   211
26.8241   225
26.8341   251
26.8441   236
26.8541   229
26.8641   222
26.8741   236
26.8841   233
26.8941   250
26.9041   225
26.9141   225
26.9241   234
26.9341   230
26.9441   228
26.9541   253
26.9641   210
26.9741   224
26.9841   206
26.9941   203
27.0041   219
27.0141   206
27.0241   206
27.0341   246
27.0441   203
27.0541   230
27.0641   209
27.0741   249
27.0841   223
27.0941   259
27.1041   216
27.1141   234
27.1241   228
27.1341   217
27.1441   220
27.1541   239
27.1641   247
27.1741   237
27.1841   245
27.1941   255
27.2041   223
27.2141   221
27.2241   219
27.2341   238
27.2441   231
27.2541   246
27.2641   224
27.2741   224
27.2841   246
27.2941   246
27.3041   245
27.3141   233
27.3241   215
27.3341   252
27.3441   254
27.3541   227
27.3641   211
27.3741   218
27.3841   207
27.3941   202
27.4041   220
27.4141   203
27.4241   196
27.4341   224
27.4441   221
27.4541   216
27.4641   241
27.4741   229
27.4841   216
27.4941   219
27.5041   237
27.5141   229
27.5241   234
27.5341   238
27.5441   222
27.5541   226
27.5641   220
27.5741   215
27.5841   205
27.5941   224
27.6041   217
27.6141   248
27.6241   223
27.6341   214
27.6441   240
27.6541   209
27.6641   222
27.6741   209
27.6841   212
27.6941   214
27.7041   213
27.7141   208
27.7241   210
27.7341   210
27.7441   183
27.7541   202
27.7641   209
27.7741   214
27.7841   215
27.7941   216
27.8041   216
27.8141   205
27.8241   197
27.8341   223
27.8441   218
27.8541   244
27.8641   197
27.8741   208
27.8841   218
27.8941   222
27.9041   189
27.9141   213
27.9241   234
27.9341   232
27.9441   220
27.9541   218
27.9641   227
27.9741   208
27.9841   193
27.9941   195
28.0041   176
28.0141   242
28.0241   185
28.0341   201
28.0441   217
28.0541   213
28.0641   200
28.0741   223
28.0841   228
28.0941   213
28.1041   207
28.1141   215
28.1241   214
28.1341   191
28.1441   224
28.1541   206
28.1641   216
28.1741   191
28.1841   182
28.1941   210
28.2041   182
28.2141   208
28.2241   194
28.2341   201
28.2441   201
28.2541   189
28.2641   218
28.2741   167
28.2841   182
28.2941   218
28.3041   187
28.3141   200
28.3241   208
28.3341   177
28.3441   205
28.3541   189
28.3641   200
28.3741   190
28.3841   195
28.3941   194
28.4041   189
28.4141   216
28.4241   185
28.4341   206
28.4441   204
28.4541   205
28.4641   197
28.4741   199
28.4841   193
28.4941   175
28.5041   195
28.5141   178
28.5241   183
28.5341   197
28.5441   211
28.5541   205
28.5641   216
28.5741   187
28.5841   182
28.5941   200
28.6041   190
28.6141   203
28.6241   193
28.6341   204
28.6441   183
28.6541   186
28.6641   185
28.6741   194
28.6841   214
28.6941   201
28.7041   196
28.7141   214
28.7241   203
28.7341   198
28.7441   182
28.7541   183
28.7641   167
28.7741   186
28.7841   176
28.7941   213
28.8041   167
28.8141   169
28.8241   187
28.8341   196
28.8441   195
28.8541   175
28.8641   178
28.8741   186
28.8841   182
28.8941   165
28.9041   183
28.9141   161
28.9241   154
28.9341   174
28.9441   164
28.9541   186
28.9641   190
28.9741   179
28.9841   166
28.9941   162
29.0041   172
29.0141   186
29.0241   181
29.0341   165
29.0441   187
29.0541   191
29.0641   158
29.0741   176
29.0841   189
29.0941   173
29.1041   188
29.1141   185
29.1241   175
29.1341   170
29.1441   188
29.1541   152
29.1641   187
29.1741   178
29.1841   175
29.1941   155
29.2041   179
29.2141   180
29.2241   171
29.2341   164
29.2441   176
29.2541   172
29.2641   200
29.2741   197
29.2841   181
29.2941   186
29.3041   171
29.3141   162
29.3241   175
29.3341   168
29.3441   185
29.3541   155
29.3641   183
29.3741   147
29.3841   161
29.3941   154
29.4041   164
29.4141   158
29.4241   161
29.4341   191
29.4441   165
29.4541   195
29.4641   170
29.4741   174
29.4841   154
29.4941   167
29.5041   185
29.5141   196
29.5241   168
29.5341   138
29.5441   184
29.5541   170
29.5641   172
29.5741   163
29.5841   176
29.5941   171
29.6041   163
29.6141   157
29.6241   161
29.6341   168
29.6441   159
29.6541   189
29.6641   161
29.6741   168
29.6841   185
29.6941   159
29.7041   163
29.7141   176
29.7241   177
29.7341   136
29.7441   164
29.7541   163
29.7641   166
29.7741   168
29.7841   172
29.7941   173
29.8041   170
29.8141   167
29.8241   158
29.8341   158
29.8441   163
29.8541   156
29.8641   152
29.8741   170
29.8841   152
29.8941   148
29.9041   193
29.9141   174
29.9241   155
29.9341   152
29.9441   162
29.9541   174
29.9641   160
29.9741   157
29.9841   157
29.9941   144
30.0041   153
30.0141   149
30.0241   155
30.0341   156
30.0441   171
30.0541   158
30.0641   147
30.0741   154
30.0841   152
30.0941   144
30.1041   152
30.1141   156
30.1241   138
30.1341   135
30.1441   147
30.1541   147
30.1641   171
30.1741   168
30.1841   162
30.1941   165
30.2041   144
30.2141   150
30.2241   159
30.2341   141
30.2441   148
30.2541   153
30.2641   146
30.2741   143
30.2841   145
30.2941   111
30.3041   147
30.3141   143
30.3241   156
30.3341   137
30.3441   138
30.3541   160
30.3641   159
30.3741   155
30.3841   143
30.3941   159
30.4041   144
30.4141   142
30.4241   143
30.4341   139
30.4441   152
30.4541   136
30.4641   154
30.4741   143
30.4841   156
30.4941   150
30.5041   149
30.5141   136
30.5241   129
30.5341   161
30.5441   127
30.5541   150
30.5641   138
30.5741   147
30.5841   133
30.5941   156
30.6041   146
30.6141   147
30.6241   166
30.6341   159
30.6441   138
30.6541   141
30.6641   135
30.6741   119
30.6841   147
30.6941   137
30.7041   139
30.7141   128
30.7241   126
30.7341   150
30.7441   153
30.7541   121
30.7641   148
30.7741   140
30.7841   136
30.7941   144
30.8041   139
30.8141   125
30.8241   134
30.8341   142
30.8441   133
30.8541   140
30.8641   144
30.8741   143
30.8841   133
30.8941   155
30.9041   147
30.9141   131
30.9241   128
30.9341   149
30.9441   136
30.9541   127
30.9641   138
30.9741   150
30.9841   149
30.9941   147
31.0041   134
31.0141   126
31.0241   141
31.0341   128
31.0441   137
31.0541   149
31.0641   132
31.0741   127
31.0841   142
31.0941   134
31.1041   147
31.1141   148
31.1241   130
31.1341   114
31.1441   125
31.1541   134
31.1641   110
31.1741   151
31.1841   129
31.1941   126
31.2041   144
31.2141   141
31.2241   155
31.2341   145
31.2441   132
31.2541   113
31.2641   123
31.2741   133
31.2841   123
31.2941   131
31.3041   125
31.3141   115
31.3241   128
31.3341   141
31.3441   146
31.3541   127
31.3641   138
31.3741   136
31.3841   115
31.3941   141
31.4041   135
31.4141   134
31.4241   118
31.4341   129
31.4441   141
31.4541   118
31.4641   141
31.4741   133
31.4841   122
31.4941   135
31.5041   146
31.5141   146
31.5241   109
31.5341   114
31.5441   115
31.5541   144
31.5641   133
31.5741   114
31.5841   109
31.5941   123
31.6041   135
31.6141   133
31.6241   132
31.6341   130
31.6441   130
31.6541   149
31.6641   125
31.6741   116
31.6841   126
31.6941   115
31.7041   126
31.7141   114
31.7241   120
31.7341   118
31.7441   125
31.7541   118
31.7641   130
31.7741   126
31.7841   132
31.7941   139
31.8041   112
31.8141   131
31.8241   119
31.8341   125
31.8441   126
31.8541   123
31.8641    94
31.8741   111
31.8841   115
31.8941   116
31.9041   116
31.9141   107
31.9241   121
31.9341   115
31.9441   103
31.9541   115
31.9641   112
31.9741   103
31.9841   137
31.9941   137
32.0041   114
32.0141   125
32.0241   101
32.0341   122
32.0441   123
32.0541   138
32.0641   147
32.0741   116
32.0841    94
32.0941   105
32.1041   125
32.1141   112
32.1241   126
32.1341   115
32.1441   108
32.1541   131
32.1641   124
32.1741   123
32.1841    97
32.1941   112
32.2041   116
32.2141   117
32.2241   128
32.2341   119
32.2441   102
32.2541   127
32.2641   127
32.2741   120
32.2841   112
32.2941   129
32.3041   111
32.3141   106
32.3241    95
32.3341   105
32.3441   111
32.3541   114
32.3641   121
32.3741   119
32.3841    97
32.3941   108
32.4041   109
32.4141   121
32.4241    99
32.4341   109
32.4441   110
32.4541   113
32.4641   101
32.4741   107
32.4841   109
32.4941   123
32.5041   116
32.5141   103
32.5241    95
32.5341   108
32.5441    91
32.5541    94
32.5641   105
32.5741    99
32.5841    97
32.5941    99
32.6041    98
32.6141   106
32.6241   101
32.6341   120
32.6441   115
32.6541    96
32.6641   100
32.6741   105
32.6841   102
32.6941   101
32.7041   123
32.7141   112
32.7241   107
32.7341   106
32.7441   104
32.7541    97
32.7641    97
32.7741    95
32.7841    99
32.7941   105
32.8041    88
32.8141    91
32.8241   105
32.8341   108
32.8441   112
32.8541   103
32.8641    86
32.8741    85
32.8841    99
32.8941   101
32.9041   104
32.9141   105
32.9241    92
32.9341   109
32.9441    98
32.9541   103
32.9641   107
32.9741    98
32.9841    97
32.9941    86
33.0041    84
33.0141    87
33.0241    89
33.0341   104
33.0441   103
33.0541    97
33.0641    93
33.0741   104
33.0841   110
33.0941    98
33.1041    84
33.1141    94
33.1241    92
33.1341   107
33.1441    89
33.1541    90
33.1641    96
33.1741    78
33.1841    99
33.1941   102
33.2041    92
33.2141    99
33.2241    90
33.2341    82
33.2441    84
33.2541    79
33.2641   102
33.2741    93
33.2841   102
33.2941   110
33.3041    99
33.3141    81
33.3241    93
33.3341   102
33.3441    93
33.3541    93
33.3641    92
33.3741    87
33.3841   103
33.3941    87
33.4041   103
33.4141    95
33.4241    98
33.4341    95
33.4441    89
33.4541    90
33.4641    77
33.4741    80
33.4841    91
33.4941   103
33.5041   110
33.5141    89
33.5241    75
33.5341    78
33.5441    87
33.5541    78
33.5641    88
33.5741   103
33.5841    83
33.5941    61
33.6041    75
33.6141   105
33.6241    90
33.6341    90
33.6441    93
33.6541    94
33.6641    84
33.6741    99
33.6841    81
33.6941    75
33.7041    85
33.7141    83
33.7241    76
33.7341    88
33.7441    76
33.7541    79
33.7641    91
33.7741    89
33.7841    78
33.7941    89
33.8041    86
33.8141    93
33.8241    82
33.8341    77
33.8441    90
33.8541    84
33.8641    93
33.8741    86
33.8841    82
33.8941    87
33.9041    77
33.9141    76
33.9241    78
33.9341    87
33.9441    67
33.9541    84
33.9641    81
33.9741    80
33.9841    84
33.9941    76
34.0041    78
34.0141    79
34.0241    81
34.0341    80
34.0441   108
34.0541    89
34.0641    89
34.0741    86
34.0841    73
34.0941    74
34.1041    90
34.1141    89
34.1241    77
34.1341    72
34.1441    80
34.1541    74
34.1641    94
34.1741    76
34.1841    75
34.1941    75
34.2041    71
34.2141    77
34.2241    83
34.2341    95
34.2441    67
34.2541    77
34.2641    70
34.2741    83
34.2841    74
34.2941    76
34.3041    79
34.3141    68
34.3241    75
34.3341    66
34.3441    65
34.3541    86
34.3641    81
34.3741    90
34.3841    71
34.3941    81
34.4041    85
34.4141    66
34.4241    75
34.4341    92
34.4441    70
34.4541    79
34.4641    81
34.4741    80
34.4841    77
34.4941    82
34.5041    90
34.5141    57
34.5241    63
34.5341    66
34.5441    77
34.5541    86
34.5641    72
34.5741    75
34.5841    72
34.5941    83
34.6041    76
34.6141    74
34.6241    77
34.6341    57
34.6441    75
34.6541    77
34.6641    64
34.6741    54
34.6841    82
34.6941    64
34.7041    78
34.7141    79
34.7241    72
34.7341    50
34.7441    81
34.7541    70
34.7641    70
34.7741    58
34.7841    62
34.7941    68
34.8041    58
34.8141    78
34.8241    57
34.8341    71
34.8441    64
34.8541    80
34.8641    59
34.8741    76
34.8841    49
34.8941    66
34.9041    63
34.9141    69
34.9241    65
34.9341    81
34.9441    73
34.9541    74
34.9641    72
34.9741    55
34.9841    82
34.9941    62
35.0041    57
35.0141    74
35.0241    62
35.0341    65
35.0441    75
35.0541    69
35.0641    87
35.0741    64
35.0841    58
35.0941    63
35.1041    61
35.1141    63
35.1241    66
35.1341    68
35.1441    62
35.1541    66
35.1641    53
35.1741    66
35.1841    67
35.1941    74
35.2041    55
35.2141    59
35.2241    60
35.2341    65
35.2441    59
35.2541    58
35.2641    62
35.2741    61
35.2841    59
35.2941    64
35.3041    49
35.3141    66
35.3241    65
35.3341    61
35.3441    56
35.3541    59
35.3641    64
35.3741    59
35.3841    53
35.3941    66
35.4041    61
35.4141    63
35.4241    67
35.4341    58
35.4441    66
35.4541    58
35.4641    61
35.4741    55
35.4841    67
35.4941    65
35.5041    69
35.5141    59
35.5241    60
35.5341    57
35.5441    65
35.5541    59
35.5641    65
35.5741    63
35.5841    59
35.5941    52
35.6041    77
35.6141    58
35.6241    65
35.6341    57
35.6441    62
35.6541    51
35.6641    60
35.6741    61
35.6841    60
35.6941    69
35.7041    62
35.7141    53
35.7241    70
35.7341    74
35.7441    73
35.7541    63
35.7641    71
35.7741    67
35.7841    63
35.7941    57
35.8041    68
35.8141    57
35.8241    59
35.8341    46
35.8441    55
35.8541    53
35.8641    59
35.8741    55
35.8841    65
35.8941    62
35.9041    57
35.9141    59
35.9241    51
35.9341    59
35.9441    49
35.9541    56
35.9641    48
35.9741    52
35.9841    55
35.9941    62
36.0041    44
36.0141    56
36.0241    58
36.0341    60
36.0441    49
36.0541    56
36.0641    56
36.0741    63
36.0841    57
36.0941    50
36.1041    49
36.1141    50
36.1241    52
36.1341    54
36.1441    61
36.1541    44
36.1641    47
36.1741    48
36.1841    69
36.1941    59
36.2041    44
36.2141    45
36.2241    48
36.2341    45
36.2441    41
36.2541    48
36.2641    46
36.2741    50
36.2841    55
36.2941    55
36.3041    55
36.3141    52
36.3241    57
36.3341    45
36.3441    54
36.3541    46
36.3641    59
36.3741    55
36.3841    58
36.3941    44
36.4041    46
36.4141    40
36.4241    56
36.4341    61
36.4441    37
36.4541    46
36.4641    44
36.4741    52
36.4841    46
36.4941    38
36.5041    31
36.5141    51
36.5241    44
36.5341    47
36.5441    49
36.5541    57
36.5641    47
36.5741    45
36.5841    50
36.5941    40
36.6041    50
36.6141    43
36.6241    58
36.6341    42
36.6441    49
36.6541    48
36.6641    41
36.6741    61
36.6841    46
36.6941    40
36.7041    49
36.7141    43
36.7241    57
36.7341    47
36.7441    52
36.7541    73
36.7641    45
36.7741    48
36.7841    48
36.7941    47
36.8041    45
36.8141    47
36.8241    53
36.8341    41
36.8441    41
36.8541    35
36.8641    44
36.8741    40
36.8841    40
36.8941    38
36.9041    41
36.9141    43
36.9241    50
36.9341    38
36.9441    41
36.9541    46
36.9641    53
36.9741    38
36.9841    51
36.9941    36
37.0041    49
37.0141    45
37.0241    40
37.0341    40
37.0441    50
37.0541    45
37.0641    40
37.0741    36
37.0841    41
37.0941    37
37.1041    43
37.1141    54
37.1241    47
37.1341    46
37.1441    46
37.1541    45
37.1641    50
37.1741    35
37.1841    43
37.1941    41
37.2041    37
37.2141    32
37.2241    42
37.2341    47
37.2441    46
37.2541    41
37.2641    38
37.2741    40
37.2841    31
37.2941    39
37.3041    45
37.3141    39
37.3241    33
37.3341    38
37.3441    39
37.3541    47
37.3641    42
37.3741    45
37.3841    37
37.3941    41
37.4041    31
37.4141    35
37.4241    37
37.4341    38
37.4441    29
37.4541    32
37.4641    38
37.4741    40
37.4841    38
37.4941    36
37.5041    32
37.5141    30
37.5241    35
37.5341    49
37.5441    48
37.5541    33
37.5641    42
37.5741    34
37.5841    39
37.5941    38
37.6041    29
37.6141    37
37.6241    37
37.6341    36
37.6441    41
37.6541    25
37.6641    41
37.6741    43
37.6841    43
37.6941    41
37.7041    34
37.7141    29
37.7241    44
37.7341    39
37.7441    47
37.7541    38
37.7641    33
37.7741    29
37.7841    42
37.7941    38
37.8041    32
37.8141    38
37.8241    33
37.8341    36
37.8441    36
37.8541    33
37.8641    41
37.8741    37
37.8841    34
37.8941    32
37.9041    42
37.9141    29
37.9241    35
37.9341    33
37.9441    27
37.9541    34
37.9641    30
37.9741    35
37.9841    34
37.9941    38
38.0041    34
38.0141    38
38.0241    30
38.0341    29
38.0441    35
38.0541    37
38.0641    32
38.0741    36
38.0841    34
38.0941    26
38.1041    42
38.1141    31
38.1241    40
38.1341    34
38.1441    36
38.1541    37
38.1641    31
38.1741    33
38.1841    22
38.1941    34
38.2041    35
38.2141    29
38.2241    26
38.2341    33
38.2441    30
38.2541    30
38.2641    23
38.2741    28
38.2841    27
38.2941    33
38.3041    35
38.3141    21
38.3241    29
38.3341    27
38.3441    29
38.3541    26
38.3641    42
38.3741    26
38.3841    32
38.3941    25
38.4041    44
38.4141    32
38.4241    28
38.4341    34
38.4441    28
38.4541    24
38.4641    36
38.4741    30
38.4841    41
38.4941    32
38.5041    35
38.5141    25
38.5241    26
38.5341    31
38.5441    36
38.5541    31
38.5641    26
38.5741    35
38.5841    21
38.5941    25
38.6041    24
38.6141    20
38.6241    33
38.6341    30
38.6441    37
38.6541    28
38.6641    26
38.6741    26
38.6841    36
38.6941    28
38.7041    29
38.7141    35
38.7241    21
38.7341    39
38.7441    26
38.7541    25
38.7641    26
38.7741    31
38.7841    17
38.7941    29
38.8041    31
38.8141    29
38.8241    29
38.8341    23
38.8441    15
38.8541    19
38.8641    25
38.8741    29
38.8841    26
38.8941    32
38.9041    20
38.9141    14
38.9241    27
38.9341    28
38.9441    26
38.9541    26
38.9641    25
38.9741    31
38.9841    27
38.9941    20
39.0041    23
39.0141    30
39.0241    20
39.0341    17
39.0441    21
39.0541    16
39.0641    25
39.0741    18
39.0841    23
39.0941    18
39.1041    22
39.1141    20
39.1241    31
39.1341    26
39.1441    18
39.1541    25
39.1641    23
39.1741    20
39.1841    17
39.1941    19
39.2041    31
39.2141    25
39.2241    31
39.2341    17
39.2441    22
39.2541    20
39.2641    26
39.2741    18
39.2841    22
39.2941    25
39.3041    21
39.3141    17
39.3241    20
39.3341    23
39.3441    19
39.3541    23
39.3641    25
39.3741    25
39.3841    24
39.3941    20
39.4041    29
39.4141    17
39.4241    13
39.4341    20
39.4441    26
39.4541    24
39.4641    13
39.4741    26
39.4841    19
39.4941    18
39.5041    30
39.5141    22
39.5241    26
39.5341    16
39.5441    28
39.5541    21
39.5641    19
39.5741    18
39.5841    17
39.5941    14
39.6041    17
39.6141    22
39.6241    13
39.6341    13
39.6441    25
39.6541    25
39.6641    17
39.6741    15
39.6841    17
39.6941    20
39.7041    14
39.7141    27
39.7241    18
39.7341    24
39.7441    18
39.7541    20
39.7641    14
39.7741    18
39.7841    20
39.7941    14
39.8041    13
39.8141    29
39.8241    11
39.8341    19
39.8441    19
39.8541    20
39.8641    16
39.8741    13
39.8841    22
39.8941    24
39.9041    16
39.9141    14
39.9241    21
39.9341    18
39.9441    22
39.9541    15
39.9641    22
39.9741    16
39.9841    23
