Bruker Nano GmbH Berlin, Germany
Esprit 1.9

Date: 4/1/2021 5:02:57 PM
Real time: 17275
Life time: 16116
Pulse density: 101632


Detector type: XFlash 430
Window type: Custom type
Detector thickness: 0.45
Si dead layer:0.029

Calibration, lin.: 10
Calibration, abs.: -955.9
Mn FWHM: 137.05
Fano factor: 0.121
Channels: 4095

Energy Counts
-0.9559     0
-0.9459     0
-0.9359     0
-0.9259     0
-0.9159     0
-0.9059     0
-0.8959     0
-0.8859     0
-0.8759     0
-0.8659     0
-0.8559     0
-0.8459     0
-0.8359     0
-0.8259     0
-0.8159     0
-0.8059     0
-0.7959     0
-0.7859     0
-0.7759     0
-0.7659     0
-0.7559     0
-0.7459     0
-0.7359     0
-0.7259     0
-0.7159     0
-0.7059     0
-0.6959     0
-0.6859     0
-0.6759     0
-0.6659     0
-0.6559     0
-0.6459     0
-0.6359     0
-0.6259     0
-0.6159     0
-0.6059     0
-0.5959     0
-0.5859     0
-0.5759     0
-0.5659     0
-0.5559     0
-0.5459     0
-0.5359     0
-0.5259     0
-0.5159     0
-0.5059     0
-0.4959     0
-0.4859     0
-0.4759     0
-0.4659     0
-0.4559     0
-0.4459     0
-0.4359     0
-0.4259     0
-0.4159     0
-0.4059     0
-0.3959     0
-0.3859     0
-0.3759     0
-0.3659     0
-0.3559     0
-0.3459     0
-0.3359     0
-0.3259     0
-0.3159     0
-0.3059     0
-0.2959     0
-0.2859     0
-0.2759     0
-0.2659     0
-0.2559     0
-0.2459     0
-0.2359     0
-0.2259     0
-0.2159     0
-0.2059     0
-0.1959     0
-0.1859     0
-0.1759     0
-0.1659     0
-0.1559     0
-0.1459     0
-0.1359     0
-0.1259     1
-0.1159     2
-0.1059     6
-0.0959    40
-0.0859   185
-0.0759   606
-0.0659  1804
-0.0559  4669
-0.0459 10218
-0.0359 19075
-0.0259 31022
-0.0159 42166
-0.0059 49269
 0.0041 49875
 0.0141 42684
 0.0241 31593
 0.0341 19872
 0.0441 10823
 0.0541  4947
 0.0641  2030
 0.0741   673
 0.0841   214
 0.0941    67
 0.1041    22
 0.1141     6
 0.1241     5
 0.1341     6
 0.1441     5
 0.1541     4
 0.1641     3
 0.1741    22
 0.1841   147
 0.1941   219
 0.2041   222
 0.2141   235
 0.2241   227
 0.2341   242
 0.2441   236
 0.2541   206
 0.2641   236
 0.2741   250
 0.2841   244
 0.2941   235
 0.3041   234
 0.3141   231
 0.3241   241
 0.3341   234
 0.3441   228
 0.3541   204
 0.3641   198
 0.3741   208
 0.3841   225
 0.3941   216
 0.4041   238
 0.4141   231
 0.4241   207
 0.4341   185
 0.4441   192
 0.4541   171
 0.4641   196
 0.4741   220
 0.4841   194
 0.4941   201
 0.5041   197
 0.5141   204
 0.5241   198
 0.5341   191
 0.5441   195
 0.5541   195
 0.5641   198
 0.5741   208
 0.5841   185
 0.5941   188
 0.6041   180
 0.6141   178
 0.6241   179
 0.6341   175
 0.6441   187
 0.6541   190
 0.6641   190
 0.6741   181
 0.6841   186
 0.6941   189
 0.7041   172
 0.7141   172
 0.7241   180
 0.7341   178
 0.7441   162
 0.7541   173
 0.7641   166
 0.7741   158
 0.7841   166
 0.7941   161
 0.8041   145
 0.8141   163
 0.8241   173
 0.8341   179
 0.8441   171
 0.8541   162
 0.8641   162
 0.8741   152
 0.8841   157
 0.8941   165
 0.9041   169
 0.9141   161
 0.9241   178
 0.9341   177
 0.9441   169
 0.9541   165
 0.9641   161
 0.9741   139
 0.9841   145
 0.9941   158
 1.0041   159
 1.0141   144
 1.0241   164
 1.0341   151
 1.0441   140
 1.0541   159
 1.0641   165
 1.0741   145
 1.0841   163
 1.0941   142
 1.1041   144
 1.1141   157
 1.1241   141
 1.1341   161
 1.1441   151
 1.1541   154
 1.1641   154
 1.1741   145
 1.1841   140
 1.1941   136
 1.2041   153
 1.2141   156
 1.2241   143
 1.2341   151
 1.2441   155
 1.2541   163
 1.2641   143
 1.2741   133
 1.2841   148
 1.2941   151
 1.3041   153
 1.3141   127
 1.3241   135
 1.3341   134
 1.3441   155
 1.3541   129
 1.3641   136
 1.3741   119
 1.3841   131
 1.3941   147
 1.4041   141
 1.4141   136
 1.4241   139
 1.4341   149
 1.4441   137
 1.4541   134
 1.4641   145
 1.4741   149
 1.4841   130
 1.4941   128
 1.5041   133
 1.5141   132
 1.5241   135
 1.5341   139
 1.5441   119
 1.5541   136
 1.5641   141
 1.5741   141
 1.5841   125
 1.5941   134
 1.6041   146
 1.6141   129
 1.6241   130
 1.6341   136
 1.6441   160
 1.6541   175
 1.6641   206
 1.6741   243
 1.6841   303
 1.6941   402
 1.7041   462
 1.7141   556
 1.7241   608
 1.7341   610
 1.7441   645
 1.7541   581
 1.7641   567
 1.7741   435
 1.7841   377
 1.7941   303
 1.8041   262
 1.8141   224
 1.8241   192
 1.8341   176
 1.8441   176
 1.8541   174
 1.8641   162
 1.8741   146
 1.8841   161
 1.8941   141
 1.9041   130
 1.9141   143
 1.9241   138
 1.9341   140
 1.9441   148
 1.9541   164
 1.9641   153
 1.9741   150
 1.9841   169
 1.9941   165
 2.0041   188
 2.0141   156
 2.0241   156
 2.0341   167
 2.0441   176
 2.0541   150
 2.0641   148
 2.0741   131
 2.0841   122
 2.0941   135
 2.1041   121
 2.1141   115
 2.1241   131
 2.1341   152
 2.1441   135
 2.1541   138
 2.1641   116
 2.1741   135
 2.1841   139
 2.1941   130
 2.2041   119
 2.2141   115
 2.2241   107
 2.2341   124
 2.2441   121
 2.2541   129
 2.2641   124
 2.2741   134
 2.2841   101
 2.2941   111
 2.3041   123
 2.3141   123
 2.3241   122
 2.3341   115
 2.3441   107
 2.3541   130
 2.3641   116
 2.3741   126
 2.3841   133
 2.3941   123
 2.4041   113
 2.4141   131
 2.4241   109
 2.4341   110
 2.4441   111
 2.4541   109
 2.4641   103
 2.4741   131
 2.4841   116
 2.4941   106
 2.5041   111
 2.5141   135
 2.5241   132
 2.5341   103
 2.5441   102
 2.5541    99
 2.5641   126
 2.5741    84
 2.5841   106
 2.5941    89
 2.6041   109
 2.6141   100
 2.6241   110
 2.6341   101
 2.6441   107
 2.6541    98
 2.6641   113
 2.6741   131
 2.6841   113
 2.6941    88
 2.7041   102
 2.7141   115
 2.7241   105
 2.7341    83
 2.7441   112
 2.7541   104
 2.7641   100
 2.7741   118
 2.7841   106
 2.7941   119
 2.8041   138
 2.8141   106
 2.8241   132
 2.8341   117
 2.8441   117
 2.8541   117
 2.8641   107
 2.8741   119
 2.8841   118
 2.8941    88
 2.9041   101
 2.9141    99
 2.9241   107
 2.9341   102
 2.9441   106
 2.9541    85
 2.9641    90
 2.9741   103
 2.9841   104
 2.9941   103
 3.0041    91
 3.0141    98
 3.0241   119
 3.0341   112
 3.0441   106
 3.0541    96
 3.0641    95
 3.0741    98
 3.0841    84
 3.0941    85
 3.1041    95
 3.1141    93
 3.1241   106
 3.1341    84
 3.1441   106
 3.1541   101
 3.1641    78
 3.1741    98
 3.1841    85
 3.1941   101
 3.2041    95
 3.2141   106
 3.2241   126
 3.2341   138
 3.2441   145
 3.2541   185
 3.2641   210
 3.2741   202
 3.2841   241
 3.2941   255
 3.3041   265
 3.3141   260
 3.3241   249
 3.3341   264
 3.3441   242
 3.3541   213
 3.3641   186
 3.3741   176
 3.3841   140
 3.3941   121
 3.4041   114
 3.4141    93
 3.4241    85
 3.4341    91
 3.4441    89
 3.4541    91
 3.4641    77
 3.4741    84
 3.4841    82
 3.4941    91
 3.5041    92
 3.5141   104
 3.5241   119
 3.5341   134
 3.5441   128
 3.5541   136
 3.5641   182
 3.5741   212
 3.5841   258
 3.5941   320
 3.6041   366
 3.6141   458
 3.6241   605
 3.6341   733
 3.6441   901
 3.6541  1008
 3.6641  1129
 3.6741  1229
 3.6841  1261
 3.6941  1233
 3.7041  1232
 3.7141  1170
 3.7241  1054
 3.7341   919
 3.7441   716
 3.7541   580
 3.7641   445
 3.7741   349
 3.7841   249
 3.7941   181
 3.8041   144
 3.8141   134
 3.8241   102
 3.8341   107
 3.8441    74
 3.8541    78
 3.8641    66
 3.8741    97
 3.8841    86
 3.8941    94
 3.9041   105
 3.9141   110
 3.9241   107
 3.9341   132
 3.9441   154
 3.9541   181
 3.9641   189
 3.9741   237
 3.9841   231
 3.9941   244
 4.0041   255
 4.0141   273
 4.0241   243
 4.0341   251
 4.0441   232
 4.0541   219
 4.0641   181
 4.0741   144
 4.0841   132
 4.0941   125
 4.1041   117
 4.1141   101
 4.1241    83
 4.1341    78
 4.1441    80
 4.1541    86
 4.1641    72
 4.1741    60
 4.1841    61
 4.1941    60
 4.2041    76
 4.2141    71
 4.2241    74
 4.2341    71
 4.2441    60
 4.2541    57
 4.2641    63
 4.2741    64
 4.2841    57
 4.2941    58
 4.3041    54
 4.3141    59
 4.3241    67
 4.3341    63
 4.3441    80
 4.3541    76
 4.3641    77
 4.3741    84
 4.3841    90
 4.3941    98
 4.4041   111
 4.4141   144
 4.4241   161
 4.4341   202
 4.4441   245
 4.4541   274
 4.4641   309
 4.4741   350
 4.4841   378
 4.4941   386
 4.5041   402
 4.5141   387
 4.5241   361
 4.5341   365
 4.5441   318
 4.5541   277
 4.5641   274
 4.5741   216
 4.5841   168
 4.5941   155
 4.6041   129
 4.6141   115
 4.6241    94
 4.6341    93
 4.6441    87
 4.6541    45
 4.6641    74
 4.6741    88
 4.6841    78
 4.6941    90
 4.7041    97
 4.7141    77
 4.7241    69
 4.7341    87
 4.7441    93
 4.7541    66
 4.7641    79
 4.7741    80
 4.7841    75
 4.7941    83
 4.8041    91
 4.8141   101
 4.8241   105
 4.8341   104
 4.8441    97
 4.8541   123
 4.8641   120
 4.8741   129
 4.8841   128
 4.8941   132
 4.9041   135
 4.9141   148
 4.9241   144
 4.9341   159
 4.9441   133
 4.9541   129
 4.9641   126
 4.9741   141
 4.9841   112
 4.9941   116
 5.0041   119
 5.0141   121
 5.0241    95
 5.0341    85
 5.0441    84
 5.0541    84
 5.0641    79
 5.0741    95
 5.0841    91
 5.0941    86
 5.1041    85
 5.1141    89
 5.1241    86
 5.1341    95
 5.1441    74
 5.1541    74
 5.1641    87
 5.1741   100
 5.1841    83
 5.1941    74
 5.2041    85
 5.2141    53
 5.2241    71
 5.2341    82
 5.2441    83
 5.2541    87
 5.2641    97
 5.2741    98
 5.2841    99
 5.2941    95
 5.3041   108
 5.3141   117
 5.3241   116
 5.3341   114
 5.3441   139
 5.3541   145
 5.3641   173
 5.3741   160
 5.3841   180
 5.3941   184
 5.4041   190
 5.4141   167
 5.4241   192
 5.4341   185
 5.4441   155
 5.4541   159
 5.4641   150
 5.4741   145
 5.4841   146
 5.4941   112
 5.5041   126
 5.5141   107
 5.5241    93
 5.5341   113
 5.5441    90
 5.5541   109
 5.5641    82
 5.5741    95
 5.5841    87
 5.5941    94
 5.6041    83
 5.6141    84
 5.6241    75
 5.6341    78
 5.6441   106
 5.6541    97
 5.6641    79
 5.6741    82
 5.6841    92
 5.6941    82
 5.7041    88
 5.7141   102
 5.7241    97
 5.7341    98
 5.7441   105
 5.7541   132
 5.7641   116
 5.7741   172
 5.7841   178
 5.7941   205
 5.8041   234
 5.8141   267
 5.8241   322
 5.8341   347
 5.8441   411
 5.8541   464
 5.8641   494
 5.8741   522
 5.8841   525
 5.8941   496
 5.9041   514
 5.9141   489
 5.9241   506
 5.9341   459
 5.9441   406
 5.9541   376
 5.9641   308
 5.9741   281
 5.9841   249
 5.9941   203
 6.0041   174
 6.0141   187
 6.0241   157
 6.0341   139
 6.0441   152
 6.0541   136
 6.0641   119
 6.0741   134
 6.0841   150
 6.0941   166
 6.1041   156
 6.1141   147
 6.1241   171
 6.1341   148
 6.1441   156
 6.1541   179
 6.1641   209
 6.1741   232
 6.1841   316
 6.1941   342
 6.2041   446
 6.2141   510
 6.2241   785
 6.2341  1120
 6.2441  1540
 6.2541  2241
 6.2641  3045
 6.2741  4206
 6.2841  5551
 6.2941  7413
 6.3041  9512
 6.3141 12069
 6.3241 14906
 6.3341 18279
 6.3441 21322
 6.3541 24208
 6.3641 26827
 6.3741 29195
 6.3841 30239
 6.3941 31459
 6.4041 31549
 6.4141 30454
 6.4241 28701
 6.4341 26174
 6.4441 23288
 6.4541 20334
 6.4641 17254
 6.4741 14114
 6.4841 11223
 6.4941  8642
 6.5041  6753
 6.5141  4869
 6.5241  3637
 6.5341  2520
 6.5441  1769
 6.5541  1186
 6.5641   855
 6.5741   626
 6.5841   440
 6.5941   315
 6.6041   243
 6.6141   204
 6.6241   195
 6.6341   172
 6.6441   174
 6.6541   164
 6.6641   186
 6.6741   165
 6.6841   175
 6.6941   153
 6.7041   179
 6.7141   152
 6.7241   181
 6.7341   167
 6.7441   170
 6.7541   178
 6.7641   170
 6.7741   180
 6.7841   191
 6.7941   204
 6.8041   196
 6.8141   209
 6.8241   244
 6.8341   260
 6.8441   266
 6.8541   302
 6.8641   344
 6.8741   374
 6.8841   452
 6.8941   546
 6.9041   617
 6.9141   750
 6.9241   892
 6.9341  1199
 6.9441  1406
 6.9541  1788
 6.9641  2175
 6.9741  2479
 6.9841  2979
 6.9941  3504
 7.0041  3890
 7.0141  4409
 7.0241  4677
 7.0341  4993
 7.0441  5056
 7.0541  5079
 7.0641  5239
 7.0741  4974
 7.0841  4605
 7.0941  4283
 7.1041  3747
 7.1141  3259
 7.1241  2881
 7.1341  2383
 7.1441  1987
 7.1541  1577
 7.1641  1160
 7.1741   939
 7.1841   748
 7.1941   552
 7.2041   469
 7.2141   381
 7.2241   286
 7.2341   276
 7.2441   226
 7.2541   183
 7.2641   173
 7.2741   175
 7.2841   179
 7.2941   157
 7.3041   171
 7.3141   179
 7.3241   179
 7.3341   207
 7.3441   200
 7.3541   201
 7.3641   217
 7.3741   235
 7.3841   266
 7.3941   262
 7.4041   293
 7.4141   284
 7.4241   310
 7.4341   297
 7.4441   300
 7.4541   284
 7.4641   272
 7.4741   323
 7.4841   286
 7.4941   294
 7.5041   275
 7.5141   252
 7.5241   211
 7.5341   263
 7.5441   218
 7.5541   193
 7.5641   189
 7.5741   203
 7.5841   180
 7.5941   180
 7.6041   167
 7.6141   162
 7.6241   163
 7.6341   148
 7.6441   165
 7.6541   169
 7.6641   151
 7.6741   202
 7.6841   159
 7.6941   170
 7.7041   182
 7.7141   173
 7.7241   192
 7.7341   182
 7.7441   198
 7.7541   207
 7.7641   204
 7.7741   190
 7.7841   207
 7.7941   182
 7.8041   198
 7.8141   209
 7.8241   221
 7.8341   208
 7.8441   236
 7.8541   224
 7.8641   230
 7.8741   246
 7.8841   242
 7.8941   276
 7.9041   250
 7.9141   305
 7.9241   326
 7.9341   339
 7.9441   359
 7.9541   341
 7.9641   376
 7.9741   394
 7.9841   433
 7.9941   438
 8.0041   527
 8.0141   532
 8.0241   540
 8.0341   580
 8.0441   654
 8.0541   692
 8.0641   710
 8.0741   773
 8.0841   819
 8.0941   847
 8.1041   859
 8.1141   928
 8.1241   974
 8.1341  1004
 8.1441  1027
 8.1541  1054
 8.1641  1044
 8.1741  1063
 8.1841  1089
 8.1941  1118
 8.2041  1130
 8.2141  1081
 8.2241  1181
 8.2341  1196
 8.2441  1267
 8.2541  1315
 8.2641  1352
 8.2741  1462
 8.2841  1588
 8.2941  1610
 8.3041  1769
 8.3141  1897
 8.3241  2085
 8.3341  2141
 8.3441  2228
 8.3541  2324
 8.3641  2459
 8.3741  2520
 8.3841  2566
 8.3941  2532
 8.4041  2541
 8.4141  2324
 8.4241  2229
 8.4341  2115
 8.4441  1896
 8.4541  1720
 8.4641  1563
 8.4741  1331
 8.4841  1119
 8.4941  1005
 8.5041   867
 8.5141   693
 8.5241   617
 8.5341   533
 8.5441   500
 8.5541   429
 8.5641   426
 8.5741   408
 8.5841   380
 8.5941   380
 8.6041   407
 8.6141   413
 8.6241   446
 8.6341   412
 8.6441   411
 8.6541   392
 8.6641   412
 8.6741   414
 8.6841   368
 8.6941   375
 8.7041   340
 8.7141   324
 8.7241   318
 8.7341   302
 8.7441   288
 8.7541   278
 8.7641   290
 8.7741   284
 8.7841   269
 8.7941   220
 8.8041   265
 8.8141   244
 8.8241   228
 8.8341   264
 8.8441   268
 8.8541   246
 8.8641   251
 8.8741   241
 8.8841   245
 8.8941   244
 8.9041   265
 8.9141   253
 8.9241   253
 8.9341   264
 8.9441   278
 8.9541   272
 8.9641   275
 8.9741   297
 8.9841   287
 8.9941   287
 9.0041   310
 9.0141   325
 9.0241   298
 9.0341   279
 9.0441   314
 9.0541   320
 9.0641   336
 9.0741   337
 9.0841   385
 9.0941   362
 9.1041   347
 9.1141   381
 9.1241   422
 9.1341   392
 9.1441   424
 9.1541   445
 9.1641   476
 9.1741   486
 9.1841   532
 9.1941   552
 9.2041   585
 9.2141   613
 9.2241   644
 9.2341   655
 9.2441   705
 9.2541   708
 9.2641   745
 9.2741   789
 9.2841   831
 9.2941   880
 9.3041   872
 9.3141   868
 9.3241   936
 9.3341   989
 9.3441   975
 9.3541  1089
 9.3641  1083
 9.3741  1049
 9.3841  1062
 9.3941  1061
 9.4041  1133
 9.4141  1128
 9.4241  1187
 9.4341  1153
 9.4441  1180
 9.4541  1231
 9.4641  1216
 9.4741  1206
 9.4841  1280
 9.4941  1330
 9.5041  1296
 9.5141  1306
 9.5241  1324
 9.5341  1452
 9.5441  1494
 9.5541  1529
 9.5641  1602
 9.5741  1706
 9.5841  1811
 9.5941  1875
 9.6041  1987
 9.6141  2193
 9.6241  2222
 9.6341  2288
 9.6441  2292
 9.6541  2382
 9.6641  2347
 9.6741  2336
 9.6841  2284
 9.6941  2231
 9.7041  2109
 9.7141  2110
 9.7241  1986
 9.7341  1789
 9.7441  1743
 9.7541  1635
 9.7641  1475
 9.7741  1296
 9.7841  1236
 9.7941  1134
 9.8041  1056
 9.8141  1025
 9.8241   980
 9.8341   904
 9.8441   878
 9.8541   919
 9.8641   922
 9.8741   951
 9.8841   967
 9.8941   973
 9.9041   965
 9.9141  1034
 9.9241  1050
 9.9341  1051
 9.9441  1053
 9.9541  1050
 9.9641  1020
 9.9741   956
 9.9841   917
 9.9941   872
10.0041   809
10.0141   808
10.0241   725
10.0341   673
10.0441   613
10.0541   579
10.0641   531
10.0741   461
10.0841   405
10.0941   358
10.1041   318
10.1141   294
10.1241   262
10.1341   259
10.1441   218
10.1541   222
10.1641   217
10.1741   201
10.1841   183
10.1941   184
10.2041   171
10.2141   189
10.2241   173
10.2341   180
10.2441   168
10.2541   160
10.2641   158
10.2741   156
10.2841   150
10.2941   150
10.3041   142
10.3141   143
10.3241   144
10.3341   141
10.3441   133
10.3541   141
10.3641   135
10.3741   141
10.3841   128
10.3941   137
10.4041   135
10.4141   131
10.4241   139
10.4341   130
10.4441   141
10.4541   149
10.4641   142
10.4741   115
10.4841   133
10.4941   137
10.5041   152
10.5141   150
10.5241   148
10.5341   167
10.5441   175
10.5541   172
10.5641   151
10.5741   148
10.5841   171
10.5941   165
10.6041   157
10.6141   169
10.6241   163
10.6341   181
10.6441   173
10.6541   145
10.6641   153
10.6741   165
10.6841   179
10.6941   189
10.7041   168
10.7141   169
10.7241   164
10.7341   182
10.7441   195
10.7541   187
10.7641   202
10.7741   218
10.7841   197
10.7941   201
10.8041   217
10.8141   225
10.8241   226
10.8341   221
10.8441   231
10.8541   244
10.8641   239
10.8741   229
10.8841   237
10.8941   235
10.9041   238
10.9141   236
10.9241   249
10.9341   250
10.9441   260
10.9541   253
10.9641   238
10.9741   243
10.9841   243
10.9941   239
11.0041   235
11.0141   219
11.0241   215
11.0341   216
11.0441   214
11.0541   221
11.0641   210
11.0741   223
11.0841   224
11.0941   200
11.1041   201
11.1141   202
11.1241   216
11.1341   234
11.1441   212
11.1541   218
11.1641   247
11.1741   264
11.1841   266
11.1941   256
11.2041   273
11.2141   307
11.2241   293
11.2341   291
11.2441   322
11.2541   370
11.2641   338
11.2741   361
11.2841   374
11.2941   331
11.3041   317
11.3141   327
11.3241   329
11.3341   297
11.3441   308
11.3541   288
11.3641   262
11.3741   265
11.3841   243
11.3941   235
11.4041   204
11.4141   190
11.4241   190
11.4341   183
11.4441   172
11.4541   171
11.4641   181
11.4741   180
11.4841   166
11.4941   156
11.5041   182
11.5141   171
11.5241   171
11.5341   189
11.5441   179
11.5541   177
11.5641   177
11.5741   164
11.5841   173
11.5941   184
11.6041   192
11.6141   209
11.6241   189
11.6341   173
11.6441   184
11.6541   183
11.6641   175
11.6741   163
11.6841   175
11.6941   177
11.7041   180
11.7141   180
11.7241   157
11.7341   145
11.7441   139
11.7541   150
11.7641   163
11.7741   136
11.7841   124
11.7941   133
11.8041   123
11.8141   115
11.8241   120
11.8341   141
11.8441   131
11.8541   131
11.8641   134
11.8741   127
11.8841   126
11.8941   109
11.9041   111
11.9141   117
11.9241   121
11.9341   121
11.9441   139
11.9541   136
11.9641   138
11.9741   134
11.9841   138
11.9941   148
12.0041   143
12.0141   129
12.0241   124
12.0341   133
12.0441   137
12.0541   134
12.0641   135
12.0741   139
12.0841   127
12.0941   118
12.1041   129
12.1141   122
12.1241   100
12.1341   117
12.1441   128
12.1541   114
12.1641   111
12.1741   115
12.1841   122
12.1941   112
12.2041   111
12.2141   107
12.2241   111
12.2341   107
12.2441   130
12.2541   127
12.2641   120
12.2741   126
12.2841   118
12.2941   132
12.3041   149
12.3141   129
12.3241   118
12.3341   118
12.3441   113
12.3541   110
12.3641   117
12.3741   120
12.3841   124
12.3941   123
12.4041   121
12.4141   125
12.4241   123
12.4341   116
12.4441   129
12.4541   137
12.4641   140
12.4741   132
12.4841   132
12.4941   117
12.5041   113
12.5141   124
12.5241   132
12.5341   142
12.5441   126
12.5541   134
12.5641   146
12.5741   136
12.5841   125
12.5941   129
12.6041   132
12.6141   140
12.6241   145
12.6341   135
12.6441   127
12.6541   129
12.6641   135
12.6741   131
12.6841   123
12.6941   119
12.7041   122
12.7141   130
12.7241   130
12.7341   122
12.7441   126
12.7541   136
12.7641   139
12.7741   135
12.7841   124
12.7941   115
12.8041   120
12.8141   130
12.8241   138
12.8341   139
12.8441   138
12.8541   142
12.8641   146
12.8741   138
12.8841   131
12.8941   134
12.9041   131
12.9141   123
12.9241   122
12.9341   126
12.9441   129
12.9541   137
12.9641   145
12.9741   143
12.9841   138
12.9941   142
13.0041   147
13.0141   154
13.0241   148
13.0341   148
13.0441   142
13.0541   149
13.0641   148
13.0741   138
13.0841   143
13.0941   144
13.1041   131
13.1141   135
13.1241   147
13.1341   158
13.1441   158
13.1541   150
13.1641   148
13.1741   154
13.1841   161
13.1941   172
13.2041   185
13.2141   200
13.2241   194
13.2341   177
13.2441   189
13.2541   188
13.2641   210
13.2741   226
13.2841   226
13.2941   227
13.3041   255
13.3141   272
13.3241   273
13.3341   279
13.3441   274
13.3541   267
13.3641   275
13.3741   282
13.3841   274
13.3941   271
13.4041   276
13.4141   279
13.4241   282
13.4341   285
13.4441   282
13.4541   262
13.4641   238
13.4741   228
13.4841   230
13.4941   225
13.5041   208
13.5141   195
13.5241   191
13.5341   187
13.5441   183
13.5541   182
13.5641   178
13.5741   176
13.5841   179
13.5941   177
13.6041   171
13.6141   170
13.6241   171
13.6341   177
13.6441   178
13.6541   187
13.6641   182
13.6741   159
13.6841   153
13.6941   162
13.7041   181
13.7141   183
13.7241   172
13.7341   166
13.7441   163
13.7541   176
13.7641   177
13.7741   168
13.7841   167
13.7941   169
13.8041   154
13.8141   155
13.8241   180
13.8341   176
13.8441   157
13.8541   154
13.8641   170
13.8741   179
13.8841   171
13.8941   175
13.9041   191
13.9141   208
13.9241   204
13.9341   189
13.9441   202
13.9541   222
13.9641   242
13.9741   250
13.9841   253
13.9941   267
14.0041   285
14.0141   306
14.0241   334
14.0341   364
14.0441   389
14.0541   414
14.0641   442
14.0741   458
14.0841   475
14.0941   505
14.1041   526
14.1141   531
14.1241   546
14.1341   566
14.1441   568
14.1541   553
14.1641   537
14.1741   528
14.1841   542
14.1941   515
14.2041   474
14.2141   471
14.2241   433
14.2341   388
14.2441   358
14.2541   347
14.2641   342
14.2741   322
14.2841   298
14.2941   270
14.3041   265
14.3141   256
14.3241   243
14.3341   236
14.3441   222
14.3541   205
14.3641   193
14.3741   211
14.3841   208
14.3941   190
14.4041   189
14.4141   180
14.4241   162
14.4341   178
14.4441   204
14.4541   187
14.4641   169
14.4741   192
14.4841   212
14.4941   194
14.5041   184
14.5141   181
14.5241   180
14.5341   187
14.5441   197
14.5541   199
14.5641   185
14.5741   180
14.5841   190
14.5941   186
14.6041   184
14.6141   194
14.6241   208
14.6341   202
14.6441   184
14.6541   184
14.6641   199
14.6741   209
14.6841   204
14.6941   201
14.7041   197
14.7141   194
14.7241   200
14.7341   201
14.7441   205
14.7541   204
14.7641   195
14.7741   218
14.7841   230
14.7941   214
14.8041   197
14.8141   193
14.8241   220
14.8341   224
14.8441   216
14.8541   213
14.8641   225
14.8741   230
14.8841   223
14.8941   254
14.9041   258
14.9141   252
14.9241   245
14.9341   254
14.9441   256
14.9541   247
14.9641   267
14.9741   253
14.9841   224
14.9941   217
15.0041   220
15.0141   247
15.0241   243
15.0341   243
15.0441   239
15.0541   221
15.0641   240
15.0741   231
15.0841   209
15.0941   233
15.1041   246
15.1141   221
15.1241   211
15.1341   214
15.1441   209
15.1541   217
15.1641   226
15.1741   211
15.1841   200
15.1941   216
15.2041   218
15.2141   225
15.2241   215
15.2341   223
15.2441   222
15.2541   213
15.2641   211
15.2741   202
15.2841   213
15.2941   220
15.3041   218
15.3141   223
15.3241   210
15.3341   203
15.3441   207
15.3541   210
15.3641   210
15.3741   210
15.3841   220
15.3941   216
15.4041   229
15.4141   241
15.4241   238
15.4341   219
15.4441   230
15.4541   226
15.4641   217
15.4741   215
15.4841   216
15.4941   223
15.5041   234
15.5141   233
15.5241   234
15.5341   245
15.5441   236
15.5541   247
15.5641   255
15.5741   259
15.5841   263
15.5941   280
15.6041   300
15.6141   276
15.6241   292
15.6341   326
15.6441   345
15.6541   356
15.6641   361
15.6741   365
15.6841   367
15.6941   381
15.7041   395
15.7141   390
15.7241   406
15.7341   438
15.7441   442
15.7541   417
15.7641   398
15.7741   427
15.7841   448
15.7941   442
15.8041   421
15.8141   417
15.8241   411
15.8341   420
15.8441   441
15.8541   403
15.8641   342
15.8741   331
15.8841   338
15.8941   353
15.9041   338
15.9141   314
15.9241   303
15.9341   319
15.9441   310
15.9541   292
15.9641   272
15.9741   270
15.9841   254
15.9941   263
16.0041   264
16.0141   256
16.0241   266
16.0341   259
16.0441   252
16.0541   255
16.0641   255
16.0741   250
16.0841   261
16.0941   229
16.1041   237
16.1141   249
16.1241   249
16.1341   257
16.1441   250
16.1541   248
16.1641   244
16.1741   245
16.1841   248
16.1941   243
16.2041   262
16.2141   245
16.2241   229
16.2341   259
16.2441   274
16.2541   261
16.2641   249
16.2741   256
16.2841   252
16.2941   241
16.3041   248
16.3141   261
16.3241   262
16.3341   235
16.3441   223
16.3541   240
16.3641   245
16.3741   267
16.3841   265
16.3941   260
16.4041   257
16.4141   249
16.4241   245
16.4341   258
16.4441   252
16.4541   247
16.4641   257
16.4741   248
16.4841   240
16.4941   251
16.5041   271
16.5141   289
16.5241   269
16.5341   256
16.5441   270
16.5541   272
16.5641   281
16.5741   266
16.5841   247
16.5941   286
16.6041   297
16.6141   297
16.6241   285
16.6341   292
16.6441   287
16.6541   281
16.6641   268
16.6741   271
16.6841   286
16.6941   271
16.7041   277
16.7141   277
16.7241   279
16.7341   314
16.7441   273
16.7541   265
16.7641   273
16.7741   289
16.7841   288
16.7941   272
16.8041   266
16.8141   273
16.8241   259
16.8341   273
16.8441   271
16.8541   276
16.8641   296
16.8741   283
16.8841   278
16.8941   295
16.9041   300
16.9141   306
16.9241   289
16.9341   286
16.9441   288
16.9541   275
16.9641   276
16.9741   297
16.9841   307
16.9941   302
17.0041   301
17.0141   298
17.0241   284
17.0341   297
17.0441   291
17.0541   288
17.0641   305
17.0741   295
17.0841   265
17.0941   265
17.1041   284
17.1141   302
17.1241   299
17.1341   297
17.1441   306
17.1541   302
17.1641   318
17.1741   315
17.1841   320
17.1941   296
17.2041   279
17.2141   295
17.2241   290
17.2341   297
17.2441   286
17.2541   287
17.2641   314
17.2741   314
17.2841   303
17.2941   296
17.3041   311
17.3141   307
17.3241   287
17.3341   296
17.3441   328
17.3541   312
17.3641   289
17.3741   303
17.3841   333
17.3941   320
17.4041   302
17.4141   309
17.4241   311
17.4341   316
17.4441   304
17.4541   311
17.4641   300
17.4741   309
17.4841   302
17.4941   292
17.5041   317
17.5141   329
17.5241   325
17.5341   350
17.5441   341
17.5541   323
17.5641   320
17.5741   316
17.5841   339
17.5941   333
17.6041   336
17.6141   322
17.6241   341
17.6341   360
17.6441   386
17.6541   383
17.6641   368
17.6741   371
17.6841   358
17.6941   323
17.7041   329
17.7141   339
17.7241   345
17.7341   362
17.7441   340
17.7541   335
17.7641   311
17.7741   327
17.7841   312
17.7941   333
17.8041   334
17.8141   350
17.8241   314
17.8341   308
17.8441   320
17.8541   338
17.8641   340
17.8741   353
17.8841   331
17.8941   345
17.9041   341
17.9141   348
17.9241   322
17.9341   318
17.9441   332
17.9541   328
17.9641   342
17.9741   336
17.9841   339
17.9941   322
18.0041   316
18.0141   337
18.0241   337
18.0341   378
18.0441   339
18.0541   335
18.0641   339
18.0741   320
18.0841   339
18.0941   340
18.1041   333
18.1141   335
18.1241   341
18.1341   323
18.1441   348
18.1541   325
18.1641   333
18.1741   339
18.1841   350
18.1941   304
18.2041   346
18.2141   357
18.2241   336
18.2341   344
18.2441   361
18.2541   338
18.2641   346
18.2741   356
18.2841   352
18.2941   339
18.3041   337
18.3141   329
18.3241   336
18.3341   326
18.3441   356
18.3541   308
18.3641   325
18.3741   333
18.3841   347
18.3941   377
18.4041   369
18.4141   331
18.4241   349
18.4341   341
18.4441   340
18.4541   313
18.4641   340
18.4741   364
18.4841   342
18.4941   345
18.5041   319
18.5141   325
18.5241   346
18.5341   361
18.5441   377
18.5541   348
18.5641   340
18.5741   359
18.5841   345
18.5941   358
18.6041   345
18.6141   369
18.6241   351
18.6341   350
18.6441   355
18.6541   344
18.6641   352
18.6741   333
18.6841   339
18.6941   355
18.7041   335
18.7141   351
18.7241   371
18.7341   364
18.7441   351
18.7541   370
18.7641   373
18.7741   359
18.7841   357
18.7941   358
18.8041   359
18.8141   368
18.8241   373
18.8341   369
18.8441   390
18.8541   361
18.8641   370
18.8741   368
18.8841   343
18.8941   392
18.9041   389
18.9141   358
18.9241   351
18.9341   355
18.9441   356
18.9541   349
18.9641   372
18.9741   337
18.9841   338
18.9941   339
19.0041   333
19.0141   347
19.0241   366
19.0341   364
19.0441   381
19.0541   356
19.0641   337
19.0741   355
19.0841   369
19.0941   377
19.1041   367
19.1141   344
19.1241   370
19.1341   397
19.1441   368
19.1541   396
19.1641   366
19.1741   387
19.1841   385
19.1941   378
19.2041   349
19.2141   357
19.2241   398
19.2341   374
19.2441   389
19.2541   394
19.2641   335
19.2741   357
19.2841   377
19.2941   386
19.3041   397
19.3141   382
19.3241   368
19.3341   372
19.3441   387
19.3541   349
19.3641   382
19.3741   409
19.3841   357
19.3941   350
19.4041   391
19.4141   386
19.4241   374
19.4341   356
19.4441   368
19.4541   392
19.4641   400
19.4741   395
19.4841   392
19.4941   398
19.5041   382
19.5141   390
19.5241   406
19.5341   395
19.5441   402
19.5541   402
19.5641   369
19.5741   404
19.5841   382
19.5941   416
19.6041   391
19.6141   378
19.6241   396
19.6341   385
19.6441   365
19.6541   405
19.6641   393
19.6741   392
19.6841   402
19.6941   378
19.7041   365
19.7141   394
19.7241   421
19.7341   415
19.7441   404
19.7541   387
19.7641   348
19.7741   396
19.7841   396
19.7941   372
19.8041   373
19.8141   376
19.8241   378
19.8341   413
19.8441   415
19.8541   363
19.8641   381
19.8741   371
19.8841   396
19.8941   401
19.9041   408
19.9141   420
19.9241   421
19.9341   407
19.9441   393
19.9541   385
19.9641   391
19.9741   408
19.9841   399
19.9941   409
20.0041   395
20.0141   364
20.0241   403
20.0341   373
20.0441   409
20.0541   376
20.0641   398
20.0741   412
20.0841   427
20.0941   395
20.1041   397
20.1141   389
20.1241   401
20.1341   417
20.1441   390
20.1541   400
20.1641   392
20.1741   393
20.1841   436
20.1941   405
20.2041   396
20.2141   410
20.2241   384
20.2341   394
20.2441   416
20.2541   399
20.2641   406
20.2741   377
20.2841   388
20.2941   414
20.3041   398
20.3141   395
20.3241   403
20.3341   379
20.3441   384
20.3541   398
20.3641   387
20.3741   364
20.3841   398
20.3941   407
20.4041   415
20.4141   386
20.4241   404
20.4341   420
20.4441   391
20.4541   374
20.4641   399
20.4741   387
20.4841   401
20.4941   385
20.5041   398
20.5141   412
20.5241   401
20.5341   406
20.5441   373
20.5541   388
20.5641   426
20.5741   386
20.5841   407
20.5941   407
20.6041   430
20.6141   435
20.6241   424
20.6341   424
20.6441   399
20.6541   404
20.6641   415
20.6741   438
20.6841   425
20.6941   383
20.7041   422
20.7141   386
20.7241   430
20.7341   397
20.7441   392
20.7541   371
20.7641   411
20.7741   392
20.7841   442
20.7941   436
20.8041   451
20.8141   459
20.8241   425
20.8341   445
20.8441   442
20.8541   448
20.8641   454
20.8741   456
20.8841   438
20.8941   499
20.9041   487
20.9141   522
20.9241   499
20.9341   493
20.9441   510
20.9541   499
20.9641   518
20.9741   563
20.9841   536
20.9941   586
21.0041   598
21.0141   596
21.0241   589
21.0341   568
21.0441   594
21.0541   618
21.0641   642
21.0741   636
21.0841   635
21.0941   627
21.1041   620
21.1141   667
21.1241   616
21.1341   612
21.1441   605
21.1541   654
21.1641   635
21.1741   602
21.1841   644
21.1941   623
21.2041   664
21.2141   618
21.2241   584
21.2341   565
21.2441   536
21.2541   595
21.2641   476
21.2741   498
21.2841   539
21.2941   508
21.3041   507
21.3141   508
21.3241   479
21.3341   484
21.3441   474
21.3541   466
21.3641   441
21.3741   403
21.3841   464
21.3941   426
21.4041   449
21.4141   427
21.4241   437
21.4341   447
21.4441   440
21.4541   418
21.4641   419
21.4741   442
21.4841   443
21.4941   401
21.5041   409
21.5141   415
21.5241   436
21.5341   409
21.5441   386
21.5541   384
21.5641   415
21.5741   413
21.5841   449
21.5941   424
21.6041   416
21.6141   436
21.6241   412
21.6341   412
21.6441   376
21.6541   420
21.6641   438
21.6741   423
21.6841   436
21.6941   429
21.7041   437
21.7141   399
21.7241   408
21.7341   431
21.7441   411
21.7541   410
21.7641   406
21.7741   433
21.7841   415
21.7941   421
21.8041   438
21.8141   387
21.8241   427
21.8341   425
21.8441   387
21.8541   403
21.8641   432
21.8741   432
21.8841   415
21.8941   412
21.9041   435
21.9141   437
21.9241   437
21.9341   393
21.9441   436
21.9541   416
21.9641   437
21.9741   381
21.9841   442
21.9941   433
22.0041   428
22.0141   446
22.0241   431
22.0341   392
22.0441   401
22.0541   428
22.0641   419
22.0741   444
22.0841   467
22.0941   437
22.1041   445
22.1141   388
22.1241   456
22.1341   417
22.1441   426
22.1541   415
22.1641   401
22.1741   442
22.1841   413
22.1941   431
22.2041   435
22.2141   429
22.2241   402
22.2341   443
22.2441   421
22.2541   453
22.2641   425
22.2741   417
22.2841   410
22.2941   435
22.3041   449
22.3141   424
22.3241   423
22.3341   431
22.3441   459
22.3541   423
22.3641   437
22.3741   376
22.3841   421
22.3941   427
22.4041   399
22.4141   423
22.4241   424
22.4341   410
22.4441   433
22.4541   387
22.4641   441
22.4741   440
22.4841   410
22.4941   421
22.5041   421
22.5141   417
22.5241   379
22.5341   398
22.5441   380
22.5541   408
22.5641   428
22.5741   426
22.5841   397
22.5941   427
22.6041   400
22.6141   404
22.6241   403
22.6341   417
22.6441   428
22.6541   420
22.6641   446
22.6741   427
22.6841   420
22.6941   384
22.7041   394
22.7141   407
22.7241   401
22.7341   439
22.7441   414
22.7541   408
22.7641   404
22.7741   426
22.7841   431
22.7941   470
22.8041   379
22.8141   398
22.8241   447
22.8341   398
22.8441   425
22.8541   453
22.8641   387
22.8741   386
22.8841   435
22.8941   438
22.9041   402
22.9141   416
22.9241   405
22.9341   423
22.9441   432
22.9541   402
22.9641   423
22.9741   434
22.9841   458
22.9941   429
23.0041   427
23.0141   408
23.0241   438
23.0341   449
23.0441   390
23.0541   394
23.0641   423
23.0741   400
23.0841   401
23.0941   383
23.1041   431
23.1141   385
23.1241   424
23.1341   398
23.1441   405
23.1541   426
23.1641   409
23.1741   411
23.1841   409
23.1941   401
23.2041   408
23.2141   435
23.2241   437
23.2341   432
23.2441   425
23.2541   435
23.2641   400
23.2741   379
23.2841   433
23.2941   389
23.3041   435
23.3141   425
23.3241   448
23.3341   421
23.3441   423
23.3541   423
23.3641   425
23.3741   400
23.3841   437
23.3941   394
23.4041   417
23.4141   387
23.4241   395
23.4341   405
23.4441   391
23.4541   433
23.4641   423
23.4741   413
23.4841   440
23.4941   385
23.5041   431
23.5141   443
23.5241   442
23.5341   408
23.5441   403
23.5541   400
23.5641   415
23.5741   446
23.5841   428
23.5941   443
23.6041   428
23.6141   431
23.6241   427
23.6341   412
23.6441   398
23.6541   433
23.6641   437
23.6741   443
23.6841   456
23.6941   410
23.7041   411
23.7141   429
23.7241   464
23.7341   440
23.7441   495
23.7541   464
23.7641   474
23.7741   443
23.7841   475
23.7941   448
23.8041   453
23.8141   414
23.8241   482
23.8341   433
23.8441   447
23.8541   433
23.8641   445
23.8741   409
23.8841   410
23.8941   408
23.9041   425
23.9141   439
23.9241   407
23.9341   447
23.9441   442
23.9541   464
23.9641   408
23.9741   427
23.9841   400
23.9941   389
24.0041   393
24.0141   425
24.0241   394
24.0341   431
24.0441   400
24.0541   442
24.0641   381
24.0741   421
24.0841   414
24.0941   375
24.1041   371
24.1141   417
24.1241   391
24.1341   410
24.1441   383
24.1541   365
24.1641   398
24.1741   407
24.1841   363
24.1941   389
24.2041   395
24.2141   393
24.2241   393
24.2341   398
24.2441   399
24.2541   399
24.2641   364
24.2741   392
24.2841   366
24.2941   379
24.3041   360
24.3141   404
24.3241   400
24.3341   397
24.3441   407
24.3541   397
24.3641   376
24.3741   409
24.3841   397
24.3941   388
24.4041   395
24.4141   388
24.4241   412
24.4341   406
24.4441   397
24.4541   378
24.4641   371
24.4741   406
24.4841   377
24.4941   410
24.5041   391
24.5141   394
24.5241   403
24.5341   398
24.5441   376
24.5541   362
24.5641   375
24.5741   369
24.5841   365
24.5941   350
24.6041   388
24.6141   368
24.6241   417
24.6341   367
24.6441   394
24.6541   360
24.6641   354
24.6741   368
24.6841   382
24.6941   369
24.7041   365
24.7141   366
24.7241   432
24.7341   395
24.7441   407
24.7541   381
24.7641   379
24.7741   370
24.7841   367
24.7941   359
24.8041   414
24.8141   402
24.8241   377
24.8341   372
24.8441   369
24.8541   380
24.8641   388
24.8741   384
24.8841   372
24.8941   383
24.9041   377
24.9141   376
24.9241   393
24.9341   395
24.9441   390
24.9541   396
24.9641   352
24.9741   355
24.9841   379
24.9941   391
25.0041   374
25.0141   367
25.0241   342
25.0341   399
25.0441   378
25.0541   407
25.0641   373
25.0741   385
25.0841   406
25.0941   404
25.1041   375
25.1141   378
25.1241   388
25.1341   391
25.1441   379
25.1541   409
25.1641   391
25.1741   389
25.1841   390
25.1941   394
25.2041   379
25.2141   406
25.2241   400
25.2341   406
25.2441   384
25.2541   373
25.2641   377
25.2741   362
25.2841   359
25.2941   387
25.3041   363
25.3141   379
25.3241   398
25.3341   379
25.3441   368
25.3541   373
25.3641   417
25.3741   375
25.3841   363
25.3941   361
25.4041   368
25.4141   348
25.4241   362
25.4341   366
25.4441   376
25.4541   390
25.4641   387
25.4741   352
25.4841   344
25.4941   348
25.5041   342
25.5141   362
25.5241   351
25.5341   368
25.5441   376
25.5541   339
25.5641   379
25.5741   356
25.5841   345
25.5941   348
25.6041   376
25.6141   347
25.6241   380
25.6341   373
25.6441   364
25.6541   339
25.6641   403
25.6741   345
25.6841   342
25.6941   373
25.7041   380
25.7141   336
25.7241   321
25.7341   352
25.7441   327
25.7541   345
25.7641   357
25.7741   321
25.7841   339
25.7941   327
25.8041   348
25.8141   350
25.8241   321
25.8341   363
25.8441   375
25.8541   351
25.8641   337
25.8741   344
25.8841   351
25.8941   358
25.9041   350
25.9141   325
25.9241   354
25.9341   357
25.9441   353
25.9541   348
25.9641   356
25.9741   355
25.9841   352
25.9941   322
26.0041   353
26.0141   365
26.0241   359
26.0341   328
26.0441   332
26.0541   355
26.0641   333
26.0741   333
26.0841   345
26.0941   333
26.1041   330
26.1141   314
26.1241   357
26.1341   364
26.1441   323
26.1541   329
26.1641   337
26.1741   333
26.1841   346
26.1941   348
26.2041   326
26.2141   314
26.2241   344
26.2341   353
26.2441   333
26.2541   327
26.2641   337
26.2741   368
26.2841   339
26.2941   323
26.3041   355
26.3141   332
26.3241   344
26.3341   343
26.3441   316
26.3541   330
26.3641   324
26.3741   375
26.3841   385
26.3941   342
26.4041   332
26.4141   334
26.4241   325
26.4341   331
26.4441   350
26.4541   325
26.4641   361
26.4741   359
26.4841   340
26.4941   350
26.5041   355
26.5141   328
26.5241   311
26.5341   326
26.5441   341
26.5541   349
26.5641   314
26.5741   340
26.5841   344
26.5941   308
26.6041   330
26.6141   344
26.6241   312
26.6341   338
26.6441   332
26.6541   307
26.6641   351
26.6741   328
26.6841   313
26.6941   318
26.7041   302
26.7141   320
26.7241   327
26.7341   346
26.7441   326
26.7541   344
26.7641   331
26.7741   310
26.7841   345
26.7941   328
26.8041   323
26.8141   332
26.8241   307
26.8341   340
26.8441   278
26.8541   303
26.8641   310
26.8741   341
26.8841   302
26.8941   329
26.9041   316
26.9141   301
26.9241   305
26.9341   326
26.9441   322
26.9541   306
26.9641   325
26.9741   323
26.9841   300
26.9941   307
27.0041   331
27.0141   326
27.0241   305
27.0341   324
27.0441   322
27.0541   298
27.0641   320
27.0741   335
27.0841   279
27.0941   331
27.1041   308
27.1141   345
27.1241   327
27.1341   329
27.1441   315
27.1541   305
27.1641   312
27.1741   325
27.1841   311
27.1941   314
27.2041   335
27.2141   280
27.2241   326
27.2341   320
27.2441   324
27.2541   314
27.2641   274
27.2741   331
27.2841   300
27.2941   313
27.3041   279
27.3141   336
27.3241   309
27.3341   333
27.3441   335
27.3541   321
27.3641   314
27.3741   324
27.3841   310
27.3941   344
27.4041   321
27.4141   320
27.4241   317
27.4341   334
27.4441   311
27.4541   310
27.4641   316
27.4741   320
27.4841   302
27.4941   299
27.5041   300
27.5141   331
27.5241   317
27.5341   302
27.5441   297
27.5541   281
27.5641   308
27.5741   292
27.5841   293
27.5941   308
27.6041   302
27.6141   275
27.6241   323
27.6341   291
27.6441   306
27.6541   298
27.6641   300
27.6741   284
27.6841   279
27.6941   312
27.7041   262
27.7141   270
27.7241   266
27.7341   308
27.7441   283
27.7541   302
27.7641   297
27.7741   312
27.7841   282
27.7941   294
27.8041   284
27.8141   289
27.8241   316
27.8341   317
27.8441   276
27.8541   311
27.8641   335
27.8741   298
27.8841   266
27.8941   303
27.9041   302
27.9141   306
27.9241   268
27.9341   271
27.9441   287
27.9541   269
27.9641   295
27.9741   263
27.9841   256
27.9941   297
28.0041   302
28.0141   296
28.0241   298
28.0341   307
28.0441   307
28.0541   275
28.0641   273
28.0741   262
28.0841   318
28.0941   280
28.1041   302
28.1141   272
28.1241   279
28.1341   276
28.1441   302
28.1541   286
28.1641   272
28.1741   299
28.1841   287
28.1941   270
28.2041   277
28.2141   272
28.2241   276
28.2341   278
28.2441   289
28.2541   292
28.2641   272
28.2741   266
28.2841   284
28.2941   281
28.3041   277
28.3141   281
28.3241   265
28.3341   286
28.3441   292
28.3541   288
28.3641   295
28.3741   270
28.3841   266
28.3941   265
28.4041   312
28.4141   266
28.4241   295
28.4341   278
28.4441   277
28.4541   283
28.4641   282
28.4741   287
28.4841   283
28.4941   245
28.5041   297
28.5141   259
28.5241   297
28.5341   280
28.5441   295
28.5541   271
28.5641   265
28.5741   290
28.5841   266
28.5941   270
28.6041   270
28.6141   270
28.6241   271
28.6341   258
28.6441   249
28.6541   263
28.6641   294
28.6741   253
28.6841   277
28.6941   282
28.7041   288
28.7141   264
28.7241   254
28.7341   244
28.7441   270
28.7541   269
28.7641   258
28.7741   256
28.7841   262
28.7941   269
28.8041   256
28.8141   243
28.8241   248
28.8341   244
28.8441   264
28.8541   256
28.8641   269
28.8741   268
28.8841   269
28.8941   250
28.9041   244
28.9141   251
28.9241   282
28.9341   246
28.9441   243
28.9541   266
28.9641   289
28.9741   233
28.9841   257
28.9941   242
29.0041   234
29.0141   220
29.0241   260
29.0341   263
29.0441   255
29.0541   216
29.0641   252
29.0741   267
29.0841   263
29.0941   257
29.1041   256
29.1141   265
29.1241   250
29.1341   262
29.1441   244
29.1541   257
29.1641   269
29.1741   247
29.1841   223
29.1941   266
29.2041   253
29.2141   246
29.2241   229
29.2341   231
29.2441   259
29.2541   224
29.2641   260
29.2741   212
29.2841   263
29.2941   260
29.3041   271
29.3141   240
29.3241   242
29.3341   228
29.3441   249
29.3541   252
29.3641   233
29.3741   250
29.3841   253
29.3941   223
29.4041   227
29.4141   256
29.4241   237
29.4341   218
29.4441   262
29.4541   230
29.4641   215
29.4741   237
29.4841   252
29.4941   233
29.5041   261
29.5141   245
29.5241   217
29.5341   218
29.5441   203
29.5541   246
29.5641   231
29.5741   243
29.5841   251
29.5941   244
29.6041   243
29.6141   230
29.6241   233
29.6341   233
29.6441   225
29.6541   238
29.6641   257
29.6741   242
29.6841   265
29.6941   240
29.7041   242
29.7141   245
29.7241   221
29.7341   228
29.7441   247
29.7541   228
29.7641   232
29.7741   212
29.7841   227
29.7941   227
29.8041   234
29.8141   223
29.8241   243
29.8341   237
29.8441   242
29.8541   252
29.8641   230
29.8741   239
29.8841   243
29.8941   232
29.9041   236
29.9141   207
29.9241   219
29.9341   207
29.9441   219
29.9541   210
29.9641   206
29.9741   251
29.9841   219
29.9941   218
30.0041   241
30.0141   214
30.0241   228
30.0341   221
30.0441   208
30.0541   230
30.0641   210
30.0741   206
30.0841   189
30.0941   212
30.1041   213
30.1141   232
30.1241   219
30.1341   188
30.1441   201
30.1541   192
30.1641   241
30.1741   244
30.1841   225
30.1941   190
30.2041   229
30.2141   234
30.2241   215
30.2341   224
30.2441   232
30.2541   235
30.2641   228
30.2741   216
30.2841   205
30.2941   210
30.3041   205
30.3141   223
30.3241   202
30.3341   214
30.3441   221
30.3541   219
30.3641   218
30.3741   210
30.3841   219
30.3941   203
30.4041   225
30.4141   201
30.4241   214
30.4341   198
30.4441   223
30.4541   208
30.4641   195
30.4741   226
30.4841   191
30.4941   199
30.5041   220
30.5141   203
30.5241   203
30.5341   209
30.5441   178
30.5541   216
30.5641   194
30.5741   233
30.5841   203
30.5941   206
30.6041   191
30.6141   226
30.6241   202
30.6341   210
30.6441   230
30.6541   209
30.6641   207
30.6741   204
30.6841   175
30.6941   217
30.7041   211
30.7141   207
30.7241   236
30.7341   210
30.7441   215
30.7541   213
30.7641   215
30.7741   191
30.7841   180
30.7941   182
30.8041   211
30.8141   187
30.8241   186
30.8341   193
30.8441   212
30.8541   214
30.8641   191
30.8741   212
30.8841   204
30.8941   185
30.9041   167
30.9141   184
30.9241   202
30.9341   225
30.9441   186
30.9541   203
30.9641   204
30.9741   184
30.9841   188
30.9941   195
31.0041   175
31.0141   168
31.0241   223
31.0341   197
31.0441   190
31.0541   188
31.0641   187
31.0741   176
31.0841   182
31.0941   177
31.1041   190
31.1141   203
31.1241   206
31.1341   173
31.1441   184
31.1541   203
31.1641   187
31.1741   219
31.1841   173
31.1941   191
31.2041   192
31.2141   180
31.2241   185
31.2341   187
31.2441   169
31.2541   183
31.2641   204
31.2741   209
31.2841   205
31.2941   169
31.3041   186
31.3141   199
31.3241   170
31.3341   192
31.3441   192
31.3541   231
31.3641   187
31.3741   178
31.3841   183
31.3941   170
31.4041   189
31.4141   185
31.4241   179
31.4341   174
31.4441   168
31.4541   166
31.4641   191
31.4741   182
31.4841   163
31.4941   169
31.5041   172
31.5141   176
31.5241   176
31.5341   188
31.5441   208
31.5541   185
31.5641   148
31.5741   183
31.5841   182
31.5941   175
31.6041   197
31.6141   177
31.6241   184
31.6341   191
31.6441   192
31.6541   187
31.6641   179
31.6741   189
31.6841   176
31.6941   185
31.7041   189
31.7141   172
31.7241   179
31.7341   190
31.7441   195
31.7541   188
31.7641   182
31.7741   179
31.7841   197
31.7941   194
31.8041   189
31.8141   208
31.8241   174
31.8341   195
31.8441   179
31.8541   186
31.8641   196
31.8741   203
31.8841   159
31.8941   223
31.9041   188
31.9141   215
31.9241   188
31.9341   158
31.9441   178
31.9541   174
31.9641   188
31.9741   206
31.9841   169
31.9941   172
32.0041   194
32.0141   182
32.0241   175
32.0341   176
32.0441   187
32.0541   184
32.0641   155
32.0741   165
32.0841   176
32.0941   198
32.1041   203
32.1141   184
32.1241   199
32.1341   186
32.1441   175
32.1541   179
32.1641   214
32.1741   197
32.1841   192
32.1941   168
32.2041   200
32.2141   186
32.2241   205
32.2341   204
32.2441   193
32.2541   195
32.2641   192
32.2741   189
32.2841   177
32.2941   213
32.3041   179
32.3141   173
32.3241   192
32.3341   176
32.3441   173
32.3541   186
32.3641   179
32.3741   161
32.3841   153
32.3941   140
32.4041   149
32.4141   168
32.4241   151
32.4341   167
32.4441   170
32.4541   188
32.4641   161
32.4741   157
32.4841   147
32.4941   165
32.5041   164
32.5141   161
32.5241   175
32.5341   160
32.5441   157
32.5541   135
32.5641   164
32.5741   159
32.5841   149
32.5941   140
32.6041   142
32.6141   138
32.6241   140
32.6341   145
32.6441   160
32.6541   151
32.6641   129
32.6741   115
32.6841   166
32.6941   140
32.7041   133
32.7141   130
32.7241   138
32.7341   134
32.7441   139
32.7541   139
32.7641   149
32.7741   159
32.7841   144
32.7941   139
32.8041   141
32.8141   165
32.8241   159
32.8341   131
32.8441   146
32.8541   162
32.8641   133
32.8741   154
32.8841   152
32.8941   148
32.9041   142
32.9141   144
32.9241   133
32.9341   140
32.9441   115
32.9541   119
32.9641   143
32.9741   140
32.9841   136
32.9941   148
33.0041   130
33.0141   134
33.0241   148
33.0341   148
33.0441   141
33.0541   136
33.0641   132
33.0741   154
33.0841   132
33.0941   159
33.1041   139
33.1141   150
33.1241   121
33.1341   150
33.1441   134
33.1541   134
33.1641   122
33.1741   134
33.1841   123
33.1941   143
33.2041   134
33.2141   133
33.2241   124
33.2341   137
33.2441   130
33.2541   138
33.2641   127
33.2741   130
33.2841   134
33.2941   142
33.3041   134
33.3141   145
33.3241   151
33.3341   143
33.3441   137
33.3541   140
33.3641   135
33.3741   147
33.3841   120
33.3941   129
33.4041   138
33.4141   136
33.4241   148
33.4341   146
33.4441   131
33.4541   145
33.4641   130
33.4741   121
33.4841   141
33.4941   137
33.5041   125
33.5141   136
33.5241   134
33.5341   149
33.5441   120
33.5541   130
33.5641   121
33.5741   132
33.5841   123
33.5941   130
33.6041   120
33.6141   102
33.6241   118
33.6341   131
33.6441   149
33.6541   128
33.6641   119
33.6741   122
33.6841   140
33.6941   132
33.7041   113
33.7141   130
33.7241   139
33.7341   128
33.7441   141
33.7541   125
33.7641   126
33.7741   132
33.7841   145
33.7941   127
33.8041   123
33.8141   115
33.8241   111
33.8341   124
33.8441   121
33.8541   130
33.8641   124
33.8741   148
33.8841   122
33.8941   132
33.9041   123
33.9141   106
33.9241   125
33.9341   103
33.9441   117
33.9541   111
33.9641   125
33.9741   128
33.9841   126
33.9941   114
34.0041   128
34.0141   116
34.0241   110
34.0341   113
34.0441   115
34.0541   118
34.0641   101
34.0741   110
34.0841   114
34.0941   134
34.1041   119
34.1141   116
34.1241   108
34.1341   119
34.1441    98
34.1541   114
34.1641   114
34.1741   100
34.1841   109
34.1941   117
34.2041   118
34.2141   108
34.2241   129
34.2341   100
34.2441   118
34.2541   116
34.2641   105
34.2741   115
34.2841   114
34.2941   130
34.3041   105
34.3141   102
34.3241   107
34.3341   121
34.3441   122
34.3541   122
34.3641   124
34.3741   106
34.3841   103
34.3941   107
34.4041   125
34.4141   118
34.4241   109
34.4341   105
34.4441   101
34.4541    85
34.4641   101
34.4741   120
34.4841   125
34.4941   113
34.5041    98
34.5141   132
34.5241   102
34.5341   111
34.5441   104
34.5541   113
34.5641    91
34.5741   103
34.5841   112
34.5941   102
34.6041   113
34.6141    93
34.6241    98
34.6341   108
34.6441    97
34.6541   124
34.6641   100
34.6741   124
34.6841   102
34.6941   109
34.7041    89
34.7141   103
34.7241   113
34.7341   103
34.7441    80
34.7541   105
34.7641    97
34.7741    86
34.7841    95
34.7941   105
34.8041    92
34.8141   101
34.8241    83
34.8341    89
34.8441    99
34.8541   110
34.8641   107
34.8741    93
34.8841    97
34.8941    95
34.9041    99
34.9141    82
34.9241   102
34.9341   108
34.9441    92
34.9541    90
34.9641   104
34.9741    97
34.9841    98
34.9941    95
35.0041    98
35.0141   110
35.0241    95
35.0341    94
35.0441   116
35.0541    69
35.0641    95
35.0741    95
35.0841    94
35.0941    98
35.1041   102
35.1141   104
35.1241    97
35.1341   102
35.1441    99
35.1541    85
35.1641    76
35.1741    92
35.1841    77
35.1941    95
35.2041    83
35.2141    78
35.2241   112
35.2341    90
35.2441    99
35.2541    92
35.2641    92
35.2741   108
35.2841    73
35.2941    75
35.3041    91
35.3141    88
35.3241   104
35.3341    90
35.3441    84
35.3541    97
35.3641    82
35.3741    88
35.3841    90
35.3941    74
35.4041    74
35.4141    83
35.4241    75
35.4341    77
35.4441    76
35.4541    79
35.4641    78
35.4741    99
35.4841    91
35.4941    94
35.5041    79
35.5141    95
35.5241    86
35.5341    86
35.5441    84
35.5541    68
35.5641    84
35.5741    98
35.5841   105
35.5941    79
35.6041    90
35.6141    90
35.6241    88
35.6341    84
35.6441   101
35.6541    72
35.6641    83
35.6741    94
35.6841    84
35.6941    95
35.7041   100
35.7141    86
35.7241    94
35.7341    76
35.7441    95
35.7541    82
35.7641    66
35.7741    82
35.7841    78
35.7941    82
35.8041    73
35.8141    72
35.8241    73
35.8341    91
35.8441    82
35.8541    86
35.8641    81
35.8741    71
35.8841    76
35.8941    63
35.9041    92
35.9141    99
35.9241    70
35.9341    82
35.9441    82
35.9541    84
35.9641    79
35.9741    83
35.9841    55
35.9941   101
36.0041    95
36.0141    61
36.0241    72
36.0341    77
36.0441    86
36.0541    73
36.0641    73
36.0741    64
36.0841    72
36.0941    80
36.1041    72
36.1141    70
36.1241    74
36.1341    76
36.1441    76
36.1541    63
36.1641    90
36.1741    80
36.1841    87
36.1941    70
36.2041    78
36.2141    80
36.2241    85
36.2341    87
36.2441    83
36.2541    86
36.2641    76
36.2741    75
36.2841    70
36.2941    80
36.3041    84
36.3141    87
36.3241    73
36.3341    75
36.3441    86
36.3541    89
36.3641    91
36.3741    90
36.3841    76
36.3941    69
36.4041    71
36.4141    79
36.4241    79
36.4341    78
36.4441    81
36.4541    71
36.4641    78
36.4741    63
36.4841    90
36.4941    81
36.5041    67
36.5141    59
36.5241    65
36.5341    63
36.5441    62
36.5541    50
36.5641    67
36.5741    81
36.5841    62
36.5941    80
36.6041    83
36.6141    85
36.6241    71
36.6341    72
36.6441    53
36.6541    54
36.6641    53
36.6741    54
36.6841    66
36.6941    73
36.7041    65
36.7141    78
36.7241    62
36.7341    63
36.7441    63
36.7541    79
36.7641    58
36.7741    77
36.7841    82
36.7941    76
36.8041    61
36.8141    73
36.8241    79
36.8341    66
36.8441    69
36.8541    60
36.8641    73
36.8741    63
36.8841    73
36.8941    70
36.9041    69
36.9141    60
36.9241    65
36.9341    49
36.9441    60
36.9541    63
36.9641    72
36.9741    58
36.9841    57
36.9941    45
37.0041    56
37.0141    62
37.0241    55
37.0341    67
37.0441    71
37.0541    65
37.0641    56
37.0741    68
37.0841    59
37.0941    59
37.1041    72
37.1141    59
37.1241    66
37.1341    59
37.1441    65
37.1541    68
37.1641    53
37.1741    54
37.1841    80
37.1941    41
37.2041    56
37.2141    52
37.2241    53
37.2341    62
37.2441    52
37.2541    69
37.2641    58
37.2741    67
37.2841    53
37.2941    68
37.3041    65
37.3141    69
37.3241    51
37.3341    57
37.3441    76
37.3541    67
37.3641    67
37.3741    54
37.3841    60
37.3941    48
37.4041    48
37.4141    54
37.4241    60
37.4341    52
37.4441    55
37.4541    57
37.4641    48
37.4741    60
37.4841    61
37.4941    63
37.5041    68
37.5141    50
37.5241    54
37.5341    58
37.5441    63
37.5541    46
37.5641    56
37.5741    59
37.5841    53
37.5941    59
37.6041    58
37.6141    59
37.6241    49
37.6341    43
37.6441    58
37.6541    45
37.6641    55
37.6741    61
37.6841    48
37.6941    56
37.7041    53
37.7141    57
37.7241    51
37.7341    56
37.7441    52
37.7541    56
37.7641    57
37.7741    47
37.7841    52
37.7941    54
37.8041    49
37.8141    57
37.8241    49
37.8341    57
37.8441    52
37.8541    57
37.8641    50
37.8741    43
37.8841    50
37.8941    51
37.9041    54
37.9141    51
37.9241    56
37.9341    45
37.9441    39
37.9541    44
37.9641    60
37.9741    61
37.9841    50
37.9941    60
38.0041    50
38.0141    53
38.0241    36
38.0341    38
38.0441    51
38.0541    55
38.0641    44
38.0741    42
38.0841    38
38.0941    56
38.1041    42
38.1141    49
38.1241    45
38.1341    51
38.1441    39
38.1541    28
38.1641    61
38.1741    52
38.1841    45
38.1941    47
38.2041    41
38.2141    48
38.2241    50
38.2341    48
38.2441    53
38.2541    42
38.2641    56
38.2741    41
38.2841    46
38.2941    43
38.3041    50
38.3141    47
38.3241    40
38.3341    46
38.3441    51
38.3541    43
38.3641    37
38.3741    42
38.3841    53
38.3941    41
38.4041    31
38.4141    56
38.4241    56
38.4341    42
38.4441    37
38.4541    35
38.4641    34
38.4741    44
38.4841    42
38.4941    32
38.5041    44
38.5141    59
38.5241    45
38.5341    38
38.5441    42
38.5541    44
38.5641    50
38.5741    36
38.5841    34
38.5941    39
38.6041    32
38.6141    42
38.6241    37
38.6341    43
38.6441    42
38.6541    30
38.6641    45
38.6741    50
38.6841    49
38.6941    46
38.7041    49
38.7141    41
38.7241    35
38.7341    31
38.7441    42
38.7541    41
38.7641    36
38.7741    41
38.7841    38
38.7941    20
38.8041    44
38.8141    45
38.8241    40
38.8341    34
38.8441    31
38.8541    35
38.8641    45
38.8741    38
38.8841    40
38.8941    48
38.9041    37
38.9141    45
38.9241    37
38.9341    45
38.9441    32
38.9541    30
38.9641    32
38.9741    46
38.9841    29
38.9941    35
39.0041    34
39.0141    32
39.0241    30
39.0341    44
39.0441    28
39.0541    42
39.0641    29
39.0741    27
39.0841    36
39.0941    46
39.1041    22
39.1141    31
39.1241    25
39.1341    26
39.1441    26
39.1541    42
39.1641    33
39.1741    24
39.1841    37
39.1941    34
39.2041    28
39.2141    35
39.2241    28
39.2341    33
39.2441    40
39.2541    27
39.2641    36
39.2741    30
39.2841    42
39.2941    30
39.3041    35
39.3141    23
39.3241    27
39.3341    37
39.3441    40
39.3541    39
39.3641    33
39.3741    34
39.3841    37
39.3941    35
39.4041    31
39.4141    26
39.4241    30
39.4341    31
39.4441    34
39.4541    35
39.4641    30
39.4741    27
39.4841    31
39.4941    38
39.5041    31
39.5141    22
39.5241    26
39.5341    19
39.5441    30
39.5541    27
39.5641    32
39.5741    36
39.5841    30
39.5941    26
39.6041    32
39.6141    39
39.6241    24
39.6341    30
39.6441    38
39.6541    26
39.6641    27
39.6741    37
39.6841    40
39.6941    39
39.7041    26
39.7141    19
39.7241    23
39.7341    23
39.7441    26
39.7541    26
39.7641    27
39.7741    27
39.7841    23
39.7941    23
39.8041    21
39.8141    39
39.8241    27
39.8341    25
39.8441    30
39.8541    33
39.8641    25
39.8741    32
39.8841    30
39.8941    27
39.9041    31
39.9141    24
39.9241    24
39.9341    31
39.9441    28
39.9541    23
39.9641    22
39.9741    24
39.9841    23
