Bruker Nano GmbH Berlin, Germany
Esprit 1.9

Date: 5/14/2021 3:52:09 PM
Real time: 22655
Life time: 21283
Pulse density: 85683


Detector type: XFlash 430
Window type: Custom type
Detector thickness: 0.45
Si dead layer:0.029

Calibration, lin.: 10
Calibration, abs.: -955.9
Mn FWHM: 137.05
Fano factor: 0.121
Channels: 4096

Energy Counts
-0.9559     0
-0.9459     0
-0.9359     0
-0.9259     0
-0.9159     0
-0.9059     0
-0.8959     0
-0.8859     0
-0.8759     0
-0.8659     0
-0.8559     0
-0.8459     0
-0.8359     0
-0.8259     0
-0.8159     0
-0.8059     0
-0.7959     0
-0.7859     0
-0.7759     0
-0.7659     0
-0.7559     0
-0.7459     0
-0.7359     0
-0.7259     0
-0.7159     0
-0.7059     0
-0.6959     0
-0.6859     0
-0.6759     0
-0.6659     0
-0.6559     0
-0.6459     0
-0.6359     0
-0.6259     0
-0.6159     0
-0.6059     0
-0.5959     0
-0.5859     0
-0.5759     0
-0.5659     0
-0.5559     0
-0.5459     0
-0.5359     0
-0.5259     0
-0.5159     0
-0.5059     0
-0.4959     0
-0.4859     0
-0.4759     0
-0.4659     0
-0.4559     0
-0.4459     0
-0.4359     0
-0.4259     0
-0.4159     0
-0.4059     0
-0.3959     0
-0.3859     0
-0.3759     0
-0.3659     0
-0.3559     0
-0.3459     0
-0.3359     0
-0.3259     0
-0.3159     0
-0.3059     0
-0.2959     0
-0.2859     0
-0.2759     0
-0.2659     0
-0.2559     0
-0.2459     0
-0.2359     0
-0.2259     0
-0.2159     0
-0.2059     0
-0.1959     0
-0.1859     0
-0.1759     0
-0.1659     0
-0.1559     0
-0.1459     0
-0.1359     0
-0.1259     2
-0.1159     2
-0.1059    10
-0.0959    65
-0.0859   230
-0.0759   876
-0.0659  2434
-0.0559  6247
-0.0459 13591
-0.0359 25562
-0.0259 40931
-0.0159 55271
-0.0059 64763
 0.0041 65649
 0.0141 56491
 0.0241 41596
 0.0341 26357
 0.0441 14257
 0.0541  6748
 0.0641  2719
 0.0741   947
 0.0841   307
 0.0941    86
 0.1041    16
 0.1141    10
 0.1241     6
 0.1341     5
 0.1441     4
 0.1541    10
 0.1641     2
 0.1741    25
 0.1841   200
 0.1941   448
 0.2041   366
 0.2141   403
 0.2241   406
 0.2341   388
 0.2441   365
 0.2541   410
 0.2641   400
 0.2741   400
 0.2841   379
 0.2941   376
 0.3041   410
 0.3141   382
 0.3241   373
 0.3341   382
 0.3441   374
 0.3541   344
 0.3641   376
 0.3741   337
 0.3841   326
 0.3941   358
 0.4041   361
 0.4141   353
 0.4241   343
 0.4341   334
 0.4441   358
 0.4541   358
 0.4641   363
 0.4741   347
 0.4841   358
 0.4941   337
 0.5041   338
 0.5141   325
 0.5241   323
 0.5341   330
 0.5441   339
 0.5541   336
 0.5641   326
 0.5741   307
 0.5841   324
 0.5941   318
 0.6041   282
 0.6141   304
 0.6241   332
 0.6341   323
 0.6441   301
 0.6541   304
 0.6641   301
 0.6741   299
 0.6841   290
 0.6941   288
 0.7041   298
 0.7141   294
 0.7241   302
 0.7341   312
 0.7441   291
 0.7541   294
 0.7641   292
 0.7741   289
 0.7841   300
 0.7941   288
 0.8041   275
 0.8141   290
 0.8241   281
 0.8341   278
 0.8441   293
 0.8541   309
 0.8641   296
 0.8741   275
 0.8841   279
 0.8941   312
 0.9041   285
 0.9141   265
 0.9241   271
 0.9341   256
 0.9441   247
 0.9541   268
 0.9641   248
 0.9741   250
 0.9841   257
 0.9941   260
 1.0041   263
 1.0141   257
 1.0241   256
 1.0341   274
 1.0441   255
 1.0541   242
 1.0641   253
 1.0741   248
 1.0841   246
 1.0941   270
 1.1041   222
 1.1141   259
 1.1241   273
 1.1341   262
 1.1441   243
 1.1541   253
 1.1641   240
 1.1741   220
 1.1841   247
 1.1941   244
 1.2041   231
 1.2141   234
 1.2241   231
 1.2341   252
 1.2441   230
 1.2541   259
 1.2641   250
 1.2741   235
 1.2841   210
 1.2941   211
 1.3041   229
 1.3141   239
 1.3241   235
 1.3341   213
 1.3441   232
 1.3541   218
 1.3641   252
 1.3741   251
 1.3841   250
 1.3941   204
 1.4041   219
 1.4141   256
 1.4241   206
 1.4341   237
 1.4441   227
 1.4541   240
 1.4641   250
 1.4741   220
 1.4841   223
 1.4941   229
 1.5041   260
 1.5141   234
 1.5241   216
 1.5341   225
 1.5441   222
 1.5541   231
 1.5641   216
 1.5741   211
 1.5841   227
 1.5941   243
 1.6041   239
 1.6141   227
 1.6241   212
 1.6341   225
 1.6441   233
 1.6541   272
 1.6641   324
 1.6741   357
 1.6841   438
 1.6941   541
 1.7041   642
 1.7141   747
 1.7241   819
 1.7341   830
 1.7441   886
 1.7541   797
 1.7641   702
 1.7741   665
 1.7841   557
 1.7941   472
 1.8041   407
 1.8141   345
 1.8241   318
 1.8341   284
 1.8441   278
 1.8541   289
 1.8641   274
 1.8741   235
 1.8841   245
 1.8941   232
 1.9041   222
 1.9141   213
 1.9241   242
 1.9341   242
 1.9441   238
 1.9541   229
 1.9641   260
 1.9741   245
 1.9841   253
 1.9941   261
 2.0041   282
 2.0141   271
 2.0241   260
 2.0341   256
 2.0441   243
 2.0541   224
 2.0641   222
 2.0741   251
 2.0841   249
 2.0941   231
 2.1041   254
 2.1141   228
 2.1241   212
 2.1341   192
 2.1441   194
 2.1541   199
 2.1641   207
 2.1741   201
 2.1841   181
 2.1941   207
 2.2041   229
 2.2141   190
 2.2241   179
 2.2341   201
 2.2441   166
 2.2541   196
 2.2641   193
 2.2741   211
 2.2841   178
 2.2941   187
 2.3041   192
 2.3141   187
 2.3241   189
 2.3341   198
 2.3441   197
 2.3541   186
 2.3641   190
 2.3741   194
 2.3841   201
 2.3941   189
 2.4041   190
 2.4141   195
 2.4241   193
 2.4341   169
 2.4441   184
 2.4541   162
 2.4641   177
 2.4741   194
 2.4841   174
 2.4941   176
 2.5041   161
 2.5141   156
 2.5241   190
 2.5341   164
 2.5441   176
 2.5541   186
 2.5641   172
 2.5741   180
 2.5841   178
 2.5941   166
 2.6041   159
 2.6141   186
 2.6241   164
 2.6341   167
 2.6441   188
 2.6541   176
 2.6641   169
 2.6741   170
 2.6841   174
 2.6941   154
 2.7041   156
 2.7141   159
 2.7241   163
 2.7341   174
 2.7441   154
 2.7541   170
 2.7641   181
 2.7741   179
 2.7841   159
 2.7941   173
 2.8041   188
 2.8141   148
 2.8241   182
 2.8341   164
 2.8441   162
 2.8541   191
 2.8641   186
 2.8741   157
 2.8841   180
 2.8941   167
 2.9041   146
 2.9141   173
 2.9241   168
 2.9341   164
 2.9441   154
 2.9541   141
 2.9641   158
 2.9741   172
 2.9841   173
 2.9941   161
 3.0041   149
 3.0141   145
 3.0241   146
 3.0341   154
 3.0441   142
 3.0541   146
 3.0641   160
 3.0741   158
 3.0841   151
 3.0941   136
 3.1041   128
 3.1141   135
 3.1241   149
 3.1341   132
 3.1441   158
 3.1541   118
 3.1641   119
 3.1741   130
 3.1841   126
 3.1941   142
 3.2041   155
 3.2141   135
 3.2241   126
 3.2341   155
 3.2441   156
 3.2541   172
 3.2641   177
 3.2741   176
 3.2841   192
 3.2941   219
 3.3041   237
 3.3141   229
 3.3241   199
 3.3341   205
 3.3441   176
 3.3541   188
 3.3641   171
 3.3741   170
 3.3841   143
 3.3941   131
 3.4041   144
 3.4141   126
 3.4241   122
 3.4341   121
 3.4441   122
 3.4541   108
 3.4641   112
 3.4741   103
 3.4841   137
 3.4941   143
 3.5041   142
 3.5141   129
 3.5241   134
 3.5341   140
 3.5441   164
 3.5541   161
 3.5641   176
 3.5741   201
 3.5841   263
 3.5941   361
 3.6041   430
 3.6141   504
 3.6241   678
 3.6341   815
 3.6441   987
 3.6541  1166
 3.6641  1322
 3.6741  1430
 3.6841  1424
 3.6941  1410
 3.7041  1376
 3.7141  1365
 3.7241  1167
 3.7341   990
 3.7441   833
 3.7541   657
 3.7641   553
 3.7741   383
 3.7841   306
 3.7941   240
 3.8041   182
 3.8141   169
 3.8241   141
 3.8341   140
 3.8441   132
 3.8541   121
 3.8641   104
 3.8741   100
 3.8841   118
 3.8941   128
 3.9041   153
 3.9141   132
 3.9241   154
 3.9341   164
 3.9441   170
 3.9541   201
 3.9641   220
 3.9741   236
 3.9841   281
 3.9941   261
 4.0041   306
 4.0141   306
 4.0241   292
 4.0341   270
 4.0441   268
 4.0541   222
 4.0641   223
 4.0741   206
 4.0841   173
 4.0941   155
 4.1041   145
 4.1141   126
 4.1241   122
 4.1341   102
 4.1441   115
 4.1541    96
 4.1641    90
 4.1741    91
 4.1841    94
 4.1941   103
 4.2041    95
 4.2141    85
 4.2241    93
 4.2341    93
 4.2441   105
 4.2541    93
 4.2641    98
 4.2741    88
 4.2841    79
 4.2941    83
 4.3041    79
 4.3141    89
 4.3241    89
 4.3341    97
 4.3441    80
 4.3541    84
 4.3641    97
 4.3741    99
 4.3841    92
 4.3941    97
 4.4041   102
 4.4141   104
 4.4241   116
 4.4341   117
 4.4441   134
 4.4541   166
 4.4641   179
 4.4741   172
 4.4841   185
 4.4941   189
 4.5041   150
 4.5141   175
 4.5241   165
 4.5341   183
 4.5441   165
 4.5541   157
 4.5641   126
 4.5741   146
 4.5841   124
 4.5941   107
 4.6041   101
 4.6141   102
 4.6241   120
 4.6341   115
 4.6441   112
 4.6541   119
 4.6641    95
 4.6741    88
 4.6841    90
 4.6941    96
 4.7041   107
 4.7141   102
 4.7241    87
 4.7341    86
 4.7441    86
 4.7541    95
 4.7641    90
 4.7741    79
 4.7841    78
 4.7941    94
 4.8041    90
 4.8141    86
 4.8241    86
 4.8341    92
 4.8441    90
 4.8541    96
 4.8641    92
 4.8741    84
 4.8841    89
 4.8941   109
 4.9041    91
 4.9141   101
 4.9241   125
 4.9341   120
 4.9441   124
 4.9541   111
 4.9641   103
 4.9741   101
 4.9841   113
 4.9941   109
 5.0041   111
 5.0141   128
 5.0241   107
 5.0341   108
 5.0441   104
 5.0541    95
 5.0641   110
 5.0741   112
 5.0841    95
 5.0941   107
 5.1041    91
 5.1141    86
 5.1241    98
 5.1341   107
 5.1441    97
 5.1541    99
 5.1641   105
 5.1741   113
 5.1841    92
 5.1941    99
 5.2041    76
 5.2141   102
 5.2241   108
 5.2341   112
 5.2441    98
 5.2541   104
 5.2641    87
 5.2741    97
 5.2841    94
 5.2941    87
 5.3041   111
 5.3141   108
 5.3241   116
 5.3341   117
 5.3441    99
 5.3541   122
 5.3641   117
 5.3741   113
 5.3841   114
 5.3941   106
 5.4041   112
 5.4141   115
 5.4241   118
 5.4341   113
 5.4441   123
 5.4541   107
 5.4641   110
 5.4741   105
 5.4841    94
 5.4941   114
 5.5041    92
 5.5141    97
 5.5241   106
 5.5341    82
 5.5441    94
 5.5541    85
 5.5641    95
 5.5741   113
 5.5841   109
 5.5941   107
 5.6041    88
 5.6141   116
 5.6241   117
 5.6341    84
 5.6441    92
 5.6541   109
 5.6641   111
 5.6741   123
 5.6841   112
 5.6941   107
 5.7041   126
 5.7141   122
 5.7241   106
 5.7341   112
 5.7441   113
 5.7541   120
 5.7641   113
 5.7741   124
 5.7841   125
 5.7941   113
 5.8041   117
 5.8141   143
 5.8241   129
 5.8341   163
 5.8441   161
 5.8541   151
 5.8641   166
 5.8741   178
 5.8841   168
 5.8941   161
 5.9041   152
 5.9141   167
 5.9241   164
 5.9341   174
 5.9441   141
 5.9541   145
 5.9641   135
 5.9741   147
 5.9841   145
 5.9941   113
 6.0041   123
 6.0141   131
 6.0241   134
 6.0341   138
 6.0441   132
 6.0541   104
 6.0641   130
 6.0741   118
 6.0841   158
 6.0941   130
 6.1041   122
 6.1141    99
 6.1241   116
 6.1341   130
 6.1441   132
 6.1541   127
 6.1641   141
 6.1741   148
 6.1841   146
 6.1941   137
 6.2041   140
 6.2141   161
 6.2241   202
 6.2341   258
 6.2441   299
 6.2541   394
 6.2641   506
 6.2741   713
 6.2841   859
 6.2941  1115
 6.3041  1442
 6.3141  1736
 6.3241  2110
 6.3341  2521
 6.3441  3105
 6.3541  3439
 6.3641  3835
 6.3741  4147
 6.3841  4239
 6.3941  4383
 6.4041  4253
 6.4141  4167
 6.4241  3898
 6.4341  3653
 6.4441  3339
 6.4541  2954
 6.4641  2420
 6.4741  1954
 6.4841  1648
 6.4941  1371
 6.5041  1042
 6.5141   819
 6.5241   641
 6.5341   469
 6.5441   352
 6.5541   325
 6.5641   228
 6.5741   205
 6.5841   195
 6.5941   151
 6.6041   154
 6.6141   136
 6.6241   150
 6.6341   142
 6.6441   143
 6.6541   145
 6.6641   118
 6.6741   160
 6.6841   123
 6.6941   122
 6.7041   131
 6.7141   118
 6.7241   144
 6.7341   152
 6.7441   159
 6.7541   134
 6.7641   176
 6.7741   160
 6.7841   148
 6.7941   171
 6.8041   176
 6.8141   164
 6.8241   176
 6.8341   155
 6.8441   149
 6.8541   217
 6.8641   175
 6.8741   183
 6.8841   196
 6.8941   240
 6.9041   246
 6.9141   254
 6.9241   303
 6.9341   271
 6.9441   348
 6.9541   366
 6.9641   434
 6.9741   491
 6.9841   577
 6.9941   588
 7.0041   683
 7.0141   762
 7.0241   791
 7.0341   857
 7.0441   806
 7.0541   896
 7.0641   898
 7.0741   869
 7.0841   840
 7.0941   765
 7.1041   723
 7.1141   635
 7.1241   554
 7.1341   510
 7.1441   448
 7.1541   388
 7.1641   334
 7.1741   305
 7.1841   261
 7.1941   250
 7.2041   230
 7.2141   244
 7.2241   226
 7.2341   218
 7.2441   236
 7.2541   245
 7.2641   241
 7.2741   239
 7.2841   266
 7.2941   231
 7.3041   239
 7.3141   240
 7.3241   243
 7.3341   258
 7.3441   276
 7.3541   299
 7.3641   305
 7.3741   259
 7.3841   281
 7.3941   289
 7.4041   291
 7.4141   308
 7.4241   283
 7.4341   301
 7.4441   261
 7.4541   246
 7.4641   268
 7.4741   255
 7.4841   251
 7.4941   273
 7.5041   225
 7.5141   229
 7.5241   203
 7.5341   240
 7.5441   245
 7.5541   245
 7.5641   227
 7.5741   248
 7.5841   220
 7.5941   215
 7.6041   215
 7.6141   254
 7.6241   230
 7.6341   198
 7.6441   238
 7.6541   254
 7.6641   226
 7.6741   243
 7.6841   256
 7.6941   245
 7.7041   266
 7.7141   256
 7.7241   295
 7.7341   255
 7.7441   265
 7.7541   258
 7.7641   316
 7.7741   272
 7.7841   333
 7.7941   301
 7.8041   299
 7.8141   323
 7.8241   319
 7.8341   322
 7.8441   341
 7.8541   347
 7.8641   373
 7.8741   369
 7.8841   368
 7.8941   415
 7.9041   375
 7.9141   426
 7.9241   439
 7.9341   497
 7.9441   488
 7.9541   520
 7.9641   513
 7.9741   570
 7.9841   607
 7.9941   662
 8.0041   704
 8.0141   742
 8.0241   828
 8.0341   900
 8.0441   979
 8.0541  1012
 8.0641  1034
 8.0741  1125
 8.0841  1211
 8.0941  1258
 8.1041  1311
 8.1141  1401
 8.1241  1394
 8.1341  1499
 8.1441  1496
 8.1541  1603
 8.1641  1719
 8.1741  1565
 8.1841  1665
 8.1941  1656
 8.2041  1635
 8.2141  1802
 8.2241  1705
 8.2341  1768
 8.2441  1810
 8.2541  1838
 8.2641  1950
 8.2741  2023
 8.2841  2121
 8.2941  2425
 8.3041  2597
 8.3141  2777
 8.3241  2906
 8.3341  3030
 8.3441  3351
 8.3541  3499
 8.3641  3664
 8.3741  3652
 8.3841  3703
 8.3941  3761
 8.4041  3619
 8.4141  3444
 8.4241  3290
 8.4341  3139
 8.4441  2830
 8.4541  2482
 8.4641  2262
 8.4741  1956
 8.4841  1737
 8.4941  1453
 8.5041  1231
 8.5141  1062
 8.5241   903
 8.5341   777
 8.5441   608
 8.5541   556
 8.5641   531
 8.5741   472
 8.5841   427
 8.5941   427
 8.6041   453
 8.6141   407
 8.6241   398
 8.6341   431
 8.6441   392
 8.6541   373
 8.6641   393
 8.6741   389
 8.6841   379
 8.6941   408
 8.7041   380
 8.7141   390
 8.7241   384
 8.7341   394
 8.7441   391
 8.7541   420
 8.7641   399
 8.7741   380
 8.7841   360
 8.7941   389
 8.8041   390
 8.8141   390
 8.8241   376
 8.8341   388
 8.8441   356
 8.8541   362
 8.8641   393
 8.8741   391
 8.8841   383
 8.8941   432
 8.9041   428
 8.9141   385
 8.9241   423
 8.9341   392
 8.9441   440
 8.9541   453
 8.9641   469
 8.9741   448
 8.9841   445
 8.9941   466
 9.0041   516
 9.0141   461
 9.0241   485
 9.0341   518
 9.0441   492
 9.0541   546
 9.0641   566
 9.0741   575
 9.0841   548
 9.0941   619
 9.1041   650
 9.1141   648
 9.1241   687
 9.1341   698
 9.1441   691
 9.1541   746
 9.1641   779
 9.1741   843
 9.1841   802
 9.1941   861
 9.2041   939
 9.2141   949
 9.2241   960
 9.2341  1066
 9.2441  1100
 9.2541  1106
 9.2641  1148
 9.2741  1208
 9.2841  1295
 9.2941  1359
 9.3041  1377
 9.3141  1396
 9.3241  1479
 9.3341  1526
 9.3441  1563
 9.3541  1627
 9.3641  1642
 9.3741  1692
 9.3841  1703
 9.3941  1737
 9.4041  1760
 9.4141  1761
 9.4241  1794
 9.4341  1775
 9.4441  1757
 9.4541  1820
 9.4641  1877
 9.4741  1846
 9.4841  1888
 9.4941  1922
 9.5041  1990
 9.5141  1977
 9.5241  2048
 9.5341  2153
 9.5441  2276
 9.5541  2404
 9.5641  2533
 9.5741  2696
 9.5841  2836
 9.5941  3067
 9.6041  3172
 9.6141  3435
 9.6241  3584
 9.6341  3737
 9.6441  3785
 9.6541  3779
 9.6641  3817
 9.6741  3781
 9.6841  3722
 9.6941  3619
 9.7041  3490
 9.7141  3374
 9.7241  3172
 9.7341  2983
 9.7441  2746
 9.7541  2550
 9.7641  2382
 9.7741  2165
 9.7841  2005
 9.7941  1846
 9.8041  1729
 9.8141  1716
 9.8241  1570
 9.8341  1588
 9.8441  1531
 9.8541  1576
 9.8641  1537
 9.8741  1539
 9.8841  1501
 9.8941  1642
 9.9041  1690
 9.9141  1715
 9.9241  1756
 9.9341  1841
 9.9441  1860
 9.9541  1853
 9.9641  1719
 9.9741  1674
 9.9841  1710
 9.9941  1571
10.0041  1551
10.0141  1421
10.0241  1314
10.0341  1223
10.0441  1102
10.0541  1015
10.0641   941
10.0741   835
10.0841   745
10.0941   689
10.1041   627
10.1141   556
10.1241   510
10.1341   431
10.1441   424
10.1541   392
10.1641   357
10.1741   335
10.1841   361
10.1941   349
10.2041   301
10.2141   297
10.2241   287
10.2341   277
10.2441   280
10.2541   282
10.2641   265
10.2741   245
10.2841   247
10.2941   248
10.3041   241
10.3141   237
10.3241   225
10.3341   226
10.3441   229
10.3541   210
10.3641   231
10.3741   228
10.3841   237
10.3941   227
10.4041   208
10.4141   214
10.4241   230
10.4341   229
10.4441   222
10.4541   219
10.4641   219
10.4741   217
10.4841   224
10.4941   248
10.5041   229
10.5141   219
10.5241   244
10.5341   243
10.5441   250
10.5541   233
10.5641   218
10.5741   215
10.5841   239
10.5941   263
10.6041   247
10.6141   258
10.6241   260
10.6341   237
10.6441   274
10.6541   277
10.6641   246
10.6741   249
10.6841   288
10.6941   309
10.7041   307
10.7141   278
10.7241   272
10.7341   282
10.7441   297
10.7541   306
10.7641   351
10.7741   342
10.7841   335
10.7941   339
10.8041   344
10.8141   365
10.8241   375
10.8341   383
10.8441   388
10.8541   384
10.8641   407
10.8741   437
10.8841   424
10.8941   400
10.9041   416
10.9141   401
10.9241   419
10.9341   421
10.9441   403
10.9541   403
10.9641   431
10.9741   418
10.9841   379
10.9941   396
11.0041   388
11.0141   403
11.0241   368
11.0341   356
11.0441   374
11.0541   379
11.0641   373
11.0741   342
11.0841   338
11.0941   334
11.1041   363
11.1141   375
11.1241   376
11.1341   359
11.1441   384
11.1541   396
11.1641   380
11.1741   399
11.1841   399
11.1941   403
11.2041   448
11.2141   481
11.2241   483
11.2341   505
11.2441   507
11.2541   519
11.2641   533
11.2741   526
11.2841   519
11.2941   528
11.3041   527
11.3141   485
11.3241   466
11.3341   460
11.3441   444
11.3541   461
11.3641   425
11.3741   403
11.3841   376
11.3941   363
11.4041   349
11.4141   337
11.4241   318
11.4341   304
11.4441   302
11.4541   278
11.4641   256
11.4741   287
11.4841   264
11.4941   285
11.5041   306
11.5141   291
11.5241   269
11.5341   256
11.5441   281
11.5541   293
11.5641   288
11.5741   275
11.5841   304
11.5941   287
11.6041   275
11.6141   298
11.6241   301
11.6341   275
11.6441   272
11.6541   303
11.6641   286
11.6741   255
11.6841   288
11.6941   296
11.7041   255
11.7141   237
11.7241   243
11.7341   232
11.7441   253
11.7541   242
11.7641   222
11.7741   218
11.7841   206
11.7941   225
11.8041   232
11.8141   227
11.8241   209
11.8341   213
11.8441   208
11.8541   218
11.8641   231
11.8741   216
11.8841   220
11.8941   230
11.9041   214
11.9141   216
11.9241   222
11.9341   205
11.9441   220
11.9541   223
11.9641   218
11.9741   216
11.9841   214
11.9941   205
12.0041   200
12.0141   227
12.0241   238
12.0341   233
12.0441   231
12.0541   239
12.0641   222
12.0741   217
12.0841   214
12.0941   207
12.1041   193
12.1141   192
12.1241   204
12.1341   220
12.1441   231
12.1541   215
12.1641   202
12.1741   205
12.1841   210
12.1941   227
12.2041   206
12.2141   212
12.2241   199
12.2341   181
12.2441   202
12.2541   205
12.2641   208
12.2741   211
12.2841   201
12.2941   196
12.3041   218
12.3141   219
12.3241   215
12.3341   212
12.3441   191
12.3541   221
12.3641   243
12.3741   215
12.3841   198
12.3941   221
12.4041   223
12.4141   200
12.4241   197
12.4341   185
12.4441   203
12.4541   219
12.4641   200
12.4741   205
12.4841   212
12.4941   225
12.5041   209
12.5141   185
12.5241   188
12.5341   208
12.5441   198
12.5541   198
12.5641   205
12.5741   221
12.5841   229
12.5941   226
12.6041   218
12.6141   192
12.6241   209
12.6341   226
12.6441   219
12.6541   207
12.6641   226
12.6741   229
12.6841   235
12.6941   239
12.7041   235
12.7141   222
12.7241   207
12.7341   223
12.7441   240
12.7541   242
12.7641   238
12.7741   236
12.7841   230
12.7941   212
12.8041   222
12.8141   226
12.8241   234
12.8341   230
12.8441   229
12.8541   230
12.8641   236
12.8741   242
12.8841   243
12.8941   227
12.9041   218
12.9141   236
12.9241   247
12.9341   236
12.9441   242
12.9541   229
12.9641   235
12.9741   249
12.9841   250
12.9941   229
13.0041   226
13.0141   231
13.0241   233
13.0341   243
13.0441   246
13.0541   256
13.0641   238
13.0741   242
13.0841   251
13.0941   265
13.1041   265
13.1141   238
13.1241   238
13.1341   238
13.1441   258
13.1541   259
13.1641   257
13.1741   251
13.1841   240
13.1941   256
13.2041   271
13.2141   273
13.2241   264
13.2341   259
13.2441   261
13.2541   261
13.2641   261
13.2741   272
13.2841   290
13.2941   300
13.3041   292
13.3141   297
13.3241   310
13.3341   301
13.3441   284
13.3541   306
13.3641   314
13.3741   293
13.3841   302
13.3941   317
13.4041   303
13.4141   313
13.4241   326
13.4341   321
13.4441   313
13.4541   298
13.4641   299
13.4741   291
13.4841   290
13.4941   290
13.5041   296
13.5141   298
13.5241   278
13.5341   269
13.5441   277
13.5541   292
13.5641   290
13.5741   276
13.5841   278
13.5941   284
13.6041   279
13.6141   292
13.6241   302
13.6341   292
13.6441   309
13.6541   303
13.6641   283
13.6741   280
13.6841   288
13.6941   289
13.7041   286
13.7141   296
13.7241   292
13.7341   288
13.7441   279
13.7541   292
13.7641   304
13.7741   291
13.7841   289
13.7941   286
13.8041   295
13.8141   295
13.8241   286
13.8341   308
13.8441   320
13.8541   308
13.8641   296
13.8741   291
13.8841   291
13.8941   294
13.9041   275
13.9141   280
13.9241   328
13.9341   335
13.9441   306
13.9541   292
13.9641   304
13.9741   333
13.9841   324
13.9941   303
14.0041   318
14.0141   328
14.0241   319
14.0341   317
14.0441   318
14.0541   330
14.0641   348
14.0741   344
14.0841   352
14.0941   355
14.1041   357
14.1141   359
14.1241   351
14.1341   374
14.1441   359
14.1541   351
14.1641   368
14.1741   359
14.1841   363
14.1941   356
14.2041   353
14.2141   356
14.2241   353
14.2341   360
14.2441   352
14.2541   341
14.2641   351
14.2741   343
14.2841   331
14.2941   321
14.3041   336
14.3141   369
14.3241   368
14.3341   342
14.3441   330
14.3541   335
14.3641   335
14.3741   341
14.3841   354
14.3941   348
14.4041   342
14.4141   332
14.4241   331
14.4341   331
14.4441   335
14.4541   357
14.4641   359
14.4741   361
14.4841   351
14.4941   341
14.5041   351
14.5141   351
14.5241   350
14.5341   340
14.5441   360
14.5541   361
14.5641   355
14.5741   379
14.5841   371
14.5941   367
14.6041   366
14.6141   344
14.6241   349
14.6341   353
14.6441   372
14.6541   382
14.6641   350
14.6741   339
14.6841   366
14.6941   387
14.7041   378
14.7141   368
14.7241   391
14.7341   389
14.7441   381
14.7541   381
14.7641   385
14.7741   384
14.7841   379
14.7941   371
14.8041   353
14.8141   360
14.8241   354
14.8341   363
14.8441   392
14.8541   373
14.8641   361
14.8741   361
14.8841   360
14.8941   385
14.9041   404
14.9141   398
14.9241   376
14.9341   360
14.9441   396
14.9541   439
14.9641   413
14.9741   401
14.9841   390
14.9941   381
15.0041   386
15.0141   390
15.0241   386
15.0341   393
15.0441   407
15.0541   393
15.0641   383
15.0741   390
15.0841   398
15.0941   402
15.1041   404
15.1141   401
15.1241   375
15.1341   371
15.1441   388
15.1541   413
15.1641   391
15.1741   385
15.1841   403
15.1941   390
15.2041   387
15.2141   387
15.2241   380
15.2341   389
15.2441   396
15.2541   400
15.2641   406
15.2741   379
15.2841   378
15.2941   390
15.3041   379
15.3141   381
15.3241   385
15.3341   414
15.3441   405
15.3541   433
15.3641   422
15.3741   375
15.3841   396
15.3941   414
15.4041   415
15.4141   417
15.4241   393
15.4341   371
15.4441   392
15.4541   411
15.4641   405
15.4741   393
15.4841   404
15.4941   409
15.5041   434
15.5141   458
15.5241   424
15.5341   409
15.5441   438
15.5541   458
15.5641   446
15.5741   462
15.5841   460
15.5941   446
15.6041   472
15.6141   479
15.6241   470
15.6341   476
15.6441   488
15.6541   494
15.6641   498
15.6741   517
15.6841   520
15.6941   536
15.7041   527
15.7141   549
15.7241   534
15.7341   532
15.7441   571
15.7541   576
15.7641   566
15.7741   545
15.7841   507
15.7941   520
15.8041   533
15.8141   550
15.8241   542
15.8341   539
15.8441   497
15.8541   495
15.8641   515
15.8741   540
15.8841   484
15.8941   487
15.9041   493
15.9141   487
15.9241   489
15.9341   485
15.9441   470
15.9541   472
15.9641   491
15.9741   482
15.9841   474
15.9941   470
16.0041   456
16.0141   468
16.0241   472
16.0341   476
16.0441   483
16.0541   495
16.0641   494
16.0741   466
16.0841   453
16.0941   436
16.1041   479
16.1141   475
16.1241   484
16.1341   479
16.1441   501
16.1541   471
16.1641   490
16.1741   489
16.1841   475
16.1941   470
16.2041   458
16.2141   453
16.2241   473
16.2341   462
16.2441   469
16.2541   474
16.2641   467
16.2741   487
16.2841   486
16.2941   453
16.3041   465
16.3141   495
16.3241   497
16.3341   474
16.3441   484
16.3541   489
16.3641   474
16.3741   494
16.3841   496
16.3941   483
16.4041   497
16.4141   477
16.4241   503
16.4341   498
16.4441   498
16.4541   533
16.4641   548
16.4741   523
16.4841   505
16.4941   503
16.5041   498
16.5141   494
16.5241   500
16.5341   490
16.5441   503
16.5541   507
16.5641   506
16.5741   537
16.5841   529
16.5941   529
16.6041   537
16.6141   541
16.6241   533
16.6341   515
16.6441   533
16.6541   546
16.6641   559
16.6741   513
16.6841   531
16.6941   529
16.7041   517
16.7141   521
16.7241   548
16.7341   536
16.7441   521
16.7541   507
16.7641   539
16.7741   524
16.7841   527
16.7941   562
16.8041   546
16.8141   524
16.8241   497
16.8341   528
16.8441   546
16.8541   555
16.8641   580
16.8741   552
16.8841   540
16.8941   543
16.9041   542
16.9141   557
16.9241   526
16.9341   521
16.9441   531
16.9541   548
16.9641   548
16.9741   550
16.9841   540
16.9941   549
17.0041   548
17.0141   508
17.0241   531
17.0341   532
17.0441   548
17.0541   543
17.0641   539
17.0741   513
17.0841   521
17.0941   549
17.1041   563
17.1141   568
17.1241   565
17.1341   544
17.1441   563
17.1541   583
17.1641   579
17.1741   589
17.1841   553
17.1941   561
17.2041   569
17.2141   588
17.2241   581
17.2341   598
17.2441   579
17.2541   554
17.2641   563
17.2741   521
17.2841   549
17.2941   588
17.3041   572
17.3141   603
17.3241   598
17.3341   583
17.3441   592
17.3541   607
17.3641   598
17.3741   574
17.3841   590
17.3941   600
17.4041   598
17.4141   564
17.4241   571
17.4341   591
17.4441   581
17.4541   564
17.4641   612
17.4741   573
17.4841   611
17.4941   607
17.5041   615
17.5141   604
17.5241   595
17.5341   616
17.5441   618
17.5541   631
17.5641   608
17.5741   596
17.5841   580
17.5941   560
17.6041   601
17.6141   616
17.6241   613
17.6341   623
17.6441   633
17.6541   625
17.6641   632
17.6741   614
17.6841   599
17.6941   594
17.7041   614
17.7141   656
17.7241   626
17.7341   649
17.7441   625
17.7541   620
17.7641   620
17.7741   635
17.7841   639
17.7941   600
17.8041   606
17.8141   613
17.8241   618
17.8341   600
17.8441   602
17.8541   622
17.8641   640
17.8741   646
17.8841   635
17.8941   622
17.9041   620
17.9141   644
17.9241   626
17.9341   625
17.9441   631
17.9541   630
17.9641   613
17.9741   623
17.9841   578
17.9941   639
18.0041   609
18.0141   616
18.0241   607
18.0341   647
18.0441   607
18.0541   594
18.0641   597
18.0741   620
18.0841   621
18.0941   625
18.1041   665
18.1141   638
18.1241   641
18.1341   638
18.1441   649
18.1541   634
18.1641   682
18.1741   667
18.1841   631
18.1941   660
18.2041   621
18.2141   639
18.2241   618
18.2341   653
18.2441   643
18.2541   647
18.2641   674
18.2741   671
18.2841   641
18.2941   671
18.3041   645
18.3141   644
18.3241   691
18.3341   678
18.3441   657
18.3541   649
18.3641   679
18.3741   676
18.3841   658
18.3941   684
18.4041   667
18.4141   669
18.4241   662
18.4341   674
18.4441   642
18.4541   689
18.4641   656
18.4741   684
18.4841   703
18.4941   660
18.5041   672
18.5141   679
18.5241   667
18.5341   663
18.5441   681
18.5541   675
18.5641   685
18.5741   639
18.5841   654
18.5941   668
18.6041   685
18.6141   690
18.6241   697
18.6341   687
18.6441   693
18.6541   719
18.6641   712
18.6741   689
18.6841   656
18.6941   677
18.7041   655
18.7141   695
18.7241   701
18.7341   661
18.7441   678
18.7541   684
18.7641   689
18.7741   673
18.7841   662
18.7941   707
18.8041   682
18.8141   690
18.8241   695
18.8341   696
18.8441   661
18.8541   682
18.8641   668
18.8741   717
18.8841   691
18.8941   715
18.9041   693
18.9141   655
18.9241   678
18.9341   677
18.9441   656
18.9541   664
18.9641   663
18.9741   697
18.9841   714
18.9941   676
19.0041   660
19.0141   706
19.0241   724
19.0341   704
19.0441   747
19.0541   740
19.0641   698
19.0741   712
19.0841   717
19.0941   724
19.1041   673
19.1141   735
19.1241   727
19.1341   702
19.1441   659
19.1541   694
19.1641   667
19.1741   699
19.1841   752
19.1941   727
19.2041   741
19.2141   752
19.2241   739
19.2341   702
19.2441   707
19.2541   694
19.2641   699
19.2741   704
19.2841   725
19.2941   707
19.3041   696
19.3141   741
19.3241   709
19.3341   691
19.3441   724
19.3541   717
19.3641   758
19.3741   724
19.3841   699
19.3941   708
19.4041   735
19.4141   705
19.4241   675
19.4341   672
19.4441   729
19.4541   721
19.4641   706
19.4741   717
19.4841   738
19.4941   715
19.5041   715
19.5141   721
19.5241   710
19.5341   730
19.5441   726
19.5541   707
19.5641   715
19.5741   680
19.5841   708
19.5941   716
19.6041   736
19.6141   711
19.6241   744
19.6341   700
19.6441   765
19.6541   761
19.6641   725
19.6741   742
19.6841   693
19.6941   724
19.7041   720
19.7141   750
19.7241   707
19.7341   749
19.7441   706
19.7541   720
19.7641   729
19.7741   760
19.7841   714
19.7941   764
19.8041   714
19.8141   758
19.8241   717
19.8341   728
19.8441   745
19.8541   714
19.8641   775
19.8741   735
19.8841   738
19.8941   732
19.9041   708
19.9141   759
19.9241   779
19.9341   775
19.9441   738
19.9541   745
19.9641   757
19.9741   720
19.9841   722
19.9941   759
20.0041   715
20.0141   704
20.0241   761
20.0341   740
20.0441   727
20.0541   766
20.0641   732
20.0741   741
20.0841   742
20.0941   756
20.1041   739
20.1141   720
20.1241   726
20.1341   779
20.1441   745
20.1541   747
20.1641   760
20.1741   746
20.1841   753
20.1941   742
20.2041   758
20.2141   781
20.2241   741
20.2341   707
20.2441   698
20.2541   720
20.2641   739
20.2741   735
20.2841   736
20.2941   723
20.3041   732
20.3141   738
20.3241   728
20.3341   739
20.3441   724
20.3541   754
20.3641   773
20.3741   744
20.3841   751
20.3941   718
20.4041   774
20.4141   766
20.4241   721
20.4341   715
20.4441   792
20.4541   743
20.4641   748
20.4741   749
20.4841   763
20.4941   733
20.5041   733
20.5141   714
20.5241   719
20.5341   713
20.5441   753
20.5541   784
20.5641   756
20.5741   725
20.5841   762
20.5941   725
20.6041   766
20.6141   760
20.6241   798
20.6341   754
20.6441   732
20.6541   775
20.6641   752
20.6741   824
20.6841   738
20.6941   790
20.7041   779
20.7141   732
20.7241   780
20.7341   737
20.7441   819
20.7541   757
20.7641   766
20.7741   696
20.7841   783
20.7941   762
20.8041   774
20.8141   781
20.8241   784
20.8341   829
20.8441   839
20.8541   802
20.8641   794
20.8741   897
20.8841   850
20.8941   869
20.9041   827
20.9141   831
20.9241   852
20.9341   891
20.9441   935
20.9541   944
20.9641   935
20.9741   985
20.9841   956
20.9941   975
21.0041  1021
21.0141  1047
21.0241  1043
21.0341  1091
21.0441  1100
21.0541  1063
21.0641  1078
21.0741  1124
21.0841  1064
21.0941  1126
21.1041  1162
21.1141  1095
21.1241  1119
21.1341  1124
21.1441  1127
21.1541  1110
21.1641  1103
21.1741  1141
21.1841  1134
21.1941  1116
21.2041  1075
21.2141  1081
21.2241  1064
21.2341  1054
21.2441  1065
21.2541  1037
21.2641   978
21.2741   960
21.2841   935
21.2941   903
21.3041   905
21.3141   858
21.3241   902
21.3341   903
21.3441   853
21.3541   841
21.3641   782
21.3741   819
21.3841   811
21.3941   792
21.4041   774
21.4141   761
21.4241   801
21.4341   781
21.4441   766
21.4541   835
21.4641   759
21.4741   756
21.4841   720
21.4941   767
21.5041   757
21.5141   736
21.5241   767
21.5341   796
21.5441   771
21.5541   749
21.5641   736
21.5741   766
21.5841   774
21.5941   783
21.6041   746
21.6141   761
21.6241   781
21.6341   742
21.6441   823
21.6541   749
21.6641   755
21.6741   796
21.6841   729
21.6941   780
21.7041   743
21.7141   766
21.7241   767
21.7341   798
21.7441   725
21.7541   767
21.7641   743
21.7741   773
21.7841   735
21.7941   768
21.8041   745
21.8141   771
21.8241   735
21.8341   787
21.8441   800
21.8541   774
21.8641   777
21.8741   690
21.8841   775
21.8941   781
21.9041   805
21.9141   718
21.9241   769
21.9341   703
21.9441   781
21.9541   744
21.9641   817
21.9741   769
21.9841   786
21.9941   796
22.0041   742
22.0141   797
22.0241   830
22.0341   756
22.0441   749
22.0541   808
22.0641   767
22.0741   816
22.0841   734
22.0941   778
22.1041   783
22.1141   784
22.1241   758
22.1341   762
22.1441   749
22.1541   745
22.1641   727
22.1741   756
22.1841   770
22.1941   757
22.2041   777
22.2141   764
22.2241   778
22.2341   745
22.2441   750
22.2541   745
22.2641   747
22.2741   755
22.2841   739
22.2941   743
22.3041   760
22.3141   708
22.3241   766
22.3341   769
22.3441   743
22.3541   741
22.3641   790
22.3741   737
22.3841   742
22.3941   739
22.4041   737
22.4141   746
22.4241   776
22.4341   731
22.4441   726
22.4541   719
22.4641   746
22.4741   783
22.4841   760
22.4941   728
22.5041   743
22.5141   726
22.5241   745
22.5341   763
22.5441   711
22.5541   746
22.5641   736
22.5741   774
22.5841   726
22.5941   741
22.6041   757
22.6141   768
22.6241   722
22.6341   749
22.6441   710
22.6541   742
22.6641   755
22.6741   738
22.6841   762
22.6941   790
22.7041   735
22.7141   679
22.7241   783
22.7341   769
22.7441   777
22.7541   759
22.7641   768
22.7741   746
22.7841   789
22.7941   698
22.8041   743
22.8141   750
22.8241   784
22.8341   735
22.8441   747
22.8541   714
22.8641   735
22.8741   763
22.8841   735
22.8941   778
22.9041   779
22.9141   829
22.9241   707
22.9341   730
22.9441   694
22.9541   768
22.9641   768
22.9741   716
22.9841   746
22.9941   705
23.0041   755
23.0141   777
23.0241   768
23.0341   793
23.0441   749
23.0541   689
23.0641   711
23.0741   752
23.0841   741
23.0941   742
23.1041   744
23.1141   741
23.1241   728
23.1341   730
23.1441   743
23.1541   701
23.1641   680
23.1741   713
23.1841   727
23.1941   722
23.2041   748
23.2141   731
23.2241   725
23.2341   690
23.2441   749
23.2541   727
23.2641   777
23.2741   755
23.2841   768
23.2941   722
23.3041   680
23.3141   775
23.3241   727
23.3341   764
23.3441   751
23.3541   707
23.3641   723
23.3741   694
23.3841   719
23.3941   722
23.4041   718
23.4141   719
23.4241   678
23.4341   694
23.4441   716
23.4541   729
23.4641   694
23.4741   695
23.4841   697
23.4941   739
23.5041   747
23.5141   752
23.5241   753
23.5341   683
23.5441   759
23.5541   742
23.5641   760
23.5741   700
23.5841   737
23.5941   736
23.6041   754
23.6141   762
23.6241   740
23.6341   720
23.6441   771
23.6541   748
23.6641   771
23.6741   747
23.6841   741
23.6941   767
23.7041   787
23.7141   737
23.7241   784
23.7341   800
23.7441   776
23.7541   745
23.7641   748
23.7741   751
23.7841   816
23.7941   784
23.8041   826
23.8141   871
23.8241   770
23.8341   774
23.8441   731
23.8541   792
23.8641   790
23.8741   781
23.8841   760
23.8941   798
23.9041   746
23.9141   730
23.9241   771
23.9341   772
23.9441   719
23.9541   737
23.9641   691
23.9741   734
23.9841   710
23.9941   726
24.0041   703
24.0141   673
24.0241   714
24.0341   723
24.0441   713
24.0541   653
24.0641   718
24.0741   715
24.0841   700
24.0941   725
24.1041   720
24.1141   709
24.1241   663
24.1341   684
24.1441   727
24.1541   738
24.1641   702
24.1741   729
24.1841   711
24.1941   684
24.2041   708
24.2141   705
24.2241   710
24.2341   727
24.2441   725
24.2541   688
24.2641   713
24.2741   725
24.2841   754
24.2941   725
24.3041   746
24.3141   696
24.3241   695
24.3341   700
24.3441   765
24.3541   722
24.3641   711
24.3741   707
24.3841   707
24.3941   644
24.4041   686
24.4141   691
24.4241   677
24.4341   704
24.4441   727
24.4541   722
24.4641   684
24.4741   703
24.4841   675
24.4941   701
24.5041   685
24.5141   667
24.5241   712
24.5341   691
24.5441   656
24.5541   645
24.5641   694
24.5741   650
24.5841   694
24.5941   719
24.6041   655
24.6141   701
24.6241   669
24.6341   653
24.6441   677
24.6541   664
24.6641   660
24.6741   678
24.6841   690
24.6941   655
24.7041   670
24.7141   674
24.7241   671
24.7341   649
24.7441   637
24.7541   683
24.7641   657
24.7741   659
24.7841   679
24.7941   634
24.8041   645
24.8141   630
24.8241   697
24.8341   657
24.8441   699
24.8541   665
24.8641   686
24.8741   682
24.8841   677
24.8941   670
24.9041   718
24.9141   657
24.9241   719
24.9341   681
24.9441   680
24.9541   644
24.9641   685
24.9741   681
24.9841   726
24.9941   680
25.0041   684
25.0141   690
25.0241   649
25.0341   667
25.0441   657
25.0541   643
25.0641   655
25.0741   659
25.0841   665
25.0941   696
25.1041   716
25.1141   709
25.1241   721
25.1341   730
25.1441   668
25.1541   686
25.1641   698
25.1741   666
25.1841   687
25.1941   662
25.2041   662
25.2141   674
25.2241   688
25.2341   714
25.2441   670
25.2541   687
25.2641   656
25.2741   689
25.2841   635
25.2941   657
25.3041   679
25.3141   673
25.3241   624
25.3341   666
25.3441   634
25.3541   704
25.3641   679
25.3741   650
25.3841   645
25.3941   666
25.4041   616
25.4141   660
25.4241   636
25.4341   640
25.4441   673
25.4541   655
25.4641   686
25.4741   638
25.4841   595
25.4941   628
25.5041   620
25.5141   607
25.5241   621
25.5341   651
25.5441   662
25.5541   634
25.5641   598
25.5741   634
25.5841   628
25.5941   652
25.6041   646
25.6141   635
25.6241   646
25.6341   612
25.6441   649
25.6541   622
25.6641   636
25.6741   607
25.6841   568
25.6941   623
25.7041   633
25.7141   633
25.7241   618
25.7341   611
25.7441   662
25.7541   634
25.7641   604
25.7741   668
25.7841   625
25.7941   658
25.8041   662
25.8141   628
25.8241   597
25.8341   617
25.8441   639
25.8541   583
25.8641   613
25.8741   609
25.8841   605
25.8941   636
25.9041   597
25.9141   614
25.9241   636
25.9341   611
25.9441   662
25.9541   589
25.9641   624
25.9741   645
25.9841   626
25.9941   619
26.0041   612
26.0141   646
26.0241   602
26.0341   619
26.0441   602
26.0541   590
26.0641   567
26.0741   616
26.0841   596
26.0941   617
26.1041   589
26.1141   615
26.1241   590
26.1341   647
26.1441   616
26.1541   620
26.1641   603
26.1741   566
26.1841   616
26.1941   614
26.2041   612
26.2141   607
26.2241   594
26.2341   599
26.2441   563
26.2541   598
26.2641   569
26.2741   601
26.2841   583
26.2941   625
26.3041   582
26.3141   575
26.3241   601
26.3341   583
26.3441   557
26.3541   538
26.3641   652
26.3741   602
26.3841   579
26.3941   565
26.4041   538
26.4141   627
26.4241   606
26.4341   568
26.4441   602
26.4541   567
26.4641   611
26.4741   594
26.4841   565
26.4941   596
26.5041   576
26.5141   566
26.5241   568
26.5341   571
26.5441   586
26.5541   594
26.5641   587
26.5741   577
26.5841   601
26.5941   585
26.6041   571
26.6141   559
26.6241   581
26.6341   532
26.6441   572
26.6541   574
26.6641   543
26.6741   564
26.6841   592
26.6941   553
26.7041   602
26.7141   556
26.7241   571
26.7341   571
26.7441   578
26.7541   586
26.7641   569
26.7741   575
26.7841   583
26.7941   563
26.8041   551
26.8141   553
26.8241   554
26.8341   570
26.8441   564
26.8541   543
26.8641   553
26.8741   568
26.8841   559
26.8941   577
26.9041   556
26.9141   569
26.9241   546
26.9341   552
26.9441   564
26.9541   558
26.9641   541
26.9741   556
26.9841   563
26.9941   548
27.0041   518
27.0141   555
27.0241   522
27.0341   534
27.0441   541
27.0541   538
27.0641   555
27.0741   534
27.0841   540
27.0941   558
27.1041   515
27.1141   542
27.1241   552
27.1341   531
27.1441   528
27.1541   546
27.1641   546
27.1741   547
27.1841   535
27.1941   574
27.2041   538
27.2141   529
27.2241   543
27.2341   508
27.2441   557
27.2541   516
27.2641   537
27.2741   563
27.2841   552
27.2941   515
27.3041   558
27.3141   553
27.3241   519
27.3341   557
27.3441   552
27.3541   558
27.3641   525
27.3741   553
27.3841   555
27.3941   509
27.4041   581
27.4141   532
27.4241   559
27.4341   541
27.4441   560
27.4541   519
27.4641   521
27.4741   543
27.4841   521
27.4941   524
27.5041   562
27.5141   503
27.5241   507
27.5341   510
27.5441   512
27.5541   486
27.5641   570
27.5741   564
27.5841   512
27.5941   486
27.6041   508
27.6141   507
27.6241   506
27.6341   489
27.6441   527
27.6541   511
27.6641   538
27.6741   543
27.6841   521
27.6941   513
27.7041   486
27.7141   527
27.7241   495
27.7341   498
27.7441   502
27.7541   512
27.7641   504
27.7741   536
27.7841   475
27.7941   485
27.8041   505
27.8141   516
27.8241   503
27.8341   539
27.8441   497
27.8541   471
27.8641   476
27.8741   475
27.8841   524
27.8941   504
27.9041   452
27.9141   492
27.9241   474
27.9341   490
27.9441   460
27.9541   496
27.9641   455
27.9741   488
27.9841   475
27.9941   482
28.0041   450
28.0141   480
28.0241   476
28.0341   494
28.0441   494
28.0541   525
28.0641   499
28.0741   483
28.0841   487
28.0941   443
28.1041   508
28.1141   471
28.1241   506
28.1341   468
28.1441   465
28.1541   533
28.1641   463
28.1741   490
28.1841   501
28.1941   474
28.2041   483
28.2141   513
28.2241   458
28.2341   503
28.2441   473
28.2541   466
28.2641   458
28.2741   488
28.2841   483
28.2941   471
28.3041   466
28.3141   479
28.3241   480
28.3341   467
28.3441   484
28.3541   472
28.3641   475
28.3741   473
28.3841   496
28.3941   479
28.4041   453
28.4141   469
28.4241   466
28.4341   468
28.4441   470
28.4541   455
28.4641   480
28.4741   440
28.4841   462
28.4941   486
28.5041   465
28.5141   440
28.5241   456
28.5341   451
28.5441   463
28.5541   460
28.5641   454
28.5741   464
28.5841   467
28.5941   478
28.6041   444
28.6141   453
28.6241   450
28.6341   442
28.6441   474
28.6541   471
28.6641   477
28.6741   462
28.6841   419
28.6941   447
28.7041   444
28.7141   450
28.7241   423
28.7341   445
28.7441   433
28.7541   426
28.7641   416
28.7741   408
28.7841   460
28.7941   443
28.8041   417
28.8141   421
28.8241   441
28.8341   483
28.8441   425
28.8541   468
28.8641   449
28.8741   449
28.8841   413
28.8941   424
28.9041   451
28.9141   459
28.9241   449
28.9341   411
28.9441   458
28.9541   444
28.9641   411
28.9741   425
28.9841   411
28.9941   451
29.0041   408
29.0141   444
29.0241   426
29.0341   434
29.0441   405
29.0541   439
29.0641   439
29.0741   437
29.0841   415
29.0941   419
29.1041   430
29.1141   427
29.1241   451
29.1341   444
29.1441   399
29.1541   451
29.1641   401
29.1741   403
29.1841   428
29.1941   424
29.2041   444
29.2141   401
29.2241   434
29.2341   396
29.2441   394
29.2541   428
29.2641   406
29.2741   422
29.2841   441
29.2941   404
29.3041   423
29.3141   378
29.3241   449
29.3341   365
29.3441   402
29.3541   433
29.3641   406
29.3741   406
29.3841   421
29.3941   392
29.4041   383
29.4141   427
29.4241   404
29.4341   425
29.4441   455
29.4541   425
29.4641   411
29.4741   402
29.4841   407
29.4941   411
29.5041   441
29.5141   382
29.5241   417
29.5341   403
29.5441   415
29.5541   410
29.5641   404
29.5741   430
29.5841   397
29.5941   422
29.6041   412
29.6141   382
29.6241   372
29.6341   379
29.6441   398
29.6541   389
29.6641   417
29.6741   359
29.6841   353
29.6941   392
29.7041   407
29.7141   424
29.7241   402
29.7341   367
29.7441   403
29.7541   394
29.7641   394
29.7741   406
29.7841   403
29.7941   408
29.8041   398
29.8141   402
29.8241   353
29.8341   379
29.8441   379
29.8541   400
29.8641   375
29.8741   379
29.8841   412
29.8941   374
29.9041   373
29.9141   419
29.9241   398
29.9341   421
29.9441   364
29.9541   363
29.9641   409
29.9741   340
29.9841   351
29.9941   383
30.0041   381
30.0141   390
30.0241   410
30.0341   373
30.0441   402
30.0541   378
30.0641   399
30.0741   356
30.0841   372
30.0941   350
30.1041   367
30.1141   344
30.1241   395
30.1341   347
30.1441   354
30.1541   365
30.1641   396
30.1741   359
30.1841   356
30.1941   380
30.2041   352
30.2141   388
30.2241   367
30.2341   370
30.2441   344
30.2541   364
30.2641   364
30.2741   366
30.2841   373
30.2941   374
30.3041   359
30.3141   326
30.3241   383
30.3341   377
30.3441   366
30.3541   324
30.3641   360
30.3741   345
30.3841   384
30.3941   364
30.4041   348
30.4141   359
30.4241   355
30.4341   352
30.4441   377
30.4541   339
30.4641   366
30.4741   361
30.4841   358
30.4941   354
30.5041   325
30.5141   373
30.5241   384
30.5341   363
30.5441   349
30.5541   376
30.5641   338
30.5741   344
30.5841   345
30.5941   340
30.6041   353
30.6141   350
30.6241   303
30.6341   366
30.6441   358
30.6541   350
30.6641   344
30.6741   359
30.6841   330
30.6941   332
30.7041   352
30.7141   360
30.7241   376
30.7341   335
30.7441   322
30.7541   331
30.7641   317
30.7741   352
30.7841   355
30.7941   338
30.8041   340
30.8141   317
30.8241   370
30.8341   317
30.8441   345
30.8541   340
30.8641   348
30.8741   332
30.8841   332
30.8941   324
30.9041   345
30.9141   296
30.9241   330
30.9341   335
30.9441   298
30.9541   341
30.9641   321
30.9741   298
30.9841   301
30.9941   338
31.0041   314
31.0141   342
31.0241   322
31.0341   316
31.0441   325
31.0541   334
31.0641   358
31.0741   322
31.0841   334
31.0941   340
31.1041   323
31.1141   295
31.1241   305
31.1341   318
31.1441   348
31.1541   310
31.1641   302
31.1741   330
31.1841   312
31.1941   298
31.2041   329
31.2141   332
31.2241   304
31.2341   297
31.2441   301
31.2541   322
31.2641   314
31.2741   309
31.2841   316
31.2941   310
31.3041   305
31.3141   278
31.3241   296
31.3341   295
31.3441   340
31.3541   303
31.3641   301
31.3741   308
31.3841   325
31.3941   321
31.4041   310
31.4141   296
31.4241   285
31.4341   272
31.4441   280
31.4541   329
31.4641   293
31.4741   277
31.4841   280
31.4941   305
31.5041   318
31.5141   293
31.5241   315
31.5341   297
31.5441   307
31.5541   286
31.5641   296
31.5741   282
31.5841   283
31.5941   289
31.6041   310
31.6141   295
31.6241   320
31.6341   272
31.6441   276
31.6541   283
31.6641   309
31.6741   289
31.6841   315
31.6941   287
31.7041   284
31.7141   267
31.7241   289
31.7341   304
31.7441   324
31.7541   268
31.7641   317
31.7741   291
31.7841   322
31.7941   274
31.8041   316
31.8141   287
31.8241   302
31.8341   286
31.8441   279
31.8541   266
31.8641   289
31.8741   292
31.8841   284
31.8941   315
31.9041   258
31.9141   279
31.9241   285
31.9341   291
31.9441   275
31.9541   295
31.9641   278
31.9741   242
31.9841   287
31.9941   303
32.0041   281
32.0141   284
32.0241   277
32.0341   269
32.0441   295
32.0541   277
32.0641   276
32.0741   253
32.0841   280
32.0941   259
32.1041   252
32.1141   278
32.1241   279
32.1341   297
32.1441   270
32.1541   266
32.1641   273
32.1741   301
32.1841   285
32.1941   295
32.2041   269
32.2141   310
32.2241   277
32.2341   268
32.2441   250
32.2541   236
32.2641   270
32.2741   291
32.2841   262
32.2941   261
32.3041   261
32.3141   264
32.3241   278
32.3341   297
32.3441   267
32.3541   262
32.3641   241
32.3741   273
32.3841   268
32.3941   273
32.4041   254
32.4141   270
32.4241   268
32.4341   272
32.4441   267
32.4541   268
32.4641   275
32.4741   295
32.4841   273
32.4941   242
32.5041   257
32.5141   249
32.5241   247
32.5341   247
32.5441   280
32.5541   240
32.5641   262
32.5741   287
32.5841   239
32.5941   243
32.6041   249
32.6141   246
32.6241   279
32.6341   262
32.6441   274
32.6541   245
32.6641   233
32.6741   247
32.6841   217
32.6941   262
32.7041   287
32.7141   260
32.7241   253
32.7341   243
32.7441   254
32.7541   242
32.7641   249
32.7741   244
32.7841   249
32.7941   230
32.8041   244
32.8141   259
32.8241   236
32.8341   245
32.8441   255
32.8541   245
32.8641   215
32.8741   236
32.8841   234
32.8941   256
32.9041   247
32.9141   250
32.9241   232
32.9341   266
32.9441   237
32.9541   232
32.9641   251
32.9741   251
32.9841   254
32.9941   243
33.0041   240
33.0141   244
33.0241   230
33.0341   237
33.0441   221
33.0541   214
33.0641   237
33.0741   231
33.0841   220
33.0941   221
33.1041   218
33.1141   238
33.1241   234
33.1341   257
33.1441   222
33.1541   247
33.1641   227
33.1741   235
33.1841   245
33.1941   243
33.2041   216
33.2141   189
33.2241   202
33.2341   217
33.2441   208
33.2541   218
33.2641   234
33.2741   248
33.2841   217
33.2941   235
33.3041   225
33.3141   212
33.3241   236
33.3341   233
33.3441   229
33.3541   239
33.3641   209
33.3741   240
33.3841   219
33.3941   239
33.4041   213
33.4141   210
33.4241   219
33.4341   224
33.4441   200
33.4541   234
33.4641   213
33.4741   216
33.4841   224
33.4941   200
33.5041   221
33.5141   206
33.5241   201
33.5341   230
33.5441   199
33.5541   219
33.5641   211
33.5741   195
33.5841   193
33.5941   223
33.6041   204
33.6141   211
33.6241   214
33.6341   205
33.6441   205
33.6541   213
33.6641   200
33.6741   205
33.6841   227
33.6941   237
33.7041   198
33.7141   224
33.7241   203
33.7341   198
33.7441   213
33.7541   200
33.7641   213
33.7741   200
33.7841   171
33.7941   193
33.8041   182
33.8141   175
33.8241   197
33.8341   197
33.8441   230
33.8541   214
33.8641   193
33.8741   196
33.8841   167
33.8941   234
33.9041   213
33.9141   216
33.9241   184
33.9341   225
33.9441   207
33.9541   189
33.9641   192
33.9741   216
33.9841   189
33.9941   184
34.0041   188
34.0141   205
34.0241   186
34.0341   196
34.0441   219
34.0541   217
34.0641   202
34.0741   210
34.0841   187
34.0941   192
34.1041   171
34.1141   191
34.1241   186
34.1341   173
34.1441   169
34.1541   192
34.1641   194
34.1741   172
34.1841   177
34.1941   185
34.2041   201
34.2141   192
34.2241   185
34.2341   180
34.2441   195
34.2541   190
34.2641   175
34.2741   187
34.2841   197
34.2941   172
34.3041   171
34.3141   180
34.3241   192
34.3341   180
34.3441   185
34.3541   193
34.3641   181
34.3741   188
34.3841   198
34.3941   188
34.4041   179
34.4141   178
34.4241   154
34.4341   168
34.4441   180
34.4541   175
34.4641   177
34.4741   174
34.4841   187
34.4941   177
34.5041   184
34.5141   171
34.5241   179
34.5341   179
34.5441   173
34.5541   167
34.5641   157
34.5741   157
34.5841   185
34.5941   164
34.6041   166
34.6141   152
34.6241   166
34.6341   158
34.6441   173
34.6541   173
34.6641   167
34.6741   161
34.6841   166
34.6941   167
34.7041   175
34.7141   184
34.7241   147
34.7341   161
34.7441   166
34.7541   140
34.7641   148
34.7741   176
34.7841   143
34.7941   186
34.8041   152
34.8141   162
34.8241   154
34.8341   176
34.8441   182
34.8541   151
34.8641   163
34.8741   166
34.8841   124
34.8941   168
34.9041   150
34.9141   179
34.9241   151
34.9341   169
34.9441   158
34.9541   153
34.9641   148
34.9741   145
34.9841   151
34.9941   175
35.0041   170
35.0141   158
35.0241   199
35.0341   156
35.0441   172
35.0541   162
35.0641   136
35.0741   148
35.0841   151
35.0941   140
35.1041   155
35.1141   169
35.1241   148
35.1341   162
35.1441   155
35.1541   151
35.1641   143
35.1741   148
35.1841   152
35.1941   145
35.2041   152
35.2141   172
35.2241   161
35.2341   140
35.2441   142
35.2541   151
35.2641   140
35.2741   159
35.2841   164
35.2941   158
35.3041   147
35.3141   142
35.3241   155
35.3341   155
35.3441   167
35.3541   150
35.3641   159
35.3741   164
35.3841   157
35.3941   138
35.4041   157
35.4141   162
35.4241   147
35.4341   161
35.4441   151
35.4541   125
35.4641   139
35.4741   149
35.4841   168
35.4941   146
35.5041   150
35.5141   155
35.5241   148
35.5341   139
35.5441   148
35.5541   134
35.5641   140
35.5741   147
35.5841   138
35.5941   128
35.6041   144
35.6141   135
35.6241   156
35.6341   136
35.6441   128
35.6541   142
35.6641   156
35.6741   127
35.6841   153
35.6941   135
35.7041   144
35.7141   135
35.7241   123
35.7341   121
35.7441   158
35.7541   147
35.7641   140
35.7741   133
35.7841   135
35.7941   141
35.8041   143
35.8141   133
35.8241   136
35.8341   138
35.8441   144
35.8541   107
35.8641   138
35.8741   132
35.8841   152
35.8941   126
35.9041   140
35.9141   140
35.9241   132
35.9341   120
35.9441   144
35.9541   139
35.9641   115
35.9741   128
35.9841   139
35.9941   115
36.0041   125
36.0141   132
36.0241   120
36.0341   113
36.0441   135
36.0541   114
36.0641   129
36.0741   106
36.0841   130
36.0941   116
36.1041   113
36.1141   140
36.1241   146
36.1341   120
36.1441   130
36.1541   117
36.1641   111
36.1741   120
36.1841   121
36.1941   110
36.2041   118
36.2141   109
36.2241   140
36.2341   140
36.2441   133
36.2541   124
36.2641   118
36.2741   114
36.2841   106
36.2941   140
36.3041   121
36.3141   114
36.3241   118
36.3341   135
36.3441   124
36.3541   127
36.3641   118
36.3741   115
36.3841   118
36.3941   129
36.4041   123
36.4141   113
36.4241    90
36.4341   123
36.4441   101
36.4541   105
36.4641   121
36.4741   120
36.4841   119
36.4941   102
36.5041   126
36.5141   118
36.5241   109
36.5341   131
36.5441   103
36.5541   111
36.5641   102
36.5741   111
36.5841   106
36.5941   112
36.6041   123
36.6141   118
36.6241   127
36.6341    93
36.6441   120
36.6541   124
36.6641   105
36.6741    95
36.6841   111
36.6941   109
36.7041   118
36.7141   128
36.7241    97
36.7341    95
36.7441    98
36.7541   108
36.7641   111
36.7741   115
36.7841   117
36.7941   105
36.8041   120
36.8141   116
36.8241   121
36.8341   116
36.8441   126
36.8541   114
36.8641   118
36.8741   101
36.8841   108
36.8941   108
36.9041    98
36.9141   102
36.9241   121
36.9341   112
36.9441   108
36.9541   114
36.9641    99
36.9741   102
36.9841   111
36.9941   106
37.0041    92
37.0141    97
37.0241   106
37.0341    98
37.0441   102
37.0541   107
37.0641   101
37.0741    97
37.0841    99
37.0941    87
37.1041    96
37.1141   102
37.1241    93
37.1341   101
37.1441    93
37.1541   101
37.1641    85
37.1741    97
37.1841   102
37.1941   100
37.2041    85
37.2141    89
37.2241   100
37.2341    84
37.2441    88
37.2541    97
37.2641    98
37.2741   101
37.2841   110
37.2941   102
37.3041    83
37.3141    98
37.3241   104
37.3341    87
37.3441    90
37.3541    95
37.3641    97
37.3741    99
37.3841    93
37.3941    89
37.4041   104
37.4141    94
37.4241    85
37.4341    95
37.4441    88
37.4541   103
37.4641    78
37.4741    98
37.4841    85
37.4941    88
37.5041    90
37.5141    84
37.5241    92
37.5341    75
37.5441    81
37.5541    95
37.5641   107
37.5741   108
37.5841    96
37.5941    88
37.6041    80
37.6141   100
37.6241   105
37.6341    80
37.6441    89
37.6541    89
37.6641    72
37.6741   100
37.6841    87
37.6941    73
37.7041    86
37.7141    87
37.7241    82
37.7341    76
37.7441    79
37.7541    84
37.7641    92
37.7741   106
37.7841    91
37.7941    96
37.8041    61
37.8141    80
37.8241    84
37.8341    95
37.8441    97
37.8541    72
37.8641    80
37.8741    81
37.8841    76
37.8941    90
37.9041    88
37.9141    89
37.9241    90
37.9341    84
37.9441    89
37.9541    92
37.9641    90
37.9741    92
37.9841    91
37.9941    70
38.0041    90
38.0141    97
38.0241    70
38.0341    77
38.0441    81
38.0541    76
38.0641    68
38.0741    92
38.0841    69
38.0941    85
38.1041    70
38.1141    82
38.1241    68
38.1341    84
38.1441    83
38.1541    69
38.1641    72
38.1741    57
38.1841    67
38.1941    88
38.2041    65
38.2141    88
38.2241    76
38.2341    67
38.2441    71
38.2541    80
38.2641    75
38.2741    69
38.2841    66
38.2941    65
38.3041    70
38.3141    65
38.3241    77
38.3341    62
38.3441    67
38.3541    79
38.3641    68
38.3741    73
38.3841    72
38.3941    82
38.4041    74
38.4141    69
38.4241    86
38.4341    61
38.4441    65
38.4541    75
38.4641    61
38.4741    52
38.4841    83
38.4941    66
38.5041    63
38.5141    78
38.5241    68
38.5341    65
38.5441    62
38.5541    80
38.5641    80
38.5741    62
38.5841    78
38.5941    68
38.6041    71
38.6141    61
38.6241    59
38.6341    66
38.6441    68
38.6541    57
38.6641    66
38.6741    77
38.6841    72
38.6941    69
38.7041    66
38.7141    71
38.7241    81
38.7341    70
38.7441    69
38.7541    59
38.7641    76
38.7741    68
38.7841    72
38.7941    69
38.8041    72
38.8141    63
38.8241    72
38.8341    70
38.8441    71
38.8541    60
38.8641    60
38.8741    62
38.8841    58
38.8941    73
38.9041    73
38.9141    63
38.9241    58
38.9341    62
38.9441    62
38.9541    57
38.9641    64
38.9741    69
38.9841    67
38.9941    58
39.0041    56
39.0141    61
39.0241    59
39.0341    52
39.0441    52
39.0541    50
39.0641    49
39.0741    63
39.0841    57
39.0941    69
39.1041    54
39.1141    58
39.1241    56
39.1341    53
39.1441    52
39.1541    60
39.1641    64
39.1741    60
39.1841    55
39.1941    51
39.2041    73
39.2141    49
39.2241    55
39.2341    58
39.2441    52
39.2541    53
39.2641    50
39.2741    44
39.2841    63
39.2941    51
39.3041    72
39.3141    40
39.3241    38
39.3341    52
39.3441    60
39.3541    52
39.3641    42
39.3741    63
39.3841    56
39.3941    61
39.4041    53
39.4141    49
39.4241    62
39.4341    50
39.4441    55
39.4541    49
39.4641    43
39.4741    60
39.4841    69
39.4941    56
39.5041    43
39.5141    46
39.5241    47
39.5341    37
39.5441    51
39.5541    55
39.5641    50
39.5741    54
39.5841    45
39.5941    41
39.6041    51
39.6141    45
39.6241    50
39.6341    50
39.6441    42
39.6541    40
39.6641    45
39.6741    41
39.6841    55
39.6941    57
39.7041    54
39.7141    54
39.7241    36
39.7341    41
39.7441    50
39.7541    42
39.7641    51
39.7741    53
39.7841    46
39.7941    38
39.8041    35
39.8141    52
39.8241    44
39.8341    44
39.8441    42
39.8541    40
39.8641    45
39.8741    39
39.8841    63
39.8941    49
39.9041    34
39.9141    42
39.9241    48
39.9341    51
39.9441    48
39.9541    32
39.9641    49
39.9741    41
39.9841    40
39.9941    54
