Bruker Nano GmbH Berlin, Germany
Esprit 1.9

Date: 5/14/2021 1:36:43 PM
Real time: 15336
Life time: 14285
Pulse density: 102201


Detector type: XFlash 430
Window type: Custom type
Detector thickness: 0.45
Si dead layer:0.029

Calibration, lin.: 10
Calibration, abs.: -955.9
Mn FWHM: 137.05
Fano factor: 0.121
Channels: 4095

Energy Counts
-0.9559     0
-0.9459     0
-0.9359     0
-0.9259     0
-0.9159     0
-0.9059     0
-0.8959     0
-0.8859     0
-0.8759     0
-0.8659     0
-0.8559     0
-0.8459     0
-0.8359     0
-0.8259     0
-0.8159     0
-0.8059     0
-0.7959     0
-0.7859     0
-0.7759     0
-0.7659     0
-0.7559     0
-0.7459     0
-0.7359     0
-0.7259     0
-0.7159     0
-0.7059     0
-0.6959     0
-0.6859     0
-0.6759     0
-0.6659     0
-0.6559     0
-0.6459     0
-0.6359     0
-0.6259     0
-0.6159     0
-0.6059     0
-0.5959     0
-0.5859     0
-0.5759     0
-0.5659     0
-0.5559     0
-0.5459     0
-0.5359     0
-0.5259     0
-0.5159     0
-0.5059     0
-0.4959     0
-0.4859     0
-0.4759     0
-0.4659     0
-0.4559     0
-0.4459     0
-0.4359     0
-0.4259     0
-0.4159     0
-0.4059     0
-0.3959     0
-0.3859     0
-0.3759     0
-0.3659     0
-0.3559     0
-0.3459     0
-0.3359     0
-0.3259     0
-0.3159     0
-0.3059     0
-0.2959     0
-0.2859     0
-0.2759     0
-0.2659     0
-0.2559     0
-0.2459     0
-0.2359     0
-0.2259     0
-0.2159     0
-0.2059     0
-0.1959     0
-0.1859     0
-0.1759     0
-0.1659     0
-0.1559     0
-0.1459     0
-0.1359     0
-0.1259     1
-0.1159     3
-0.1059    14
-0.0959    41
-0.0859   157
-0.0759   544
-0.0659  1591
-0.0559  4221
-0.0459  9169
-0.0359 16867
-0.0259 26949
-0.0159 37342
-0.0059 43783
 0.0041 43966
 0.0141 37933
 0.0241 28076
 0.0341 17799
 0.0441  9610
 0.0541  4562
 0.0641  1784
 0.0741   641
 0.0841   200
 0.0941    53
 0.1041    26
 0.1141     8
 0.1241    11
 0.1341     7
 0.1441     7
 0.1541     5
 0.1641     2
 0.1741     0
 0.1841   130
 0.1941   251
 0.2041   205
 0.2141   207
 0.2241   228
 0.2341   225
 0.2441   208
 0.2541   237
 0.2641   226
 0.2741   225
 0.2841   207
 0.2941   221
 0.3041   220
 0.3141   221
 0.3241   207
 0.3341   207
 0.3441   199
 0.3541   217
 0.3641   199
 0.3741   188
 0.3841   199
 0.3941   193
 0.4041   196
 0.4141   201
 0.4241   180
 0.4341   180
 0.4441   178
 0.4541   180
 0.4641   189
 0.4741   210
 0.4841   193
 0.4941   194
 0.5041   188
 0.5141   188
 0.5241   207
 0.5341   186
 0.5441   178
 0.5541   194
 0.5641   205
 0.5741   196
 0.5841   180
 0.5941   168
 0.6041   187
 0.6141   192
 0.6241   170
 0.6341   178
 0.6441   171
 0.6541   157
 0.6641   159
 0.6741   167
 0.6841   159
 0.6941   150
 0.7041   163
 0.7141   172
 0.7241   163
 0.7341   157
 0.7441   157
 0.7541   160
 0.7641   167
 0.7741   175
 0.7841   165
 0.7941   185
 0.8041   172
 0.8141   153
 0.8241   146
 0.8341   144
 0.8441   157
 0.8541   162
 0.8641   165
 0.8741   158
 0.8841   154
 0.8941   162
 0.9041   154
 0.9141   147
 0.9241   137
 0.9341   141
 0.9441   151
 0.9541   149
 0.9641   151
 0.9741   151
 0.9841   154
 0.9941   160
 1.0041   144
 1.0141   136
 1.0241   152
 1.0341   136
 1.0441   142
 1.0541   139
 1.0641   133
 1.0741   137
 1.0841   124
 1.0941   134
 1.1041   162
 1.1141   153
 1.1241   142
 1.1341   135
 1.1441   135
 1.1541   155
 1.1641   145
 1.1741   141
 1.1841   133
 1.1941   130
 1.2041   151
 1.2141   122
 1.2241   136
 1.2341   124
 1.2441   136
 1.2541   153
 1.2641   125
 1.2741   133
 1.2841   161
 1.2941   131
 1.3041   128
 1.3141   137
 1.3241   142
 1.3341   131
 1.3441   129
 1.3541   136
 1.3641   129
 1.3741   130
 1.3841   148
 1.3941   126
 1.4041   138
 1.4141   127
 1.4241   117
 1.4341   102
 1.4441   117
 1.4541   136
 1.4641   132
 1.4741   146
 1.4841   122
 1.4941   123
 1.5041   127
 1.5141   130
 1.5241   147
 1.5341   142
 1.5441   114
 1.5541   124
 1.5641   115
 1.5741   115
 1.5841   125
 1.5941   120
 1.6041   101
 1.6141   113
 1.6241   154
 1.6341   133
 1.6441   149
 1.6541   171
 1.6641   203
 1.6741   248
 1.6841   286
 1.6941   331
 1.7041   445
 1.7141   481
 1.7241   542
 1.7341   595
 1.7441   586
 1.7541   542
 1.7641   479
 1.7741   441
 1.7841   369
 1.7941   310
 1.8041   264
 1.8141   213
 1.8241   182
 1.8341   165
 1.8441   143
 1.8541   155
 1.8641   167
 1.8741   137
 1.8841   138
 1.8941   135
 1.9041   124
 1.9141   120
 1.9241   127
 1.9341   114
 1.9441   140
 1.9541   130
 1.9641   126
 1.9741   166
 1.9841   128
 1.9941   143
 2.0041   163
 2.0141   140
 2.0241   143
 2.0341   137
 2.0441   150
 2.0541   137
 2.0641   164
 2.0741   130
 2.0841   124
 2.0941   120
 2.1041   131
 2.1141   120
 2.1241   124
 2.1341   133
 2.1441   117
 2.1541    99
 2.1641   115
 2.1741   132
 2.1841   108
 2.1941   136
 2.2041   124
 2.2141   109
 2.2241   118
 2.2341   144
 2.2441   128
 2.2541   114
 2.2641   115
 2.2741    91
 2.2841   111
 2.2941    99
 2.3041   118
 2.3141   112
 2.3241   135
 2.3341   113
 2.3441   115
 2.3541   111
 2.3641   110
 2.3741   114
 2.3841   114
 2.3941   107
 2.4041   122
 2.4141   111
 2.4241   105
 2.4341   103
 2.4441   122
 2.4541   120
 2.4641    92
 2.4741   120
 2.4841   102
 2.4941   107
 2.5041   119
 2.5141   111
 2.5241   122
 2.5341    94
 2.5441   103
 2.5541    98
 2.5641   106
 2.5741   100
 2.5841    89
 2.5941    85
 2.6041   115
 2.6141   119
 2.6241   113
 2.6341   114
 2.6441   116
 2.6541    97
 2.6641   105
 2.6741    94
 2.6841   100
 2.6941    80
 2.7041    99
 2.7141    93
 2.7241    94
 2.7341    95
 2.7441   106
 2.7541   110
 2.7641   109
 2.7741   106
 2.7841   105
 2.7941    91
 2.8041   113
 2.8141    88
 2.8241   134
 2.8341   113
 2.8441    99
 2.8541    89
 2.8641    92
 2.8741    89
 2.8841   129
 2.8941   104
 2.9041    89
 2.9141    99
 2.9241   105
 2.9341    84
 2.9441    93
 2.9541    97
 2.9641    96
 2.9741    90
 2.9841   101
 2.9941    78
 3.0041    75
 3.0141   102
 3.0241    96
 3.0341   107
 3.0441   103
 3.0541    88
 3.0641    82
 3.0741    91
 3.0841    92
 3.0941    88
 3.1041    89
 3.1141    76
 3.1241    85
 3.1341    90
 3.1441    83
 3.1541    98
 3.1641    85
 3.1741    94
 3.1841    89
 3.1941    95
 3.2041    88
 3.2141    97
 3.2241   118
 3.2341   122
 3.2441   131
 3.2541   151
 3.2641   164
 3.2741   185
 3.2841   230
 3.2941   200
 3.3041   234
 3.3141   238
 3.3241   236
 3.3341   189
 3.3441   218
 3.3541   186
 3.3641   160
 3.3741   152
 3.3841   141
 3.3941   100
 3.4041    99
 3.4141    88
 3.4241    85
 3.4341    93
 3.4441    86
 3.4541    80
 3.4641    90
 3.4741    75
 3.4841    89
 3.4941    80
 3.5041    76
 3.5141    90
 3.5241    88
 3.5341    96
 3.5441    96
 3.5541   104
 3.5641   127
 3.5741   155
 3.5841   182
 3.5941   203
 3.6041   252
 3.6141   333
 3.6241   383
 3.6341   488
 3.6441   548
 3.6541   663
 3.6641   727
 3.6741   799
 3.6841   844
 3.6941   789
 3.7041   761
 3.7141   714
 3.7241   632
 3.7341   549
 3.7441   443
 3.7541   386
 3.7641   284
 3.7741   230
 3.7841   174
 3.7941   166
 3.8041   114
 3.8141    91
 3.8241    80
 3.8341    76
 3.8441    66
 3.8541    72
 3.8641    71
 3.8741    79
 3.8841    65
 3.8941    67
 3.9041    71
 3.9141    83
 3.9241    79
 3.9341    92
 3.9441    84
 3.9541   103
 3.9641   116
 3.9741   125
 3.9841   143
 3.9941   148
 4.0041   147
 4.0141   171
 4.0241   169
 4.0341   148
 4.0441   147
 4.0541   139
 4.0641   121
 4.0741    95
 4.0841   101
 4.0941    76
 4.1041    84
 4.1141    74
 4.1241    59
 4.1341    66
 4.1441    66
 4.1541    68
 4.1641    66
 4.1741    70
 4.1841    58
 4.1941    54
 4.2041    52
 4.2141    58
 4.2241    64
 4.2341    61
 4.2441    65
 4.2541    58
 4.2641    56
 4.2741    66
 4.2841    43
 4.2941    49
 4.3041    47
 4.3141    61
 4.3241    69
 4.3341    65
 4.3441    68
 4.3541    76
 4.3641    66
 4.3741    84
 4.3841   101
 4.3941    98
 4.4041   121
 4.4141   147
 4.4241   181
 4.4341   234
 4.4441   258
 4.4541   332
 4.4641   343
 4.4741   384
 4.4841   418
 4.4941   398
 4.5041   493
 4.5141   460
 4.5241   410
 4.5341   391
 4.5441   367
 4.5541   329
 4.5641   287
 4.5741   227
 4.5841   201
 4.5941   149
 4.6041   122
 4.6141   108
 4.6241   120
 4.6341    92
 4.6441    64
 4.6541    86
 4.6641    76
 4.6741    61
 4.6841    69
 4.6941    76
 4.7041    61
 4.7141    66
 4.7241    70
 4.7341    78
 4.7441    78
 4.7541    78
 4.7641    80
 4.7741    77
 4.7841    85
 4.7941    93
 4.8041   106
 4.8141    98
 4.8241    93
 4.8341   119
 4.8441   120
 4.8541   105
 4.8641   122
 4.8741   150
 4.8841   137
 4.8941   131
 4.9041   160
 4.9141   158
 4.9241   169
 4.9341   172
 4.9441   161
 4.9541   166
 4.9641   110
 4.9741   127
 4.9841   129
 4.9941   102
 5.0041   113
 5.0141    96
 5.0241    73
 5.0341    79
 5.0441    90
 5.0541    75
 5.0641    81
 5.0741    65
 5.0841    68
 5.0941    81
 5.1041    66
 5.1141    86
 5.1241    66
 5.1341    75
 5.1441    82
 5.1541    67
 5.1641    77
 5.1741    83
 5.1841    70
 5.1941    78
 5.2041    71
 5.2141    67
 5.2241    72
 5.2341    71
 5.2441    75
 5.2541    75
 5.2641    77
 5.2741    90
 5.2841    78
 5.2941    75
 5.3041    75
 5.3141    80
 5.3241    96
 5.3341    83
 5.3441    95
 5.3541   103
 5.3641   122
 5.3741    97
 5.3841   109
 5.3941   108
 5.4041   101
 5.4141   109
 5.4241   117
 5.4341   127
 5.4441   118
 5.4541   108
 5.4641   105
 5.4741   107
 5.4841   106
 5.4941   113
 5.5041    83
 5.5141    97
 5.5241    90
 5.5341    81
 5.5441    86
 5.5541    98
 5.5641    85
 5.5741    87
 5.5841    73
 5.5941    78
 5.6041    73
 5.6141    92
 5.6241    74
 5.6341    81
 5.6441    86
 5.6541    67
 5.6641    93
 5.6741    66
 5.6841    89
 5.6941    72
 5.7041    66
 5.7141    85
 5.7241    62
 5.7341    91
 5.7441    89
 5.7541   100
 5.7641    86
 5.7741   104
 5.7841   128
 5.7941   137
 5.8041   160
 5.8141   191
 5.8241   200
 5.8341   212
 5.8441   253
 5.8541   272
 5.8641   288
 5.8741   276
 5.8841   328
 5.8941   345
 5.9041   323
 5.9141   305
 5.9241   298
 5.9341   278
 5.9441   257
 5.9541   228
 5.9641   216
 5.9741   180
 5.9841   175
 5.9941   155
 6.0041   156
 6.0141   112
 6.0241   116
 6.0341   108
 6.0441   114
 6.0541   111
 6.0641   115
 6.0741   118
 6.0841   130
 6.0941   109
 6.1041   108
 6.1141   128
 6.1241   156
 6.1341   134
 6.1441   162
 6.1541   145
 6.1641   196
 6.1741   226
 6.1841   245
 6.1941   287
 6.2041   361
 6.2141   503
 6.2241   650
 6.2341   935
 6.2441  1308
 6.2541  1779
 6.2641  2538
 6.2741  3383
 6.2841  4676
 6.2941  5997
 6.3041  7837
 6.3141  9786
 6.3241 12464
 6.3341 14770
 6.3441 17406
 6.3541 19994
 6.3641 22186
 6.3741 23877
 6.3841 25254
 6.3941 25870
 6.4041 25690
 6.4141 24770
 6.4241 23420
 6.4341 21571
 6.4441 19113
 6.4541 16750
 6.4641 14159
 6.4741 11531
 6.4841  9403
 6.4941  7306
 6.5041  5475
 6.5141  4063
 6.5241  3014
 6.5341  2077
 6.5441  1468
 6.5541  1035
 6.5641   721
 6.5741   484
 6.5841   371
 6.5941   247
 6.6041   234
 6.6141   207
 6.6241   153
 6.6341   144
 6.6441   134
 6.6541   130
 6.6641   139
 6.6741   132
 6.6841   121
 6.6941   143
 6.7041   129
 6.7141   139
 6.7241   144
 6.7341   135
 6.7441   156
 6.7541   170
 6.7641   162
 6.7741   138
 6.7841   142
 6.7941   179
 6.8041   171
 6.8141   169
 6.8241   219
 6.8341   233
 6.8441   229
 6.8541   254
 6.8641   301
 6.8741   297
 6.8841   344
 6.8941   396
 6.9041   476
 6.9141   613
 6.9241   771
 6.9341   930
 6.9441  1198
 6.9541  1525
 6.9641  1687
 6.9741  2014
 6.9841  2435
 6.9941  2881
 7.0041  3206
 7.0141  3583
 7.0241  3757
 7.0341  4180
 7.0441  4145
 7.0541  4203
 7.0641  4187
 7.0741  3953
 7.0841  3682
 7.0941  3389
 7.1041  3119
 7.1141  2774
 7.1241  2303
 7.1341  2026
 7.1441  1580
 7.1541  1299
 7.1641   987
 7.1741   810
 7.1841   660
 7.1941   466
 7.2041   350
 7.2141   314
 7.2241   251
 7.2341   213
 7.2441   193
 7.2541   185
 7.2641   194
 7.2741   168
 7.2841   149
 7.2941   163
 7.3041   152
 7.3141   149
 7.3241   154
 7.3341   161
 7.3441   179
 7.3541   153
 7.3641   187
 7.3741   214
 7.3841   196
 7.3941   217
 7.4041   238
 7.4141   193
 7.4241   211
 7.4341   217
 7.4441   203
 7.4541   229
 7.4641   208
 7.4741   204
 7.4841   199
 7.4941   184
 7.5041   177
 7.5141   197
 7.5241   154
 7.5341   136
 7.5441   173
 7.5541   162
 7.5641   161
 7.5741   145
 7.5841   132
 7.5941   152
 7.6041   161
 7.6141   136
 7.6241   143
 7.6341   142
 7.6441   144
 7.6541   149
 7.6641   154
 7.6741   149
 7.6841   162
 7.6941   168
 7.7041   151
 7.7141   143
 7.7241   135
 7.7341   175
 7.7441   198
 7.7541   165
 7.7641   165
 7.7741   174
 7.7841   165
 7.7941   176
 7.8041   178
 7.8141   192
 7.8241   180
 7.8341   193
 7.8441   200
 7.8541   198
 7.8641   219
 7.8741   241
 7.8841   249
 7.8941   239
 7.9041   242
 7.9141   256
 7.9241   257
 7.9341   294
 7.9441   300
 7.9541   334
 7.9641   329
 7.9741   329
 7.9841   397
 7.9941   442
 8.0041   467
 8.0141   494
 8.0241   504
 8.0341   552
 8.0441   662
 8.0541   611
 8.0641   689
 8.0741   688
 8.0841   735
 8.0941   803
 8.1041   845
 8.1141   805
 8.1241   914
 8.1341   894
 8.1441   901
 8.1541   967
 8.1641   972
 8.1741   975
 8.1841   972
 8.1941  1043
 8.2041  1021
 8.2141  1009
 8.2241   978
 8.2341  1007
 8.2441  1054
 8.2541  1137
 8.2641  1144
 8.2741  1197
 8.2841  1265
 8.2941  1386
 8.3041  1485
 8.3141  1541
 8.3241  1705
 8.3341  1874
 8.3441  1855
 8.3541  2058
 8.3641  2140
 8.3741  2169
 8.3841  2202
 8.3941  2194
 8.4041  2126
 8.4141  2157
 8.4241  2027
 8.4341  1837
 8.4441  1687
 8.4541  1471
 8.4641  1357
 8.4741  1197
 8.4841  1018
 8.4941   883
 8.5041   706
 8.5141   624
 8.5241   574
 8.5341   468
 8.5441   406
 8.5541   350
 8.5641   344
 8.5741   317
 8.5841   306
 8.5941   294
 8.6041   303
 8.6141   283
 8.6241   292
 8.6341   270
 8.6441   321
 8.6541   296
 8.6641   295
 8.6741   261
 8.6841   272
 8.6941   277
 8.7041   267
 8.7141   247
 8.7241   253
 8.7341   229
 8.7441   255
 8.7541   249
 8.7641   218
 8.7741   242
 8.7841   242
 8.7941   231
 8.8041   221
 8.8141   212
 8.8241   228
 8.8341   229
 8.8441   208
 8.8541   225
 8.8641   231
 8.8741   205
 8.8841   210
 8.8941   238
 8.9041   247
 8.9141   218
 8.9241   251
 8.9341   266
 8.9441   232
 8.9541   235
 8.9641   257
 8.9741   258
 8.9841   262
 8.9941   265
 9.0041   268
 9.0141   245
 9.0241   267
 9.0341   274
 9.0441   277
 9.0541   315
 9.0641   301
 9.0741   320
 9.0841   365
 9.0941   366
 9.1041   368
 9.1141   373
 9.1241   375
 9.1341   408
 9.1441   412
 9.1541   412
 9.1641   418
 9.1741   450
 9.1841   496
 9.1941   513
 9.2041   536
 9.2141   573
 9.2241   660
 9.2341   631
 9.2441   660
 9.2541   668
 9.2641   738
 9.2741   729
 9.2841   755
 9.2941   764
 9.3041   803
 9.3141   858
 9.3241   850
 9.3341   895
 9.3441   898
 9.3541   927
 9.3641   951
 9.3741   967
 9.3841   927
 9.3941   990
 9.4041  1025
 9.4141  1060
 9.4241  1057
 9.4341  1035
 9.4441  1084
 9.4541  1074
 9.4641  1055
 9.4741  1097
 9.4841  1070
 9.4941  1105
 9.5041  1162
 9.5141  1215
 9.5241  1245
 9.5341  1251
 9.5441  1345
 9.5541  1425
 9.5641  1513
 9.5741  1566
 9.5841  1622
 9.5941  1709
 9.6041  1809
 9.6141  1972
 9.6241  2000
 9.6341  2008
 9.6441  2097
 9.6541  2225
 9.6641  2153
 9.6741  2152
 9.6841  2145
 9.6941  2118
 9.7041  2012
 9.7141  1890
 9.7241  1780
 9.7341  1688
 9.7441  1548
 9.7541  1400
 9.7641  1280
 9.7741  1210
 9.7841  1107
 9.7941  1044
 9.8041   913
 9.8141   925
 9.8241   903
 9.8341   876
 9.8441   829
 9.8541   856
 9.8641   844
 9.8741   837
 9.8841   863
 9.8941   851
 9.9041   901
 9.9141   925
 9.9241   873
 9.9341   873
 9.9441   889
 9.9541   914
 9.9641   884
 9.9741   895
 9.9841   795
 9.9941   755
10.0041   747
10.0141   673
10.0241   628
10.0341   584
10.0441   571
10.0541   488
10.0641   445
10.0741   397
10.0841   363
10.0941   329
10.1041   300
10.1141   259
10.1241   242
10.1341   224
10.1441   213
10.1541   189
10.1641   207
10.1741   192
10.1841   171
10.1941   179
10.2041   179
10.2141   167
10.2241   150
10.2341   144
10.2441   145
10.2541   148
10.2641   161
10.2741   136
10.2841   137
10.2941   145
10.3041   141
10.3141   109
10.3241   122
10.3341   108
10.3441   109
10.3541    98
10.3641   120
10.3741   125
10.3841   118
10.3941   113
10.4041   107
10.4141   118
10.4241   127
10.4341   127
10.4441   131
10.4541   129
10.4641   117
10.4741   143
10.4841   149
10.4941   133
10.5041   147
10.5141   145
10.5241   140
10.5341   156
10.5441   155
10.5541   139
10.5641   139
10.5741   145
10.5841   157
10.5941   140
10.6041   161
10.6141   142
10.6241   133
10.6341   162
10.6441   176
10.6541   168
10.6641   173
10.6741   174
10.6841   175
10.6941   172
10.7041   172
10.7141   165
10.7241   171
10.7341   180
10.7441   189
10.7541   185
10.7641   187
10.7741   184
10.7841   185
10.7941   210
10.8041   204
10.8141   203
10.8241   207
10.8341   219
10.8441   218
10.8541   208
10.8641   194
10.8741   218
10.8841   200
10.8941   210
10.9041   209
10.9141   224
10.9241   229
10.9341   232
10.9441   240
10.9541   203
10.9641   195
10.9741   227
10.9841   203
10.9941   204
11.0041   220
11.0141   223
11.0241   194
11.0341   199
11.0441   185
11.0541   183
11.0641   192
11.0741   191
11.0841   188
11.0941   182
11.1041   175
11.1141   192
11.1241   192
11.1341   188
11.1441   215
11.1541   227
11.1641   218
11.1741   229
11.1841   234
11.1941   237
11.2041   240
11.2141   254
11.2241   255
11.2341   264
11.2441   294
11.2541   314
11.2641   306
11.2741   295
11.2841   294
11.2941   300
11.3041   301
11.3141   295
11.3241   295
11.3341   293
11.3441   252
11.3541   244
11.3641   247
11.3741   215
11.3841   225
11.3941   186
11.4041   191
11.4141   180
11.4241   165
11.4341   173
11.4441   167
11.4541   154
11.4641   164
11.4741   164
11.4841   154
11.4941   157
11.5041   148
11.5141   137
11.5241   145
11.5341   147
11.5441   135
11.5541   139
11.5641   150
11.5741   173
11.5841   171
11.5941   161
11.6041   161
11.6141   164
11.6241   180
11.6341   162
11.6441   165
11.6541   171
11.6641   160
11.6741   157
11.6841   159
11.6941   153
11.7041   144
11.7141   154
11.7241   152
11.7341   146
11.7441   142
11.7541   139
11.7641   138
11.7741   138
11.7841   119
11.7941   117
11.8041   114
11.8141   121
11.8241   111
11.8341   105
11.8441   129
11.8541   135
11.8641   125
11.8741   112
11.8841   117
11.8941   121
11.9041   106
11.9141   116
11.9241   120
11.9341   125
11.9441   126
11.9541   121
11.9641   127
11.9741   123
11.9841   128
11.9941   120
12.0041   123
12.0141   120
12.0241   125
12.0341   117
12.0441   117
12.0541   122
12.0641   125
12.0741   126
12.0841   123
12.0941   110
12.1041   120
12.1141   117
12.1241   116
12.1341   113
12.1441   109
12.1541   113
12.1641   115
12.1741   118
12.1841   123
12.1941   113
12.2041   106
12.2141    99
12.2241   109
12.2341   106
12.2441   102
12.2541   113
12.2641   114
12.2741   105
12.2841   100
12.2941    94
12.3041    99
12.3141   110
12.3241   114
12.3341   103
12.3441    95
12.3541   108
12.3641   113
12.3741   116
12.3841   100
12.3941   105
12.4041   113
12.4141   104
12.4241   112
12.4341   111
12.4441   104
12.4541   112
12.4641   117
12.4741   120
12.4841   122
12.4941   117
12.5041   108
12.5141   109
12.5241   113
12.5341   113
12.5441   118
12.5541   123
12.5641   133
12.5741   124
12.5841   116
12.5941   112
12.6041   121
12.6141   120
12.6241   122
12.6341   109
12.6441   109
12.6541   114
12.6641   110
12.6741   112
12.6841   119
12.6941   122
12.7041   122
12.7141   120
12.7241   117
12.7341   114
12.7441   115
12.7541   126
12.7641   131
12.7741   123
12.7841   118
12.7941   119
12.8041   120
12.8141   128
12.8241   136
12.8341   133
12.8441   125
12.8541   121
12.8641   125
12.8741   136
12.8841   143
12.8941   139
12.9041   133
12.9141   136
12.9241   139
12.9341   135
12.9441   134
12.9541   136
12.9641   138
12.9741   140
12.9841   145
12.9941   138
13.0041   131
13.0141   135
13.0241   126
13.0341   121
13.0441   127
13.0541   128
13.0641   132
13.0741   128
13.0841   138
13.0941   144
13.1041   133
13.1141   131
13.1241   137
13.1341   136
13.1441   140
13.1541   137
13.1641   145
13.1741   152
13.1841   155
13.1941   157
13.2041   167
13.2141   163
13.2241   183
13.2341   191
13.2441   199
13.2541   202
13.2641   198
13.2741   211
13.2841   223
13.2941   225
13.3041   233
13.3141   242
13.3241   262
13.3341   292
13.3441   295
13.3541   280
13.3641   275
13.3741   274
13.3841   265
13.3941   258
13.4041   260
13.4141   260
13.4241   254
13.4341   256
13.4441   263
13.4541   257
13.4641   236
13.4741   217
13.4841   208
13.4941   205
13.5041   204
13.5141   201
13.5241   190
13.5341   180
13.5441   171
13.5541   165
13.5641   163
13.5741   158
13.5841   155
13.5941   158
13.6041   158
13.6141   151
13.6241   144
13.6341   150
13.6441   147
13.6541   143
13.6641   162
13.6741   168
13.6841   160
13.6941   168
13.7041   170
13.7141   151
13.7241   149
13.7341   159
13.7441   152
13.7541   152
13.7641   152
13.7741   154
13.7841   165
13.7941   159
13.8041   149
13.8141   157
13.8241   164
13.8341   157
13.8441   167
13.8541   172
13.8641   154
13.8741   155
13.8841   162
13.8941   165
13.9041   172
13.9141   180
13.9241   197
13.9341   195
13.9441   196
13.9541   216
13.9641   231
13.9741   237
13.9841   246
13.9941   262
14.0041   283
14.0141   303
14.0241   322
14.0341   353
14.0441   385
14.0541   408
14.0641   433
14.0741   459
14.0841   473
14.0941   489
14.1041   510
14.1141   516
14.1241   513
14.1341   519
14.1441   524
14.1541   514
14.1641   501
14.1741   494
14.1841   492
14.1941   483
14.2041   458
14.2141   418
14.2241   404
14.2341   400
14.2441   373
14.2541   351
14.2641   334
14.2741   310
14.2841   281
14.2941   282
14.3041   269
14.3141   232
14.3241   219
14.3341   209
14.3441   208
14.3541   216
14.3641   204
14.3741   194
14.3841   195
14.3941   177
14.4041   173
14.4141   176
14.4241   173
14.4341   181
14.4441   175
14.4541   170
14.4641   186
14.4741   182
14.4841   181
14.4941   177
14.5041   184
14.5141   196
14.5241   192
14.5341   200
14.5441   197
14.5541   178
14.5641   184
14.5741   186
14.5841   167
14.5941   168
14.6041   180
14.6141   190
14.6241   180
14.6341   165
14.6441   181
14.6541   193
14.6641   183
14.6741   179
14.6841   180
14.6941   182
14.7041   185
14.7141   185
14.7241   185
14.7341   205
14.7441   195
14.7541   184
14.7641   192
14.7741   200
14.7841   206
14.7941   201
14.8041   200
14.8141   191
14.8241   184
14.8341   202
14.8441   214
14.8541   217
14.8641   214
14.8741   205
14.8841   221
14.8941   238
14.9041   233
14.9141   216
14.9241   213
14.9341   230
14.9441   231
14.9541   220
14.9641   219
14.9741   220
14.9841   215
14.9941   220
15.0041   229
15.0141   219
15.0241   226
15.0341   226
15.0441   217
15.0541   228
15.0641   232
15.0741   221
15.0841   211
15.0941   210
15.1041   211
15.1141   200
15.1241   203
15.1341   196
15.1441   193
15.1541   201
15.1641   211
15.1741   207
15.1841   197
15.1941   196
15.2041   208
15.2141   197
15.2241   182
15.2341   187
15.2441   193
15.2541   193
15.2641   196
15.2741   203
15.2841   206
15.2941   213
15.3041   207
15.3141   206
15.3241   217
15.3341   216
15.3441   204
15.3541   209
15.3641   211
15.3741   207
15.3841   192
15.3941   198
15.4041   202
15.4141   199
15.4241   205
15.4341   204
15.4441   197
15.4541   203
15.4641   213
15.4741   224
15.4841   245
15.4941   227
15.5041   215
15.5141   220
15.5241   217
15.5341   229
15.5441   234
15.5541   224
15.5641   235
15.5741   262
15.5841   260
15.5941   249
15.6041   263
15.6141   265
15.6241   280
15.6341   310
15.6441   323
15.6541   335
15.6641   343
15.6741   339
15.6841   347
15.6941   383
15.7041   369
15.7141   363
15.7241   385
15.7341   414
15.7441   427
15.7541   451
15.7641   424
15.7741   400
15.7841   401
15.7941   406
15.8041   381
15.8141   408
15.8241   405
15.8341   370
15.8441   359
15.8541   351
15.8641   361
15.8741   350
15.8841   331
15.8941   322
15.9041   307
15.9141   282
15.9241   295
15.9341   307
15.9441   283
15.9541   283
15.9641   274
15.9741   254
15.9841   255
15.9941   251
16.0041   227
16.0141   233
16.0241   244
16.0341   245
16.0441   224
16.0541   234
16.0641   248
16.0741   239
16.0841   231
16.0941   231
16.1041   247
16.1141   246
16.1241   243
16.1341   247
16.1441   239
16.1541   230
16.1641   245
16.1741   255
16.1841   246
16.1941   248
16.2041   221
16.2141   235
16.2241   243
16.2341   230
16.2441   223
16.2541   224
16.2641   223
16.2741   248
16.2841   261
16.2941   255
16.3041   258
16.3141   258
16.3241   242
16.3341   234
16.3441   246
16.3541   248
16.3641   235
16.3741   251
16.3841   227
16.3941   230
16.4041   237
16.4141   230
16.4241   243
16.4341   257
16.4441   271
16.4541   260
16.4641   276
16.4741   286
16.4841   247
16.4941   244
16.5041   272
16.5141   253
16.5241   257
16.5341   257
16.5441   269
16.5541   246
16.5641   254
16.5741   246
16.5841   232
16.5941   258
16.6041   261
16.6141   247
16.6241   241
16.6341   270
16.6441   306
16.6541   280
16.6641   236
16.6741   252
16.6841   269
16.6941   269
16.7041   233
16.7141   252
16.7241   270
16.7341   295
16.7441   294
16.7541   300
16.7641   289
16.7741   259
16.7841   258
16.7941   277
16.8041   270
16.8141   251
16.8241   273
16.8341   268
16.8441   256
16.8541   243
16.8641   256
16.8741   262
16.8841   269
16.8941   269
16.9041   279
16.9141   252
16.9241   263
16.9341   276
16.9441   260
16.9541   248
16.9641   274
16.9741   292
16.9841   252
16.9941   260
17.0041   256
17.0141   264
17.0241   284
17.0341   283
17.0441   263
17.0541   256
17.0641   255
17.0741   253
17.0841   268
17.0941   277
17.1041   297
17.1141   288
17.1241   290
17.1341   290
17.1441   277
17.1541   278
17.1641   307
17.1741   280
17.1841   271
17.1941   267
17.2041   255
17.2141   270
17.2241   280
17.2341   256
17.2441   262
17.2541   249
17.2641   267
17.2741   283
17.2841   279
17.2941   267
17.3041   281
17.3141   277
17.3241   268
17.3341   253
17.3441   268
17.3541   297
17.3641   285
17.3741   276
17.3841   272
17.3941   307
17.4041   293
17.4141   277
17.4241   275
17.4341   303
17.4441   319
17.4541   288
17.4641   293
17.4741   277
17.4841   288
17.4941   315
17.5041   292
17.5141   277
17.5241   298
17.5341   302
17.5441   292
17.5541   292
17.5641   304
17.5741   295
17.5841   278
17.5941   307
17.6041   306
17.6141   316
17.6241   332
17.6341   320
17.6441   309
17.6541   327
17.6641   311
17.6741   311
17.6841   315
17.6941   334
17.7041   333
17.7141   328
17.7241   309
17.7341   304
17.7441   306
17.7541   321
17.7641   326
17.7741   317
17.7841   316
17.7941   312
17.8041   309
17.8141   298
17.8241   320
17.8341   298
17.8441   306
17.8541   309
17.8641   291
17.8741   325
17.8841   327
17.8941   316
17.9041   298
17.9141   299
17.9241   317
17.9341   321
17.9441   304
17.9541   299
17.9641   308
17.9741   309
17.9841   314
17.9941   306
18.0041   299
18.0141   341
18.0241   313
18.0341   320
18.0441   314
18.0541   315
18.0641   322
18.0741   302
18.0841   313
18.0941   317
18.1041   315
18.1141   344
18.1241   365
18.1341   323
18.1441   319
18.1541   307
18.1641   313
18.1741   333
18.1841   345
18.1941   325
18.2041   302
18.2141   322
18.2241   315
18.2341   307
18.2441   315
18.2541   324
18.2641   333
18.2741   302
18.2841   316
18.2941   310
18.3041   303
18.3141   311
18.3241   282
18.3341   304
18.3441   321
18.3541   337
18.3641   320
18.3741   311
18.3841   304
18.3941   324
18.4041   360
18.4141   353
18.4241   340
18.4341   363
18.4441   335
18.4541   334
18.4641   326
18.4741   332
18.4841   334
18.4941   332
18.5041   303
18.5141   307
18.5241   305
18.5341   326
18.5441   279
18.5541   313
18.5641   332
18.5741   296
18.5841   324
18.5941   339
18.6041   321
18.6141   333
18.6241   335
18.6341   318
18.6441   332
18.6541   332
18.6641   328
18.6741   332
18.6841   323
18.6941   317
18.7041   332
18.7141   322
18.7241   319
18.7341   321
18.7441   346
18.7541   333
18.7641   345
18.7741   362
18.7841   365
18.7941   339
18.8041   326
18.8141   331
18.8241   335
18.8341   328
18.8441   353
18.8541   356
18.8641   352
18.8741   335
18.8841   331
18.8941   348
18.9041   341
18.9141   333
18.9241   357
18.9341   358
18.9441   340
18.9541   354
18.9641   360
18.9741   318
18.9841   352
18.9941   338
19.0041   379
19.0141   358
19.0241   351
19.0341   349
19.0441   351
19.0541   332
19.0641   364
19.0741   354
19.0841   327
19.0941   353
19.1041   341
19.1141   361
19.1241   334
19.1341   343
19.1441   356
19.1541   328
19.1641   356
19.1741   353
19.1841   380
19.1941   376
19.2041   376
19.2141   371
19.2241   348
19.2341   336
19.2441   338
19.2541   352
19.2641   336
19.2741   336
19.2841   356
19.2941   328
19.3041   349
19.3141   344
19.3241   329
19.3341   355
19.3441   337
19.3541   370
19.3641   379
19.3741   345
19.3841   361
19.3941   363
19.4041   367
19.4141   362
19.4241   354
19.4341   343
19.4441   368
19.4541   355
19.4641   348
19.4741   344
19.4841   364
19.4941   365
19.5041   336
19.5141   358
19.5241   343
19.5341   369
19.5441   351
19.5541   372
19.5641   371
19.5741   360
19.5841   375
19.5941   386
19.6041   364
19.6141   377
19.6241   350
19.6341   344
19.6441   348
19.6541   347
19.6641   354
19.6741   366
19.6841   364
19.6941   385
19.7041   356
19.7141   361
19.7241   369
19.7341   376
19.7441   377
19.7541   351
19.7641   365
19.7741   366
19.7841   373
19.7941   384
19.8041   382
19.8141   375
19.8241   384
19.8341   385
19.8441   358
19.8541   371
19.8641   358
19.8741   343
19.8841   381
19.8941   375
19.9041   341
19.9141   335
19.9241   365
19.9341   392
19.9441   375
19.9541   376
19.9641   342
19.9741   363
19.9841   357
19.9941   383
20.0041   381
20.0141   355
20.0241   387
20.0341   385
20.0441   421
20.0541   404
20.0641   386
20.0741   403
20.0841   356
20.0941   352
20.1041   371
20.1141   385
20.1241   356
20.1341   380
20.1441   372
20.1541   369
20.1641   378
20.1741   395
20.1841   391
20.1941   393
20.2041   412
20.2141   400
20.2241   381
20.2341   349
20.2441   358
20.2541   416
20.2641   392
20.2741   364
20.2841   360
20.2941   375
20.3041   368
20.3141   383
20.3241   382
20.3341   384
20.3441   408
20.3541   362
20.3641   380
20.3741   381
20.3841   375
20.3941   350
20.4041   365
20.4141   379
20.4241   382
20.4341   401
20.4441   402
20.4541   396
20.4641   410
20.4741   363
20.4841   367
20.4941   392
20.5041   379
20.5141   367
20.5241   387
20.5341   359
20.5441   410
20.5541   418
20.5641   408
20.5741   417
20.5841   354
20.5941   408
20.6041   400
20.6141   400
20.6241   377
20.6341   398
20.6441   398
20.6541   402
20.6641   378
20.6741   396
20.6841   381
20.6941   398
20.7041   417
20.7141   368
20.7241   378
20.7341   405
20.7441   418
20.7541   390
20.7641   410
20.7741   422
20.7841   381
20.7941   413
20.8041   397
20.8141   412
20.8241   412
20.8341   428
20.8441   416
20.8541   410
20.8641   386
20.8741   414
20.8841   461
20.8941   447
20.9041   442
20.9141   466
20.9241   429
20.9341   462
20.9441   493
20.9541   460
20.9641   477
20.9741   548
20.9841   566
20.9941   563
21.0041   542
21.0141   549
21.0241   586
21.0341   551
21.0441   579
21.0541   617
21.0641   590
21.0741   622
21.0841   600
21.0941   604
21.1041   601
21.1141   638
21.1241   603
21.1341   608
21.1441   538
21.1541   610
21.1641   611
21.1741   611
21.1841   557
21.1941   595
21.2041   560
21.2141   575
21.2241   580
21.2341   543
21.2441   543
21.2541   494
21.2641   480
21.2741   519
21.2841   498
21.2941   485
21.3041   461
21.3141   476
21.3241   489
21.3341   445
21.3441   454
21.3541   446
21.3641   378
21.3741   400
21.3841   408
21.3941   370
21.4041   418
21.4141   415
21.4241   397
21.4341   383
21.4441   409
21.4541   369
21.4641   399
21.4741   406
21.4841   392
21.4941   405
21.5041   408
21.5141   400
21.5241   399
21.5341   370
21.5441   418
21.5541   444
21.5641   405
21.5741   400
21.5841   401
21.5941   388
21.6041   386
21.6141   402
21.6241   402
21.6341   404
21.6441   430
21.6541   369
21.6641   379
21.6741   397
21.6841   422
21.6941   393
21.7041   403
21.7141   391
21.7241   392
21.7341   425
21.7441   435
21.7541   403
21.7641   392
21.7741   418
21.7841   404
21.7941   367
21.8041   410
21.8141   382
21.8241   393
21.8341   406
21.8441   405
21.8541   372
21.8641   376
21.8741   398
21.8841   382
21.8941   393
21.9041   385
21.9141   413
21.9241   412
21.9341   395
21.9441   378
21.9541   402
21.9641   413
21.9741   415
21.9841   415
21.9941   414
22.0041   404
22.0141   411
22.0241   424
22.0341   437
22.0441   418
22.0541   400
22.0641   392
22.0741   352
22.0841   428
22.0941   366
22.1041   386
22.1141   377
22.1241   402
22.1341   372
22.1441   382
22.1541   382
22.1641   423
22.1741   409
22.1841   429
22.1941   404
22.2041   385
22.2141   424
22.2241   420
22.2341   424
22.2441   391
22.2541   397
22.2641   441
22.2741   403
22.2841   416
22.2941   393
22.3041   386
22.3141   386
22.3241   394
22.3341   413
22.3441   412
22.3541   405
22.3641   381
22.3741   402
22.3841   423
22.3941   405
22.4041   379
22.4141   408
22.4241   399
22.4341   412
22.4441   375
22.4541   399
22.4641   428
22.4741   393
22.4841   380
22.4941   393
22.5041   410
22.5141   408
22.5241   375
22.5341   434
22.5441   405
22.5541   406
22.5641   389
22.5741   415
22.5841   403
22.5941   439
22.6041   389
22.6141   376
22.6241   374
22.6341   397
22.6441   427
22.6541   409
22.6641   386
22.6741   416
22.6841   386
22.6941   407
22.7041   425
22.7141   421
22.7241   413
22.7341   384
22.7441   396
22.7541   427
22.7641   413
22.7741   387
22.7841   409
22.7941   421
22.8041   401
22.8141   388
22.8241   420
22.8341   415
22.8441   419
22.8541   456
22.8641   382
22.8741   400
22.8841   389
22.8941   395
22.9041   381
22.9141   419
22.9241   374
22.9341   357
22.9441   397
22.9541   380
22.9641   371
22.9741   432
22.9841   384
22.9941   392
23.0041   406
23.0141   388
23.0241   378
23.0341   391
23.0441   414
23.0541   406
23.0641   398
23.0741   378
23.0841   399
23.0941   386
23.1041   401
23.1141   386
23.1241   455
23.1341   412
23.1441   384
23.1541   374
23.1641   403
23.1741   409
23.1841   411
23.1941   392
23.2041   403
23.2141   397
23.2241   365
23.2341   409
23.2441   389
23.2541   381
23.2641   367
23.2741   394
23.2841   392
23.2941   387
23.3041   380
23.3141   384
23.3241   419
23.3341   361
23.3441   382
23.3541   368
23.3641   371
23.3741   372
23.3841   364
23.3941   361
23.4041   381
23.4141   412
23.4241   410
23.4341   360
23.4441   371
23.4541   396
23.4641   418
23.4741   366
23.4841   346
23.4941   395
23.5041   402
23.5141   352
23.5241   411
23.5341   354
23.5441   424
23.5541   384
23.5641   387
23.5741   361
23.5841   390
23.5941   367
23.6041   426
23.6141   382
23.6241   358
23.6341   371
23.6441   368
23.6541   412
23.6641   380
23.6741   393
23.6841   384
23.6941   389
23.7041   374
23.7141   457
23.7241   380
23.7341   419
23.7441   400
23.7541   394
23.7641   445
23.7741   411
23.7841   412
23.7941   416
23.8041   420
23.8141   448
23.8241   394
23.8341   432
23.8441   415
23.8541   389
23.8641   402
23.8741   421
23.8841   421
23.8941   394
23.9041   391
23.9141   413
23.9241   402
23.9341   433
23.9441   401
23.9541   415
23.9641   405
23.9741   396
23.9841   362
23.9941   379
24.0041   372
24.0141   400
24.0241   366
24.0341   372
24.0441   373
24.0541   383
24.0641   383
24.0741   399
24.0841   365
24.0941   398
24.1041   383
24.1141   406
24.1241   432
24.1341   365
24.1441   381
24.1541   402
24.1641   414
24.1741   376
24.1841   367
24.1941   410
24.2041   351
24.2141   408
24.2241   437
24.2341   375
24.2441   417
24.2541   342
24.2641   390
24.2741   403
24.2841   382
24.2941   355
24.3041   389
24.3141   383
24.3241   392
24.3341   400
24.3441   395
24.3541   375
24.3641   382
24.3741   371
24.3841   378
24.3941   372
24.4041   385
24.4141   369
24.4241   339
24.4341   385
24.4441   377
24.4541   394
24.4641   358
24.4741   371
24.4841   374
24.4941   357
24.5041   378
24.5141   368
24.5241   378
24.5341   417
24.5441   380
24.5541   377
24.5641   389
24.5741   381
24.5841   362
24.5941   374
24.6041   371
24.6141   361
24.6241   339
24.6341   383
24.6441   381
24.6541   379
24.6641   353
24.6741   343
24.6841   369
24.6941   326
24.7041   363
24.7141   400
24.7241   382
24.7341   333
24.7441   368
24.7541   382
24.7641   367
24.7741   360
24.7841   322
24.7941   372
24.8041   368
24.8141   368
24.8241   378
24.8341   382
24.8441   371
24.8541   397
24.8641   345
24.8741   364
24.8841   379
24.8941   379
24.9041   366
24.9141   364
24.9241   360
24.9341   369
24.9441   380
24.9541   374
24.9641   364
24.9741   363
24.9841   353
24.9941   388
25.0041   384
25.0141   371
25.0241   381
25.0341   380
25.0441   346
25.0541   372
25.0641   376
25.0741   347
25.0841   388
25.0941   395
25.1041   377
25.1141   362
25.1241   406
25.1341   391
25.1441   378
25.1541   389
25.1641   352
25.1741   389
25.1841   371
25.1941   407
25.2041   382
25.2141   383
25.2241   387
25.2341   380
25.2441   404
25.2541   378
25.2641   377
25.2741   355
25.2841   377
25.2941   358
25.3041   374
25.3141   344
25.3241   383
25.3341   355
25.3441   379
25.3541   363
25.3641   390
25.3741   363
25.3841   361
25.3941   351
25.4041   358
25.4141   381
25.4241   365
25.4341   355
25.4441   345
25.4541   364
25.4641   370
25.4741   412
25.4841   328
25.4941   337
25.5041   365
25.5141   372
25.5241   358
25.5341   347
25.5441   348
25.5541   361
25.5641   338
25.5741   362
25.5841   332
25.5941   365
25.6041   370
25.6141   371
25.6241   370
25.6341   346
25.6441   363
25.6541   347
25.6641   333
25.6741   355
25.6841   335
25.6941   341
25.7041   335
25.7141   329
25.7241   347
25.7341   340
25.7441   382
25.7541   320
25.7641   350
25.7741   344
25.7841   355
25.7941   343
25.8041   353
25.8141   327
25.8241   346
25.8341   354
25.8441   332
25.8541   318
25.8641   306
25.8741   319
25.8841   317
25.8941   330
25.9041   337
25.9141   347
25.9241   328
25.9341   357
25.9441   332
25.9541   296
25.9641   351
25.9741   352
25.9841   332
25.9941   337
26.0041   330
26.0141   341
26.0241   336
26.0341   342
26.0441   335
26.0541   327
26.0641   347
26.0741   331
26.0841   353
26.0941   352
26.1041   347
26.1141   372
26.1241   336
26.1341   328
26.1441   341
26.1541   351
26.1641   320
26.1741   356
26.1841   304
26.1941   307
26.2041   306
26.2141   327
26.2241   338
26.2341   345
26.2441   335
26.2541   321
26.2641   362
26.2741   309
26.2841   295
26.2941   303
26.3041   360
26.3141   328
26.3241   332
26.3341   347
26.3441   330
26.3541   362
26.3641   317
26.3741   345
26.3841   332
26.3941   330
26.4041   328
26.4141   344
26.4241   326
26.4341   313
26.4441   340
26.4541   327
26.4641   326
26.4741   308
26.4841   302
26.4941   360
26.5041   307
26.5141   312
26.5241   318
26.5341   319
26.5441   321
26.5541   325
26.5641   350
26.5741   348
26.5841   301
26.5941   328
26.6041   330
26.6141   320
26.6241   299
26.6341   313
26.6441   344
26.6541   304
26.6641   331
26.6741   344
26.6841   339
26.6941   314
26.7041   296
26.7141   307
26.7241   280
26.7341   316
26.7441   293
26.7541   331
26.7641   318
26.7741   331
26.7841   368
26.7941   298
26.8041   314
26.8141   327
26.8241   297
26.8341   286
26.8441   299
26.8541   341
26.8641   311
26.8741   327
26.8841   318
26.8941   302
26.9041   300
26.9141   308
26.9241   320
26.9341   322
26.9441   316
26.9541   333
26.9641   284
26.9741   329
26.9841   311
26.9941   320
27.0041   311
27.0141   320
27.0241   298
27.0341   291
27.0441   288
27.0541   289
27.0641   325
27.0741   328
27.0841   302
27.0941   279
27.1041   330
27.1141   315
27.1241   306
27.1341   303
27.1441   290
27.1541   323
27.1641   296
27.1741   311
27.1841   299
27.1941   306
27.2041   293
27.2141   298
27.2241   316
27.2341   297
27.2441   311
27.2541   292
27.2641   293
27.2741   324
27.2841   283
27.2941   290
27.3041   319
27.3141   316
27.3241   323
27.3341   308
27.3441   310
27.3541   283
27.3641   295
27.3741   281
27.3841   276
27.3941   291
27.4041   282
27.4141   293
27.4241   289
27.4341   327
27.4441   309
27.4541   314
27.4641   313
27.4741   297
27.4841   295
27.4941   285
27.5041   268
27.5141   291
27.5241   289
27.5341   276
27.5441   317
27.5541   336
27.5641   288
27.5741   288
27.5841   296
27.5941   313
27.6041   291
27.6141   276
27.6241   313
27.6341   284
27.6441   270
27.6541   272
27.6641   322
27.6741   286
27.6841   267
27.6941   308
27.7041   288
27.7141   287
27.7241   270
27.7341   297
27.7441   281
27.7541   297
27.7641   301
27.7741   277
27.7841   289
27.7941   261
27.8041   305
27.8141   299
27.8241   263
27.8341   256
27.8441   278
27.8541   313
27.8641   287
27.8741   273
27.8841   287
27.8941   265
27.9041   298
27.9141   310
27.9241   298
27.9341   284
27.9441   265
27.9541   269
27.9641   266
27.9741   268
27.9841   306
27.9941   293
28.0041   307
28.0141   278
28.0241   309
28.0341   273
28.0441   275
28.0541   274
28.0641   282
28.0741   243
28.0841   279
28.0941   279
28.1041   265
28.1141   271
28.1241   260
28.1341   268
28.1441   290
28.1541   247
28.1641   258
28.1741   283
28.1841   251
28.1941   272
28.2041   272
28.2141   246
28.2241   296
28.2341   258
28.2441   274
28.2541   285
28.2641   285
28.2741   288
28.2841   269
28.2941   285
28.3041   291
28.3141   285
28.3241   266
28.3341   256
28.3441   284
28.3541   284
28.3641   271
28.3741   254
28.3841   276
28.3941   264
28.4041   280
28.4141   289
28.4241   256
28.4341   252
28.4441   271
28.4541   262
28.4641   266
28.4741   253
28.4841   277
28.4941   256
28.5041   284
28.5141   260
28.5241   297
28.5341   265
28.5441   288
28.5541   282
28.5641   264
28.5741   254
28.5841   257
28.5941   270
28.6041   258
28.6141   248
28.6241   276
28.6341   265
28.6441   250
28.6541   265
28.6641   271
28.6741   258
28.6841   249
28.6941   226
28.7041   265
28.7141   265
28.7241   269
28.7341   233
28.7441   250
28.7541   245
28.7641   254
28.7741   254
28.7841   286
28.7941   255
28.8041   249
28.8141   257
28.8241   233
28.8341   236
28.8441   263
28.8541   267
28.8641   242
28.8741   274
28.8841   269
28.8941   258
28.9041   278
28.9141   233
28.9241   263
28.9341   244
28.9441   261
28.9541   257
28.9641   259
28.9741   213
28.9841   239
28.9941   239
29.0041   258
29.0141   252
29.0241   245
29.0341   260
29.0441   243
29.0541   227
29.0641   255
29.0741   247
29.0841   245
29.0941   253
29.1041   232
29.1141   221
29.1241   263
29.1341   265
29.1441   234
29.1541   255
29.1641   221
29.1741   255
29.1841   256
29.1941   274
29.2041   237
29.2141   285
29.2241   230
29.2341   256
29.2441   216
29.2541   253
29.2641   248
29.2741   247
29.2841   233
29.2941   225
29.3041   229
29.3141   240
29.3241   252
29.3341   254
29.3441   240
29.3541   239
29.3641   228
29.3741   247
29.3841   235
29.3941   239
29.4041   219
29.4141   247
29.4241   227
29.4341   245
29.4441   265
29.4541   230
29.4641   254
29.4741   254
29.4841   225
29.4941   235
29.5041   244
29.5141   224
29.5241   246
29.5341   234
29.5441   247
29.5541   241
29.5641   248
29.5741   246
29.5841   227
29.5941   222
29.6041   215
29.6141   233
29.6241   241
29.6341   206
29.6441   218
29.6541   194
29.6641   191
29.6741   244
29.6841   240
29.6941   225
29.7041   216
29.7141   197
29.7241   207
29.7341   216
29.7441   231
29.7541   219
29.7641   219
29.7741   218
29.7841   245
29.7941   228
29.8041   201
29.8141   198
29.8241   232
29.8341   231
29.8441   218
29.8541   232
29.8641   211
29.8741   234
29.8841   235
29.8941   211
29.9041   237
29.9141   206
29.9241   246
29.9341   237
29.9441   218
29.9541   233
29.9641   219
29.9741   216
29.9841   224
29.9941   233
30.0041   216
30.0141   190
30.0241   214
30.0341   222
30.0441   232
30.0541   230
30.0641   234
30.0741   214
30.0841   220
30.0941   223
30.1041   244
30.1141   221
30.1241   217
30.1341   181
30.1441   191
30.1541   225
30.1641   209
30.1741   203
30.1841   217
30.1941   188
30.2041   223
30.2141   225
30.2241   203
30.2341   209
30.2441   209
30.2541   208
30.2641   202
30.2741   250
30.2841   206
30.2941   208
30.3041   220
30.3141   195
30.3241   216
30.3341   214
30.3441   217
30.3541   191
30.3641   208
30.3741   200
30.3841   228
30.3941   217
30.4041   206
30.4141   194
30.4241   207
30.4341   206
30.4441   208
30.4541   212
30.4641   220
30.4741   201
30.4841   192
30.4941   215
30.5041   191
30.5141   220
30.5241   215
30.5341   211
30.5441   202
30.5541   221
30.5641   208
30.5741   208
30.5841   202
30.5941   194
30.6041   213
30.6141   185
30.6241   201
30.6341   200
30.6441   186
30.6541   179
30.6641   161
30.6741   193
30.6841   196
30.6941   195
30.7041   192
30.7141   189
30.7241   183
30.7341   198
30.7441   205
30.7541   201
30.7641   187
30.7741   183
30.7841   179
30.7941   193
30.8041   193
30.8141   222
30.8241   215
30.8341   196
30.8441   200
30.8541   205
30.8641   196
30.8741   187
30.8841   175
30.8941   197
30.9041   190
30.9141   189
30.9241   178
30.9341   163
30.9441   178
30.9541   197
30.9641   174
30.9741   189
30.9841   191
30.9941   188
31.0041   208
31.0141   196
31.0241   171
31.0341   189
31.0441   205
31.0541   196
31.0641   203
31.0741   202
31.0841   181
31.0941   188
31.1041   198
31.1141   185
31.1241   176
31.1341   186
31.1441   180
31.1541   203
31.1641   190
31.1741   177
31.1841   150
31.1941   170
31.2041   194
31.2141   178
31.2241   170
31.2341   208
31.2441   175
31.2541   164
31.2641   199
31.2741   163
31.2841   171
31.2941   177
31.3041   195
31.3141   194
31.3241   177
31.3341   191
31.3441   159
31.3541   169
31.3641   179
31.3741   200
31.3841   184
31.3941   179
31.4041   178
31.4141   188
31.4241   196
31.4341   180
31.4441   175
31.4541   176
31.4641   201
31.4741   159
31.4841   178
31.4941   175
31.5041   179
31.5141   182
31.5241   168
31.5341   182
31.5441   167
31.5541   172
31.5641   167
31.5741   147
31.5841   158
31.5941   184
31.6041   181
31.6141   176
31.6241   179
31.6341   189
31.6441   191
31.6541   173
31.6641   165
31.6741   181
31.6841   191
31.6941   189
31.7041   181
31.7141   173
31.7241   186
31.7341   204
31.7441   202
31.7541   187
31.7641   169
31.7741   190
31.7841   186
31.7941   178
31.8041   185
31.8141   189
31.8241   193
31.8341   163
31.8441   189
31.8541   186
31.8641   175
31.8741   185
31.8841   180
31.8941   200
31.9041   171
31.9141   180
31.9241   182
31.9341   179
31.9441   165
31.9541   172
31.9641   195
31.9741   201
31.9841   192
31.9941   164
32.0041   188
32.0141   183
32.0241   167
32.0341   174
32.0441   199
32.0541   186
32.0641   197
32.0741   175
32.0841   196
32.0941   213
32.1041   189
32.1141   204
32.1241   200
32.1341   188
32.1441   195
32.1541   183
32.1641   176
32.1741   203
32.1841   199
32.1941   196
32.2041   191
32.2141   192
32.2241   198
32.2341   200
32.2441   188
32.2541   183
32.2641   207
32.2741   184
32.2841   169
32.2941   191
32.3041   188
32.3141   177
32.3241   172
32.3341   180
32.3441   192
32.3541   182
32.3641   174
32.3741   179
32.3841   162
32.3941   171
32.4041   164
32.4141   162
32.4241   168
32.4341   179
32.4441   161
32.4541   168
32.4641   155
32.4741   138
32.4841   150
32.4941   133
32.5041   146
32.5141   153
32.5241   180
32.5341   165
32.5441   137
32.5541   150
32.5641   151
32.5741   143
32.5841   157
32.5941   135
32.6041   155
32.6141   124
32.6241   153
32.6341   126
32.6441   148
32.6541   146
32.6641   134
32.6741   139
32.6841   147
32.6941   159
32.7041   139
32.7141   132
32.7241   132
32.7341   124
32.7441   138
32.7541   157
32.7641   170
32.7741   129
32.7841   140
32.7941   162
32.8041   142
32.8141   158
32.8241   131
32.8341   154
32.8441   150
32.8541   141
32.8641   127
32.8741   136
32.8841   131
32.8941   136
32.9041   142
32.9141   128
32.9241   137
32.9341   114
32.9441   135
32.9541   141
32.9641   120
32.9741   125
32.9841   132
32.9941   139
33.0041   142
33.0141   112
33.0241   127
33.0341   146
33.0441   147
33.0541   132
33.0641   130
33.0741   132
33.0841   122
33.0941   137
33.1041   123
33.1141   128
33.1241   148
33.1341   148
33.1441   143
33.1541   136
33.1641   129
33.1741   161
33.1841   131
33.1941   134
33.2041   109
33.2141   122
33.2241   111
33.2341   127
33.2441   145
33.2541   119
33.2641   119
33.2741   142
33.2841   130
33.2941   117
33.3041   117
33.3141   123
33.3241   130
33.3341   132
33.3441   126
33.3541   135
33.3641   141
33.3741   117
33.3841   120
33.3941   145
33.4041   134
33.4141   102
33.4241   128
33.4341   140
33.4441   125
33.4541   115
33.4641   113
33.4741   112
33.4841   136
33.4941   139
33.5041   141
33.5141   108
33.5241   135
33.5341   137
33.5441   121
33.5541   125
33.5641   140
33.5741   122
33.5841   141
33.5941   122
33.6041   133
33.6141   119
33.6241   129
33.6341   120
33.6441   116
33.6541   124
33.6641   124
33.6741   112
33.6841   104
33.6941   124
33.7041   124
33.7141   118
33.7241   113
33.7341   115
33.7441   108
33.7541   123
33.7641   122
33.7741   110
33.7841   105
33.7941   122
33.8041   130
33.8141   122
33.8241   121
33.8341   122
33.8441   131
33.8541   119
33.8641   118
33.8741   110
33.8841   123
33.8941   128
33.9041   115
33.9141   128
33.9241   131
33.9341   112
33.9441   123
33.9541   130
33.9641   102
33.9741   124
33.9841   125
33.9941   114
34.0041   115
34.0141   109
34.0241   122
34.0341   109
34.0441   109
34.0541   113
34.0641   120
34.0741   111
34.0841   111
34.0941   116
34.1041   106
34.1141   113
34.1241   129
34.1341   105
34.1441   119
34.1541   100
34.1641   132
34.1741   105
34.1841   113
34.1941   110
34.2041   124
34.2141   100
34.2241   106
34.2341   111
34.2441   101
34.2541   105
34.2641   112
34.2741   126
34.2841   114
34.2941   108
34.3041   105
34.3141   123
34.3241   111
34.3341   109
34.3441    89
34.3541   118
34.3641   112
34.3741    96
34.3841   110
34.3941   124
34.4041   101
34.4141    93
34.4241   108
34.4341   102
34.4441    98
34.4541    95
34.4641   113
34.4741    92
34.4841   100
34.4941   102
34.5041   110
34.5141   106
34.5241   115
34.5341    86
34.5441    95
34.5541    96
34.5641    91
34.5741    92
34.5841   102
34.5941   101
34.6041   108
34.6141   106
34.6241    87
34.6341    94
34.6441    96
34.6541   102
34.6641   104
34.6741   106
34.6841   109
34.6941   104
34.7041    94
34.7141   105
34.7241    95
34.7341   117
34.7441    92
34.7541   107
34.7641   115
34.7741   102
34.7841    99
34.7941   105
34.8041    97
34.8141    96
34.8241    94
34.8341   108
34.8441    97
34.8541    91
34.8641    93
34.8741   105
34.8841   101
34.8941   116
34.9041   100
34.9141    98
34.9241    97
34.9341    88
34.9441    96
34.9541   100
34.9641    96
34.9741    86
34.9841    87
34.9941    94
35.0041    91
35.0141   102
35.0241    74
35.0341    97
35.0441    99
35.0541    84
35.0641   109
35.0741   105
35.0841    93
35.0941    81
35.1041    93
35.1141    88
35.1241    93
35.1341    98
35.1441   101
35.1541    86
35.1641    92
35.1741    90
35.1841    97
35.1941    83
35.2041   105
35.2141    99
35.2241   100
35.2341    71
35.2441    99
35.2541    95
35.2641    82
35.2741    82
35.2841    85
35.2941    87
35.3041    85
35.3141    99
35.3241    82
35.3341    75
35.3441    75
35.3541   107
35.3641    77
35.3741    76
35.3841    77
35.3941    78
35.4041    90
35.4141    72
35.4241    88
35.4341   105
35.4441    84
35.4541   102
35.4641    96
35.4741    74
35.4841    79
35.4941    73
35.5041    82
35.5141    90
35.5241    98
35.5341    72
35.5441    65
35.5541    89
35.5641    78
35.5741    83
35.5841    73
35.5941    76
35.6041    90
35.6141    94
35.6241   100
35.6341    66
35.6441    74
35.6541    94
35.6641    94
35.6741    78
35.6841    64
35.6941    84
35.7041    73
35.7141    88
35.7241    85
35.7341    75
35.7441    72
35.7541    90
35.7641    77
35.7741    72
35.7841    56
35.7941    65
35.8041    79
35.8141    82
35.8241    85
35.8341    87
35.8441    65
35.8541    60
35.8641    78
35.8741    82
35.8841    77
35.8941    75
35.9041    80
35.9141    64
35.9241    84
35.9341    67
35.9441    82
35.9541    85
35.9641    67
35.9741    85
35.9841    83
35.9941    85
36.0041    85
36.0141    77
36.0241    76
36.0341    65
36.0441    88
36.0541    88
36.0641    68
36.0741    71
36.0841    78
36.0941    70
36.1041    77
36.1141    76
36.1241    85
36.1341    97
36.1441    87
36.1541    99
36.1641    86
36.1741    87
36.1841    99
36.1941    69
36.2041    66
36.2141    68
36.2241    53
36.2341    77
36.2441    77
36.2541    92
36.2641    72
36.2741    67
36.2841    69
36.2941    90
36.3041    69
36.3141    94
36.3241    70
36.3341    71
36.3441    69
36.3541    78
36.3641    97
36.3741    80
36.3841    84
36.3941    77
36.4041    64
36.4141    82
36.4241    81
36.4341    75
36.4441    71
36.4541    66
36.4641    69
36.4741    73
36.4841    83
36.4941    65
36.5041    71
36.5141    75
36.5241    82
36.5341    72
36.5441    71
36.5541    66
36.5641    89
36.5741    79
36.5841    69
36.5941    55
36.6041    58
36.6141    70
36.6241    58
36.6341    61
36.6441    63
36.6541    54
36.6641    74
36.6741    74
36.6841    54
36.6941    56
36.7041    66
36.7141    74
36.7241    60
36.7341    59
36.7441    60
36.7541    68
36.7641    62
36.7741    67
36.7841    68
36.7941    54
36.8041    64
36.8141    60
36.8241    44
36.8341    67
36.8441    55
36.8541    56
36.8641    66
36.8741    65
36.8841    69
36.8941    68
36.9041    58
36.9141    71
36.9241    74
36.9341    57
36.9441    56
36.9541    54
36.9641    59
36.9741    56
36.9841    81
36.9941    68
37.0041    71
37.0141    48
37.0241    62
37.0341    60
37.0441    60
37.0541    63
37.0641    71
37.0741    51
37.0841    55
37.0941    54
37.1041    53
37.1141    48
37.1241    66
37.1341    61
37.1441    67
37.1541    60
37.1641    53
37.1741    66
37.1841    83
37.1941    52
37.2041    50
37.2141    55
37.2241    51
37.2341    53
37.2441    52
37.2541    60
37.2641    60
37.2741    64
37.2841    68
37.2941    54
37.3041    57
37.3141    62
37.3241    54
37.3341    50
37.3441    61
37.3541    54
37.3641    59
37.3741    64
37.3841    56
37.3941    57
37.4041    51
37.4141    64
37.4241    47
37.4341    57
37.4441    41
37.4541    49
37.4641    48
37.4741    45
37.4841    59
37.4941    54
37.5041    63
37.5141    51
37.5241    46
37.5341    59
37.5441    60
37.5541    56
37.5641    51
37.5741    44
37.5841    51
37.5941    52
37.6041    52
37.6141    63
37.6241    55
37.6341    58
37.6441    54
37.6541    46
37.6641    46
37.6741    63
37.6841    46
37.6941    45
37.7041    50
37.7141    51
37.7241    34
37.7341    48
37.7441    46
37.7541    59
37.7641    49
37.7741    50
37.7841    43
37.7941    45
37.8041    47
37.8141    46
37.8241    43
37.8341    54
37.8441    47
37.8541    46
37.8641    39
37.8741    50
37.8841    63
37.8941    48
37.9041    59
37.9141    64
37.9241    41
37.9341    46
37.9441    52
37.9541    43
37.9641    64
37.9741    53
37.9841    42
37.9941    41
38.0041    49
38.0141    51
38.0241    38
38.0341    37
38.0441    43
38.0541    50
38.0641    46
38.0741    44
38.0841    30
38.0941    43
38.1041    47
38.1141    42
38.1241    53
38.1341    40
38.1441    39
38.1541    38
38.1641    41
38.1741    39
38.1841    43
38.1941    48
38.2041    39
38.2141    30
38.2241    37
38.2341    43
38.2441    31
38.2541    49
38.2641    33
38.2741    46
38.2841    36
38.2941    42
38.3041    41
38.3141    47
38.3241    35
38.3341    42
38.3441    43
38.3541    43
38.3641    39
38.3741    37
38.3841    53
38.3941    43
38.4041    31
38.4141    33
38.4241    38
38.4341    45
38.4441    50
38.4541    44
38.4641    51
38.4741    40
38.4841    44
38.4941    39
38.5041    43
38.5141    36
38.5241    29
38.5341    40
38.5441    36
38.5541    40
38.5641    41
38.5741    45
38.5841    32
38.5941    36
38.6041    43
38.6141    40
38.6241    43
38.6341    35
38.6441    38
38.6541    45
38.6641    35
38.6741    40
38.6841    46
38.6941    38
38.7041    41
38.7141    31
38.7241    37
38.7341    34
38.7441    37
38.7541    38
38.7641    41
38.7741    39
38.7841    38
38.7941    38
38.8041    31
38.8141    43
38.8241    34
38.8341    32
38.8441    30
38.8541    39
38.8641    36
38.8741    24
38.8841    31
38.8941    42
38.9041    42
38.9141    32
38.9241    37
38.9341    26
38.9441    39
38.9541    43
38.9641    38
38.9741    47
38.9841    34
38.9941    34
39.0041    28
39.0141    38
39.0241    31
39.0341    26
39.0441    37
39.0541    47
39.0641    44
39.0741    45
39.0841    29
39.0941    38
39.1041    20
39.1141    30
39.1241    25
39.1341    26
39.1441    26
39.1541    31
39.1641    27
39.1741    31
39.1841    28
39.1941    37
39.2041    34
39.2141    30
39.2241    27
39.2341    40
39.2441    27
39.2541    30
39.2641    26
39.2741    31
39.2841    31
39.2941    18
39.3041    41
39.3141    41
39.3241    30
39.3341    27
39.3441    38
39.3541    35
39.3641    31
39.3741    29
39.3841    38
39.3941    37
39.4041    33
39.4141    36
39.4241    31
39.4341    22
39.4441    36
39.4541    27
39.4641    42
39.4741    26
39.4841    21
39.4941    18
39.5041    21
39.5141    31
39.5241    33
39.5341    29
39.5441    24
39.5541    31
39.5641    35
39.5741    44
39.5841    27
39.5941    31
39.6041    26
39.6141    30
39.6241    25
39.6341    27
39.6441    26
39.6541    23
39.6641    25
39.6741    21
39.6841    25
39.6941    24
39.7041    25
39.7141    30
39.7241    37
39.7341    30
39.7441    32
39.7541    28
39.7641    31
39.7741    21
39.7841    27
39.7941    28
39.8041    25
39.8141    27
39.8241    25
39.8341    21
39.8441    25
39.8541    20
39.8641    25
39.8741    26
39.8841    28
39.8941    31
39.9041    22
39.9141    32
39.9241    21
39.9341    24
39.9441    27
39.9541    29
39.9641    24
39.9741    30
39.9841    25
