Bruker Nano GmbH Berlin, Germany
Esprit 1.9

Date: 5/14/2021 1:33:33 PM
Real time: 16137
Life time: 15034
Pulse density: 100999


Detector type: XFlash 430
Window type: Custom type
Detector thickness: 0.45
Si dead layer:0.029

Calibration, lin.: 10
Calibration, abs.: -955.9
Mn FWHM: 137.05
Fano factor: 0.121
Channels: 4095

Energy Counts
-0.9559     0
-0.9459     0
-0.9359     0
-0.9259     0
-0.9159     0
-0.9059     0
-0.8959     0
-0.8859     0
-0.8759     0
-0.8659     0
-0.8559     0
-0.8459     0
-0.8359     0
-0.8259     0
-0.8159     0
-0.8059     0
-0.7959     0
-0.7859     0
-0.7759     0
-0.7659     0
-0.7559     0
-0.7459     0
-0.7359     0
-0.7259     0
-0.7159     0
-0.7059     0
-0.6959     0
-0.6859     0
-0.6759     0
-0.6659     0
-0.6559     0
-0.6459     0
-0.6359     0
-0.6259     0
-0.6159     0
-0.6059     0
-0.5959     0
-0.5859     0
-0.5759     0
-0.5659     0
-0.5559     0
-0.5459     0
-0.5359     0
-0.5259     0
-0.5159     0
-0.5059     0
-0.4959     0
-0.4859     0
-0.4759     0
-0.4659     0
-0.4559     0
-0.4459     0
-0.4359     0
-0.4259     0
-0.4159     0
-0.4059     0
-0.3959     0
-0.3859     0
-0.3759     0
-0.3659     0
-0.3559     0
-0.3459     0
-0.3359     0
-0.3259     0
-0.3159     0
-0.3059     0
-0.2959     0
-0.2859     0
-0.2759     0
-0.2659     0
-0.2559     0
-0.2459     0
-0.2359     0
-0.2259     0
-0.2159     0
-0.2059     0
-0.1959     0
-0.1859     0
-0.1759     0
-0.1659     0
-0.1559     0
-0.1459     0
-0.1359     0
-0.1259     1
-0.1159     1
-0.1059     7
-0.0959    38
-0.0859   168
-0.0759   581
-0.0659  1740
-0.0559  4385
-0.0459  9498
-0.0359 17959
-0.0259 28599
-0.0159 39254
-0.0059 45884
 0.0041 46543
 0.0141 39752
 0.0241 29571
 0.0341 18558
 0.0441 10125
 0.0541  4785
 0.0641  1926
 0.0741   661
 0.0841   184
 0.0941    52
 0.1041    14
 0.1141     2
 0.1241     6
 0.1341     9
 0.1441     5
 0.1541     5
 0.1641     6
 0.1741     0
 0.1841   145
 0.1941   276
 0.2041   221
 0.2141   231
 0.2241   253
 0.2341   255
 0.2441   261
 0.2541   254
 0.2641   253
 0.2741   280
 0.2841   233
 0.2941   233
 0.3041   255
 0.3141   226
 0.3241   248
 0.3341   240
 0.3441   255
 0.3541   246
 0.3641   229
 0.3741   221
 0.3841   225
 0.3941   237
 0.4041   227
 0.4141   209
 0.4241   186
 0.4341   205
 0.4441   219
 0.4541   203
 0.4641   203
 0.4741   223
 0.4841   215
 0.4941   207
 0.5041   213
 0.5141   225
 0.5241   221
 0.5341   219
 0.5441   230
 0.5541   233
 0.5641   214
 0.5741   201
 0.5841   197
 0.5941   197
 0.6041   204
 0.6141   195
 0.6241   193
 0.6341   204
 0.6441   208
 0.6541   197
 0.6641   189
 0.6741   195
 0.6841   197
 0.6941   194
 0.7041   183
 0.7141   182
 0.7241   187
 0.7341   188
 0.7441   186
 0.7541   192
 0.7641   192
 0.7741   182
 0.7841   190
 0.7941   208
 0.8041   193
 0.8141   192
 0.8241   165
 0.8341   170
 0.8441   185
 0.8541   182
 0.8641   185
 0.8741   181
 0.8841   174
 0.8941   178
 0.9041   167
 0.9141   169
 0.9241   180
 0.9341   178
 0.9441   162
 0.9541   177
 0.9641   166
 0.9741   162
 0.9841   166
 0.9941   165
 1.0041   157
 1.0141   157
 1.0241   156
 1.0341   162
 1.0441   164
 1.0541   162
 1.0641   157
 1.0741   149
 1.0841   176
 1.0941   175
 1.1041   157
 1.1141   157
 1.1241   156
 1.1341   151
 1.1441   139
 1.1541   153
 1.1641   177
 1.1741   161
 1.1841   139
 1.1941   148
 1.2041   153
 1.2141   159
 1.2241   162
 1.2341   149
 1.2441   152
 1.2541   130
 1.2641   147
 1.2741   166
 1.2841   168
 1.2941   152
 1.3041   155
 1.3141   137
 1.3241   152
 1.3341   139
 1.3441   166
 1.3541   163
 1.3641   132
 1.3741   153
 1.3841   133
 1.3941   162
 1.4041   151
 1.4141   156
 1.4241   144
 1.4341   144
 1.4441   145
 1.4541   147
 1.4641   144
 1.4741   121
 1.4841   168
 1.4941   153
 1.5041   145
 1.5141   149
 1.5241   155
 1.5341   144
 1.5441   147
 1.5541   129
 1.5641   130
 1.5741   147
 1.5841   142
 1.5941   132
 1.6041   131
 1.6141   134
 1.6241   151
 1.6341   146
 1.6441   167
 1.6541   183
 1.6641   189
 1.6741   275
 1.6841   319
 1.6941   356
 1.7041   456
 1.7141   537
 1.7241   582
 1.7341   625
 1.7441   608
 1.7541   539
 1.7641   536
 1.7741   449
 1.7841   386
 1.7941   327
 1.8041   266
 1.8141   214
 1.8241   192
 1.8341   184
 1.8441   190
 1.8541   197
 1.8641   146
 1.8741   146
 1.8841   162
 1.8941   144
 1.9041   163
 1.9141   147
 1.9241   142
 1.9341   138
 1.9441   166
 1.9541   160
 1.9641   154
 1.9741   148
 1.9841   179
 1.9941   174
 2.0041   178
 2.0141   197
 2.0241   175
 2.0341   183
 2.0441   146
 2.0541   144
 2.0641   153
 2.0741   157
 2.0841   138
 2.0941   143
 2.1041   133
 2.1141   156
 2.1241   140
 2.1341   124
 2.1441   122
 2.1541   134
 2.1641   145
 2.1741   119
 2.1841   116
 2.1941   137
 2.2041   130
 2.2141   108
 2.2241   121
 2.2341   158
 2.2441   122
 2.2541   125
 2.2641   145
 2.2741   149
 2.2841   121
 2.2941   124
 2.3041   122
 2.3141   119
 2.3241   120
 2.3341   127
 2.3441   140
 2.3541   125
 2.3641   111
 2.3741    97
 2.3841   117
 2.3941   117
 2.4041   111
 2.4141   126
 2.4241   105
 2.4341   114
 2.4441   120
 2.4541   129
 2.4641   137
 2.4741   122
 2.4841   133
 2.4941   115
 2.5041   112
 2.5141   116
 2.5241   120
 2.5341   116
 2.5441   122
 2.5541   107
 2.5641   112
 2.5741   115
 2.5841   122
 2.5941   116
 2.6041   115
 2.6141   118
 2.6241   119
 2.6341   109
 2.6441   114
 2.6541   133
 2.6641   114
 2.6741   100
 2.6841   101
 2.6941    98
 2.7041    94
 2.7141    94
 2.7241   109
 2.7341    94
 2.7441   121
 2.7541   114
 2.7641   113
 2.7741    99
 2.7841   129
 2.7941   122
 2.8041   123
 2.8141   103
 2.8241   124
 2.8341   115
 2.8441   122
 2.8541   116
 2.8641   101
 2.8741   118
 2.8841    90
 2.8941    91
 2.9041   114
 2.9141    96
 2.9241    89
 2.9341   123
 2.9441   101
 2.9541   113
 2.9641   103
 2.9741   110
 2.9841    99
 2.9941    97
 3.0041   102
 3.0141   109
 3.0241    98
 3.0341   106
 3.0441   107
 3.0541   112
 3.0641    75
 3.0741    76
 3.0841    97
 3.0941    83
 3.1041    81
 3.1141    89
 3.1241    95
 3.1341   118
 3.1441   101
 3.1541    93
 3.1641   102
 3.1741    95
 3.1841    95
 3.1941   111
 3.2041    88
 3.2141   109
 3.2241   104
 3.2341   119
 3.2441   139
 3.2541   153
 3.2641   168
 3.2741   195
 3.2841   229
 3.2941   288
 3.3041   278
 3.3141   254
 3.3241   246
 3.3341   253
 3.3441   222
 3.3541   204
 3.3641   176
 3.3741   161
 3.3841   118
 3.3941   113
 3.4041    93
 3.4141    97
 3.4241   106
 3.4341    86
 3.4441    96
 3.4541    91
 3.4641    90
 3.4741    87
 3.4841   108
 3.4941    91
 3.5041    84
 3.5141   102
 3.5241   102
 3.5341   110
 3.5441   138
 3.5541   170
 3.5641   195
 3.5741   232
 3.5841   329
 3.5941   410
 3.6041   529
 3.6141   688
 3.6241   869
 3.6341  1102
 3.6441  1374
 3.6541  1488
 3.6641  1676
 3.6741  1892
 3.6841  2016
 3.6941  2046
 3.7041  1918
 3.7141  1717
 3.7241  1597
 3.7341  1311
 3.7441  1082
 3.7541   860
 3.7641   677
 3.7741   500
 3.7841   399
 3.7941   278
 3.8041   219
 3.8141   129
 3.8241   116
 3.8341   110
 3.8441    89
 3.8541    88
 3.8641    85
 3.8741   104
 3.8841    98
 3.8941    97
 3.9041   107
 3.9141   120
 3.9241   133
 3.9341   165
 3.9441   208
 3.9541   233
 3.9641   296
 3.9741   312
 3.9841   382
 3.9941   380
 4.0041   371
 4.0141   391
 4.0241   388
 4.0341   366
 4.0441   321
 4.0541   309
 4.0641   289
 4.0741   217
 4.0841   188
 4.0941   142
 4.1041   118
 4.1141   103
 4.1241   104
 4.1341    85
 4.1441    78
 4.1541    61
 4.1641    66
 4.1741    64
 4.1841    57
 4.1941    61
 4.2041    70
 4.2141    55
 4.2241    63
 4.2341    53
 4.2441    51
 4.2541    56
 4.2641    64
 4.2741    63
 4.2841    55
 4.2941    60
 4.3041    59
 4.3141    60
 4.3241    62
 4.3341    60
 4.3441    65
 4.3541    82
 4.3641    99
 4.3741    93
 4.3841    79
 4.3941    98
 4.4041   127
 4.4141   160
 4.4241   188
 4.4341   212
 4.4441   258
 4.4541   332
 4.4641   392
 4.4741   409
 4.4841   447
 4.4941   480
 4.5041   495
 4.5141   475
 4.5241   432
 4.5341   413
 4.5441   381
 4.5541   357
 4.5641   305
 4.5741   228
 4.5841   213
 4.5941   174
 4.6041   148
 4.6141   129
 4.6241   109
 4.6341    91
 4.6441    84
 4.6541    75
 4.6641    67
 4.6741    77
 4.6841    67
 4.6941    66
 4.7041    57
 4.7141    72
 4.7241    80
 4.7341    62
 4.7441    82
 4.7541    59
 4.7641    66
 4.7741    74
 4.7841    91
 4.7941    83
 4.8041    80
 4.8141   103
 4.8241    89
 4.8341   112
 4.8441   116
 4.8541   118
 4.8641   137
 4.8741   142
 4.8841   137
 4.8941   181
 4.9041   155
 4.9141   150
 4.9241   165
 4.9341   181
 4.9441   176
 4.9541   154
 4.9641   149
 4.9741   151
 4.9841   144
 4.9941   143
 5.0041   122
 5.0141   101
 5.0241    93
 5.0341    86
 5.0441    77
 5.0541    81
 5.0641   100
 5.0741    89
 5.0841    72
 5.0941    75
 5.1041    82
 5.1141    76
 5.1241    91
 5.1341    88
 5.1441    80
 5.1541    87
 5.1641    76
 5.1741    82
 5.1841    84
 5.1941    78
 5.2041    74
 5.2141    83
 5.2241    59
 5.2341    83
 5.2441    96
 5.2541    73
 5.2641    90
 5.2741    70
 5.2841    75
 5.2941    68
 5.3041    94
 5.3141    72
 5.3241    84
 5.3341    81
 5.3441   101
 5.3541    93
 5.3641    93
 5.3741    88
 5.3841   111
 5.3941   112
 5.4041   102
 5.4141   107
 5.4241   118
 5.4341   110
 5.4441   107
 5.4541   115
 5.4641    97
 5.4741    99
 5.4841   102
 5.4941    85
 5.5041    82
 5.5141    86
 5.5241    65
 5.5341    66
 5.5441    75
 5.5541    82
 5.5641    88
 5.5741    83
 5.5841    82
 5.5941    79
 5.6041    92
 5.6141    75
 5.6241    76
 5.6341    71
 5.6441    90
 5.6541    79
 5.6641    85
 5.6741    67
 5.6841    78
 5.6941    92
 5.7041    89
 5.7141    80
 5.7241    65
 5.7341    93
 5.7441   100
 5.7541   104
 5.7641   111
 5.7741   110
 5.7841   121
 5.7941   160
 5.8041   175
 5.8141   175
 5.8241   223
 5.8341   245
 5.8441   263
 5.8541   289
 5.8641   333
 5.8741   330
 5.8841   341
 5.8941   364
 5.9041   344
 5.9141   326
 5.9241   329
 5.9341   309
 5.9441   285
 5.9541   241
 5.9641   222
 5.9741   207
 5.9841   170
 5.9941   155
 6.0041   143
 6.0141   125
 6.0241   130
 6.0341   113
 6.0441    98
 6.0541   109
 6.0641   118
 6.0741    99
 6.0841   119
 6.0941   100
 6.1041   134
 6.1141   105
 6.1241   122
 6.1341   153
 6.1441   149
 6.1541   150
 6.1641   168
 6.1741   158
 6.1841   208
 6.1941   243
 6.2041   263
 6.2141   352
 6.2241   481
 6.2341   678
 6.2441   956
 6.2541  1256
 6.2641  1785
 6.2741  2449
 6.2841  3456
 6.2941  4432
 6.3041  5789
 6.3141  7321
 6.3241  9004
 6.3341 10779
 6.3441 12706
 6.3541 14460
 6.3641 16140
 6.3741 17302
 6.3841 18393
 6.3941 18752
 6.4041 18825
 6.4141 18394
 6.4241 17146
 6.4341 15746
 6.4441 13954
 6.4541 12315
 6.4641 10365
 6.4741  8531
 6.4841  6945
 6.4941  5278
 6.5041  4035
 6.5141  3100
 6.5241  2284
 6.5341  1644
 6.5441  1145
 6.5541   797
 6.5641   579
 6.5741   404
 6.5841   317
 6.5941   236
 6.6041   203
 6.6141   186
 6.6241   154
 6.6341   131
 6.6441   157
 6.6541   121
 6.6641   152
 6.6741   140
 6.6841   145
 6.6941   131
 6.7041   118
 6.7141   133
 6.7241   138
 6.7341   139
 6.7441   144
 6.7541   150
 6.7641   163
 6.7741   152
 6.7841   147
 6.7941   157
 6.8041   167
 6.8141   187
 6.8241   150
 6.8341   188
 6.8441   206
 6.8541   218
 6.8641   235
 6.8741   278
 6.8841   316
 6.8941   386
 6.9041   470
 6.9141   491
 6.9241   619
 6.9341   745
 6.9441   900
 6.9541  1112
 6.9641  1369
 6.9741  1621
 6.9841  1899
 6.9941  2156
 7.0041  2444
 7.0141  2806
 7.0241  3047
 7.0341  3087
 7.0441  3204
 7.0541  3284
 7.0641  3297
 7.0741  3145
 7.0841  2988
 7.0941  2732
 7.1041  2416
 7.1141  2133
 7.1241  1846
 7.1341  1524
 7.1441  1318
 7.1541  1004
 7.1641   799
 7.1741   675
 7.1841   524
 7.1941   468
 7.2041   345
 7.2141   309
 7.2241   239
 7.2341   205
 7.2441   191
 7.2541   167
 7.2641   206
 7.2741   183
 7.2841   166
 7.2941   175
 7.3041   175
 7.3141   167
 7.3241   186
 7.3341   171
 7.3441   212
 7.3541   238
 7.3641   220
 7.3741   231
 7.3841   245
 7.3941   219
 7.4041   236
 7.4141   253
 7.4241   213
 7.4341   260
 7.4441   238
 7.4541   233
 7.4641   203
 7.4741   236
 7.4841   211
 7.4941   211
 7.5041   185
 7.5141   171
 7.5241   189
 7.5341   178
 7.5441   178
 7.5541   147
 7.5641   163
 7.5741   179
 7.5841   142
 7.5941   148
 7.6041   149
 7.6141   154
 7.6241   158
 7.6341   178
 7.6441   145
 7.6541   166
 7.6641   172
 7.6741   174
 7.6841   183
 7.6941   177
 7.7041   165
 7.7141   188
 7.7241   170
 7.7341   181
 7.7441   227
 7.7541   193
 7.7641   207
 7.7741   203
 7.7841   212
 7.7941   215
 7.8041   225
 7.8141   206
 7.8241   245
 7.8341   206
 7.8441   254
 7.8541   243
 7.8641   258
 7.8741   251
 7.8841   249
 7.8941   273
 7.9041   290
 7.9141   319
 7.9241   322
 7.9341   318
 7.9441   336
 7.9541   364
 7.9641   399
 7.9741   390
 7.9841   468
 7.9941   491
 8.0041   538
 8.0141   571
 8.0241   605
 8.0341   653
 8.0441   653
 8.0541   722
 8.0641   676
 8.0741   796
 8.0841   856
 8.0941   882
 8.1041   938
 8.1141   980
 8.1241  1014
 8.1341  1043
 8.1441  1051
 8.1541  1069
 8.1641  1125
 8.1741  1173
 8.1841  1124
 8.1941  1176
 8.2041  1132
 8.2141  1196
 8.2241  1203
 8.2341  1221
 8.2441  1205
 8.2541  1290
 8.2641  1399
 8.2741  1418
 8.2841  1524
 8.2941  1687
 8.3041  1755
 8.3141  1903
 8.3241  2005
 8.3341  2158
 8.3441  2363
 8.3541  2404
 8.3641  2630
 8.3741  2652
 8.3841  2767
 8.3941  2813
 8.4041  2698
 8.4141  2677
 8.4241  2441
 8.4341  2330
 8.4441  2133
 8.4541  1870
 8.4641  1612
 8.4741  1460
 8.4841  1217
 8.4941  1119
 8.5041   865
 8.5141   770
 8.5241   650
 8.5341   595
 8.5441   473
 8.5541   413
 8.5641   374
 8.5741   357
 8.5841   318
 8.5941   369
 8.6041   341
 8.6141   337
 8.6241   367
 8.6341   341
 8.6441   338
 8.6541   313
 8.6641   329
 8.6741   325
 8.6841   322
 8.6941   313
 8.7041   322
 8.7141   309
 8.7241   280
 8.7341   282
 8.7441   267
 8.7541   291
 8.7641   257
 8.7741   284
 8.7841   278
 8.7941   229
 8.8041   270
 8.8141   255
 8.8241   258
 8.8341   243
 8.8441   271
 8.8541   276
 8.8641   261
 8.8741   270
 8.8841   271
 8.8941   261
 8.9041   270
 8.9141   258
 8.9241   252
 8.9341   279
 8.9441   255
 8.9541   254
 8.9641   299
 8.9741   323
 8.9841   299
 8.9941   292
 9.0041   308
 9.0141   290
 9.0241   330
 9.0341   329
 9.0441   358
 9.0541   338
 9.0641   356
 9.0741   375
 9.0841   367
 9.0941   402
 9.1041   408
 9.1141   385
 9.1241   416
 9.1341   442
 9.1441   484
 9.1541   490
 9.1641   480
 9.1741   512
 9.1841   538
 9.1941   562
 9.2041   617
 9.2141   646
 9.2241   646
 9.2341   663
 9.2441   731
 9.2541   777
 9.2641   795
 9.2741   832
 9.2841   879
 9.2941   889
 9.3041   900
 9.3141   940
 9.3241   969
 9.3341  1080
 9.3441  1034
 9.3541  1040
 9.3641  1079
 9.3741  1140
 9.3841  1146
 9.3941  1101
 9.4041  1142
 9.4141  1114
 9.4241  1154
 9.4341  1208
 9.4441  1238
 9.4541  1212
 9.4641  1208
 9.4741  1289
 9.4841  1316
 9.4941  1266
 9.5041  1321
 9.5141  1386
 9.5241  1326
 9.5341  1370
 9.5441  1493
 9.5541  1543
 9.5641  1633
 9.5741  1720
 9.5841  1850
 9.5941  2014
 9.6041  2106
 9.6141  2182
 9.6241  2213
 9.6341  2323
 9.6441  2336
 9.6541  2382
 9.6641  2442
 9.6741  2415
 9.6841  2449
 9.6941  2373
 9.7041  2215
 9.7141  2065
 9.7241  1961
 9.7341  1886
 9.7441  1735
 9.7541  1601
 9.7641  1494
 9.7741  1405
 9.7841  1301
 9.7941  1222
 9.8041  1139
 9.8141  1018
 9.8241   991
 9.8341   999
 9.8441   965
 9.8541   973
 9.8641   994
 9.8741   977
 9.8841   950
 9.8941   978
 9.9041  1015
 9.9141  1052
 9.9241  1041
 9.9341  1062
 9.9441  1054
 9.9541  1042
 9.9641  1061
 9.9741  1019
 9.9841   954
 9.9941   937
10.0041   865
10.0141   847
10.0241   751
10.0341   713
10.0441   640
10.0541   547
10.0641   501
10.0741   445
10.0841   409
10.0941   385
10.1041   321
10.1141   303
10.1241   288
10.1341   240
10.1441   258
10.1541   231
10.1641   224
10.1741   216
10.1841   207
10.1941   205
10.2041   184
10.2141   209
10.2241   169
10.2341   170
10.2441   162
10.2541   169
10.2641   174
10.2741   157
10.2841   151
10.2941   134
10.3041   147
10.3141   165
10.3241   146
10.3341   128
10.3441   124
10.3541   139
10.3641   126
10.3741   133
10.3841   143
10.3941   150
10.4041   155
10.4141   144
10.4241   139
10.4341   131
10.4441   140
10.4541   139
10.4641   151
10.4741   164
10.4841   148
10.4941   146
10.5041   152
10.5141   155
10.5241   149
10.5341   151
10.5441   147
10.5541   167
10.5641   175
10.5741   159
10.5841   155
10.5941   157
10.6041   170
10.6141   163
10.6241   173
10.6341   178
10.6441   175
10.6541   155
10.6641   180
10.6741   162
10.6841   170
10.6941   182
10.7041   170
10.7141   185
10.7241   200
10.7341   199
10.7441   210
10.7541   192
10.7641   184
10.7741   193
10.7841   217
10.7941   224
10.8041   217
10.8141   225
10.8241   225
10.8341   247
10.8441   250
10.8541   230
10.8641   232
10.8741   248
10.8841   263
10.8941   248
10.9041   243
10.9141   235
10.9241   245
10.9341   237
10.9441   245
10.9541   246
10.9641   251
10.9741   231
10.9841   232
10.9941   236
11.0041   240
11.0141   212
11.0241   218
11.0341   230
11.0441   219
11.0541   210
11.0641   214
11.0741   203
11.0841   209
11.0941   216
11.1041   213
11.1141   229
11.1241   209
11.1341   231
11.1441   236
11.1541   247
11.1641   247
11.1741   247
11.1841   259
11.1941   272
11.2041   259
11.2141   269
11.2241   324
11.2341   306
11.2441   328
11.2541   342
11.2641   350
11.2741   363
11.2841   358
11.2941   355
11.3041   335
11.3141   323
11.3241   334
11.3341   318
11.3441   313
11.3541   298
11.3641   262
11.3741   249
11.3841   250
11.3941   226
11.4041   196
11.4141   189
11.4241   200
11.4341   211
11.4441   195
11.4541   163
11.4641   182
11.4741   193
11.4841   174
11.4941   165
11.5041   172
11.5141   168
11.5241   165
11.5341   168
11.5441   158
11.5541   175
11.5641   179
11.5741   188
11.5841   194
11.5941   195
11.6041   196
11.6141   194
11.6241   185
11.6341   183
11.6441   195
11.6541   191
11.6641   188
11.6741   197
11.6841   188
11.6941   178
11.7041   176
11.7141   170
11.7241   161
11.7341   153
11.7441   148
11.7541   135
11.7641   133
11.7741   135
11.7841   127
11.7941   139
11.8041   141
11.8141   137
11.8241   130
11.8341   131
11.8441   142
11.8541   135
11.8641   124
11.8741   127
11.8841   132
11.8941   133
11.9041   130
11.9141   120
11.9241   133
11.9341   137
11.9441   142
11.9541   138
11.9641   132
11.9741   132
11.9841   146
11.9941   155
12.0041   149
12.0141   128
12.0241   135
12.0341   141
12.0441   141
12.0541   136
12.0641   146
12.0741   133
12.0841   135
12.0941   134
12.1041   128
12.1141   128
12.1241   114
12.1341   126
12.1441   131
12.1541   141
12.1641   148
12.1741   139
12.1841   126
12.1941   133
12.2041   134
12.2141   125
12.2241   121
12.2341   120
12.2441   130
12.2541   133
12.2641   140
12.2741   124
12.2841   117
12.2941   128
12.3041   129
12.3141   130
12.3241   126
12.3341   129
12.3441   138
12.3541   132
12.3641   126
12.3741   127
12.3841   122
12.3941   129
12.4041   128
12.4141   133
12.4241   139
12.4341   133
12.4441   133
12.4541   143
12.4641   126
12.4741   119
12.4841   129
12.4941   131
12.5041   137
12.5141   135
12.5241   127
12.5341   130
12.5441   156
12.5541   151
12.5641   147
12.5741   150
12.5841   148
12.5941   150
12.6041   143
12.6141   140
12.6241   142
12.6341   142
12.6441   144
12.6541   147
12.6641   153
12.6741   141
12.6841   137
12.6941   138
12.7041   132
12.7141   140
12.7241   136
12.7341   143
12.7441   153
12.7541   153
12.7641   151
12.7741   143
12.7841   137
12.7941   136
12.8041   138
12.8141   140
12.8241   145
12.8341   150
12.8441   156
12.8541   156
12.8641   151
12.8741   147
12.8841   147
12.8941   149
12.9041   150
12.9141   152
12.9241   158
12.9341   165
12.9441   160
12.9541   153
12.9641   167
12.9741   155
12.9841   149
12.9941   157
13.0041   149
13.0141   145
13.0241   157
13.0341   164
13.0441   177
13.0541   181
13.0641   168
13.0741   166
13.0841   157
13.0941   153
13.1041   168
13.1141   163
13.1241   151
13.1341   149
13.1441   163
13.1541   165
13.1641   146
13.1741   161
13.1841   174
13.1941   164
13.2041   182
13.2141   197
13.2241   203
13.2341   210
13.2441   206
13.2541   214
13.2641   232
13.2741   237
13.2841   236
13.2941   239
13.3041   239
13.3141   263
13.3241   270
13.3341   276
13.3441   284
13.3541   286
13.3641   296
13.3741   285
13.3841   281
13.3941   266
13.4041   258
13.4141   257
13.4241   262
13.4341   249
13.4441   241
13.4541   257
13.4641   241
13.4741   246
13.4841   250
13.4941   242
13.5041   231
13.5141   222
13.5241   212
13.5341   194
13.5441   183
13.5541   186
13.5641   193
13.5741   201
13.5841   203
13.5941   181
13.6041   158
13.6141   160
13.6241   164
13.6341   173
13.6441   190
13.6541   191
13.6641   188
13.6741   197
13.6841   207
13.6941   189
13.7041   179
13.7141   183
13.7241   180
13.7341   183
13.7441   181
13.7541   185
13.7641   185
13.7741   188
13.7841   184
13.7941   179
13.8041   182
13.8141   182
13.8241   180
13.8341   176
13.8441   180
13.8541   178
13.8641   192
13.8741   208
13.8841   196
13.8941   206
13.9041   228
13.9141   220
13.9241   219
13.9341   237
13.9441   244
13.9541   251
13.9641   255
13.9741   261
13.9841   286
13.9941   311
14.0041   325
14.0141   337
14.0241   353
14.0341   386
14.0441   406
14.0541   402
14.0641   460
14.0741   505
14.0841   497
14.0941   515
14.1041   555
14.1141   594
14.1241   595
14.1341   593
14.1441   578
14.1541   542
14.1641   551
14.1741   562
14.1841   558
14.1941   547
14.2041   521
14.2141   522
14.2241   505
14.2341   450
14.2441   428
14.2541   415
14.2641   377
14.2741   341
14.2841   320
14.2941   307
14.3041   291
14.3141   273
14.3241   254
14.3341   251
14.3441   242
14.3541   238
14.3641   223
14.3741   209
14.3841   207
14.3941   209
14.4041   229
14.4141   223
14.4241   215
14.4341   221
14.4441   223
14.4541   227
14.4641   231
14.4741   234
14.4841   220
14.4941   213
14.5041   221
14.5141   227
14.5241   225
14.5341   212
14.5441   217
14.5541   213
14.5641   210
14.5741   208
14.5841   212
14.5941   223
14.6041   214
14.6141   219
14.6241   235
14.6341   227
14.6441   228
14.6541   239
14.6641   245
14.6741   233
14.6841   231
14.6941   240
14.7041   239
14.7141   229
14.7241   230
14.7341   227
14.7441   223
14.7541   232
14.7641   240
14.7741   251
14.7841   246
14.7941   248
14.8041   256
14.8141   267
14.8241   274
14.8341   269
14.8441   272
14.8541   278
14.8641   287
14.8741   308
14.8841   302
14.8941   295
14.9041   286
14.9141   292
14.9241   307
14.9341   312
14.9441   321
14.9541   313
14.9641   312
14.9741   324
14.9841   305
14.9941   286
15.0041   279
15.0141   284
15.0241   292
15.0341   285
15.0441   273
15.0541   289
15.0641   290
15.0741   282
15.0841   282
15.0941   269
15.1041   255
15.1141   252
15.1241   262
15.1341   271
15.1441   286
15.1541   283
15.1641   262
15.1741   257
15.1841   247
15.1941   249
15.2041   254
15.2141   242
15.2241   247
15.2341   278
15.2441   286
15.2541   251
15.2641   246
15.2741   268
15.2841   271
15.2941   274
15.3041   251
15.3141   248
15.3241   263
15.3341   257
15.3441   248
15.3541   268
15.3641   273
15.3741   282
15.3841   274
15.3941   266
15.4041   269
15.4141   277
15.4241   270
15.4341   272
15.4441   281
15.4541   270
15.4641   282
15.4741   304
15.4841   287
15.4941   283
15.5041   321
15.5141   304
15.5241   310
15.5341   329
15.5441   349
15.5541   361
15.5641   361
15.5741   400
15.5841   414
15.5941   423
15.6041   413
15.6141   449
15.6241   489
15.6341   528
15.6441   584
15.6541   570
15.6641   601
15.6741   662
15.6841   648
15.6941   683
15.7041   726
15.7141   750
15.7241   756
15.7341   787
15.7441   820
15.7541   812
15.7641   792
15.7741   829
15.7841   835
15.7941   776
15.8041   745
15.8141   723
15.8241   730
15.8341   707
15.8441   658
15.8541   614
15.8641   608
15.8741   550
15.8841   524
15.8941   505
15.9041   446
15.9141   412
15.9241   420
15.9341   411
15.9441   384
15.9541   357
15.9641   349
15.9741   314
15.9841   305
15.9941   310
16.0041   321
16.0141   309
16.0241   322
16.0341   331
16.0441   316
16.0541   327
16.0641   311
16.0741   290
16.0841   292
16.0941   287
16.1041   314
16.1141   316
16.1241   322
16.1341   315
16.1441   301
16.1541   316
16.1641   334
16.1741   317
16.1841   313
16.1941   312
16.2041   316
16.2141   315
16.2241   310
16.2341   297
16.2441   307
16.2541   317
16.2641   304
16.2741   300
16.2841   288
16.2941   317
16.3041   309
16.3141   329
16.3241   331
16.3341   321
16.3441   343
16.3541   316
16.3641   298
16.3741   310
16.3841   316
16.3941   315
16.4041   328
16.4141   310
16.4241   320
16.4341   327
16.4441   324
16.4541   346
16.4641   344
16.4741   329
16.4841   329
16.4941   326
16.5041   325
16.5141   333
16.5241   347
16.5341   343
16.5441   353
16.5541   340
16.5641   344
16.5741   327
16.5841   311
16.5941   334
16.6041   348
16.6141   357
16.6241   382
16.6341   355
16.6441   337
16.6541   330
16.6641   358
16.6741   377
16.6841   364
16.6941   360
16.7041   328
16.7141   353
16.7241   358
16.7341   363
16.7441   349
16.7541   340
16.7641   335
16.7741   355
16.7841   350
16.7941   321
16.8041   348
16.8141   353
16.8241   346
16.8341   341
16.8441   334
16.8541   336
16.8641   349
16.8741   331
16.8841   316
16.8941   343
16.9041   368
16.9141   367
16.9241   346
16.9341   328
16.9441   324
16.9541   331
16.9641   330
16.9741   332
16.9841   334
16.9941   336
17.0041   344
17.0141   354
17.0241   357
17.0341   356
17.0441   361
17.0541   353
17.0641   354
17.0741   372
17.0841   355
17.0941   329
17.1041   346
17.1141   380
17.1241   345
17.1341   333
17.1441   335
17.1541   361
17.1641   367
17.1741   361
17.1841   386
17.1941   392
17.2041   359
17.2141   369
17.2241   393
17.2341   374
17.2441   361
17.2541   360
17.2641   388
17.2741   362
17.2841   354
17.2941   355
17.3041   370
17.3141   380
17.3241   373
17.3341   392
17.3441   403
17.3541   376
17.3641   361
17.3741   379
17.3841   378
17.3941   381
17.4041   397
17.4141   386
17.4241   403
17.4341   392
17.4441   385
17.4541   396
17.4641   385
17.4741   399
17.4841   395
17.4941   366
17.5041   399
17.5141   417
17.5241   430
17.5341   424
17.5441   413
17.5541   411
17.5641   408
17.5741   414
17.5841   432
17.5941   460
17.6041   440
17.6141   462
17.6241   465
17.6341   464
17.6441   454
17.6541   453
17.6641   473
17.6741   471
17.6841   470
17.6941   469
17.7041   437
17.7141   466
17.7241   431
17.7341   448
17.7441   463
17.7541   469
17.7641   445
17.7741   441
17.7841   428
17.7941   420
17.8041   409
17.8141   441
17.8241   430
17.8341   384
17.8441   383
17.8541   432
17.8641   404
17.8741   387
17.8841   366
17.8941   425
17.9041   424
17.9141   435
17.9241   406
17.9341   394
17.9441   404
17.9541   391
17.9641   406
17.9741   411
17.9841   414
17.9941   429
18.0041   409
18.0141   441
18.0241   409
18.0341   411
18.0441   432
18.0541   446
18.0641   424
18.0741   414
18.0841   414
18.0941   408
18.1041   420
18.1141   407
18.1241   405
18.1341   413
18.1441   384
18.1541   383
18.1641   432
18.1741   427
18.1841   442
18.1941   396
18.2041   403
18.2141   415
18.2241   417
18.2341   417
18.2441   399
18.2541   440
18.2641   421
18.2741   407
18.2841   433
18.2941   422
18.3041   413
18.3141   386
18.3241   420
18.3341   434
18.3441   430
18.3541   430
18.3641   398
18.3741   392
18.3841   398
18.3941   387
18.4041   417
18.4141   428
18.4241   451
18.4341   444
18.4441   403
18.4541   407
18.4641   433
18.4741   432
18.4841   473
18.4941   442
18.5041   424
18.5141   432
18.5241   430
18.5341   431
18.5441   431
18.5541   418
18.5641   436
18.5741   422
18.5841   446
18.5941   422
18.6041   412
18.6141   434
18.6241   426
18.6341   436
18.6441   480
18.6541   442
18.6641   430
18.6741   436
18.6841   418
18.6941   407
18.7041   443
18.7141   444
18.7241   409
18.7341   438
18.7441   422
18.7541   437
18.7641   451
18.7741   434
18.7841   447
18.7941   457
18.8041   417
18.8141   429
18.8241   406
18.8341   403
18.8441   447
18.8541   446
18.8641   421
18.8741   450
18.8841   441
18.8941   451
18.9041   422
18.9141   421
18.9241   422
18.9341   435
18.9441   426
18.9541   423
18.9641   404
18.9741   404
18.9841   433
18.9941   439
19.0041   422
19.0141   434
19.0241   458
19.0341   443
19.0441   448
19.0541   451
19.0641   474
19.0741   444
19.0841   437
19.0941   459
19.1041   436
19.1141   428
19.1241   468
19.1341   467
19.1441   468
19.1541   418
19.1641   444
19.1741   452
19.1841   462
19.1941   430
19.2041   460
19.2141   464
19.2241   447
19.2341   465
19.2441   443
19.2541   455
19.2641   433
19.2741   440
19.2841   486
19.2941   443
19.3041   446
19.3141   452
19.3241   473
19.3341   468
19.3441   471
19.3541   462
19.3641   478
19.3741   465
19.3841   478
19.3941   480
19.4041   444
19.4141   444
19.4241   466
19.4341   443
19.4441   429
19.4541   448
19.4641   464
19.4741   434
19.4841   438
19.4941   456
19.5041   486
19.5141   479
19.5241   445
19.5341   470
19.5441   454
19.5541   441
19.5641   435
19.5741   472
19.5841   466
19.5941   451
19.6041   436
19.6141   415
19.6241   432
19.6341   467
19.6441   445
19.6541   466
19.6641   455
19.6741   466
19.6841   500
19.6941   466
19.7041   471
19.7141   454
19.7241   466
19.7341   477
19.7441   474
19.7541   508
19.7641   462
19.7741   451
19.7841   448
19.7941   460
19.8041   458
19.8141   495
19.8241   515
19.8341   475
19.8441   452
19.8541   465
19.8641   469
19.8741   493
19.8841   481
19.8941   446
19.9041   485
19.9141   463
19.9241   495
19.9341   487
19.9441   488
19.9541   451
19.9641   465
19.9741   469
19.9841   453
19.9941   483
20.0041   480
20.0141   451
20.0241   486
20.0341   473
20.0441   492
20.0541   479
20.0641   457
20.0741   466
20.0841   478
20.0941   500
20.1041   478
20.1141   492
20.1241   465
20.1341   471
20.1441   478
20.1541   443
20.1641   462
20.1741   497
20.1841   462
20.1941   454
20.2041   496
20.2141   487
20.2241   480
20.2341   498
20.2441   441
20.2541   435
20.2641   441
20.2741   440
20.2841   464
20.2941   506
20.3041   502
20.3141   460
20.3241   472
20.3341   465
20.3441   492
20.3541   456
20.3641   409
20.3741   453
20.3841   468
20.3941   447
20.4041   458
20.4141   450
20.4241   475
20.4341   501
20.4441   441
20.4541   455
20.4641   490
20.4741   491
20.4841   472
20.4941   468
20.5041   495
20.5141   487
20.5241   478
20.5341   477
20.5441   470
20.5541   471
20.5641   464
20.5741   456
20.5841   476
20.5941   493
20.6041   493
20.6141   474
20.6241   472
20.6341   487
20.6441   469
20.6541   446
20.6641   483
20.6741   523
20.6841   473
20.6941   502
20.7041   471
20.7141   476
20.7241   503
20.7341   465
20.7441   502
20.7541   499
20.7641   488
20.7741   482
20.7841   511
20.7941   481
20.8041   486
20.8141   516
20.8241   508
20.8341   525
20.8441   499
20.8541   518
20.8641   524
20.8741   534
20.8841   489
20.8941   504
20.9041   527
20.9141   551
20.9241   580
20.9341   580
20.9441   589
20.9541   614
20.9641   597
20.9741   605
20.9841   667
20.9941   605
21.0041   616
21.0141   659
21.0241   670
21.0341   721
21.0441   655
21.0541   668
21.0641   678
21.0741   700
21.0841   712
21.0941   728
21.1041   726
21.1141   686
21.1241   720
21.1341   740
21.1441   766
21.1541   722
21.1641   720
21.1741   707
21.1841   688
21.1941   686
21.2041   679
21.2141   617
21.2241   632
21.2341   735
21.2441   610
21.2541   640
21.2641   609
21.2741   636
21.2841   608
21.2941   573
21.3041   555
21.3141   561
21.3241   530
21.3341   504
21.3441   539
21.3541   546
21.3641   481
21.3741   544
21.3841   487
21.3941   489
21.4041   524
21.4141   514
21.4241   524
21.4341   485
21.4441   480
21.4541   517
21.4641   466
21.4741   460
21.4841   500
21.4941   482
21.5041   512
21.5141   479
21.5241   486
21.5341   465
21.5441   496
21.5541   491
21.5641   507
21.5741   477
21.5841   462
21.5941   455
21.6041   484
21.6141   494
21.6241   484
21.6341   480
21.6441   474
21.6541   516
21.6641   465
21.6741   485
21.6841   448
21.6941   492
21.7041   465
21.7141   450
21.7241   486
21.7341   488
21.7441   495
21.7541   478
21.7641   474
21.7741   501
21.7841   501
21.7941   442
21.8041   461
21.8141   459
21.8241   458
21.8341   490
21.8441   485
21.8541   484
21.8641   515
21.8741   489
21.8841   444
21.8941   455
21.9041   452
21.9141   505
21.9241   462
21.9341   470
21.9441   439
21.9541   483
21.9641   479
21.9741   438
21.9841   453
21.9941   469
22.0041   470
22.0141   478
22.0241   483
22.0341   473
22.0441   469
22.0541   531
22.0641   508
22.0741   456
22.0841   500
22.0941   471
22.1041   446
22.1141   482
22.1241   497
22.1341   470
22.1441   491
22.1541   483
22.1641   478
22.1741   502
22.1841   446
22.1941   505
22.2041   503
22.2141   476
22.2241   501
22.2341   440
22.2441   489
22.2541   483
22.2641   435
22.2741   455
22.2841   482
22.2941   491
22.3041   475
22.3141   490
22.3241   474
22.3341   493
22.3441   489
22.3541   461
22.3641   493
22.3741   479
22.3841   455
22.3941   444
22.4041   457
22.4141   495
22.4241   453
22.4341   478
22.4441   478
22.4541   467
22.4641   455
22.4741   504
22.4841   447
22.4941   478
22.5041   477
22.5141   511
22.5241   487
22.5341   447
22.5441   468
22.5541   489
22.5641   490
22.5741   482
22.5841   490
22.5941   463
22.6041   460
22.6141   487
22.6241   470
22.6341   500
22.6441   468
22.6541   469
22.6641   469
22.6741   460
22.6841   470
22.6941   450
22.7041   471
22.7141   443
22.7241   453
22.7341   489
22.7441   457
22.7541   487
22.7641   456
22.7741   490
22.7841   463
22.7941   503
22.8041   523
22.8141   502
22.8241   500
22.8341   473
22.8441   481
22.8541   507
22.8641   491
22.8741   465
22.8841   475
22.8941   473
22.9041   484
22.9141   473
22.9241   465
22.9341   451
22.9441   452
22.9541   453
22.9641   468
22.9741   490
22.9841   452
22.9941   437
23.0041   454
23.0141   449
23.0241   436
23.0341   491
23.0441   471
23.0541   476
23.0641   473
23.0741   441
23.0841   447
23.0941   479
23.1041   456
23.1141   510
23.1241   478
23.1341   479
23.1441   463
23.1541   444
23.1641   468
23.1741   452
23.1841   435
23.1941   471
23.2041   468
23.2141   480
23.2241   436
23.2341   467
23.2441   466
23.2541   474
23.2641   465
23.2741   449
23.2841   470
23.2941   457
23.3041   445
23.3141   494
23.3241   461
23.3341   458
23.3441   445
23.3541   477
23.3641   484
23.3741   445
23.3841   463
23.3941   450
23.4041   463
23.4141   488
23.4241   500
23.4341   460
23.4441   420
23.4541   455
23.4641   431
23.4741   467
23.4841   444
23.4941   454
23.5041   438
23.5141   447
23.5241   465
23.5341   435
23.5441   422
23.5541   463
23.5641   454
23.5741   458
23.5841   436
23.5941   459
23.6041   468
23.6141   462
23.6241   461
23.6341   495
23.6441   468
23.6541   480
23.6641   468
23.6741   469
23.6841   483
23.6941   440
23.7041   507
23.7141   503
23.7241   528
23.7341   524
23.7441   467
23.7541   499
23.7641   458
23.7741   496
23.7841   495
23.7941   489
23.8041   450
23.8141   481
23.8241   455
23.8341   458
23.8441   445
23.8541   477
23.8641   494
23.8741   487
23.8841   418
23.8941   470
23.9041   476
23.9141   472
23.9241   500
23.9341   435
23.9441   490
23.9541   455
23.9641   462
23.9741   418
23.9841   432
23.9941   413
24.0041   434
24.0141   396
24.0241   472
24.0341   416
24.0441   440
24.0541   454
24.0641   447
24.0741   433
24.0841   421
24.0941   462
24.1041   432
24.1141   467
24.1241   448
24.1341   416
24.1441   452
24.1541   439
24.1641   462
24.1741   454
24.1841   455
24.1941   414
24.2041   436
24.2141   467
24.2241   422
24.2341   436
24.2441   457
24.2541   415
24.2641   415
24.2741   430
24.2841   422
24.2941   442
24.3041   432
24.3141   460
24.3241   467
24.3341   450
24.3441   462
24.3541   468
24.3641   425
24.3741   434
24.3841   429
24.3941   448
24.4041   418
24.4141   427
24.4241   441
24.4341   460
24.4441   441
24.4541   442
24.4641   458
24.4741   442
24.4841   435
24.4941   433
24.5041   385
24.5141   427
24.5241   403
24.5341   426
24.5441   371
24.5541   426
24.5641   449
24.5741   432
24.5841   421
24.5941   425
24.6041   425
24.6141   418
24.6241   417
24.6341   431
24.6441   436
24.6541   433
24.6641   450
24.6741   406
24.6841   424
24.6941   413
24.7041   447
24.7141   439
24.7241   440
24.7341   408
24.7441   443
24.7541   425
24.7641   444
24.7741   389
24.7841   419
24.7941   449
24.8041   476
24.8141   439
24.8241   432
24.8341   423
24.8441   456
24.8541   423
24.8641   400
24.8741   426
24.8841   403
24.8941   409
24.9041   420
24.9141   418
24.9241   410
24.9341   443
24.9441   438
24.9541   425
24.9641   425
24.9741   448
24.9841   393
24.9941   408
25.0041   415
25.0141   447
25.0241   426
25.0341   420
25.0441   444
25.0541   425
25.0641   429
25.0741   436
25.0841   401
25.0941   428
25.1041   433
25.1141   464
25.1241   443
25.1341   457
25.1441   408
25.1541   411
25.1641   400
25.1741   405
25.1841   402
25.1941   395
25.2041   414
25.2141   409
25.2241   429
25.2341   414
25.2441   420
25.2541   423
25.2641   389
25.2741   416
25.2841   411
25.2941   384
25.3041   416
25.3141   427
25.3241   412
25.3341   418
25.3441   407
25.3541   395
25.3641   379
25.3741   399
25.3841   408
25.3941   422
25.4041   418
25.4141   426
25.4241   396
25.4341   364
25.4441   380
25.4541   390
25.4641   395
25.4741   406
25.4841   376
25.4941   370
25.5041   385
25.5141   369
25.5241   394
25.5341   424
25.5441   386
25.5541   429
25.5641   405
25.5741   399
25.5841   337
25.5941   373
25.6041   394
25.6141   396
25.6241   395
25.6341   408
25.6441   390
25.6541   383
25.6641   370
25.6741   384
25.6841   388
25.6941   386
25.7041   384
25.7141   390
25.7241   393
25.7341   354
25.7441   371
25.7541   388
25.7641   418
25.7741   370
25.7841   379
25.7941   378
25.8041   389
25.8141   370
25.8241   423
25.8341   408
25.8441   364
25.8541   361
25.8641   387
25.8741   417
25.8841   391
25.8941   386
25.9041   363
25.9141   375
25.9241   378
25.9341   358
25.9441   382
25.9541   384
25.9641   386
25.9741   398
25.9841   371
25.9941   347
26.0041   345
26.0141   387
26.0241   371
26.0341   370
26.0441   349
26.0541   381
26.0641   370
26.0741   389
26.0841   383
26.0941   373
26.1041   387
26.1141   393
26.1241   350
26.1341   382
26.1441   343
26.1541   388
26.1641   375
26.1741   379
26.1841   348
26.1941   357
26.2041   357
26.2141   385
26.2241   345
26.2341   375
26.2441   342
26.2541   346
26.2641   362
26.2741   327
26.2841   373
26.2941   357
26.3041   374
26.3141   360
26.3241   389
26.3341   391
26.3441   313
26.3541   360
26.3641   353
26.3741   376
26.3841   406
26.3941   341
26.4041   336
26.4141   340
26.4241   342
26.4341   369
26.4441   363
26.4541   366
26.4641   345
26.4741   362
26.4841   346
26.4941   362
26.5041   382
26.5141   374
26.5241   349
26.5341   379
26.5441   356
26.5541   349
26.5641   351
26.5741   350
26.5841   346
26.5941   314
26.6041   356
26.6141   390
26.6241   353
26.6341   390
26.6441   360
26.6541   341
26.6641   349
26.6741   370
26.6841   364
26.6941   334
26.7041   367
26.7141   375
26.7241   332
26.7341   328
26.7441   337
26.7541   336
26.7641   344
26.7741   361
26.7841   372
26.7941   361
26.8041   329
26.8141   354
26.8241   345
26.8341   331
26.8441   324
26.8541   342
26.8641   326
26.8741   349
26.8841   337
26.8941   337
26.9041   332
26.9141   353
26.9241   332
26.9341   356
26.9441   318
26.9541   337
26.9641   346
26.9741   327
26.9841   358
26.9941   352
27.0041   340
27.0141   325
27.0241   352
27.0341   344
27.0441   328
27.0541   328
27.0641   346
27.0741   348
27.0841   339
27.0941   347
27.1041   337
27.1141   363
27.1241   320
27.1341   362
27.1441   341
27.1541   340
27.1641   368
27.1741   334
27.1841   360
27.1941   347
27.2041   338
27.2141   347
27.2241   336
27.2341   333
27.2441   336
27.2541   330
27.2641   336
27.2741   353
27.2841   349
27.2941   328
27.3041   330
27.3141   304
27.3241   299
27.3341   354
27.3441   326
27.3541   342
27.3641   319
27.3741   315
27.3841   323
27.3941   329
27.4041   306
27.4141   326
27.4241   343
27.4341   361
27.4441   356
27.4541   329
27.4641   344
27.4741   344
27.4841   317
27.4941   310
27.5041   313
27.5141   345
27.5241   343
27.5341   318
27.5441   324
27.5541   314
27.5641   317
27.5741   345
27.5841   338
27.5941   322
27.6041   289
27.6141   339
27.6241   305
27.6341   272
27.6441   290
27.6541   302
27.6641   339
27.6741   319
27.6841   308
27.6941   313
27.7041   311
27.7141   277
27.7241   313
27.7341   321
27.7441   317
27.7541   320
27.7641   336
27.7741   292
27.7841   304
27.7941   277
27.8041   304
27.8141   323
27.8241   307
27.8341   310
27.8441   285
27.8541   300
27.8641   309
27.8741   305
27.8841   294
27.8941   297
27.9041   281
27.9141   337
27.9241   314
27.9341   272
27.9441   311
27.9541   327
27.9641   270
27.9741   290
27.9841   257
27.9941   302
28.0041   300
28.0141   294
28.0241   288
28.0341   306
28.0441   308
28.0541   321
28.0641   335
28.0741   319
28.0841   274
28.0941   296
28.1041   313
28.1141   335
28.1241   304
28.1341   307
28.1441   306
28.1541   308
28.1641   310
28.1741   306
28.1841   266
28.1941   306
28.2041   294
28.2141   290
28.2241   308
28.2341   300
28.2441   291
28.2541   278
28.2641   276
28.2741   324
28.2841   287
28.2941   317
28.3041   287
28.3141   297
28.3241   300
28.3341   304
28.3441   286
28.3541   299
28.3641   315
28.3741   269
28.3841   311
28.3941   306
28.4041   290
28.4141   294
28.4241   293
28.4341   305
28.4441   297
28.4541   312
28.4641   264
28.4741   308
28.4841   286
28.4941   296
28.5041   270
28.5141   286
28.5241   294
28.5341   288
28.5441   322
28.5541   289
28.5641   304
28.5741   288
28.5841   284
28.5941   281
28.6041   273
28.6141   267
28.6241   275
28.6341   290
28.6441   278
28.6541   285
28.6641   292
28.6741   289
28.6841   289
28.6941   294
28.7041   279
28.7141   295
28.7241   276
28.7341   276
28.7441   300
28.7541   268
28.7641   279
28.7741   272
28.7841   267
28.7941   303
28.8041   287
28.8141   281
28.8241   288
28.8341   263
28.8441   284
28.8541   256
28.8641   283
28.8741   269
28.8841   248
28.8941   280
28.9041   252
28.9141   285
28.9241   246
28.9341   256
28.9441   282
28.9541   321
28.9641   284
28.9741   287
28.9841   260
28.9941   253
29.0041   261
29.0141   261
29.0241   272
29.0341   293
29.0441   293
29.0541   279
29.0641   287
29.0741   273
29.0841   300
29.0941   258
29.1041   273
29.1141   268
29.1241   252
29.1341   269
29.1441   277
29.1541   281
29.1641   236
29.1741   244
29.1841   254
29.1941   283
29.2041   263
29.2141   267
29.2241   277
29.2341   258
29.2441   259
29.2541   262
29.2641   283
29.2741   281
29.2841   241
29.2941   249
29.3041   248
29.3141   275
29.3241   251
29.3341   234
29.3441   268
29.3541   229
29.3641   253
29.3741   280
29.3841   253
29.3941   271
29.4041   273
29.4141   262
29.4241   268
29.4341   282
29.4441   277
29.4541   241
29.4641   267
29.4741   233
29.4841   265
29.4941   263
29.5041   276
29.5141   272
29.5241   245
29.5341   244
29.5441   254
29.5541   251
29.5641   258
29.5741   217
29.5841   219
29.5941   238
29.6041   261
29.6141   249
29.6241   252
29.6341   261
29.6441   271
29.6541   225
29.6641   237
29.6741   273
29.6841   237
29.6941   228
29.7041   229
29.7141   238
29.7241   238
29.7341   239
29.7441   270
29.7541   253
29.7641   251
29.7741   267
29.7841   251
29.7941   245
29.8041   244
29.8141   223
29.8241   234
29.8341   245
29.8441   226
29.8541   223
29.8641   216
29.8741   220
29.8841   249
29.8941   237
29.9041   223
29.9141   224
29.9241   245
29.9341   254
29.9441   238
29.9541   214
29.9641   241
29.9741   252
29.9841   249
29.9941   238
30.0041   228
30.0141   256
30.0241   240
30.0341   233
30.0441   238
30.0541   197
30.0641   244
30.0741   255
30.0841   245
30.0941   215
30.1041   212
30.1141   233
30.1241   221
30.1341   218
30.1441   205
30.1541   254
30.1641   209
30.1741   245
30.1841   182
30.1941   205
30.2041   201
30.2141   238
30.2241   234
30.2341   236
30.2441   204
30.2541   234
30.2641   249
30.2741   227
30.2841   223
30.2941   204
30.3041   244
30.3141   211
30.3241   228
30.3341   214
30.3441   240
30.3541   214
30.3641   242
30.3741   217
30.3841   204
30.3941   208
30.4041   190
30.4141   216
30.4241   208
30.4341   200
30.4441   222
30.4541   229
30.4641   232
30.4741   216
30.4841   231
30.4941   205
30.5041   207
30.5141   231
30.5241   215
30.5341   223
30.5441   237
30.5541   249
30.5641   195
30.5741   208
30.5841   220
30.5941   220
30.6041   235
30.6141   221
30.6241   203
30.6341   223
30.6441   191
30.6541   208
30.6641   211
30.6741   213
30.6841   217
30.6941   217
30.7041   220
30.7141   191
30.7241   220
30.7341   212
30.7441   235
30.7541   208
30.7641   210
30.7741   217
30.7841   235
30.7941   215
30.8041   193
30.8141   211
30.8241   208
30.8341   196
30.8441   214
30.8541   214
30.8641   206
30.8741   197
30.8841   190
30.8941   217
30.9041   229
30.9141   187
30.9241   180
30.9341   206
30.9441   218
30.9541   203
30.9641   198
30.9741   219
30.9841   210
30.9941   202
31.0041   205
31.0141   197
31.0241   185
31.0341   226
31.0441   210
31.0541   218
31.0641   217
31.0741   204
31.0841   218
31.0941   201
31.1041   183
31.1141   180
31.1241   206
31.1341   201
31.1441   222
31.1541   207
31.1641   217
31.1741   189
31.1841   206
31.1941   187
31.2041   217
31.2141   172
31.2241   190
31.2341   211
31.2441   199
31.2541   199
31.2641   162
31.2741   191
31.2841   193
31.2941   213
31.3041   200
31.3141   188
31.3241   185
31.3341   205
31.3441   189
31.3541   180
31.3641   200
31.3741   197
31.3841   190
31.3941   193
31.4041   189
31.4141   192
31.4241   196
31.4341   189
31.4441   210
31.4541   163
31.4641   205
31.4741   193
31.4841   209
31.4941   198
31.5041   193
31.5141   197
31.5241   201
31.5341   222
31.5441   194
31.5541   183
31.5641   191
31.5741   200
31.5841   159
31.5941   190
31.6041   193
31.6141   198
31.6241   169
31.6341   170
31.6441   189
31.6541   188
31.6641   182
31.6741   191
31.6841   191
31.6941   211
31.7041   188
31.7141   190
31.7241   182
31.7341   189
31.7441   174
31.7541   198
31.7641   172
31.7741   219
31.7841   185
31.7941   179
31.8041   167
31.8141   172
31.8241   187
31.8341   208
31.8441   195
31.8541   192
31.8641   189
31.8741   188
31.8841   190
31.8941   165
31.9041   165
31.9141   204
31.9241   174
31.9341   194
31.9441   193
31.9541   183
31.9641   161
31.9741   186
31.9841   186
31.9941   173
32.0041   170
32.0141   168
32.0241   172
32.0341   182
32.0441   190
32.0541   191
32.0641   166
32.0741   200
32.0841   203
32.0941   174
32.1041   177
32.1141   167
32.1241   169
32.1341   171
32.1441   202
32.1541   191
32.1641   184
32.1741   192
32.1841   182
32.1941   172
32.2041   181
32.2141   168
32.2241   167
32.2341   199
32.2441   183
32.2541   170
32.2641   171
32.2741   160
32.2841   188
32.2941   183
32.3041   168
32.3141   184
32.3241   174
32.3341   164
32.3441   196
32.3541   171
32.3641   148
32.3741   178
32.3841   147
32.3941   158
32.4041   160
32.4141   158
32.4241   167
32.4341   168
32.4441   139
32.4541   159
32.4641   159
32.4741   160
32.4841   179
32.4941   168
32.5041   138
32.5141   174
32.5241   188
32.5341   180
32.5441   163
32.5541   164
32.5641   156
32.5741   156
32.5841   167
32.5941   155
32.6041   147
32.6141   181
32.6241   166
32.6341   159
32.6441   169
32.6541   137
32.6641   164
32.6741   191
32.6841   170
32.6941   160
32.7041   151
32.7141   158
32.7241   145
32.7341   155
32.7441   166
32.7541   194
32.7641   174
32.7741   143
32.7841   161
32.7941   163
32.8041   158
32.8141   156
32.8241   150
32.8341   170
32.8441   166
32.8541   137
32.8641   148
32.8741   146
32.8841   152
32.8941   197
32.9041   131
32.9141   157
32.9241   156
32.9341   150
32.9441   165
32.9541   141
32.9641   148
32.9741   125
32.9841   156
32.9941   151
33.0041   168
33.0141   172
33.0241   137
33.0341   160
33.0441   140
33.0541   131
33.0641   141
33.0741   149
33.0841   151
33.0941   133
33.1041   145
33.1141   140
33.1241   153
33.1341   125
33.1441   152
33.1541   128
33.1641   131
33.1741   136
33.1841   145
33.1941   151
33.2041   142
33.2141   154
33.2241   141
33.2341   153
33.2441   152
33.2541   141
33.2641   124
33.2741   145
33.2841   129
33.2941   134
33.3041   126
33.3141   142
33.3241   124
33.3341   139
33.3441   149
33.3541   133
33.3641   155
33.3741   138
33.3841   134
33.3941   119
33.4041   131
33.4141   138
33.4241   138
33.4341   134
33.4441   143
33.4541   119
33.4641   137
33.4741   133
33.4841   122
33.4941   140
33.5041   130
33.5141   144
33.5241   152
33.5341   138
33.5441   137
33.5541   135
33.5641   135
33.5741   138
33.5841   126
33.5941   142
33.6041   127
33.6141   138
33.6241   118
33.6341   154
33.6441   108
33.6541   131
33.6641   121
33.6741   133
33.6841   112
33.6941   143
33.7041   141
33.7141   123
33.7241   116
33.7341   124
33.7441   142
33.7541   136
33.7641   135
33.7741   122
33.7841   129
33.7941   120
33.8041   139
33.8141   129
33.8241   115
33.8341   117
33.8441   110
33.8541   131
33.8641   123
33.8741   126
33.8841   124
33.8941   110
33.9041   116
33.9141   113
33.9241   113
33.9341   125
33.9441   117
33.9541   119
33.9641   137
33.9741   111
33.9841    98
33.9941   112
34.0041   127
34.0141   113
34.0241   116
34.0341   134
34.0441   122
34.0541   129
34.0641   136
34.0741   115
34.0841   122
34.0941   124
34.1041   125
34.1141   113
34.1241   120
34.1341   117
34.1441   123
34.1541   105
34.1641   131
34.1741   115
34.1841   119
34.1941   115
34.2041   106
34.2141   128
34.2241   114
34.2341   134
34.2441   127
34.2541   108
34.2641    86
34.2741   108
34.2841    99
34.2941   114
34.3041   106
34.3141   100
34.3241   128
34.3341   115
34.3441   112
34.3541   144
34.3641   125
34.3741   121
34.3841   129
34.3941   128
34.4041   115
34.4141   111
34.4241   110
34.4341   111
34.4441   107
34.4541   111
34.4641   114
34.4741    97
34.4841   111
34.4941   113
34.5041    97
34.5141    93
34.5241   109
34.5341   117
34.5441   112
34.5541    93
34.5641   115
34.5741   126
34.5841   110
34.5941    96
34.6041    98
34.6141   106
34.6241   133
34.6341   106
34.6441   105
34.6541   105
34.6641   120
34.6741   124
34.6841   125
34.6941   111
34.7041   111
34.7141    95
34.7241   103
34.7341   111
34.7441   100
34.7541   112
34.7641   108
34.7741   109
34.7841    91
34.7941   112
34.8041   104
34.8141   117
34.8241   114
34.8341    82
34.8441    97
34.8541    86
34.8641   104
34.8741   100
34.8841    99
34.8941   113
34.9041   107
34.9141   122
34.9241   108
34.9341   103
34.9441   113
34.9541    94
34.9641    95
34.9741   112
34.9841    88
34.9941    89
35.0041   109
35.0141   101
35.0241   114
35.0341   116
35.0441   101
35.0541    81
35.0641    99
35.0741    84
35.0841    99
35.0941   100
35.1041    84
35.1141   102
35.1241   110
35.1341   102
35.1441    92
35.1541   102
35.1641   105
35.1741    86
35.1841    94
35.1941   110
35.2041   104
35.2141    91
35.2241    94
35.2341    96
35.2441    97
35.2541    96
35.2641    98
35.2741    94
35.2841   106
35.2941    88
35.3041    86
35.3141    91
35.3241    85
35.3341    86
35.3441   107
35.3541    82
35.3641    87
35.3741    90
35.3841   106
35.3941    81
35.4041    79
35.4141    94
35.4241    92
35.4341    93
35.4441    84
35.4541   106
35.4641    86
35.4741   116
35.4841    88
35.4941    99
35.5041    94
35.5141    91
35.5241    75
35.5341    95
35.5441    77
35.5541    78
35.5641   102
35.5741    99
35.5841    85
35.5941    91
35.6041   103
35.6141    93
35.6241    89
35.6341   105
35.6441    90
35.6541    78
35.6641   102
35.6741    83
35.6841    77
35.6941    81
35.7041    85
35.7141    98
35.7241    86
35.7341    79
35.7441    66
35.7541    77
35.7641    70
35.7741    78
35.7841    94
35.7941    79
35.8041    93
35.8141    92
35.8241    80
35.8341    76
35.8441    79
35.8541    67
35.8641   105
35.8741    81
35.8841   106
35.8941    88
35.9041    82
35.9141    87
35.9241    78
35.9341    92
35.9441    96
35.9541    87
35.9641    71
35.9741    72
35.9841    69
35.9941    78
36.0041    59
36.0141    83
36.0241    80
36.0341    82
36.0441   102
36.0541    94
36.0641    85
36.0741    77
36.0841    77
36.0941    65
36.1041    87
36.1141    77
36.1241    91
36.1341    87
36.1441    84
36.1541    84
36.1641    72
36.1741    76
36.1841    97
36.1941    58
36.2041    67
36.2141    96
36.2241    79
36.2341    84
36.2441    76
36.2541    70
36.2641    83
36.2741    86
36.2841    67
36.2941    76
36.3041    83
36.3141    72
36.3241    88
36.3341    78
36.3441    98
36.3541    76
36.3641    71
36.3741    57
36.3841    88
36.3941    76
36.4041    59
36.4141    73
36.4241    73
36.4341    67
36.4441    73
36.4541    65
36.4641    64
36.4741    67
36.4841    68
36.4941    79
36.5041    58
36.5141    57
36.5241    74
36.5341    77
36.5441    62
36.5541    63
36.5641    86
36.5741    93
36.5841    65
36.5941    73
36.6041    80
36.6141    76
36.6241    66
36.6341    67
36.6441    72
36.6541    65
36.6641    72
36.6741    64
36.6841    66
36.6941    67
36.7041    64
36.7141    68
36.7241    72
36.7341    69
36.7441    71
36.7541    54
36.7641    71
36.7741    74
36.7841    74
36.7941    60
36.8041    70
36.8141    85
36.8241    69
36.8341    70
36.8441    59
36.8541    65
36.8641    68
36.8741    72
36.8841    66
36.8941    62
36.9041    68
36.9141    67
36.9241    67
36.9341    62
36.9441    66
36.9541    61
36.9641    56
36.9741    60
36.9841    69
36.9941    58
37.0041    66
37.0141    69
37.0241    66
37.0341    63
37.0441    58
37.0541    71
37.0641    60
37.0741    60
37.0841    62
37.0941    52
37.1041    59
37.1141    70
37.1241    57
37.1341    71
37.1441    67
37.1541    55
37.1641    59
37.1741    61
37.1841    73
37.1941    60
37.2041    65
37.2141    62
37.2241    49
37.2341    57
37.2441    62
37.2541    44
37.2641    64
37.2741    67
37.2841    58
37.2941    57
37.3041    69
37.3141    53
37.3241    66
37.3341    67
37.3441    59
37.3541    66
37.3641    50
37.3741    55
37.3841    59
37.3941    58
37.4041    43
37.4141    50
37.4241    53
37.4341    55
37.4441    42
37.4541    62
37.4641    65
37.4741    64
37.4841    55
37.4941    49
37.5041    66
37.5141    51
37.5241    54
37.5341    57
37.5441    64
37.5541    53
37.5641    59
37.5741    48
37.5841    67
37.5941    72
37.6041    63
37.6141    56
37.6241    47
37.6341    52
37.6441    64
37.6541    42
37.6641    51
37.6741    36
37.6841    50
37.6941    46
37.7041    43
37.7141    55
37.7241    53
37.7341    55
37.7441    48
37.7541    53
37.7641    57
37.7741    42
37.7841    43
37.7941    49
37.8041    51
37.8141    55
37.8241    51
37.8341    50
37.8441    53
37.8541    55
37.8641    56
37.8741    51
37.8841    55
37.8941    54
37.9041    41
37.9141    55
37.9241    48
37.9341    59
37.9441    47
37.9541    50
37.9641    62
37.9741    40
37.9841    49
37.9941    54
38.0041    43
38.0141    46
38.0241    53
38.0341    46
38.0441    54
38.0541    34
38.0641    47
38.0741    50
38.0841    54
38.0941    56
38.1041    41
38.1141    33
38.1241    47
38.1341    55
38.1441    38
38.1541    54
38.1641    39
38.1741    38
38.1841    41
38.1941    43
38.2041    27
38.2141    40
38.2241    43
38.2341    48
38.2441    40
38.2541    44
38.2641    44
38.2741    40
38.2841    44
38.2941    45
38.3041    49
38.3141    45
38.3241    44
38.3341    55
38.3441    38
38.3541    44
38.3641    38
38.3741    41
38.3841    48
38.3941    42
38.4041    35
38.4141    32
38.4241    59
38.4341    37
38.4441    37
38.4541    35
38.4641    53
38.4741    39
38.4841    35
38.4941    49
38.5041    52
38.5141    39
38.5241    52
38.5341    42
38.5441    46
38.5541    44
38.5641    32
38.5741    35
38.5841    38
38.5941    47
38.6041    43
38.6141    52
38.6241    42
38.6341    43
38.6441    37
38.6541    33
38.6641    46
38.6741    40
38.6841    43
38.6941    43
38.7041    40
38.7141    51
38.7241    38
38.7341    40
38.7441    46
38.7541    36
38.7641    43
38.7741    46
38.7841    44
38.7941    31
38.8041    44
38.8141    33
38.8241    35
38.8341    43
38.8441    36
38.8541    39
38.8641    40
38.8741    41
38.8841    38
38.8941    32
38.9041    38
38.9141    36
38.9241    35
38.9341    41
38.9441    26
38.9541    45
38.9641    35
38.9741    29
38.9841    29
38.9941    37
39.0041    39
39.0141    38
39.0241    24
39.0341    38
39.0441    39
39.0541    35
39.0641    30
39.0741    34
39.0841    30
39.0941    36
39.1041    39
39.1141    43
39.1241    36
39.1341    32
39.1441    36
39.1541    35
39.1641    34
39.1741    26
39.1841    35
39.1941    24
39.2041    35
39.2141    20
39.2241    37
39.2341    31
39.2441    41
39.2541    35
39.2641    26
39.2741    37
39.2841    34
39.2941    37
39.3041    33
39.3141    31
39.3241    25
39.3341    30
39.3441    30
39.3541    29
39.3641    33
39.3741    30
39.3841    29
39.3941    34
39.4041    42
39.4141    24
39.4241    23
39.4341    28
39.4441    30
39.4541    25
39.4641    26
39.4741    32
39.4841    31
39.4941    30
39.5041    18
39.5141    24
39.5241    35
39.5341    26
39.5441    32
39.5541    32
39.5641    34
39.5741    33
39.5841    22
39.5941    36
39.6041    26
39.6141    26
39.6241    34
39.6341    33
39.6441    35
39.6541    24
39.6641    23
39.6741    27
39.6841    23
39.6941    39
39.7041    36
39.7141    21
39.7241    29
39.7341    28
39.7441    34
39.7541    24
39.7641    30
39.7741    29
39.7841    30
39.7941    21
39.8041    26
39.8141    33
39.8241    27
39.8341    35
39.8441    24
39.8541    25
39.8641    23
39.8741    31
39.8841    23
39.8941    30
39.9041    25
39.9141    17
39.9241    29
39.9341    30
39.9441    35
39.9541    20
39.9641    29
39.9741    31
39.9841    32
