Bruker Nano GmbH Berlin, Germany
Esprit 1.9

Date: 4/1/2021 4:18:21 PM
Real time: 17014
Life time: 15797
Pulse density: 107303


Detector type: XFlash 430
Window type: Custom type
Detector thickness: 0.45
Si dead layer:0.029

Calibration, lin.: 10
Calibration, abs.: -955.9
Mn FWHM: 137.05
Fano factor: 0.121
Channels: 4095

Energy Counts
-0.9559     0
-0.9459     0
-0.9359     0
-0.9259     0
-0.9159     0
-0.9059     0
-0.8959     0
-0.8859     0
-0.8759     0
-0.8659     0
-0.8559     0
-0.8459     0
-0.8359     0
-0.8259     0
-0.8159     0
-0.8059     0
-0.7959     0
-0.7859     0
-0.7759     0
-0.7659     0
-0.7559     0
-0.7459     0
-0.7359     0
-0.7259     0
-0.7159     0
-0.7059     0
-0.6959     0
-0.6859     0
-0.6759     0
-0.6659     0
-0.6559     0
-0.6459     0
-0.6359     0
-0.6259     0
-0.6159     0
-0.6059     0
-0.5959     0
-0.5859     0
-0.5759     0
-0.5659     0
-0.5559     0
-0.5459     0
-0.5359     0
-0.5259     0
-0.5159     0
-0.5059     0
-0.4959     0
-0.4859     0
-0.4759     0
-0.4659     0
-0.4559     0
-0.4459     0
-0.4359     0
-0.4259     0
-0.4159     0
-0.4059     0
-0.3959     0
-0.3859     0
-0.3759     0
-0.3659     0
-0.3559     0
-0.3459     0
-0.3359     0
-0.3259     0
-0.3159     0
-0.3059     0
-0.2959     0
-0.2859     0
-0.2759     0
-0.2659     0
-0.2559     0
-0.2459     0
-0.2359     0
-0.2259     0
-0.2159     0
-0.2059     0
-0.1959     0
-0.1859     0
-0.1759     0
-0.1659     0
-0.1559     0
-0.1459     0
-0.1359     1
-0.1259     0
-0.1159     1
-0.1059    13
-0.0959    44
-0.0859   198
-0.0759   594
-0.0659  1836
-0.0559  4610
-0.0459  9912
-0.0359 18961
-0.0259 30045
-0.0159 40878
-0.0059 48564
 0.0041 48856
 0.0141 42076
 0.0241 30939
 0.0341 19415
 0.0441 10602
 0.0541  4993
 0.0641  1983
 0.0741   710
 0.0841   218
 0.0941    72
 0.1041    20
 0.1141     8
 0.1241     6
 0.1341     8
 0.1441     3
 0.1541     4
 0.1641     7
 0.1741     1
 0.1841   140
 0.1941   276
 0.2041   220
 0.2141   239
 0.2241   256
 0.2341   238
 0.2441   233
 0.2541   274
 0.2641   259
 0.2741   243
 0.2841   254
 0.2941   240
 0.3041   246
 0.3141   214
 0.3241   231
 0.3341   211
 0.3441   217
 0.3541   229
 0.3641   215
 0.3741   237
 0.3841   226
 0.3941   222
 0.4041   221
 0.4141   208
 0.4241   205
 0.4341   210
 0.4441   211
 0.4541   218
 0.4641   204
 0.4741   216
 0.4841   217
 0.4941   205
 0.5041   216
 0.5141   208
 0.5241   207
 0.5341   214
 0.5441   212
 0.5541   199
 0.5641   200
 0.5741   190
 0.5841   196
 0.5941   192
 0.6041   188
 0.6141   197
 0.6241   194
 0.6341   184
 0.6441   183
 0.6541   187
 0.6641   193
 0.6741   199
 0.6841   184
 0.6941   180
 0.7041   178
 0.7141   178
 0.7241   190
 0.7341   187
 0.7441   183
 0.7541   174
 0.7641   181
 0.7741   184
 0.7841   192
 0.7941   186
 0.8041   183
 0.8141   191
 0.8241   179
 0.8341   159
 0.8441   161
 0.8541   156
 0.8641   148
 0.8741   165
 0.8841   176
 0.8941   179
 0.9041   150
 0.9141   151
 0.9241   152
 0.9341   166
 0.9441   178
 0.9541   172
 0.9641   184
 0.9741   157
 0.9841   166
 0.9941   167
 1.0041   180
 1.0141   176
 1.0241   170
 1.0341   146
 1.0441   154
 1.0541   140
 1.0641   143
 1.0741   177
 1.0841   160
 1.0941   172
 1.1041   163
 1.1141   158
 1.1241   176
 1.1341   153
 1.1441   166
 1.1541   161
 1.1641   147
 1.1741   156
 1.1841   161
 1.1941   142
 1.2041   154
 1.2141   151
 1.2241   157
 1.2341   170
 1.2441   160
 1.2541   136
 1.2641   149
 1.2741   160
 1.2841   145
 1.2941   143
 1.3041   142
 1.3141   126
 1.3241   148
 1.3341   144
 1.3441   131
 1.3541   145
 1.3641   147
 1.3741   137
 1.3841   122
 1.3941   130
 1.4041   145
 1.4141   136
 1.4241   147
 1.4341   151
 1.4441   138
 1.4541   137
 1.4641   161
 1.4741   157
 1.4841   129
 1.4941   116
 1.5041   139
 1.5141   152
 1.5241   131
 1.5341   123
 1.5441   141
 1.5541   141
 1.5641   127
 1.5741   138
 1.5841   143
 1.5941   139
 1.6041   140
 1.6141   146
 1.6241   141
 1.6341   165
 1.6441   172
 1.6541   180
 1.6641   207
 1.6741   221
 1.6841   281
 1.6941   355
 1.7041   444
 1.7141   522
 1.7241   561
 1.7341   606
 1.7441   573
 1.7541   544
 1.7641   482
 1.7741   419
 1.7841   388
 1.7941   322
 1.8041   267
 1.8141   218
 1.8241   195
 1.8341   186
 1.8441   200
 1.8541   175
 1.8641   146
 1.8741   168
 1.8841   140
 1.8941   155
 1.9041   131
 1.9141   135
 1.9241   149
 1.9341   158
 1.9441   161
 1.9541   155
 1.9641   169
 1.9741   165
 1.9841   180
 1.9941   161
 2.0041   171
 2.0141   186
 2.0241   173
 2.0341   162
 2.0441   160
 2.0541   150
 2.0641   131
 2.0741   144
 2.0841   130
 2.0941   138
 2.1041   154
 2.1141   122
 2.1241   122
 2.1341   126
 2.1441   140
 2.1541   121
 2.1641   124
 2.1741   117
 2.1841   131
 2.1941   128
 2.2041   129
 2.2141   128
 2.2241   124
 2.2341   140
 2.2441   120
 2.2541   123
 2.2641   138
 2.2741   138
 2.2841   123
 2.2941   125
 2.3041   124
 2.3141   132
 2.3241   112
 2.3341   118
 2.3441   134
 2.3541   115
 2.3641   116
 2.3741   136
 2.3841   104
 2.3941   110
 2.4041   112
 2.4141   125
 2.4241   111
 2.4341   102
 2.4441   117
 2.4541    98
 2.4641   109
 2.4741   119
 2.4841   126
 2.4941   113
 2.5041    87
 2.5141   105
 2.5241   120
 2.5341   116
 2.5441   105
 2.5541   102
 2.5641   112
 2.5741   109
 2.5841   100
 2.5941   113
 2.6041   124
 2.6141   105
 2.6241   115
 2.6341   123
 2.6441   110
 2.6541   105
 2.6641   109
 2.6741   102
 2.6841    94
 2.6941   101
 2.7041    97
 2.7141   102
 2.7241    97
 2.7341    97
 2.7441   111
 2.7541    91
 2.7641   108
 2.7741   108
 2.7841    97
 2.7941   123
 2.8041   102
 2.8141   115
 2.8241   123
 2.8341   110
 2.8441   108
 2.8541   111
 2.8641   104
 2.8741    94
 2.8841    90
 2.8941   112
 2.9041   116
 2.9141   107
 2.9241    99
 2.9341   102
 2.9441   107
 2.9541   112
 2.9641    95
 2.9741    90
 2.9841    91
 2.9941    94
 3.0041   119
 3.0141    98
 3.0241    96
 3.0341    83
 3.0441   105
 3.0541    90
 3.0641    92
 3.0741    82
 3.0841    90
 3.0941    93
 3.1041    94
 3.1141    83
 3.1241   103
 3.1341    95
 3.1441   111
 3.1541    80
 3.1641    98
 3.1741    87
 3.1841    80
 3.1941   104
 3.2041   104
 3.2141   116
 3.2241   126
 3.2341   157
 3.2441   159
 3.2541   206
 3.2641   226
 3.2741   281
 3.2841   304
 3.2941   286
 3.3041   320
 3.3141   366
 3.3241   300
 3.3341   329
 3.3441   273
 3.3541   243
 3.3641   228
 3.3741   213
 3.3841   175
 3.3941   141
 3.4041   126
 3.4141   110
 3.4241   108
 3.4341    95
 3.4441    78
 3.4541    94
 3.4641    98
 3.4741    96
 3.4841    85
 3.4941    77
 3.5041    90
 3.5141   110
 3.5241   109
 3.5341   119
 3.5441   138
 3.5541   136
 3.5641   160
 3.5741   181
 3.5841   183
 3.5941   251
 3.6041   286
 3.6141   330
 3.6241   431
 3.6341   513
 3.6441   586
 3.6541   713
 3.6641   751
 3.6741   784
 3.6841   858
 3.6941   856
 3.7041   833
 3.7141   772
 3.7241   680
 3.7341   596
 3.7441   503
 3.7541   425
 3.7641   315
 3.7741   232
 3.7841   176
 3.7941   166
 3.8041   124
 3.8141    88
 3.8241    85
 3.8341    69
 3.8441    74
 3.8541    92
 3.8641    73
 3.8741    68
 3.8841    81
 3.8941    96
 3.9041    88
 3.9141    77
 3.9241    72
 3.9341   100
 3.9441   104
 3.9541   126
 3.9641   125
 3.9741   147
 3.9841   146
 3.9941   155
 4.0041   176
 4.0141   175
 4.0241   137
 4.0341   155
 4.0441   131
 4.0541   121
 4.0641   125
 4.0741   105
 4.0841    99
 4.0941    93
 4.1041   101
 4.1141    69
 4.1241    78
 4.1341    71
 4.1441    74
 4.1541    75
 4.1641    66
 4.1741    51
 4.1841    60
 4.1941    73
 4.2041    48
 4.2141    46
 4.2241    65
 4.2341    56
 4.2441    60
 4.2541    64
 4.2641    58
 4.2741    76
 4.2841    69
 4.2941    74
 4.3041    65
 4.3141    53
 4.3241    61
 4.3341    67
 4.3441    80
 4.3541    70
 4.3641    87
 4.3741   104
 4.3841   119
 4.3941   124
 4.4041   153
 4.4141   180
 4.4241   244
 4.4341   291
 4.4441   351
 4.4541   425
 4.4641   451
 4.4741   548
 4.4841   592
 4.4941   626
 4.5041   653
 4.5141   672
 4.5241   621
 4.5341   583
 4.5441   529
 4.5541   443
 4.5641   408
 4.5741   324
 4.5841   232
 4.5941   212
 4.6041   200
 4.6141   139
 4.6241   136
 4.6341   103
 4.6441    94
 4.6541   107
 4.6641    96
 4.6741    62
 4.6841    86
 4.6941    84
 4.7041   109
 4.7141   100
 4.7241    78
 4.7341    77
 4.7441    76
 4.7541    77
 4.7641    90
 4.7741    94
 4.7841   105
 4.7941    87
 4.8041    92
 4.8141   109
 4.8241   123
 4.8341   140
 4.8441   149
 4.8541   158
 4.8641   145
 4.8741   165
 4.8841   177
 4.8941   203
 4.9041   208
 4.9141   197
 4.9241   220
 4.9341   219
 4.9441   198
 4.9541   208
 4.9641   200
 4.9741   167
 4.9841   153
 4.9941   157
 5.0041   124
 5.0141   118
 5.0241   120
 5.0341   109
 5.0441    83
 5.0541    90
 5.0641    82
 5.0741    77
 5.0841    77
 5.0941    88
 5.1041    77
 5.1141    86
 5.1241   100
 5.1341    77
 5.1441    89
 5.1541    84
 5.1641    95
 5.1741    85
 5.1841   100
 5.1941    97
 5.2041    81
 5.2141    90
 5.2241    82
 5.2341    75
 5.2441    90
 5.2541   105
 5.2641    94
 5.2741   104
 5.2841   105
 5.2941    91
 5.3041    98
 5.3141   125
 5.3241   124
 5.3341   128
 5.3441   140
 5.3541   161
 5.3641   160
 5.3741   196
 5.3841   259
 5.3941   229
 5.4041   227
 5.4141   186
 5.4241   188
 5.4341   222
 5.4441   201
 5.4541   176
 5.4641   173
 5.4741   176
 5.4841   156
 5.4941   135
 5.5041   140
 5.5141   117
 5.5241   113
 5.5341    97
 5.5441    94
 5.5541    86
 5.5641   120
 5.5741    71
 5.5841    79
 5.5941   108
 5.6041    84
 5.6141    95
 5.6241    85
 5.6341   103
 5.6441    95
 5.6541    92
 5.6641    85
 5.6741    85
 5.6841    91
 5.6941    87
 5.7041   105
 5.7141   102
 5.7241   110
 5.7341   111
 5.7441   115
 5.7541   122
 5.7641   126
 5.7741   116
 5.7841   163
 5.7941   186
 5.8041   235
 5.8141   258
 5.8241   277
 5.8341   342
 5.8441   376
 5.8541   410
 5.8641   479
 5.8741   541
 5.8841   563
 5.8941   528
 5.9041   539
 5.9141   490
 5.9241   519
 5.9341   406
 5.9441   397
 5.9541   378
 5.9641   309
 5.9741   279
 5.9841   245
 5.9941   190
 6.0041   193
 6.0141   177
 6.0241   157
 6.0341   146
 6.0441   145
 6.0541   134
 6.0641   146
 6.0741   145
 6.0841   136
 6.0941   151
 6.1041   145
 6.1141   125
 6.1241   146
 6.1341   167
 6.1441   167
 6.1541   220
 6.1641   196
 6.1741   227
 6.1841   263
 6.1941   315
 6.2041   422
 6.2141   547
 6.2241   771
 6.2341  1046
 6.2441  1455
 6.2541  2004
 6.2641  2852
 6.2741  4000
 6.2841  5540
 6.2941  7126
 6.3041  9298
 6.3141 11730
 6.3241 14467
 6.3341 17329
 6.3441 20571
 6.3541 23367
 6.3641 26071
 6.3741 28088
 6.3841 29917
 6.3941 30296
 6.4041 30128
 6.4141 29634
 6.4241 27976
 6.4341 25250
 6.4441 22854
 6.4541 19333
 6.4641 16505
 6.4741 13513
 6.4841 10844
 6.4941  8479
 6.5041  6307
 6.5141  4576
 6.5241  3339
 6.5341  2512
 6.5441  1775
 6.5541  1176
 6.5641   830
 6.5741   575
 6.5841   460
 6.5941   328
 6.6041   231
 6.6141   207
 6.6241   187
 6.6341   193
 6.6441   167
 6.6541   168
 6.6641   163
 6.6741   142
 6.6841   168
 6.6941   150
 6.7041   170
 6.7141   142
 6.7241   188
 6.7341   167
 6.7441   158
 6.7541   176
 6.7641   172
 6.7741   186
 6.7841   186
 6.7941   205
 6.8041   187
 6.8141   225
 6.8241   236
 6.8341   224
 6.8441   258
 6.8541   291
 6.8641   333
 6.8741   340
 6.8841   398
 6.8941   495
 6.9041   619
 6.9141   783
 6.9241   902
 6.9341  1178
 6.9441  1489
 6.9541  1686
 6.9641  2197
 6.9741  2592
 6.9841  2996
 6.9941  3532
 7.0041  3829
 7.0141  4373
 7.0241  4674
 7.0341  4916
 7.0441  5167
 7.0541  5122
 7.0641  5049
 7.0741  4922
 7.0841  4601
 7.0941  4199
 7.1041  3765
 7.1141  3290
 7.1241  2795
 7.1341  2297
 7.1441  1995
 7.1541  1539
 7.1641  1223
 7.1741  1043
 7.1841   764
 7.1941   604
 7.2041   460
 7.2141   363
 7.2241   277
 7.2341   260
 7.2441   226
 7.2541   192
 7.2641   174
 7.2741   175
 7.2841   171
 7.2941   184
 7.3041   185
 7.3141   230
 7.3241   203
 7.3341   193
 7.3441   249
 7.3541   262
 7.3641   281
 7.3741   301
 7.3841   357
 7.3941   345
 7.4041   334
 7.4141   373
 7.4241   371
 7.4341   398
 7.4441   420
 7.4541   422
 7.4641   431
 7.4741   404
 7.4841   416
 7.4941   419
 7.5041   374
 7.5141   346
 7.5241   331
 7.5341   331
 7.5441   297
 7.5541   276
 7.5641   273
 7.5741   244
 7.5841   204
 7.5941   216
 7.6041   179
 7.6141   178
 7.6241   164
 7.6341   163
 7.6441   173
 7.6541   171
 7.6641   163
 7.6741   163
 7.6841   197
 7.6941   185
 7.7041   180
 7.7141   152
 7.7241   174
 7.7341   180
 7.7441   197
 7.7541   185
 7.7641   207
 7.7741   205
 7.7841   204
 7.7941   202
 7.8041   210
 7.8141   212
 7.8241   216
 7.8341   211
 7.8441   221
 7.8541   256
 7.8641   272
 7.8741   281
 7.8841   266
 7.8941   258
 7.9041   266
 7.9141   308
 7.9241   302
 7.9341   307
 7.9441   316
 7.9541   365
 7.9641   391
 7.9741   426
 7.9841   439
 7.9941   423
 8.0041   493
 8.0141   533
 8.0241   510
 8.0341   590
 8.0441   627
 8.0541   680
 8.0641   725
 8.0741   776
 8.0841   849
 8.0941   904
 8.1041   954
 8.1141  1010
 8.1241  1035
 8.1341  1016
 8.1441  1073
 8.1541  1095
 8.1641  1174
 8.1741  1076
 8.1841  1186
 8.1941  1249
 8.2041  1271
 8.2141  1226
 8.2241  1172
 8.2341  1264
 8.2441  1318
 8.2541  1366
 8.2641  1425
 8.2741  1500
 8.2841  1635
 8.2941  1814
 8.3041  1824
 8.3141  2007
 8.3241  2164
 8.3341  2335
 8.3441  2480
 8.3541  2579
 8.3641  2629
 8.3741  2657
 8.3841  2754
 8.3941  2803
 8.4041  2735
 8.4141  2545
 8.4241  2481
 8.4341  2315
 8.4441  2077
 8.4541  1909
 8.4641  1653
 8.4741  1459
 8.4841  1268
 8.4941  1106
 8.5041   916
 8.5141   799
 8.5241   682
 8.5341   565
 8.5441   526
 8.5541   501
 8.5641   466
 8.5741   447
 8.5841   426
 8.5941   440
 8.6041   429
 8.6141   451
 8.6241   429
 8.6341   463
 8.6441   426
 8.6541   397
 8.6641   431
 8.6741   393
 8.6841   390
 8.6941   394
 8.7041   346
 8.7141   361
 8.7241   351
 8.7341   330
 8.7441   268
 8.7541   291
 8.7641   292
 8.7741   285
 8.7841   291
 8.7941   264
 8.8041   280
 8.8141   277
 8.8241   265
 8.8341   266
 8.8441   255
 8.8541   251
 8.8641   276
 8.8741   280
 8.8841   256
 8.8941   263
 8.9041   256
 8.9141   262
 8.9241   263
 8.9341   244
 8.9441   274
 8.9541   286
 8.9641   295
 8.9741   299
 8.9841   274
 8.9941   291
 9.0041   298
 9.0141   307
 9.0241   307
 9.0341   346
 9.0441   337
 9.0541   335
 9.0641   363
 9.0741   353
 9.0841   361
 9.0941   386
 9.1041   392
 9.1141   423
 9.1241   418
 9.1341   434
 9.1441   454
 9.1541   487
 9.1641   494
 9.1741   518
 9.1841   538
 9.1941   538
 9.2041   601
 9.2141   633
 9.2241   624
 9.2341   685
 9.2441   736
 9.2541   766
 9.2641   792
 9.2741   887
 9.2841   853
 9.2941   931
 9.3041   941
 9.3141   954
 9.3241   981
 9.3341  1003
 9.3441  1041
 9.3541  1097
 9.3641  1095
 9.3741  1063
 9.3841  1108
 9.3941  1069
 9.4041  1177
 9.4141  1153
 9.4241  1135
 9.4341  1234
 9.4441  1261
 9.4541  1189
 9.4641  1213
 9.4741  1270
 9.4841  1284
 9.4941  1333
 9.5041  1339
 9.5141  1374
 9.5241  1399
 9.5341  1447
 9.5441  1490
 9.5541  1548
 9.5641  1666
 9.5741  1770
 9.5841  1884
 9.5941  1956
 9.6041  2156
 9.6141  2151
 9.6241  2298
 9.6341  2362
 9.6441  2497
 9.6541  2515
 9.6641  2505
 9.6741  2491
 9.6841  2445
 9.6941  2431
 9.7041  2283
 9.7141  2158
 9.7241  2018
 9.7341  1924
 9.7441  1764
 9.7541  1679
 9.7641  1537
 9.7741  1431
 9.7841  1296
 9.7941  1246
 9.8041  1121
 9.8141  1084
 9.8241  1083
 9.8341  1039
 9.8441   997
 9.8541  1049
 9.8641  1043
 9.8741  1018
 9.8841  1070
 9.8941  1069
 9.9041  1033
 9.9141  1095
 9.9241  1142
 9.9341  1129
 9.9441  1124
 9.9541  1102
 9.9641  1113
 9.9741  1021
 9.9841  1046
 9.9941   978
10.0041   901
10.0141   833
10.0241   799
10.0341   735
10.0441   667
10.0541   606
10.0641   496
10.0741   453
10.0841   426
10.0941   391
10.1041   323
10.1141   313
10.1241   285
10.1341   271
10.1441   246
10.1541   223
10.1641   244
10.1741   216
10.1841   199
10.1941   181
10.2041   205
10.2141   201
10.2241   171
10.2341   174
10.2441   187
10.2541   176
10.2641   172
10.2741   172
10.2841   149
10.2941   165
10.3041   176
10.3141   155
10.3241   154
10.3341   165
10.3441   145
10.3541   148
10.3641   131
10.3741   140
10.3841   134
10.3941   132
10.4041   164
10.4141   165
10.4241   149
10.4341   150
10.4441   146
10.4541   136
10.4641   136
10.4741   159
10.4841   165
10.4941   156
10.5041   172
10.5141   174
10.5241   158
10.5341   161
10.5441   161
10.5541   155
10.5641   134
10.5741   169
10.5841   160
10.5941   172
10.6041   172
10.6141   173
10.6241   156
10.6341   172
10.6441   152
10.6541   159
10.6641   194
10.6741   167
10.6841   166
10.6941   188
10.7041   211
10.7141   196
10.7241   175
10.7341   202
10.7441   221
10.7541   203
10.7641   206
10.7741   201
10.7841   213
10.7941   203
10.8041   208
10.8141   221
10.8241   237
10.8341   221
10.8441   232
10.8541   232
10.8641   228
10.8741   255
10.8841   260
10.8941   256
10.9041   245
10.9141   257
10.9241   242
10.9341   274
10.9441   278
10.9541   247
10.9641   239
10.9741   238
10.9841   268
10.9941   258
11.0041   240
11.0141   248
11.0241   232
11.0341   245
11.0441   274
11.0541   233
11.0641   231
11.0741   250
11.0841   227
11.0941   207
11.1041   215
11.1141   240
11.1241   240
11.1341   220
11.1441   236
11.1541   241
11.1641   247
11.1741   269
11.1841   283
11.1941   308
11.2041   286
11.2141   272
11.2241   312
11.2341   331
11.2441   351
11.2541   361
11.2641   404
11.2741   372
11.2841   348
11.2941   390
11.3041   356
11.3141   352
11.3241   348
11.3341   345
11.3441   338
11.3541   311
11.3641   297
11.3741   292
11.3841   270
11.3941   253
11.4041   228
11.4141   200
11.4241   210
11.4341   199
11.4441   201
11.4541   198
11.4641   177
11.4741   175
11.4841   169
11.4941   168
11.5041   169
11.5141   177
11.5241   174
11.5341   190
11.5441   176
11.5541   176
11.5641   179
11.5741   166
11.5841   181
11.5941   187
11.6041   176
11.6141   176
11.6241   186
11.6341   174
11.6441   200
11.6541   178
11.6641   180
11.6741   182
11.6841   189
11.6941   169
11.7041   157
11.7141   167
11.7241   184
11.7341   167
11.7441   157
11.7541   146
11.7641   130
11.7741   144
11.7841   156
11.7941   149
11.8041   144
11.8141   143
11.8241   152
11.8341   134
11.8441   150
11.8541   162
11.8641   150
11.8741   142
11.8841   147
11.8941   142
11.9041   155
11.9141   140
11.9241   135
11.9341   142
11.9441   133
11.9541   129
11.9641   129
11.9741   151
11.9841   154
11.9941   158
12.0041   148
12.0141   148
12.0241   139
12.0341   132
12.0441   140
12.0541   128
12.0641   130
12.0741   130
12.0841   130
12.0941   126
12.1041   129
12.1141   137
12.1241   129
12.1341   138
12.1441   131
12.1541   138
12.1641   140
12.1741   120
12.1841   123
12.1941   134
12.2041   131
12.2141   129
12.2241   119
12.2341   125
12.2441   125
12.2541   130
12.2641   127
12.2741   140
12.2841   134
12.2941   121
12.3041   122
12.3141   131
12.3241   126
12.3341   129
12.3441   120
12.3541   135
12.3641   131
12.3741   124
12.3841   123
12.3941   133
12.4041   133
12.4141   123
12.4241   134
12.4341   131
12.4441   134
12.4541   131
12.4641   121
12.4741   121
12.4841   125
12.4941   138
12.5041   143
12.5141   140
12.5241   132
12.5341   138
12.5441   146
12.5541   152
12.5641   146
12.5741   131
12.5841   137
12.5941   158
12.6041   157
12.6141   144
12.6241   135
12.6341   136
12.6441   141
12.6541   145
12.6641   149
12.6741   154
12.6841   160
12.6941   161
12.7041   157
12.7141   150
12.7241   150
12.7341   152
12.7441   152
12.7541   151
12.7641   150
12.7741   152
12.7841   158
12.7941   161
12.8041   156
12.8141   151
12.8241   149
12.8341   143
12.8441   142
12.8541   155
12.8641   166
12.8741   164
12.8841   152
12.8941   146
12.9041   151
12.9141   156
12.9241   156
12.9341   156
12.9441   153
12.9541   147
12.9641   150
12.9741   156
12.9841   164
12.9941   165
13.0041   154
13.0141   151
13.0241   156
13.0341   156
13.0441   148
13.0541   161
13.0641   163
13.0741   160
13.0841   165
13.0941   172
13.1041   180
13.1141   168
13.1241   155
13.1341   152
13.1441   161
13.1541   181
13.1641   173
13.1741   167
13.1841   182
13.1941   187
13.2041   177
13.2141   189
13.2241   217
13.2341   227
13.2441   212
13.2541   211
13.2641   237
13.2741   258
13.2841   257
13.2941   255
13.3041   262
13.3141   295
13.3241   309
13.3341   305
13.3441   315
13.3541   326
13.3641   328
13.3741   322
13.3841   321
13.3941   327
13.4041   335
13.4141   337
13.4241   325
13.4341   303
13.4441   280
13.4541   264
13.4641   257
13.4741   254
13.4841   251
13.4941   245
13.5041   234
13.5141   219
13.5241   209
13.5341   204
13.5441   200
13.5541   198
13.5641   200
13.5741   197
13.5841   195
13.5941   196
13.6041   192
13.6141   185
13.6241   181
13.6341   184
13.6441   193
13.6541   195
13.6641   188
13.6741   179
13.6841   183
13.6941   181
13.7041   182
13.7141   190
13.7241   192
13.7341   197
13.7441   190
13.7541   187
13.7641   195
13.7741   183
13.7841   173
13.7941   180
13.8041   199
13.8141   193
13.8241   186
13.8341   192
13.8441   190
13.8541   189
13.8641   188
13.8741   194
13.8841   192
13.8941   186
13.9041   190
13.9141   204
13.9241   201
13.9341   185
13.9441   198
13.9541   213
13.9641   215
13.9741   224
13.9841   217
13.9941   200
14.0041   227
14.0141   255
14.0241   255
14.0341   261
14.0441   261
14.0541   265
14.0641   282
14.0741   298
14.0841   308
14.0941   315
14.1041   320
14.1141   324
14.1241   318
14.1341   307
14.1441   314
14.1541   324
14.1641   312
14.1741   315
14.1841   330
14.1941   314
14.2041   294
14.2141   288
14.2241   296
14.2341   303
14.2441   267
14.2541   251
14.2641   263
14.2741   245
14.2841   232
14.2941   223
14.3041   226
14.3141   229
14.3241   224
14.3341   220
14.3441   210
14.3541   207
14.3641   201
14.3741   203
14.3841   214
14.3941   210
14.4041   217
14.4141   215
14.4241   213
14.4341   207
14.4441   204
14.4541   213
14.4641   219
14.4741   203
14.4841   195
14.4941   204
14.5041   208
14.5141   213
14.5241   224
14.5341   229
14.5441   228
14.5541   229
14.5641   225
14.5741   231
14.5841   207
14.5941   210
14.6041   218
14.6141   204
14.6241   220
14.6341   216
14.6441   197
14.6541   215
14.6641   234
14.6741   233
14.6841   222
14.6941   220
14.7041   219
14.7141   217
14.7241   226
14.7341   229
14.7441   227
14.7541   249
14.7641   246
14.7741   239
14.7841   247
14.7941   252
14.8041   267
14.8141   273
14.8241   266
14.8341   276
14.8441   310
14.8541   307
14.8641   282
14.8741   285
14.8841   290
14.8941   309
14.9041   312
14.9141   295
14.9241   293
14.9341   300
14.9441   306
14.9541   310
14.9641   319
14.9741   333
14.9841   297
14.9941   271
15.0041   290
15.0141   280
15.0241   270
15.0341   277
15.0441   277
15.0541   283
15.0641   288
15.0741   283
15.0841   277
15.0941   279
15.1041   254
15.1141   267
15.1241   259
15.1341   231
15.1441   240
15.1541   247
15.1641   253
15.1741   252
15.1841   260
15.1941   250
15.2041   235
15.2141   243
15.2241   252
15.2341   253
15.2441   254
15.2541   246
15.2641   255
15.2741   249
15.2841   234
15.2941   264
15.3041   265
15.3141   254
15.3241   243
15.3341   248
15.3441   250
15.3541   244
15.3641   243
15.3741   273
15.3841   269
15.3941   255
15.4041   251
15.4141   260
15.4241   254
15.4341   241
15.4441   255
15.4541   270
15.4641   263
15.4741   266
15.4841   281
15.4941   276
15.5041   261
15.5141   282
15.5241   310
15.5341   310
15.5441   303
15.5541   298
15.5641   324
15.5741   364
15.5841   367
15.5941   370
15.6041   405
15.6141   434
15.6241   426
15.6341   451
15.6441   462
15.6541   500
15.6641   530
15.6741   546
15.6841   559
15.6941   552
15.7041   588
15.7141   636
15.7241   637
15.7341   646
15.7441   655
15.7541   662
15.7641   653
15.7741   639
15.7841   650
15.7941   626
15.8041   600
15.8141   608
15.8241   574
15.8341   571
15.8441   559
15.8541   506
15.8641   484
15.8741   424
15.8841   418
15.8941   427
15.9041   387
15.9141   362
15.9241   356
15.9341   341
15.9441   306
15.9541   311
15.9641   315
15.9741   319
15.9841   318
15.9941   297
16.0041   289
16.0141   288
16.0241   280
16.0341   298
16.0441   297
16.0541   272
16.0641   265
16.0741   274
16.0841   294
16.0941   304
16.1041   313
16.1141   307
16.1241   312
16.1341   294
16.1441   275
16.1541   299
16.1641   311
16.1741   287
16.1841   302
16.1941   287
16.2041   293
16.2141   288
16.2241   276
16.2341   280
16.2441   298
16.2541   285
16.2641   291
16.2741   295
16.2841   283
16.2941   300
16.3041   302
16.3141   278
16.3241   281
16.3341   286
16.3441   283
16.3541   299
16.3641   309
16.3741   327
16.3841   303
16.3941   302
16.4041   294
16.4141   288
16.4241   294
16.4341   302
16.4441   309
16.4541   326
16.4641   318
16.4741   325
16.4841   308
16.4941   298
16.5041   308
16.5141   330
16.5241   332
16.5341   334
16.5441   351
16.5541   338
16.5641   339
16.5741   330
16.5841   317
16.5941   330
16.6041   345
16.6141   344
16.6241   346
16.6341   333
16.6441   332
16.6541   317
16.6641   326
16.6741   323
16.6841   321
16.6941   309
16.7041   328
16.7141   332
16.7241   341
16.7341   306
16.7441   300
16.7541   317
16.7641   310
16.7741   338
16.7841   335
16.7941   321
16.8041   352
16.8141   327
16.8241   323
16.8341   344
16.8441   312
16.8541   323
16.8641   335
16.8741   324
16.8841   332
16.8941   348
16.9041   337
16.9141   321
16.9241   352
16.9341   345
16.9441   321
16.9541   325
16.9641   346
16.9741   340
16.9841   326
16.9941   341
17.0041   334
17.0141   329
17.0241   348
17.0341   334
17.0441   357
17.0541   353
17.0641   337
17.0741   326
17.0841   352
17.0941   341
17.1041   318
17.1141   315
17.1241   353
17.1341   360
17.1441   341
17.1541   337
17.1641   352
17.1741   351
17.1841   329
17.1941   337
17.2041   359
17.2141   361
17.2241   358
17.2341   349
17.2441   366
17.2541   343
17.2641   349
17.2741   363
17.2841   355
17.2941   360
17.3041   357
17.3141   355
17.3241   359
17.3341   387
17.3441   393
17.3541   387
17.3641   413
17.3741   384
17.3841   354
17.3941   354
17.4041   366
17.4141   354
17.4241   400
17.4341   383
17.4441   383
17.4541   393
17.4641   386
17.4741   399
17.4841   366
17.4941   364
17.5041   364
17.5141   395
17.5241   401
17.5341   403
17.5441   382
17.5541   411
17.5641   420
17.5741   430
17.5841   410
17.5941   422
17.6041   416
17.6141   425
17.6241   429
17.6341   412
17.6441   451
17.6541   458
17.6641   431
17.6741   449
17.6841   438
17.6941   417
17.7041   433
17.7141   446
17.7241   411
17.7341   433
17.7441   404
17.7541   410
17.7641   432
17.7741   403
17.7841   394
17.7941   407
17.8041   419
17.8141   410
17.8241   395
17.8341   375
17.8441   405
17.8541   419
17.8641   400
17.8741   398
17.8841   410
17.8941   420
17.9041   404
17.9141   401
17.9241   383
17.9341   399
17.9441   396
17.9541   386
17.9641   387
17.9741   371
17.9841   384
17.9941   407
18.0041   409
18.0141   418
18.0241   389
18.0341   381
18.0441   407
18.0541   383
18.0641   399
18.0741   416
18.0841   413
18.0941   406
18.1041   422
18.1141   396
18.1241   373
18.1341   407
18.1441   389
18.1541   382
18.1641   374
18.1741   401
18.1841   429
18.1941   407
18.2041   408
18.2141   389
18.2241   367
18.2341   347
18.2441   408
18.2541   414
18.2641   406
18.2741   400
18.2841   400
18.2941   401
18.3041   385
18.3141   417
18.3241   403
18.3341   390
18.3441   380
18.3541   372
18.3641   397
18.3741   382
18.3841   388
18.3941   421
18.4041   395
18.4141   402
18.4241   400
18.4341   392
18.4441   397
18.4541   430
18.4641   422
18.4741   393
18.4841   383
18.4941   411
18.5041   423
18.5141   385
18.5241   389
18.5341   424
18.5441   440
18.5541   396
18.5641   406
18.5741   420
18.5841   449
18.5941   452
18.6041   455
18.6141   443
18.6241   423
18.6341   419
18.6441   413
18.6541   399
18.6641   416
18.6741   417
18.6841   370
18.6941   409
18.7041   441
18.7141   428
18.7241   410
18.7341   412
18.7441   440
18.7541   455
18.7641   414
18.7741   426
18.7841   412
18.7941   423
18.8041   430
18.8141   450
18.8241   442
18.8341   421
18.8441   409
18.8541   437
18.8641   410
18.8741   424
18.8841   419
18.8941   456
18.9041   440
18.9141   416
18.9241   427
18.9341   461
18.9441   444
18.9541   445
18.9641   434
18.9741   448
18.9841   444
18.9941   409
19.0041   389
19.0141   445
19.0241   461
19.0341   436
19.0441   434
19.0541   421
19.0641   416
19.0741   433
19.0841   443
19.0941   462
19.1041   446
19.1141   433
19.1241   445
19.1341   430
19.1441   436
19.1541   424
19.1641   455
19.1741   419
19.1841   416
19.1941   416
19.2041   450
19.2141   407
19.2241   425
19.2341   440
19.2441   462
19.2541   448
19.2641   399
19.2741   419
19.2841   442
19.2941   463
19.3041   463
19.3141   431
19.3241   409
19.3341   443
19.3441   447
19.3541   427
19.3641   456
19.3741   446
19.3841   448
19.3941   447
19.4041   432
19.4141   435
19.4241   455
19.4341   436
19.4441   418
19.4541   425
19.4641   422
19.4741   476
19.4841   402
19.4941   432
19.5041   426
19.5141   435
19.5241   455
19.5341   440
19.5441   439
19.5541   467
19.5641   433
19.5741   458
19.5841   444
19.5941   404
19.6041   442
19.6141   438
19.6241   441
19.6341   420
19.6441   485
19.6541   440
19.6641   430
19.6741   408
19.6841   450
19.6941   427
19.7041   457
19.7141   441
19.7241   444
19.7341   440
19.7441   455
19.7541   448
19.7641   474
19.7741   449
19.7841   446
19.7941   481
19.8041   471
19.8141   422
19.8241   435
19.8341   440
19.8441   442
19.8541   448
19.8641   452
19.8741   446
19.8841   452
19.8941   468
19.9041   473
19.9141   453
19.9241   419
19.9341   428
19.9441   422
19.9541   446
19.9641   445
19.9741   438
19.9841   445
19.9941   480
20.0041   457
20.0141   451
20.0241   442
20.0341   421
20.0441   447
20.0541   438
20.0641   459
20.0741   456
20.0841   442
20.0941   446
20.1041   450
20.1141   469
20.1241   456
20.1341   461
20.1441   468
20.1541   456
20.1641   456
20.1741   476
20.1841   501
20.1941   461
20.2041   453
20.2141   434
20.2241   481
20.2341   477
20.2441   437
20.2541   439
20.2641   422
20.2741   466
20.2841   449
20.2941   458
20.3041   430
20.3141   448
20.3241   475
20.3341   469
20.3441   479
20.3541   450
20.3641   457
20.3741   460
20.3841   467
20.3941   442
20.4041   462
20.4141   490
20.4241   502
20.4341   447
20.4441   486
20.4541   490
20.4641   444
20.4741   438
20.4841   441
20.4941   455
20.5041   488
20.5141   449
20.5241   432
20.5341   458
20.5441   446
20.5541   444
20.5641   480
20.5741   487
20.5841   487
20.5941   456
20.6041   446
20.6141   462
20.6241   462
20.6341   495
20.6441   490
20.6541   462
20.6641   464
20.6741   465
20.6841   463
20.6941   446
20.7041   470
20.7141   452
20.7241   468
20.7341   466
20.7441   481
20.7541   436
20.7641   424
20.7741   476
20.7841   481
20.7941   507
20.8041   494
20.8141   480
20.8241   491
20.8341   499
20.8441   494
20.8541   488
20.8641   514
20.8741   521
20.8841   518
20.8941   566
20.9041   527
20.9141   551
20.9241   598
20.9341   542
20.9441   579
20.9541   572
20.9641   533
20.9741   578
20.9841   614
20.9941   610
21.0041   606
21.0141   598
21.0241   609
21.0341   652
21.0441   673
21.0541   680
21.0641   657
21.0741   710
21.0841   671
21.0941   634
21.1041   681
21.1141   664
21.1241   700
21.1341   674
21.1441   666
21.1541   654
21.1641   689
21.1741   729
21.1841   646
21.1941   633
21.2041   666
21.2141   657
21.2241   612
21.2341   628
21.2441   606
21.2541   650
21.2641   594
21.2741   581
21.2841   563
21.2941   558
21.3041   557
21.3141   546
21.3241   530
21.3341   520
21.3441   534
21.3541   528
21.3641   484
21.3741   481
21.3841   496
21.3941   534
21.4041   482
21.4141   502
21.4241   480
21.4341   449
21.4441   430
21.4541   439
21.4641   437
21.4741   488
21.4841   476
21.4941   459
21.5041   437
21.5141   451
21.5241   459
21.5341   461
21.5441   459
21.5541   469
21.5641   457
21.5741   449
21.5841   439
21.5941   466
21.6041   510
21.6141   464
21.6241   467
21.6341   460
21.6441   452
21.6541   454
21.6641   476
21.6741   461
21.6841   454
21.6941   488
21.7041   458
21.7141   465
21.7241   457
21.7341   449
21.7441   465
21.7541   479
21.7641   472
21.7741   504
21.7841   506
21.7941   511
21.8041   436
21.8141   462
21.8241   464
21.8341   451
21.8441   482
21.8541   482
21.8641   460
21.8741   490
21.8841   494
21.8941   453
21.9041   463
21.9141   454
21.9241   463
21.9341   464
21.9441   457
21.9541   519
21.9641   461
21.9741   464
21.9841   450
21.9941   504
22.0041   468
22.0141   456
22.0241   462
22.0341   498
22.0441   479
22.0541   449
22.0641   507
22.0741   484
22.0841   478
22.0941   449
22.1041   477
22.1141   483
22.1241   469
22.1341   470
22.1441   474
22.1541   467
22.1641   410
22.1741   504
22.1841   440
22.1941   449
22.2041   467
22.2141   467
22.2241   449
22.2341   495
22.2441   461
22.2541   436
22.2641   440
22.2741   458
22.2841   483
22.2941   473
22.3041   455
22.3141   455
22.3241   471
22.3341   477
22.3441   468
22.3541   477
22.3641   449
22.3741   489
22.3841   447
22.3941   492
22.4041   484
22.4141   460
22.4241   460
22.4341   496
22.4441   436
22.4541   455
22.4641   464
22.4741   455
22.4841   487
22.4941   496
22.5041   470
22.5141   484
22.5241   445
22.5341   454
22.5441   445
22.5541   454
22.5641   479
22.5741   467
22.5841   463
22.5941   456
22.6041   469
22.6141   473
22.6241   457
22.6341   489
22.6441   435
22.6541   461
22.6641   504
22.6741   471
22.6841   496
22.6941   443
22.7041   481
22.7141   453
22.7241   497
22.7341   473
22.7441   485
22.7541   464
22.7641   446
22.7741   456
22.7841   441
22.7941   405
22.8041   468
22.8141   457
22.8241   462
22.8341   456
22.8441   459
22.8541   435
22.8641   483
22.8741   473
22.8841   417
22.8941   449
22.9041   458
22.9141   464
22.9241   443
22.9341   473
22.9441   483
22.9541   436
22.9641   450
22.9741   499
22.9841   433
22.9941   431
23.0041   445
23.0141   432
23.0241   463
23.0341   453
23.0441   463
23.0541   461
23.0641   442
23.0741   447
23.0841   463
23.0941   523
23.1041   460
23.1141   423
23.1241   421
23.1341   449
23.1441   453
23.1541   442
23.1641   447
23.1741   430
23.1841   434
23.1941   468
23.2041   447
23.2141   454
23.2241   446
23.2341   420
23.2441   489
23.2541   433
23.2641   452
23.2741   464
23.2841   488
23.2941   434
23.3041   440
23.3141   428
23.3241   441
23.3341   468
23.3441   415
23.3541   440
23.3641   450
23.3741   461
23.3841   451
23.3941   443
23.4041   454
23.4141   487
23.4241   449
23.4341   470
23.4441   438
23.4541   466
23.4641   440
23.4741   441
23.4841   440
23.4941   438
23.5041   454
23.5141   452
23.5241   427
23.5341   423
23.5441   438
23.5541   446
23.5641   444
23.5741   460
23.5841   456
23.5941   447
23.6041   448
23.6141   452
23.6241   419
23.6341   475
23.6441   471
23.6541   421
23.6641   457
23.6741   445
23.6841   414
23.6941   493
23.7041   460
23.7141   488
23.7241   485
23.7341   483
23.7441   473
23.7541   478
23.7641   484
23.7741   519
23.7841   465
23.7941   492
23.8041   483
23.8141   445
23.8241   447
23.8341   462
23.8441   470
23.8541   450
23.8641   497
23.8741   471
23.8841   442
23.8941   449
23.9041   398
23.9141   478
23.9241   463
23.9341   430
23.9441   458
23.9541   462
23.9641   446
23.9741   420
23.9841   476
23.9941   451
24.0041   438
24.0141   442
24.0241   427
24.0341   429
24.0441   413
24.0541   428
24.0641   462
24.0741   445
24.0841   420
24.0941   434
24.1041   456
24.1141   445
24.1241   477
24.1341   420
24.1441   468
24.1541   444
24.1641   436
24.1741   446
24.1841   444
24.1941   430
24.2041   412
24.2141   429
24.2241   464
24.2341   406
24.2441   461
24.2541   422
24.2641   461
24.2741   423
24.2841   411
24.2941   387
24.3041   428
24.3141   415
24.3241   433
24.3341   417
24.3441   416
24.3541   417
24.3641   412
24.3741   438
24.3841   428
24.3941   396
24.4041   435
24.4141   398
24.4241   446
24.4341   447
24.4441   414
24.4541   405
24.4641   439
24.4741   425
24.4841   427
24.4941   434
24.5041   412
24.5141   456
24.5241   412
24.5341   396
24.5441   429
24.5541   401
24.5641   429
24.5741   415
24.5841   441
24.5941   400
24.6041   391
24.6141   415
24.6241   395
24.6341   426
24.6441   402
24.6541   436
24.6641   406
24.6741   434
24.6841   407
24.6941   387
24.7041   409
24.7141   393
24.7241   385
24.7341   424
24.7441   433
24.7541   407
24.7641   441
24.7741   439
24.7841   425
24.7941   394
24.8041   398
24.8141   434
24.8241   392
24.8341   424
24.8441   410
24.8541   376
24.8641   362
24.8741   396
24.8841   389
24.8941   419
24.9041   458
24.9141   378
24.9241   396
24.9341   373
24.9441   423
24.9541   419
24.9641   392
24.9741   404
24.9841   435
24.9941   417
25.0041   413
25.0141   438
25.0241   435
25.0341   383
25.0441   397
25.0541   421
25.0641   391
25.0741   404
25.0841   395
25.0941   431
25.1041   404
25.1141   395
25.1241   386
25.1341   420
25.1441   398
25.1541   392
25.1641   397
25.1741   393
25.1841   419
25.1941   444
25.2041   433
25.2141   431
25.2241   449
25.2341   405
25.2441   390
25.2541   408
25.2641   378
25.2741   463
25.2841   422
25.2941   394
25.3041   428
25.3141   439
25.3241   420
25.3341   401
25.3441   429
25.3541   420
25.3641   433
25.3741   405
25.3841   377
25.3941   414
25.4041   402
25.4141   375
25.4241   368
25.4341   391
25.4441   394
25.4541   381
25.4641   418
25.4741   372
25.4841   362
25.4941   440
25.5041   397
25.5141   403
25.5241   370
25.5341   396
25.5441   397
25.5541   370
25.5641   360
25.5741   374
25.5841   404
25.5941   401
25.6041   409
25.6141   385
25.6241   377
25.6341   411
25.6441   362
25.6541   360
25.6641   384
25.6741   350
25.6841   369
25.6941   395
25.7041   365
25.7141   364
25.7241   374
25.7341   384
25.7441   362
25.7541   378
25.7641   388
25.7741   420
25.7841   367
25.7941   357
25.8041   382
25.8141   341
25.8241   362
25.8341   382
25.8441   342
25.8541   373
25.8641   370
25.8741   386
25.8841   380
25.8941   374
25.9041   372
25.9141   346
25.9241   351
25.9341   349
25.9441   373
25.9541   377
25.9641   372
25.9741   356
25.9841   353
25.9941   358
26.0041   354
26.0141   346
26.0241   391
26.0341   377
26.0441   400
26.0541   362
26.0641   367
26.0741   381
26.0841   377
26.0941   359
26.1041   325
26.1141   347
26.1241   394
26.1341   371
26.1441   344
26.1541   332
26.1641   372
26.1741   387
26.1841   357
26.1941   353
26.2041   353
26.2141   367
26.2241   349
26.2341   367
26.2441   386
26.2541   332
26.2641   378
26.2741   378
26.2841   370
26.2941   354
26.3041   376
26.3141   375
26.3241   357
26.3341   371
26.3441   369
26.3541   367
26.3641   333
26.3741   374
26.3841   376
26.3941   358
26.4041   376
26.4141   348
26.4241   338
26.4341   338
26.4441   344
26.4541   337
26.4641   360
26.4741   344
26.4841   370
26.4941   351
26.5041   347
26.5141   326
26.5241   349
26.5341   337
26.5441   349
26.5541   345
26.5641   348
26.5741   344
26.5841   329
26.5941   313
26.6041   336
26.6141   381
26.6241   351
26.6341   333
26.6441   369
26.6541   352
26.6641   355
26.6741   339
26.6841   341
26.6941   337
26.7041   329
26.7141   367
26.7241   350
26.7341   362
26.7441   358
26.7541   359
26.7641   352
26.7741   340
26.7841   338
26.7941   359
26.8041   333
26.8141   358
26.8241   324
26.8341   354
26.8441   368
26.8541   355
26.8641   314
26.8741   326
26.8841   331
26.8941   371
26.9041   347
26.9141   328
26.9241   321
26.9341   300
26.9441   324
26.9541   336
26.9641   333
26.9741   309
26.9841   341
26.9941   342
27.0041   313
27.0141   311
27.0241   345
27.0341   333
27.0441   335
27.0541   332
27.0641   316
27.0741   316
27.0841   312
27.0941   323
27.1041   328
27.1141   322
27.1241   363
27.1341   338
27.1441   350
27.1541   330
27.1641   354
27.1741   323
27.1841   325
27.1941   322
27.2041   308
27.2141   328
27.2241   348
27.2341   333
27.2441   346
27.2541   348
27.2641   305
27.2741   325
27.2841   361
27.2941   302
27.3041   325
27.3141   340
27.3241   331
27.3341   342
27.3441   295
27.3541   307
27.3641   337
27.3741   307
27.3841   328
27.3941   327
27.4041   307
27.4141   340
27.4241   341
27.4341   304
27.4441   329
27.4541   345
27.4641   328
27.4741   317
27.4841   301
27.4941   294
27.5041   333
27.5141   315
27.5241   309
27.5341   332
27.5441   317
27.5541   323
27.5641   316
27.5741   296
27.5841   295
27.5941   315
27.6041   332
27.6141   314
27.6241   312
27.6341   302
27.6441   296
27.6541   309
27.6641   334
27.6741   309
27.6841   300
27.6941   336
27.7041   302
27.7141   300
27.7241   315
27.7341   312
27.7441   284
27.7541   292
27.7641   318
27.7741   309
27.7841   311
27.7941   294
27.8041   301
27.8141   290
27.8241   296
27.8341   308
27.8441   308
27.8541   304
27.8641   308
27.8741   302
27.8841   310
27.8941   280
27.9041   281
27.9141   294
27.9241   297
27.9341   280
27.9441   289
27.9541   298
27.9641   288
27.9741   292
27.9841   294
27.9941   296
28.0041   285
28.0141   316
28.0241   316
28.0341   283
28.0441   304
28.0541   283
28.0641   270
28.0741   288
28.0841   275
28.0941   284
28.1041   277
28.1141   277
28.1241   284
28.1341   301
28.1441   256
28.1541   277
28.1641   274
28.1741   269
28.1841   260
28.1941   282
28.2041   280
28.2141   268
28.2241   298
28.2341   314
28.2441   285
28.2541   287
28.2641   291
28.2741   280
28.2841   291
28.2941   291
28.3041   286
28.3141   293
28.3241   290
28.3341   301
28.3441   263
28.3541   304
28.3641   304
28.3741   272
28.3841   269
28.3941   286
28.4041   272
28.4141   306
28.4241   293
28.4341   277
28.4441   302
28.4541   303
28.4641   283
28.4741   282
28.4841   293
28.4941   287
28.5041   314
28.5141   272
28.5241   289
28.5341   296
28.5441   289
28.5541   285
28.5641   250
28.5741   280
28.5841   282
28.5941   263
28.6041   299
28.6141   288
28.6241   269
28.6341   292
28.6441   289
28.6541   269
28.6641   294
28.6741   274
28.6841   275
28.6941   259
28.7041   246
28.7141   283
28.7241   286
28.7341   299
28.7441   241
28.7541   261
28.7641   245
28.7741   250
28.7841   252
28.7941   261
28.8041   242
28.8141   280
28.8241   254
28.8341   268
28.8441   274
28.8541   268
28.8641   264
28.8741   278
28.8841   233
28.8941   259
28.9041   255
28.9141   272
28.9241   276
28.9341   250
28.9441   267
28.9541   248
28.9641   265
28.9741   270
28.9841   245
28.9941   245
29.0041   265
29.0141   240
29.0241   276
29.0341   266
29.0441   258
29.0541   243
29.0641   257
29.0741   289
29.0841   292
29.0941   247
29.1041   248
29.1141   233
29.1241   265
29.1341   259
29.1441   259
29.1541   242
29.1641   256
29.1741   247
29.1841   247
29.1941   277
29.2041   281
29.2141   254
29.2241   227
29.2341   252
29.2441   222
29.2541   232
29.2641   253
29.2741   258
29.2841   246
29.2941   245
29.3041   255
29.3141   262
29.3241   243
29.3341   259
29.3441   251
29.3541   211
29.3641   229
29.3741   256
29.3841   244
29.3941   255
29.4041   267
29.4141   261
29.4241   244
29.4341   233
29.4441   241
29.4541   232
29.4641   240
29.4741   259
29.4841   225
29.4941   260
29.5041   232
29.5141   243
29.5241   236
29.5341   276
29.5441   216
29.5541   261
29.5641   243
29.5741   247
29.5841   220
29.5941   266
29.6041   230
29.6141   251
29.6241   229
29.6341   212
29.6441   210
29.6541   256
29.6641   236
29.6741   228
29.6841   217
29.6941   239
29.7041   205
29.7141   214
29.7241   256
29.7341   257
29.7441   238
29.7541   247
29.7641   220
29.7741   257
29.7841   244
29.7941   225
29.8041   241
29.8141   238
29.8241   214
29.8341   238
29.8441   224
29.8541   226
29.8641   226
29.8741   243
29.8841   222
29.8941   209
29.9041   250
29.9141   230
29.9241   230
29.9341   222
29.9441   214
29.9541   212
29.9641   235
29.9741   227
29.9841   214
29.9941   224
30.0041   228
30.0141   193
30.0241   204
30.0341   218
30.0441   203
30.0541   235
30.0641   214
30.0741   203
30.0841   228
30.0941   203
30.1041   214
30.1141   221
30.1241   216
30.1341   225
30.1441   227
30.1541   205
30.1641   235
30.1741   201
30.1841   213
30.1941   204
30.2041   206
30.2141   231
30.2241   197
30.2341   238
30.2441   213
30.2541   223
30.2641   217
30.2741   223
30.2841   222
30.2941   234
30.3041   224
30.3141   214
30.3241   223
30.3341   195
30.3441   235
30.3541   190
30.3641   250
30.3741   212
30.3841   235
30.3941   218
30.4041   232
30.4141   211
30.4241   216
30.4341   203
30.4441   215
30.4541   209
30.4641   191
30.4741   199
30.4841   213
30.4941   217
30.5041   212
30.5141   195
30.5241   220
30.5341   212
30.5441   205
30.5541   235
30.5641   222
30.5741   208
30.5841   198
30.5941   200
30.6041   215
30.6141   208
30.6241   195
30.6341   227
30.6441   199
30.6541   179
30.6641   192
30.6741   211
30.6841   201
30.6941   210
30.7041   209
30.7141   212
30.7241   204
30.7341   207
30.7441   198
30.7541   204
30.7641   196
30.7741   182
30.7841   191
30.7941   183
30.8041   179
30.8141   203
30.8241   184
30.8341   193
30.8441   178
30.8541   199
30.8641   186
30.8741   195
30.8841   210
30.8941   196
30.9041   197
30.9141   203
30.9241   196
30.9341   196
30.9441   177
30.9541   182
30.9641   200
30.9741   194
30.9841   198
30.9941   186
31.0041   199
31.0141   199
31.0241   178
31.0341   178
31.0441   180
31.0541   198
31.0641   205
31.0741   194
31.0841   196
31.0941   185
31.1041   176
31.1141   181
31.1241   196
31.1341   184
31.1441   165
31.1541   193
31.1641   189
31.1741   194
31.1841   192
31.1941   193
31.2041   186
31.2141   191
31.2241   185
31.2341   202
31.2441   188
31.2541   178
31.2641   173
31.2741   210
31.2841   168
31.2941   169
31.3041   196
31.3141   167
31.3241   182
31.3341   184
31.3441   192
31.3541   204
31.3641   181
31.3741   194
31.3841   165
31.3941   174
31.4041   192
31.4141   204
31.4241   196
31.4341   182
31.4441   198
31.4541   185
31.4641   170
31.4741   174
31.4841   174
31.4941   182
31.5041   184
31.5141   188
31.5241   170
31.5341   174
31.5441   170
31.5541   178
31.5641   162
31.5741   181
31.5841   182
31.5941   197
31.6041   177
31.6141   169
31.6241   212
31.6341   172
31.6441   182
31.6541   176
31.6641   174
31.6741   187
31.6841   183
31.6941   169
31.7041   167
31.7141   196
31.7241   201
31.7341   187
31.7441   180
31.7541   170
31.7641   198
31.7741   180
31.7841   209
31.7941   197
31.8041   176
31.8141   175
31.8241   163
31.8341   182
31.8441   185
31.8541   194
31.8641   191
31.8741   197
31.8841   180
31.8941   159
31.9041   152
31.9141   171
31.9241   189
31.9341   168
31.9441   148
31.9541   155
31.9641   166
31.9741   191
31.9841   174
31.9941   189
32.0041   167
32.0141   177
32.0241   177
32.0341   170
32.0441   193
32.0541   185
32.0641   178
32.0741   179
32.0841   159
32.0941   160
32.1041   183
32.1141   187
32.1241   192
32.1341   160
32.1441   167
32.1541   175
32.1641   195
32.1741   188
32.1841   174
32.1941   188
32.2041   184
32.2141   189
32.2241   193
32.2341   160
32.2441   171
32.2541   184
32.2641   177
32.2741   156
32.2841   168
32.2941   165
32.3041   150
32.3141   170
32.3241   142
32.3341   171
32.3441   183
32.3541   167
32.3641   162
32.3741   158
32.3841   149
32.3941   159
32.4041   147
32.4141   148
32.4241   179
32.4341   135
32.4441   160
32.4541   164
32.4641   158
32.4741   148
32.4841   176
32.4941   143
32.5041   165
32.5141   170
32.5241   158
32.5341   142
32.5441   140
32.5541   160
32.5641   139
32.5741   158
32.5841   154
32.5941   141
32.6041   150
32.6141   145
32.6241   138
32.6341   137
32.6441   125
32.6541   138
32.6641   133
32.6741   164
32.6841   166
32.6941   154
32.7041   147
32.7141   132
32.7241   156
32.7341   151
32.7441   138
32.7541   136
32.7641   166
32.7741   139
32.7841   158
32.7941   153
32.8041   156
32.8141   157
32.8241   140
32.8341   152
32.8441   127
32.8541   147
32.8641   143
32.8741   161
32.8841   156
32.8941   136
32.9041   127
32.9141   147
32.9241   132
32.9341   144
32.9441   144
32.9541   114
32.9641   143
32.9741   112
32.9841   146
32.9941   144
33.0041   145
33.0141   139
33.0241   132
33.0341   134
33.0441   126
33.0541   143
33.0641   126
33.0741   128
33.0841   134
33.0941   149
33.1041   159
33.1141   124
33.1241   143
33.1341   165
33.1441   154
33.1541   145
33.1641   139
33.1741   134
33.1841   122
33.1941   130
33.2041   149
33.2141   152
33.2241   132
33.2341   112
33.2441   128
33.2541   124
33.2641   126
33.2741   118
33.2841   132
33.2941   136
33.3041   137
33.3141   140
33.3241   146
33.3341   138
33.3441   111
33.3541   139
33.3641   138
33.3741   151
33.3841   138
33.3941   136
33.4041   130
33.4141   145
33.4241   117
33.4341   129
33.4441   111
33.4541   109
33.4641   114
33.4741   134
33.4841   131
33.4941   134
33.5041   114
33.5141   110
33.5241   141
33.5341   134
33.5441   122
33.5541   145
33.5641   148
33.5741   118
33.5841   133
33.5941   117
33.6041   122
33.6141   119
33.6241   118
33.6341   135
33.6441   141
33.6541   128
33.6641   118
33.6741   101
33.6841   109
33.6941   126
33.7041   122
33.7141   111
33.7241   134
33.7341   134
33.7441   125
33.7541   119
33.7641   116
33.7741   125
33.7841   116
33.7941   118
33.8041   125
33.8141   125
33.8241   122
33.8341   130
33.8441   110
33.8541   132
33.8641   112
33.8741   108
33.8841   104
33.8941   124
33.9041   106
33.9141   130
33.9241   123
33.9341   117
33.9441   111
33.9541   127
33.9641   112
33.9741   117
33.9841   121
33.9941   110
34.0041   108
34.0141   127
34.0241   114
34.0341   129
34.0441    98
34.0541   118
34.0641   102
34.0741   111
34.0841   114
34.0941   125
34.1041   106
34.1141   104
34.1241   122
34.1341   105
34.1441   110
34.1541   112
34.1641   108
34.1741   115
34.1841   114
34.1941   105
34.2041    94
34.2141   120
34.2241   108
34.2341   120
34.2441   118
34.2541   119
34.2641   111
34.2741   106
34.2841   109
34.2941   106
34.3041   106
34.3141   101
34.3241   107
34.3341   105
34.3441   101
34.3541    94
34.3641   111
34.3741   113
34.3841   106
34.3941   107
34.4041   126
34.4141   116
34.4241   110
34.4341   105
34.4441   103
34.4541   124
34.4641   114
34.4741    89
34.4841   103
34.4941   116
34.5041   125
34.5141    94
34.5241    95
34.5341   107
34.5441   115
34.5541    94
34.5641    87
34.5741   100
34.5841    98
34.5941    80
34.6041   113
34.6141    98
34.6241    96
34.6341   108
34.6441   124
34.6541   100
34.6641    83
34.6741    88
34.6841    93
34.6941   105
34.7041   114
34.7141   112
34.7241   112
34.7341   105
34.7441   101
34.7541    87
34.7641   104
34.7741    97
34.7841   108
34.7941   115
34.8041    82
34.8141   116
34.8241   103
34.8341   100
34.8441   116
34.8541   107
34.8641    87
34.8741    88
34.8841   104
34.8941    87
34.9041    97
34.9141   102
34.9241   109
34.9341   101
34.9441    96
34.9541    76
34.9641   101
34.9741   104
34.9841   108
34.9941    82
35.0041   107
35.0141    98
35.0241    90
35.0341    93
35.0441    98
35.0541    92
35.0641    90
35.0741   102
35.0841    96
35.0941    92
35.1041    83
35.1141    91
35.1241    77
35.1341    93
35.1441    75
35.1541    84
35.1641    79
35.1741    91
35.1841    89
35.1941    82
35.2041    80
35.2141    88
35.2241    85
35.2341    82
35.2441    90
35.2541    96
35.2641    90
35.2741    88
35.2841   125
35.2941   102
35.3041    82
35.3141    95
35.3241    93
35.3341    81
35.3441    93
35.3541    78
35.3641    84
35.3741    95
35.3841    87
35.3941    79
35.4041    95
35.4141    88
35.4241    91
35.4341    81
35.4441    83
35.4541    89
35.4641    84
35.4741    96
35.4841    87
35.4941    73
35.5041    87
35.5141   113
35.5241    68
35.5341    91
35.5441    99
35.5541    94
35.5641    86
35.5741    85
35.5841    84
35.5941    87
35.6041    75
35.6141    73
35.6241   101
35.6341    72
35.6441    78
35.6541    77
35.6641    92
35.6741    77
35.6841    93
35.6941   102
35.7041    68
35.7141    94
35.7241    76
35.7341    87
35.7441    68
35.7541    70
35.7641    73
35.7741    75
35.7841    83
35.7941    79
35.8041    59
35.8141    92
35.8241    73
35.8341    77
35.8441    78
35.8541    80
35.8641    79
35.8741    77
35.8841    77
35.8941    95
35.9041    72
35.9141    65
35.9241    73
35.9341    94
35.9441    77
35.9541    73
35.9641    81
35.9741    94
35.9841    85
35.9941    64
36.0041    64
36.0141    72
36.0241    68
36.0341    73
36.0441    82
36.0541    82
36.0641    73
36.0741    68
36.0841    60
36.0941    85
36.1041    84
36.1141    73
36.1241    77
36.1341    73
36.1441    75
36.1541    75
36.1641    66
36.1741    74
36.1841    56
36.1941    71
36.2041    84
36.2141    78
36.2241    75
36.2341    82
36.2441    80
36.2541    70
36.2641    73
36.2741    78
36.2841    80
36.2941    77
36.3041    77
36.3141    85
36.3241    92
36.3341    73
36.3441    74
36.3541    67
36.3641    84
36.3741    98
36.3841    81
36.3941    62
36.4041    84
36.4141    56
36.4241    73
36.4341    68
36.4441    85
36.4541    79
36.4641    75
36.4741    67
36.4841    76
36.4941    75
36.5041    70
36.5141    73
36.5241    64
36.5341    72
36.5441    67
36.5541    60
36.5641    77
36.5741    70
36.5841    69
36.5941    70
36.6041    57
36.6141    52
36.6241    69
36.6341    58
36.6441    70
36.6541    69
36.6641    66
36.6741    57
36.6841    48
36.6941    69
36.7041    65
36.7141    64
36.7241    67
36.7341    71
36.7441    81
36.7541    70
36.7641    78
36.7741    66
36.7841    69
36.7941    64
36.8041    68
36.8141    76
36.8241    57
36.8341    65
36.8441    60
36.8541    66
36.8641    62
36.8741    66
36.8841    57
36.8941    60
36.9041    56
36.9141    54
36.9241    52
36.9341    60
36.9441    62
36.9541    63
36.9641    63
36.9741    71
36.9841    64
36.9941    54
37.0041    62
37.0141    65
37.0241    55
37.0341    55
37.0441    51
37.0541    56
37.0641    69
37.0741    76
37.0841    63
37.0941    46
37.1041    46
37.1141    60
37.1241    49
37.1341    54
37.1441    58
37.1541    55
37.1641    60
37.1741    48
37.1841    66
37.1941    70
37.2041    66
37.2141    54
37.2241    64
37.2341    56
37.2441    52
37.2541    55
37.2641    65
37.2741    52
37.2841    48
37.2941    51
37.3041    60
37.3141    62
37.3241    58
37.3341    45
37.3441    60
37.3541    60
37.3641    50
37.3741    73
37.3841    56
37.3941    57
37.4041    68
37.4141    52
37.4241    55
37.4341    58
37.4441    55
37.4541    49
37.4641    52
37.4741    72
37.4841    57
37.4941    48
37.5041    55
37.5141    61
37.5241    49
37.5341    65
37.5441    49
37.5541    54
37.5641    60
37.5741    63
37.5841    44
37.5941    41
37.6041    47
37.6141    49
37.6241    50
37.6341    51
37.6441    44
37.6541    54
37.6641    62
37.6741    49
37.6841    56
37.6941    50
37.7041    44
37.7141    48
37.7241    42
37.7341    51
37.7441    37
37.7541    64
37.7641    67
37.7741    48
37.7841    60
37.7941    59
37.8041    43
37.8141    50
37.8241    49
37.8341    42
37.8441    60
37.8541    41
37.8641    44
37.8741    60
37.8841    66
37.8941    51
37.9041    49
37.9141    48
37.9241    55
37.9341    54
37.9441    48
37.9541    45
37.9641    48
37.9741    44
37.9841    46
37.9941    52
38.0041    43
38.0141    52
38.0241    49
38.0341    50
38.0441    45
38.0541    34
38.0641    48
38.0741    50
38.0841    53
38.0941    49
38.1041    34
38.1141    47
38.1241    44
38.1341    53
38.1441    52
38.1541    66
38.1641    47
38.1741    39
38.1841    47
38.1941    38
38.2041    54
38.2141    42
38.2241    42
38.2341    45
38.2441    47
38.2541    44
38.2641    48
38.2741    48
38.2841    42
38.2941    40
38.3041    40
38.3141    65
38.3241    50
38.3341    44
38.3441    38
38.3541    38
38.3641    37
38.3741    48
38.3841    48
38.3941    34
38.4041    44
38.4141    39
38.4241    42
38.4341    45
38.4441    46
38.4541    36
38.4641    44
38.4741    30
38.4841    36
38.4941    30
38.5041    34
38.5141    31
38.5241    42
38.5341    43
38.5441    38
38.5541    49
38.5641    44
38.5741    34
38.5841    26
38.5941    23
38.6041    44
38.6141    48
38.6241    45
38.6341    32
38.6441    20
38.6541    33
38.6641    42
38.6741    37
38.6841    33
38.6941    37
38.7041    28
38.7141    36
38.7241    43
38.7341    38
38.7441    39
38.7541    42
38.7641    43
38.7741    46
38.7841    37
38.7941    42
38.8041    33
38.8141    37
38.8241    31
38.8341    30
38.8441    39
38.8541    34
38.8641    28
38.8741    31
38.8841    38
38.8941    33
38.9041    38
38.9141    47
38.9241    29
38.9341    39
38.9441    35
38.9541    38
38.9641    42
38.9741    31
38.9841    39
38.9941    32
39.0041    36
39.0141    31
39.0241    37
39.0341    30
39.0441    37
39.0541    35
39.0641    35
39.0741    34
39.0841    30
39.0941    30
39.1041    38
39.1141    31
39.1241    35
39.1341    34
39.1441    29
39.1541    32
39.1641    39
39.1741    39
39.1841    34
39.1941    40
39.2041    35
39.2141    26
39.2241    39
39.2341    33
39.2441    33
39.2541    18
39.2641    26
39.2741    32
39.2841    26
39.2941    28
39.3041    42
39.3141    34
39.3241    24
39.3341    31
39.3441    37
39.3541    35
39.3641    32
39.3741    32
39.3841    26
39.3941    31
39.4041    39
39.4141    41
39.4241    29
39.4341    31
39.4441    40
39.4541    29
39.4641    41
39.4741    35
39.4841    45
39.4941    39
39.5041    23
39.5141    27
39.5241    21
39.5341    35
39.5441    35
39.5541    34
39.5641    33
39.5741    31
39.5841    28
39.5941    25
39.6041    32
39.6141    41
39.6241    26
39.6341    28
39.6441    23
39.6541    25
39.6641    24
39.6741    30
39.6841    27
39.6941    29
39.7041    22
39.7141    20
39.7241    36
39.7341    27
39.7441    28
39.7541    24
39.7641    22
39.7741    22
39.7841    25
39.7941    22
39.8041    27
39.8141    25
39.8241    24
39.8341    30
39.8441    34
39.8541    31
39.8641    24
39.8741    25
39.8841    23
39.8941    25
39.9041    30
39.9141    32
39.9241    25
39.9341    32
39.9441    24
39.9541    27
39.9641    21
39.9741    22
39.9841    23
