Bruker Nano GmbH Berlin, Germany
Esprit 1.9

Date: 4/21/2021 2:23:31 PM
Real time: 28318
Life time: 26610
Pulse density: 86113


Detector type: XFlash 430
Window type: Custom type
Detector thickness: 0.45
Si dead layer:0.029

Calibration, lin.: 10
Calibration, abs.: -955.9
Mn FWHM: 137.05
Fano factor: 0.121
Channels: 4096

Energy Counts
-0.9559     0
-0.9459     0
-0.9359     0
-0.9259     0
-0.9159     0
-0.9059     0
-0.8959     0
-0.8859     0
-0.8759     0
-0.8659     0
-0.8559     0
-0.8459     0
-0.8359     0
-0.8259     0
-0.8159     0
-0.8059     0
-0.7959     0
-0.7859     0
-0.7759     0
-0.7659     0
-0.7559     0
-0.7459     0
-0.7359     0
-0.7259     0
-0.7159     0
-0.7059     0
-0.6959     0
-0.6859     0
-0.6759     0
-0.6659     0
-0.6559     0
-0.6459     0
-0.6359     0
-0.6259     0
-0.6159     0
-0.6059     0
-0.5959     0
-0.5859     0
-0.5759     0
-0.5659     0
-0.5559     0
-0.5459     0
-0.5359     0
-0.5259     0
-0.5159     0
-0.5059     0
-0.4959     0
-0.4859     0
-0.4759     0
-0.4659     0
-0.4559     0
-0.4459     0
-0.4359     0
-0.4259     0
-0.4159     0
-0.4059     0
-0.3959     0
-0.3859     0
-0.3759     0
-0.3659     0
-0.3559     0
-0.3459     0
-0.3359     0
-0.3259     0
-0.3159     0
-0.3059     0
-0.2959     0
-0.2859     0
-0.2759     0
-0.2659     0
-0.2559     0
-0.2459     0
-0.2359     0
-0.2259     0
-0.2159     0
-0.2059     0
-0.1959     0
-0.1859     0
-0.1759     0
-0.1659     0
-0.1559     0
-0.1459     2
-0.1359     0
-0.1259     1
-0.1159     3
-0.1059    24
-0.0959    82
-0.0859   297
-0.0759  1021
-0.0659  3122
-0.0559  7732
-0.0459 16709
-0.0359 31868
-0.0259 50627
-0.0159 69572
-0.0059 81565
 0.0041 82158
 0.0141 70711
 0.0241 52012
 0.0341 32970
 0.0441 17703
 0.0541  8292
 0.0641  3362
 0.0741  1202
 0.0841   373
 0.0941    99
 0.1041    33
 0.1141    20
 0.1241    11
 0.1341    11
 0.1441     9
 0.1541    10
 0.1641     9
 0.1741     8
 0.1841   245
 0.1941   515
 0.2041   446
 0.2141   461
 0.2241   454
 0.2341   473
 0.2441   493
 0.2541   481
 0.2641   487
 0.2741   468
 0.2841   457
 0.2941   452
 0.3041   423
 0.3141   432
 0.3241   440
 0.3341   436
 0.3441   479
 0.3541   458
 0.3641   447
 0.3741   435
 0.3841   423
 0.3941   416
 0.4041   420
 0.4141   393
 0.4241   405
 0.4341   419
 0.4441   388
 0.4541   407
 0.4641   403
 0.4741   395
 0.4841   429
 0.4941   431
 0.5041   404
 0.5141   373
 0.5241   358
 0.5341   382
 0.5441   403
 0.5541   393
 0.5641   392
 0.5741   371
 0.5841   346
 0.5941   349
 0.6041   361
 0.6141   350
 0.6241   346
 0.6341   352
 0.6441   372
 0.6541   380
 0.6641   368
 0.6741   358
 0.6841   362
 0.6941   363
 0.7041   354
 0.7141   339
 0.7241   331
 0.7341   326
 0.7441   332
 0.7541   360
 0.7641   358
 0.7741   348
 0.7841   344
 0.7941   324
 0.8041   313
 0.8141   331
 0.8241   328
 0.8341   337
 0.8441   345
 0.8541   336
 0.8641   345
 0.8741   328
 0.8841   309
 0.8941   305
 0.9041   333
 0.9141   346
 0.9241   334
 0.9341   320
 0.9441   335
 0.9541   328
 0.9641   325
 0.9741   314
 0.9841   290
 0.9941   328
 1.0041   311
 1.0141   328
 1.0241   301
 1.0341   313
 1.0441   311
 1.0541   296
 1.0641   278
 1.0741   257
 1.0841   300
 1.0941   300
 1.1041   312
 1.1141   302
 1.1241   280
 1.1341   286
 1.1441   283
 1.1541   267
 1.1641   274
 1.1741   280
 1.1841   275
 1.1941   278
 1.2041   297
 1.2141   305
 1.2241   301
 1.2341   293
 1.2441   279
 1.2541   288
 1.2641   295
 1.2741   300
 1.2841   290
 1.2941   260
 1.3041   279
 1.3141   291
 1.3241   251
 1.3341   251
 1.3441   269
 1.3541   283
 1.3641   285
 1.3741   251
 1.3841   258
 1.3941   294
 1.4041   285
 1.4141   258
 1.4241   285
 1.4341   274
 1.4441   289
 1.4541   271
 1.4641   274
 1.4741   269
 1.4841   247
 1.4941   265
 1.5041   279
 1.5141   257
 1.5241   291
 1.5341   254
 1.5441   266
 1.5541   281
 1.5641   279
 1.5741   246
 1.5841   260
 1.5941   256
 1.6041   287
 1.6141   271
 1.6241   260
 1.6341   264
 1.6441   286
 1.6541   336
 1.6641   369
 1.6741   430
 1.6841   546
 1.6941   676
 1.7041   762
 1.7141   855
 1.7241   935
 1.7341   952
 1.7441   948
 1.7541   985
 1.7641   902
 1.7741   744
 1.7841   641
 1.7941   542
 1.8041   434
 1.8141   422
 1.8241   384
 1.8341   325
 1.8441   329
 1.8541   289
 1.8641   303
 1.8741   303
 1.8841   253
 1.8941   244
 1.9041   280
 1.9141   263
 1.9241   289
 1.9341   269
 1.9441   286
 1.9541   294
 1.9641   289
 1.9741   287
 1.9841   307
 1.9941   312
 2.0041   310
 2.0141   323
 2.0241   320
 2.0341   337
 2.0441   294
 2.0541   315
 2.0641   278
 2.0741   259
 2.0841   271
 2.0941   290
 2.1041   227
 2.1141   260
 2.1241   256
 2.1341   242
 2.1441   242
 2.1541   257
 2.1641   266
 2.1741   248
 2.1841   214
 2.1941   218
 2.2041   243
 2.2141   236
 2.2241   232
 2.2341   270
 2.2441   229
 2.2541   252
 2.2641   219
 2.2741   234
 2.2841   227
 2.2941   253
 2.3041   215
 2.3141   243
 2.3241   224
 2.3341   236
 2.3441   227
 2.3541   228
 2.3641   231
 2.3741   208
 2.3841   229
 2.3941   229
 2.4041   226
 2.4141   234
 2.4241   201
 2.4341   217
 2.4441   200
 2.4541   193
 2.4641   226
 2.4741   198
 2.4841   232
 2.4941   218
 2.5041   201
 2.5141   203
 2.5241   226
 2.5341   211
 2.5441   213
 2.5541   223
 2.5641   196
 2.5741   200
 2.5841   213
 2.5941   207
 2.6041   200
 2.6141   182
 2.6241   191
 2.6341   213
 2.6441   215
 2.6541   191
 2.6641   205
 2.6741   212
 2.6841   222
 2.6941   178
 2.7041   195
 2.7141   208
 2.7241   180
 2.7341   209
 2.7441   182
 2.7541   175
 2.7641   211
 2.7741   183
 2.7841   195
 2.7941   218
 2.8041   191
 2.8141   188
 2.8241   222
 2.8341   209
 2.8441   204
 2.8541   213
 2.8641   200
 2.8741   195
 2.8841   211
 2.8941   189
 2.9041   205
 2.9141   175
 2.9241   180
 2.9341   184
 2.9441   184
 2.9541   179
 2.9641   197
 2.9741   187
 2.9841   215
 2.9941   180
 3.0041   197
 3.0141   214
 3.0241   181
 3.0341   192
 3.0441   172
 3.0541   177
 3.0641   195
 3.0741   174
 3.0841   190
 3.0941   154
 3.1041   184
 3.1141   186
 3.1241   175
 3.1341   173
 3.1441   143
 3.1541   158
 3.1641   171
 3.1741   147
 3.1841   156
 3.1941   168
 3.2041   134
 3.2141   166
 3.2241   168
 3.2341   196
 3.2441   195
 3.2541   200
 3.2641   222
 3.2741   240
 3.2841   226
 3.2941   252
 3.3041   265
 3.3141   276
 3.3241   290
 3.3341   274
 3.3441   260
 3.3541   227
 3.3641   215
 3.3741   204
 3.3841   193
 3.3941   159
 3.4041   164
 3.4141   170
 3.4241   176
 3.4341   166
 3.4441   139
 3.4541   160
 3.4641   152
 3.4741   147
 3.4841   175
 3.4941   152
 3.5041   160
 3.5141   170
 3.5241   182
 3.5341   215
 3.5441   218
 3.5541   260
 3.5641   295
 3.5741   383
 3.5841   519
 3.5941   668
 3.6041   925
 3.6141  1227
 3.6241  1552
 3.6341  1962
 3.6441  2373
 3.6541  2817
 3.6641  3167
 3.6741  3503
 3.6841  3729
 3.6941  3587
 3.7041  3554
 3.7141  3352
 3.7241  2889
 3.7341  2440
 3.7441  2005
 3.7541  1562
 3.7641  1204
 3.7741   901
 3.7841   693
 3.7941   493
 3.8041   388
 3.8141   264
 3.8241   217
 3.8341   174
 3.8441   170
 3.8541   183
 3.8641   153
 3.8741   155
 3.8841   161
 3.8941   191
 3.9041   208
 3.9141   229
 3.9241   280
 3.9341   338
 3.9441   374
 3.9541   434
 3.9641   544
 3.9741   603
 3.9841   632
 3.9941   704
 4.0041   725
 4.0141   782
 4.0241   776
 4.0341   743
 4.0441   637
 4.0541   580
 4.0641   517
 4.0741   434
 4.0841   326
 4.0941   279
 4.1041   235
 4.1141   192
 4.1241   153
 4.1341   149
 4.1441   143
 4.1541   148
 4.1641   108
 4.1741   111
 4.1841   134
 4.1941   122
 4.2041   114
 4.2141   114
 4.2241   127
 4.2341   117
 4.2441   115
 4.2541   111
 4.2641   103
 4.2741   124
 4.2841   113
 4.2941   113
 4.3041   108
 4.3141   132
 4.3241    97
 4.3341    99
 4.3441   129
 4.3541   123
 4.3641   136
 4.3741   149
 4.3841   128
 4.3941   116
 4.4041   143
 4.4141   146
 4.4241   171
 4.4341   199
 4.4441   217
 4.4541   210
 4.4641   236
 4.4741   252
 4.4841   261
 4.4941   284
 4.5041   284
 4.5141   275
 4.5241   261
 4.5341   267
 4.5441   242
 4.5541   189
 4.5641   207
 4.5741   174
 4.5841   171
 4.5941   162
 4.6041   137
 4.6141   131
 4.6241   118
 4.6341   111
 4.6441   149
 4.6541   137
 4.6641   128
 4.6741   121
 4.6841   113
 4.6941   122
 4.7041   113
 4.7141   132
 4.7241   121
 4.7341   106
 4.7441   111
 4.7541    95
 4.7641   103
 4.7741   126
 4.7841   107
 4.7941   124
 4.8041   125
 4.8141   137
 4.8241   138
 4.8341   136
 4.8441   142
 4.8541   138
 4.8641   132
 4.8741   164
 4.8841   141
 4.8941   150
 4.9041   154
 4.9141   153
 4.9241   163
 4.9341   151
 4.9441   144
 4.9541   160
 4.9641   154
 4.9741   154
 4.9841   156
 4.9941   144
 5.0041   150
 5.0141   149
 5.0241   153
 5.0341   138
 5.0441   144
 5.0541   165
 5.0641   145
 5.0741   145
 5.0841   140
 5.0941   134
 5.1041   143
 5.1141   157
 5.1241   132
 5.1341   125
 5.1441   150
 5.1541   110
 5.1641   121
 5.1741   126
 5.1841   120
 5.1941   131
 5.2041   134
 5.2141   132
 5.2241   119
 5.2341    99
 5.2441   110
 5.2541   131
 5.2641   111
 5.2741   117
 5.2841   117
 5.2941   113
 5.3041   130
 5.3141   120
 5.3241   119
 5.3341   135
 5.3441   151
 5.3541   167
 5.3641   151
 5.3741   149
 5.3841   144
 5.3941   160
 5.4041   158
 5.4141   149
 5.4241   135
 5.4341   143
 5.4441   145
 5.4541   116
 5.4641   131
 5.4741   125
 5.4841   112
 5.4941   122
 5.5041   114
 5.5141   145
 5.5241   106
 5.5341   123
 5.5441   114
 5.5541   106
 5.5641   108
 5.5741   134
 5.5841   134
 5.5941   133
 5.6041   111
 5.6141   117
 5.6241   119
 5.6341   120
 5.6441   105
 5.6541   129
 5.6641   117
 5.6741   127
 5.6841   143
 5.6941   134
 5.7041   141
 5.7141   128
 5.7241   135
 5.7341   125
 5.7441   146
 5.7541   153
 5.7641   150
 5.7741   177
 5.7841   214
 5.7941   215
 5.8041   264
 5.8141   303
 5.8241   307
 5.8341   357
 5.8441   367
 5.8541   444
 5.8641   464
 5.8741   503
 5.8841   497
 5.8941   554
 5.9041   504
 5.9141   502
 5.9241   483
 5.9341   417
 5.9441   399
 5.9541   324
 5.9641   320
 5.9741   287
 5.9841   243
 5.9941   227
 6.0041   214
 6.0141   198
 6.0241   181
 6.0341   165
 6.0441   154
 6.0541   167
 6.0641   152
 6.0741   156
 6.0841   175
 6.0941   155
 6.1041   143
 6.1141   168
 6.1241   182
 6.1341   160
 6.1441   175
 6.1541   163
 6.1641   178
 6.1741   205
 6.1841   224
 6.1941   262
 6.2041   291
 6.2141   327
 6.2241   445
 6.2341   518
 6.2441   730
 6.2541   994
 6.2641  1282
 6.2741  1702
 6.2841  2330
 6.2941  3017
 6.3041  3990
 6.3141  4939
 6.3241  6040
 6.3341  7337
 6.3441  8729
 6.3541  9826
 6.3641 11035
 6.3741 11814
 6.3841 12509
 6.3941 12872
 6.4041 12657
 6.4141 12578
 6.4241 11841
 6.4341 11226
 6.4441  9796
 6.4541  8514
 6.4641  7082
 6.4741  5960
 6.4841  4796
 6.4941  3859
 6.5041  2968
 6.5141  2217
 6.5241  1639
 6.5341  1214
 6.5441   883
 6.5541   612
 6.5641   515
 6.5741   385
 6.5841   318
 6.5941   249
 6.6041   237
 6.6141   231
 6.6241   207
 6.6341   195
 6.6441   190
 6.6541   185
 6.6641   175
 6.6741   200
 6.6841   178
 6.6941   181
 6.7041   192
 6.7141   179
 6.7241   172
 6.7341   208
 6.7441   224
 6.7541   192
 6.7641   206
 6.7741   181
 6.7841   197
 6.7941   213
 6.8041   210
 6.8141   212
 6.8241   255
 6.8341   209
 6.8441   248
 6.8541   277
 6.8641   264
 6.8741   299
 6.8841   306
 6.8941   345
 6.9041   397
 6.9141   449
 6.9241   553
 6.9341   569
 6.9441   691
 6.9541   855
 6.9641   944
 6.9741  1171
 6.9841  1275
 6.9941  1533
 7.0041  1724
 7.0141  1950
 7.0241  2099
 7.0341  2188
 7.0441  2220
 7.0541  2372
 7.0641  2305
 7.0741  2152
 7.0841  2099
 7.0941  1895
 7.1041  1734
 7.1141  1553
 7.1241  1286
 7.1341  1168
 7.1441   954
 7.1541   768
 7.1641   718
 7.1741   580
 7.1841   502
 7.1941   402
 7.2041   369
 7.2141   311
 7.2241   311
 7.2341   261
 7.2441   273
 7.2541   258
 7.2641   244
 7.2741   280
 7.2841   288
 7.2941   289
 7.3041   280
 7.3141   292
 7.3241   330
 7.3341   311
 7.3441   305
 7.3541   332
 7.3641   340
 7.3741   353
 7.3841   362
 7.3941   364
 7.4041   368
 7.4141   326
 7.4241   370
 7.4341   352
 7.4441   386
 7.4541   353
 7.4641   331
 7.4741   339
 7.4841   333
 7.4941   309
 7.5041   296
 7.5141   297
 7.5241   281
 7.5341   300
 7.5441   259
 7.5541   267
 7.5641   283
 7.5741   253
 7.5841   265
 7.5941   261
 7.6041   263
 7.6141   284
 7.6241   255
 7.6341   290
 7.6441   243
 7.6541   265
 7.6641   269
 7.6741   285
 7.6841   277
 7.6941   294
 7.7041   321
 7.7141   316
 7.7241   298
 7.7341   289
 7.7441   329
 7.7541   315
 7.7641   311
 7.7741   302
 7.7841   310
 7.7941   392
 7.8041   355
 7.8141   341
 7.8241   364
 7.8341   405
 7.8441   373
 7.8541   396
 7.8641   387
 7.8741   435
 7.8841   424
 7.8941   429
 7.9041   492
 7.9141   480
 7.9241   507
 7.9341   554
 7.9441   548
 7.9541   598
 7.9641   605
 7.9741   685
 7.9841   706
 7.9941   760
 8.0041   787
 8.0141   926
 8.0241   921
 8.0341   940
 8.0441  1024
 8.0541  1185
 8.0641  1210
 8.0741  1269
 8.0841  1362
 8.0941  1481
 8.1041  1525
 8.1141  1655
 8.1241  1642
 8.1341  1683
 8.1441  1788
 8.1541  1779
 8.1641  1936
 8.1741  1959
 8.1841  1983
 8.1941  1955
 8.2041  2019
 8.2141  2015
 8.2241  2149
 8.2341  2070
 8.2441  2110
 8.2541  2247
 8.2641  2325
 8.2741  2377
 8.2841  2548
 8.2941  2655
 8.3041  2856
 8.3141  2972
 8.3241  3235
 8.3341  3396
 8.3441  3636
 8.3541  3760
 8.3641  3846
 8.3741  3988
 8.3841  3993
 8.3941  4124
 8.4041  3992
 8.4141  3668
 8.4241  3561
 8.4341  3330
 8.4441  3074
 8.4541  2807
 8.4641  2498
 8.4741  2086
 8.4841  1866
 8.4941  1496
 8.5041  1260
 8.5141  1082
 8.5241  1002
 8.5341   816
 8.5441   677
 8.5541   611
 8.5641   617
 8.5741   549
 8.5841   484
 8.5941   475
 8.6041   469
 8.6141   478
 8.6241   469
 8.6341   492
 8.6441   448
 8.6541   507
 8.6641   463
 8.6741   451
 8.6841   446
 8.6941   446
 8.7041   470
 8.7141   487
 8.7241   480
 8.7341   479
 8.7441   482
 8.7541   476
 8.7641   491
 8.7741   434
 8.7841   452
 8.7941   460
 8.8041   451
 8.8141   472
 8.8241   503
 8.8341   478
 8.8441   486
 8.8541   483
 8.8641   474
 8.8741   477
 8.8841   463
 8.8941   453
 8.9041   503
 8.9141   483
 8.9241   464
 8.9341   532
 8.9441   519
 8.9541   537
 8.9641   494
 8.9741   525
 8.9841   581
 8.9941   614
 9.0041   634
 9.0141   601
 9.0241   613
 9.0341   613
 9.0441   573
 9.0541   597
 9.0641   599
 9.0741   636
 9.0841   670
 9.0941   660
 9.1041   699
 9.1141   689
 9.1241   780
 9.1341   767
 9.1441   770
 9.1541   856
 9.1641   842
 9.1741   862
 9.1841   896
 9.1941   961
 9.2041  1030
 9.2141  1005
 9.2241  1050
 9.2341  1059
 9.2441  1181
 9.2541  1250
 9.2641  1322
 9.2741  1370
 9.2841  1379
 9.2941  1488
 9.3041  1542
 9.3141  1575
 9.3241  1671
 9.3341  1687
 9.3441  1770
 9.3541  1827
 9.3641  1827
 9.3741  1879
 9.3841  1934
 9.3941  1954
 9.4041  2032
 9.4141  2017
 9.4241  2009
 9.4341  2049
 9.4441  2173
 9.4541  2188
 9.4641  2214
 9.4741  2332
 9.4841  2362
 9.4941  2395
 9.5041  2482
 9.5141  2532
 9.5241  2565
 9.5341  2643
 9.5441  2759
 9.5541  2871
 9.5641  3014
 9.5741  3180
 9.5841  3402
 9.5941  3637
 9.6041  3687
 9.6141  3894
 9.6241  4130
 9.6341  4222
 9.6441  4370
 9.6541  4473
 9.6641  4460
 9.6741  4419
 9.6841  4407
 9.6941  4255
 9.7041  4078
 9.7141  3845
 9.7241  3718
 9.7341  3430
 9.7441  3231
 9.7541  2986
 9.7641  2693
 9.7741  2526
 9.7841  2366
 9.7941  2171
 9.8041  2026
 9.8141  1894
 9.8241  1815
 9.8341  1816
 9.8441  1793
 9.8541  1798
 9.8641  1804
 9.8741  1902
 9.8841  1849
 9.8941  1883
 9.9041  1957
 9.9141  2001
 9.9241  1939
 9.9341  1967
 9.9441  2018
 9.9541  2045
 9.9641  1974
 9.9741  1922
 9.9841  1850
 9.9941  1789
10.0041  1643
10.0141  1563
10.0241  1420
10.0341  1275
10.0441  1211
10.0541  1065
10.0641   999
10.0741   879
10.0841   811
10.0941   681
10.1041   642
10.1141   579
10.1241   569
10.1341   532
10.1441   505
10.1541   468
10.1641   460
10.1741   448
10.1841   408
10.1941   392
10.2041   399
10.2141   377
10.2241   354
10.2341   326
10.2441   337
10.2541   309
10.2641   303
10.2741   300
10.2841   292
10.2941   284
10.3041   270
10.3141   261
10.3241   267
10.3341   251
10.3441   273
10.3541   275
10.3641   237
10.3741   245
10.3841   249
10.3941   231
10.4041   232
10.4141   232
10.4241   252
10.4341   266
10.4441   270
10.4541   275
10.4641   253
10.4741   268
10.4841   264
10.4941   283
10.5041   275
10.5141   289
10.5241   275
10.5341   278
10.5441   280
10.5541   311
10.5641   289
10.5741   269
10.5841   290
10.5941   307
10.6041   291
10.6141   301
10.6241   305
10.6341   299
10.6441   333
10.6541   309
10.6641   314
10.6741   315
10.6841   317
10.6941   309
10.7041   315
10.7141   325
10.7241   332
10.7341   312
10.7441   339
10.7541   359
10.7641   338
10.7741   343
10.7841   364
10.7941   360
10.8041   376
10.8141   384
10.8241   407
10.8341   409
10.8441   409
10.8541   401
10.8641   422
10.8741   422
10.8841   424
10.8941   437
10.9041   443
10.9141   448
10.9241   436
10.9341   440
10.9441   464
10.9541   455
10.9641   451
10.9741   443
10.9841   437
10.9941   429
11.0041   435
11.0141   427
11.0241   409
11.0341   396
11.0441   399
11.0541   393
11.0641   374
11.0741   396
11.0841   398
11.0941   397
11.1041   383
11.1141   390
11.1241   399
11.1341   432
11.1441   449
11.1541   440
11.1641   459
11.1741   465
11.1841   463
11.1941   499
11.2041   526
11.2141   535
11.2241   564
11.2341   549
11.2441   584
11.2541   619
11.2641   608
11.2741   586
11.2841   624
11.2941   611
11.3041   595
11.3141   596
11.3241   566
11.3341   527
11.3441   521
11.3541   517
11.3641   482
11.3741   461
11.3841   458
11.3941   421
11.4041   393
11.4141   373
11.4241   379
11.4341   327
11.4441   306
11.4541   319
11.4641   311
11.4741   308
11.4841   322
11.4941   314
11.5041   317
11.5141   333
11.5241   326
11.5341   322
11.5441   307
11.5541   323
11.5641   315
11.5741   325
11.5841   338
11.5941   336
11.6041   320
11.6141   330
11.6241   339
11.6341   358
11.6441   331
11.6541   296
11.6641   330
11.6741   359
11.6841   337
11.6941   329
11.7041   336
11.7141   307
11.7241   301
11.7341   301
11.7441   287
11.7541   282
11.7641   267
11.7741   260
11.7841   253
11.7941   256
11.8041   280
11.8141   259
11.8241   266
11.8341   262
11.8441   261
11.8541   244
11.8641   250
11.8741   252
11.8841   229
11.8941   228
11.9041   250
11.9141   240
11.9241   245
11.9341   268
11.9441   264
11.9541   262
11.9641   260
11.9741   250
11.9841   243
11.9941   258
12.0041   259
12.0141   240
12.0241   228
12.0341   245
12.0441   244
12.0541   258
12.0641   252
12.0741   241
12.0841   261
12.0941   252
12.1041   254
12.1141   257
12.1241   238
12.1341   227
12.1441   226
12.1541   231
12.1641   240
12.1741   244
12.1841   244
12.1941   248
12.2041   254
12.2141   232
12.2241   226
12.2341   241
12.2441   234
12.2541   230
12.2641   221
12.2741   226
12.2841   250
12.2941   248
12.3041   229
12.3141   236
12.3241   238
12.3341   248
12.3441   246
12.3541   232
12.3641   195
12.3741   198
12.3841   220
12.3941   230
12.4041   231
12.4141   232
12.4241   231
12.4341   220
12.4441   236
12.4541   247
12.4641   244
12.4741   247
12.4841   233
12.4941   238
12.5041   252
12.5141   253
12.5241   246
12.5341   253
12.5441   256
12.5541   239
12.5641   245
12.5741   265
12.5841   268
12.5941   250
12.6041   256
12.6141   277
12.6241   272
12.6341   271
12.6441   257
12.6541   261
12.6641   268
12.6741   260
12.6841   259
12.6941   251
12.7041   234
12.7141   239
12.7241   273
12.7341   265
12.7441   251
12.7541   256
12.7641   253
12.7741   237
12.7841   254
12.7941   266
12.8041   243
12.8141   252
12.8241   264
12.8341   265
12.8441   277
12.8541   264
12.8641   254
12.8741   261
12.8841   252
12.8941   254
12.9041   260
12.9141   271
12.9241   276
12.9341   239
12.9441   251
12.9541   282
12.9641   268
12.9741   262
12.9841   269
12.9941   278
13.0041   268
13.0141   266
13.0241   268
13.0341   274
13.0441   269
13.0541   261
13.0641   267
13.0741   292
13.0841   291
13.0941   273
13.1041   256
13.1141   273
13.1241   278
13.1341   273
13.1441   283
13.1541   289
13.1641   302
13.1741   297
13.1841   290
13.1941   309
13.2041   322
13.2141   294
13.2241   287
13.2341   325
13.2441   338
13.2541   353
13.2641   377
13.2741   362
13.2841   373
13.2941   373
13.3041   344
13.3141   360
13.3241   380
13.3341   404
13.3441   415
13.3541   414
13.3641   406
13.3741   433
13.3841   443
13.3941   432
13.4041   421
13.4141   413
13.4241   422
13.4341   404
13.4441   385
13.4541   401
13.4641   381
13.4741   368
13.4841   376
13.4941   368
13.5041   380
13.5141   382
13.5241   349
13.5341   337
13.5441   348
13.5541   347
13.5641   320
13.5741   314
13.5841   322
13.5941   305
13.6041   318
13.6141   320
13.6241   301
13.6341   309
13.6441   312
13.6541   329
13.6641   329
13.6741   315
13.6841   302
13.6941   297
13.7041   329
13.7141   340
13.7241   322
13.7341   333
13.7441   325
13.7541   320
13.7641   339
13.7741   348
13.7841   338
13.7941   314
13.8041   330
13.8141   345
13.8241   336
13.8341   327
13.8441   333
13.8541   345
13.8641   328
13.8741   348
13.8841   367
13.8941   355
13.9041   362
13.9141   360
13.9241   349
13.9341   367
13.9441   392
13.9541   390
13.9641   397
13.9741   411
13.9841   418
13.9941   443
14.0041   468
14.0141   478
14.0241   510
14.0341   565
14.0441   608
14.0541   631
14.0641   622
14.0741   648
14.0841   683
14.0941   683
14.1041   732
14.1141   783
14.1241   811
14.1341   796
14.1441   751
14.1541   754
14.1641   748
14.1741   724
14.1841   739
14.1941   741
14.2041   702
14.2141   666
14.2241   650
14.2341   616
14.2441   560
14.2541   555
14.2641   561
14.2741   527
14.2841   502
14.2941   470
14.3041   462
14.3141   438
14.3241   414
14.3341   419
14.3441   389
14.3541   394
14.3641   399
14.3741   387
14.3841   397
14.3941   387
14.4041   382
14.4141   379
14.4241   374
14.4341   396
14.4441   384
14.4541   359
14.4641   360
14.4741   366
14.4841   390
14.4941   404
14.5041   396
14.5141   385
14.5241   391
14.5341   370
14.5441   362
14.5541   395
14.5641   408
14.5741   395
14.5841   390
14.5941   390
14.6041   376
14.6141   384
14.6241   388
14.6341   410
14.6441   404
14.6541   395
14.6641   403
14.6741   390
14.6841   391
14.6941   402
14.7041   409
14.7141   403
14.7241   399
14.7341   397
14.7441   387
14.7541   392
14.7641   413
14.7741   419
14.7841   430
14.7941   441
14.8041   424
14.8141   416
14.8241   433
14.8341   442
14.8441   451
14.8541   432
14.8641   428
14.8741   449
14.8841   450
14.8941   439
14.9041   451
14.9141   463
14.9241   470
14.9341   455
14.9441   451
14.9541   455
14.9641   461
14.9741   474
14.9841   460
14.9941   457
15.0041   461
15.0141   471
15.0241   484
15.0341   469
15.0441   444
15.0541   473
15.0641   467
15.0741   441
15.0841   459
15.0941   461
15.1041   435
15.1141   419
15.1241   446
15.1341   453
15.1441   428
15.1541   421
15.1641   412
15.1741   411
15.1841   424
15.1941   469
15.2041   484
15.2141   461
15.2241   426
15.2341   431
15.2441   463
15.2541   469
15.2641   440
15.2741   442
15.2841   447
15.2941   433
15.3041   439
15.3141   443
15.3241   429
15.3341   427
15.3441   443
15.3541   458
15.3641   445
15.3741   445
15.3841   463
15.3941   462
15.4041   447
15.4141   444
15.4241   444
15.4341   460
15.4441   472
15.4541   485
15.4641   465
15.4741   443
15.4841   468
15.4941   489
15.5041   501
15.5141   509
15.5241   484
15.5341   463
15.5441   505
15.5541   508
15.5641   510
15.5741   523
15.5841   538
15.5941   569
15.6041   588
15.6141   568
15.6241   583
15.6341   600
15.6441   639
15.6541   671
15.6641   663
15.6741   691
15.6841   689
15.6941   731
15.7041   755
15.7141   733
15.7241   774
15.7341   806
15.7441   794
15.7541   782
15.7641   815
15.7741   807
15.7841   790
15.7941   811
15.8041   798
15.8141   762
15.8241   739
15.8341   736
15.8441   725
15.8541   694
15.8641   667
15.8741   658
15.8841   660
15.8941   659
15.9041   624
15.9141   618
15.9241   630
15.9341   583
15.9441   567
15.9541   570
15.9641   550
15.9741   543
15.9841   548
15.9941   540
16.0041   525
16.0141   502
16.0241   530
16.0341   550
16.0441   534
16.0541   527
16.0641   533
16.0741   533
16.0841   549
16.0941   534
16.1041   529
16.1141   527
16.1241   511
16.1341   528
16.1441   536
16.1541   518
16.1641   515
16.1741   527
16.1841   538
16.1941   499
16.2041   510
16.2141   507
16.2241   516
16.2341   518
16.2441   542
16.2541   536
16.2641   544
16.2741   562
16.2841   548
16.2941   526
16.3041   532
16.3141   538
16.3241   534
16.3341   529
16.3441   539
16.3541   530
16.3641   518
16.3741   530
16.3841   546
16.3941   559
16.4041   553
16.4141   535
16.4241   539
16.4341   532
16.4441   523
16.4541   569
16.4641   587
16.4741   547
16.4841   555
16.4941   550
16.5041   552
16.5141   547
16.5241   536
16.5341   540
16.5441   564
16.5541   559
16.5641   546
16.5741   583
16.5841   587
16.5941   571
16.6041   558
16.6141   566
16.6241   573
16.6341   601
16.6441   599
16.6541   583
16.6641   584
16.6741   576
16.6841   585
16.6941   594
16.7041   586
16.7141   583
16.7241   574
16.7341   562
16.7441   562
16.7541   556
16.7641   560
16.7741   570
16.7841   579
16.7941   603
16.8041   625
16.8141   630
16.8241   629
16.8341   618
16.8441   588
16.8541   614
16.8641   605
16.8741   578
16.8841   574
16.8941   587
16.9041   572
16.9141   591
16.9241   581
16.9341   572
16.9441   580
16.9541   565
16.9641   559
16.9741   587
16.9841   563
16.9941   605
17.0041   601
17.0141   617
17.0241   617
17.0341   591
17.0441   567
17.0541   592
17.0641   599
17.0741   595
17.0841   620
17.0941   647
17.1041   638
17.1141   642
17.1241   658
17.1341   606
17.1441   591
17.1541   635
17.1641   616
17.1741   621
17.1841   632
17.1941   655
17.2041   622
17.2141   614
17.2241   619
17.2341   625
17.2441   651
17.2541   638
17.2641   605
17.2741   650
17.2841   650
17.2941   656
17.3041   638
17.3141   610
17.3241   645
17.3341   622
17.3441   642
17.3541   649
17.3641   634
17.3741   638
17.3841   640
17.3941   639
17.4041   605
17.4141   668
17.4241   678
17.4341   636
17.4441   665
17.4541   653
17.4641   650
17.4741   670
17.4841   656
17.4941   719
17.5041   697
17.5141   705
17.5241   699
17.5341   684
17.5441   699
17.5541   623
17.5641   667
17.5741   711
17.5841   720
17.5941   700
17.6041   680
17.6141   697
17.6241   695
17.6341   702
17.6441   728
17.6541   695
17.6641   708
17.6741   704
17.6841   695
17.6941   686
17.7041   676
17.7141   724
17.7241   700
17.7341   715
17.7441   693
17.7541   645
17.7641   703
17.7741   707
17.7841   654
17.7941   667
17.8041   713
17.8141   654
17.8241   676
17.8341   690
17.8441   693
17.8541   688
17.8641   727
17.8741   734
17.8841   678
17.8941   668
17.9041   682
17.9141   679
17.9241   701
17.9341   718
17.9441   712
17.9541   709
17.9641   697
17.9741   731
17.9841   722
17.9941   707
18.0041   729
18.0141   725
18.0241   699
18.0341   757
18.0441   680
18.0541   681
18.0641   724
18.0741   722
18.0841   710
18.0941   719
18.1041   687
18.1141   684
18.1241   699
18.1341   694
18.1441   694
18.1541   671
18.1641   710
18.1741   737
18.1841   736
18.1941   731
18.2041   734
18.2141   719
18.2241   686
18.2341   735
18.2441   794
18.2541   722
18.2641   746
18.2741   754
18.2841   765
18.2941   759
18.3041   716
18.3141   722
18.3241   716
18.3341   737
18.3441   724
18.3541   698
18.3641   722
18.3741   693
18.3841   728
18.3941   728
18.4041   757
18.4141   711
18.4241   724
18.4341   734
18.4441   723
18.4541   725
18.4641   742
18.4741   712
18.4841   710
18.4941   717
18.5041   749
18.5141   736
18.5241   764
18.5341   768
18.5441   717
18.5541   739
18.5641   748
18.5741   731
18.5841   756
18.5941   770
18.6041   775
18.6141   728
18.6241   765
18.6341   719
18.6441   726
18.6541   730
18.6641   746
18.6741   773
18.6841   779
18.6941   768
18.7041   774
18.7141   755
18.7241   738
18.7341   749
18.7441   739
18.7541   745
18.7641   759
18.7741   736
18.7841   746
18.7941   734
18.8041   754
18.8141   813
18.8241   794
18.8341   755
18.8441   779
18.8541   757
18.8641   743
18.8741   740
18.8841   751
18.8941   776
18.9041   751
18.9141   771
18.9241   776
18.9341   783
18.9441   789
18.9541   801
18.9641   756
18.9741   764
18.9841   792
18.9941   824
19.0041   797
19.0141   747
19.0241   732
19.0341   801
19.0441   799
19.0541   779
19.0641   776
19.0741   758
19.0841   737
19.0941   755
19.1041   790
19.1141   796
19.1241   801
19.1341   781
19.1441   765
19.1541   796
19.1641   837
19.1741   786
19.1841   771
19.1941   752
19.2041   756
19.2141   771
19.2241   786
19.2341   796
19.2441   764
19.2541   759
19.2641   783
19.2741   791
19.2841   743
19.2941   842
19.3041   831
19.3141   823
19.3241   788
19.3341   789
19.3441   784
19.3541   800
19.3641   775
19.3741   792
19.3841   776
19.3941   770
19.4041   762
19.4141   826
19.4241   806
19.4341   749
19.4441   823
19.4541   809
19.4641   809
19.4741   769
19.4841   799
19.4941   818
19.5041   844
19.5141   833
19.5241   843
19.5341   790
19.5441   785
19.5541   780
19.5641   800
19.5741   774
19.5841   789
19.5941   820
19.6041   805
19.6141   787
19.6241   816
19.6341   800
19.6441   833
19.6541   817
19.6641   775
19.6741   848
19.6841   861
19.6941   832
19.7041   776
19.7141   846
19.7241   801
19.7341   811
19.7441   836
19.7541   838
19.7641   806
19.7741   813
19.7841   874
19.7941   808
19.8041   806
19.8141   800
19.8241   825
19.8341   847
19.8441   870
19.8541   867
19.8641   847
19.8741   815
19.8841   832
19.8941   845
19.9041   870
19.9141   835
19.9241   814
19.9341   823
19.9441   839
19.9541   875
19.9641   863
19.9741   845
19.9841   867
19.9941   820
20.0041   823
20.0141   813
20.0241   826
20.0341   866
20.0441   831
20.0541   826
20.0641   825
20.0741   822
20.0841   830
20.0941   830
20.1041   827
20.1141   813
20.1241   844
20.1341   852
20.1441   807
20.1541   823
20.1641   910
20.1741   815
20.1841   814
20.1941   816
20.2041   869
20.2141   884
20.2241   834
20.2341   840
20.2441   858
20.2541   849
20.2641   873
20.2741   875
20.2841   829
20.2941   826
20.3041   785
20.3141   849
20.3241   869
20.3341   854
20.3441   857
20.3541   866
20.3641   819
20.3741   844
20.3841   849
20.3941   828
20.4041   835
20.4141   838
20.4241   846
20.4341   832
20.4441   832
20.4541   830
20.4641   850
20.4741   848
20.4841   789
20.4941   881
20.5041   856
20.5141   833
20.5241   850
20.5341   856
20.5441   881
20.5541   864
20.5641   866
20.5741   837
20.5841   834
20.5941   886
20.6041   860
20.6141   834
20.6241   863
20.6341   844
20.6441   883
20.6541   859
20.6641   886
20.6741   876
20.6841   829
20.6941   817
20.7041   807
20.7141   822
20.7241   847
20.7341   876
20.7441   852
20.7541   855
20.7641   827
20.7741   826
20.7841   865
20.7941   853
20.8041   870
20.8141   868
20.8241   882
20.8341   864
20.8441   884
20.8541   936
20.8641   948
20.8741   939
20.8841   988
20.8941   978
20.9041   949
20.9141   987
20.9241  1017
20.9341  1027
20.9441  1078
20.9541  1077
20.9641  1055
20.9741  1105
20.9841  1153
20.9941  1137
21.0041  1199
21.0141  1151
21.0241  1231
21.0341  1241
21.0441  1214
21.0541  1198
21.0641  1287
21.0741  1308
21.0841  1296
21.0941  1275
21.1041  1385
21.1141  1327
21.1241  1333
21.1341  1344
21.1441  1294
21.1541  1322
21.1641  1276
21.1741  1273
21.1841  1192
21.1941  1233
21.2041  1268
21.2141  1224
21.2241  1178
21.2341  1236
21.2441  1229
21.2541  1152
21.2641  1110
21.2741  1077
21.2841  1136
21.2941  1008
21.3041  1028
21.3141   977
21.3241   977
21.3341   945
21.3441   985
21.3541   968
21.3641   957
21.3741   949
21.3841   918
21.3941   887
21.4041   901
21.4141   886
21.4241   868
21.4341   911
21.4441   880
21.4541   835
21.4641   898
21.4741   874
21.4841   887
21.4941   869
21.5041   811
21.5141   875
21.5241   886
21.5341   907
21.5441   934
21.5541   874
21.5641   893
21.5741   871
21.5841   858
21.5941   853
21.6041   901
21.6141   864
21.6241   886
21.6341   900
21.6441   928
21.6541   926
21.6641   829
21.6741   845
21.6841   872
21.6941   871
21.7041   869
21.7141   866
21.7241   868
21.7341   898
21.7441   857
21.7541   841
21.7641   848
21.7741   856
21.7841   842
21.7941   893
21.8041   910
21.8141   857
21.8241   883
21.8341   903
21.8441   873
21.8541   893
21.8641   899
21.8741   908
21.8841   879
21.8941   891
21.9041   892
21.9141   889
21.9241   848
21.9341   845
21.9441   863
21.9541   856
21.9641   792
21.9741   861
21.9841   862
21.9941   900
22.0041   874
22.0141   896
22.0241   888
22.0341   864
22.0441   878
22.0541   861
22.0641   855
22.0741   884
22.0841   838
22.0941   869
22.1041   888
22.1141   854
22.1241   862
22.1341   894
22.1441   908
22.1541   901
22.1641   873
22.1741   885
22.1841   874
22.1941   919
22.2041   877
22.2141   868
22.2241   863
22.2341   831
22.2441   862
22.2541   916
22.2641   909
22.2741   884
22.2841   948
22.2941   827
22.3041   902
22.3141   841
22.3241   869
22.3341   851
22.3441   800
22.3541   886
22.3641   852
22.3741   851
22.3841   835
22.3941   848
22.4041   876
22.4141   861
22.4241   917
22.4341   888
22.4441   882
22.4541   896
22.4641   848
22.4741   905
22.4841   858
22.4941   819
22.5041   850
22.5141   874
22.5241   813
22.5341   892
22.5441   846
22.5541   869
22.5641   855
22.5741   850
22.5841   860
22.5941   847
22.6041   876
22.6141   832
22.6241   875
22.6341   819
22.6441   900
22.6541   859
22.6641   877
22.6741   879
22.6841   783
22.6941   866
22.7041   830
22.7141   842
22.7241   891
22.7341   873
22.7441   871
22.7541   887
22.7641   889
22.7741   872
22.7841   826
22.7941   824
22.8041   858
22.8141   914
22.8241   840
22.8341   856
22.8441   856
22.8541   813
22.8641   850
22.8741   859
22.8841   845
22.8941   833
22.9041   874
22.9141   896
22.9241   861
22.9341   860
22.9441   847
22.9541   877
22.9641   861
22.9741   801
22.9841   879
22.9941   852
23.0041   848
23.0141   836
23.0241   906
23.0341   874
23.0441   884
23.0541   877
23.0641   850
23.0741   829
23.0841   898
23.0941   862
23.1041   865
23.1141   861
23.1241   794
23.1341   878
23.1441   880
23.1541   806
23.1641   851
23.1741   853
23.1841   825
23.1941   822
23.2041   833
23.2141   866
23.2241   781
23.2341   875
23.2441   835
23.2541   889
23.2641   849
23.2741   826
23.2841   851
23.2941   844
23.3041   818
23.3141   850
23.3241   829
23.3341   817
23.3441   830
23.3541   864
23.3641   860
23.3741   874
23.3841   803
23.3941   849
23.4041   859
23.4141   842
23.4241   858
23.4341   879
23.4441   868
23.4541   876
23.4641   800
23.4741   859
23.4841   818
23.4941   821
23.5041   862
23.5141   822
23.5241   850
23.5341   872
23.5441   880
23.5541   838
23.5641   899
23.5741   817
23.5841   813
23.5941   847
23.6041   829
23.6141   859
23.6241   872
23.6341   853
23.6441   828
23.6541   904
23.6641   869
23.6741   804
23.6841   886
23.6941   853
23.7041   898
23.7141   912
23.7241   885
23.7341   866
23.7441   919
23.7541   950
23.7641   877
23.7741   901
23.7841   884
23.7941   916
23.8041   903
23.8141   960
23.8241   905
23.8341   905
23.8441   903
23.8541   895
23.8641   902
23.8741   877
23.8841   883
23.8941   879
23.9041   887
23.9141   853
23.9241   847
23.9341   829
23.9441   826
23.9541   897
23.9641   891
23.9741   833
23.9841   839
23.9941   843
24.0041   829
24.0141   821
24.0241   815
24.0341   859
24.0441   807
24.0541   808
24.0641   839
24.0741   844
24.0841   866
24.0941   831
24.1041   848
24.1141   845
24.1241   892
24.1341   766
24.1441   795
24.1541   757
24.1641   789
24.1741   838
24.1841   795
24.1941   812
24.2041   805
24.2141   826
24.2241   804
24.2341   772
24.2441   831
24.2541   828
24.2641   783
24.2741   791
24.2841   841
24.2941   848
24.3041   830
24.3141   794
24.3241   809
24.3341   803
24.3441   876
24.3541   825
24.3641   784
24.3741   812
24.3841   810
24.3941   830
24.4041   818
24.4141   780
24.4241   832
24.4341   777
24.4441   773
24.4541   813
24.4641   774
24.4741   804
24.4841   806
24.4941   800
24.5041   802
24.5141   796
24.5241   828
24.5341   798
24.5441   795
24.5541   772
24.5641   816
24.5741   804
24.5841   822
24.5941   769
24.6041   780
24.6141   777
24.6241   806
24.6341   747
24.6441   745
24.6541   779
24.6641   799
24.6741   790
24.6841   736
24.6941   763
24.7041   826
24.7141   770
24.7241   810
24.7341   796
24.7441   769
24.7541   797
24.7641   794
24.7741   751
24.7841   801
24.7941   758
24.8041   774
24.8141   790
24.8241   782
24.8341   834
24.8441   814
24.8541   774
24.8641   792
24.8741   781
24.8841   759
24.8941   749
24.9041   803
24.9141   800
24.9241   798
24.9341   764
24.9441   762
24.9541   770
24.9641   799
24.9741   762
24.9841   778
24.9941   774
25.0041   795
25.0141   757
25.0241   768
25.0341   743
25.0441   748
25.0541   773
25.0641   812
25.0741   819
25.0841   778
25.0941   769
25.1041   795
25.1141   826
25.1241   778
25.1341   822
25.1441   782
25.1541   785
25.1641   783
25.1741   785
25.1841   804
25.1941   797
25.2041   810
25.2141   829
25.2241   776
25.2341   777
25.2441   803
25.2541   782
25.2641   781
25.2741   736
25.2841   763
25.2941   781
25.3041   779
25.3141   739
25.3241   801
25.3341   793
25.3441   744
25.3541   782
25.3641   775
25.3741   759
25.3841   792
25.3941   767
25.4041   780
25.4141   807
25.4241   738
25.4341   772
25.4441   740
25.4541   747
25.4641   766
25.4741   710
25.4841   737
25.4941   734
25.5041   678
25.5141   751
25.5241   796
25.5341   761
25.5441   708
25.5541   719
25.5641   700
25.5741   740
25.5841   730
25.5941   734
25.6041   740
25.6141   750
25.6241   735
25.6341   750
25.6441   756
25.6541   735
25.6641   696
25.6741   722
25.6841   737
25.6941   723
25.7041   736
25.7141   702
25.7241   730
25.7341   699
25.7441   698
25.7541   689
25.7641   703
25.7741   688
25.7841   759
25.7941   721
25.8041   759
25.8141   765
25.8241   725
25.8341   745
25.8441   759
25.8541   733
25.8641   714
25.8741   728
25.8841   696
25.8941   726
25.9041   683
25.9141   705
25.9241   717
25.9341   711
25.9441   666
25.9541   734
25.9641   702
25.9741   698
25.9841   695
25.9941   682
26.0041   702
26.0141   714
26.0241   705
26.0341   687
26.0441   691
26.0541   736
26.0641   682
26.0741   714
26.0841   695
26.0941   728
26.1041   664
26.1141   684
26.1241   697
26.1341   693
26.1441   678
26.1541   719
26.1641   718
26.1741   724
26.1841   714
26.1941   731
26.2041   748
26.2141   674
26.2241   698
26.2341   679
26.2441   701
26.2541   700
26.2641   668
26.2741   662
26.2841   721
26.2941   662
26.3041   733
26.3141   678
26.3241   671
26.3341   665
26.3441   729
26.3541   718
26.3641   690
26.3741   711
26.3841   728
26.3941   718
26.4041   678
26.4141   688
26.4241   662
26.4341   650
26.4441   689
26.4541   705
26.4641   659
26.4741   656
26.4841   684
26.4941   717
26.5041   686
26.5141   667
26.5241   710
26.5341   678
26.5441   674
26.5541   673
26.5641   655
26.5741   632
26.5841   670
26.5941   645
26.6041   685
26.6141   705
26.6241   646
26.6341   639
26.6441   653
26.6541   653
26.6641   705
26.6741   688
26.6841   678
26.6941   644
26.7041   673
26.7141   675
26.7241   639
26.7341   646
26.7441   645
26.7541   672
26.7641   708
26.7741   626
26.7841   663
26.7941   691
26.8041   630
26.8141   647
26.8241   633
26.8341   616
26.8441   637
26.8541   622
26.8641   656
26.8741   644
26.8841   686
26.8941   638
26.9041   630
26.9141   621
26.9241   633
26.9341   676
26.9441   619
26.9541   647
26.9641   649
26.9741   624
26.9841   670
26.9941   690
27.0041   627
27.0141   635
27.0241   667
27.0341   649
27.0441   611
27.0541   678
27.0641   661
27.0741   627
27.0841   649
27.0941   667
27.1041   628
27.1141   611
27.1241   656
27.1341   653
27.1441   655
27.1541   640
27.1641   601
27.1741   602
27.1841   648
27.1941   671
27.2041   649
27.2141   626
27.2241   660
27.2341   639
27.2441   620
27.2541   615
27.2641   633
27.2741   586
27.2841   618
27.2941   689
27.3041   637
27.3141   628
27.3241   609
27.3341   659
27.3441   620
27.3541   632
27.3641   666
27.3741   675
27.3841   621
27.3941   613
27.4041   622
27.4141   572
27.4241   634
27.4341   633
27.4441   628
27.4541   638
27.4641   590
27.4741   624
27.4841   627
27.4941   665
27.5041   628
27.5141   618
27.5241   652
27.5341   636
27.5441   623
27.5541   660
27.5641   634
27.5741   557
27.5841   667
27.5941   626
27.6041   592
27.6141   643
27.6241   630
27.6341   605
27.6441   623
27.6541   617
27.6641   596
27.6741   596
27.6841   619
27.6941   588
27.7041   583
27.7141   596
27.7241   602
27.7341   604
27.7441   608
27.7541   604
27.7641   651
27.7741   597
27.7841   590
27.7941   570
27.8041   602
27.8141   551
27.8241   552
27.8341   555
27.8441   531
27.8541   578
27.8641   577
27.8741   586
27.8841   598
27.8941   538
27.9041   592
27.9141   623
27.9241   595
27.9341   522
27.9441   577
27.9541   554
27.9641   556
27.9741   620
27.9841   579
27.9941   611
28.0041   587
28.0141   556
28.0241   567
28.0341   572
28.0441   576
28.0541   531
28.0641   564
28.0741   554
28.0841   580
28.0941   592
28.1041   545
28.1141   575
28.1241   536
28.1341   551
28.1441   527
28.1541   519
28.1641   607
28.1741   560
28.1841   605
28.1941   588
28.2041   610
28.2141   533
28.2241   562
28.2341   544
28.2441   523
28.2541   566
28.2641   555
28.2741   569
28.2841   555
28.2941   523
28.3041   558
28.3141   580
28.3241   588
28.3341   561
28.3441   542
28.3541   555
28.3641   609
28.3741   557
28.3841   536
28.3941   606
28.4041   569
28.4141   558
28.4241   514
28.4341   559
28.4441   507
28.4541   547
28.4641   563
28.4741   540
28.4841   562
28.4941   531
28.5041   555
28.5141   535
28.5241   539
28.5341   525
28.5441   530
28.5541   580
28.5641   580
28.5741   548
28.5841   531
28.5941   542
28.6041   509
28.6141   529
28.6241   489
28.6341   557
28.6441   529
28.6541   504
28.6641   523
28.6741   541
28.6841   508
28.6941   541
28.7041   539
28.7141   518
28.7241   548
28.7341   557
28.7441   510
28.7541   553
28.7641   489
28.7741   516
28.7841   515
28.7941   544
28.8041   505
28.8141   489
28.8241   528
28.8341   508
28.8441   549
28.8541   526
28.8641   515
28.8741   506
28.8841   489
28.8941   511
28.9041   524
28.9141   489
28.9241   517
28.9341   506
28.9441   494
28.9541   498
28.9641   476
28.9741   475
28.9841   487
28.9941   510
29.0041   506
29.0141   544
29.0241   500
29.0341   512
29.0441   518
29.0541   468
29.0641   475
29.0741   478
29.0841   507
29.0941   485
29.1041   490
29.1141   497
29.1241   498
29.1341   529
29.1441   526
29.1541   501
29.1641   502
29.1741   519
29.1841   490
29.1941   512
29.2041   494
29.2141   490
29.2241   494
29.2341   477
29.2441   462
29.2541   492
29.2641   439
29.2741   493
29.2841   500
29.2941   486
29.3041   492
29.3141   482
29.3241   491
29.3341   480
29.3441   457
29.3541   479
29.3641   530
29.3741   491
29.3841   479
29.3941   488
29.4041   471
29.4141   492
29.4241   476
29.4341   462
29.4441   493
29.4541   521
29.4641   473
29.4741   449
29.4841   477
29.4941   502
29.5041   515
29.5141   481
29.5241   487
29.5341   478
29.5441   454
29.5541   513
29.5641   457
29.5741   466
29.5841   468
29.5941   487
29.6041   499
29.6141   474
29.6241   499
29.6341   510
29.6441   484
29.6541   457
29.6641   474
29.6741   499
29.6841   437
29.6941   470
29.7041   439
29.7141   450
29.7241   452
29.7341   470
29.7441   433
29.7541   470
29.7641   481
29.7741   481
29.7841   467
29.7941   508
29.8041   444
29.8141   469
29.8241   452
29.8341   455
29.8441   462
29.8541   461
29.8641   477
29.8741   464
29.8841   465
29.8941   419
29.9041   458
29.9141   429
29.9241   429
29.9341   468
29.9441   422
29.9541   420
29.9641   439
29.9741   450
29.9841   437
29.9941   417
30.0041   437
30.0141   458
30.0241   457
30.0341   447
30.0441   428
30.0541   433
30.0641   432
30.0741   417
30.0841   430
30.0941   416
30.1041   448
30.1141   441
30.1241   463
30.1341   405
30.1441   412
30.1541   408
30.1641   435
30.1741   437
30.1841   429
30.1941   464
30.2041   438
30.2141   421
30.2241   425
30.2341   457
30.2441   454
30.2541   422
30.2641   432
30.2741   418
30.2841   399
30.2941   427
30.3041   431
30.3141   397
30.3241   425
30.3341   431
30.3441   427
30.3541   412
30.3641   442
30.3741   401
30.3841   456
30.3941   404
30.4041   422
30.4141   411
30.4241   441
30.4341   428
30.4441   412
30.4541   385
30.4641   416
30.4741   417
30.4841   389
30.4941   437
30.5041   408
30.5141   424
30.5241   418
30.5341   424
30.5441   395
30.5541   400
30.5641   417
30.5741   392
30.5841   382
30.5941   406
30.6041   417
30.6141   404
30.6241   461
30.6341   445
30.6441   420
30.6541   407
30.6641   406
30.6741   393
30.6841   392
30.6941   399
30.7041   402
30.7141   384
30.7241   390
30.7341   394
30.7441   408
30.7541   408
30.7641   410
30.7741   401
30.7841   406
30.7941   389
30.8041   382
30.8141   415
30.8241   409
30.8341   390
30.8441   411
30.8541   398
30.8641   389
30.8741   368
30.8841   385
30.8941   412
30.9041   382
30.9141   407
30.9241   393
30.9341   423
30.9441   397
30.9541   379
30.9641   373
30.9741   383
30.9841   367
30.9941   403
31.0041   414
31.0141   398
31.0241   397
31.0341   412
31.0441   372
31.0541   408
31.0641   370
31.0741   396
31.0841   372
31.0941   427
31.1041   379
31.1141   352
31.1241   369
31.1341   369
31.1441   386
31.1541   395
31.1641   406
31.1741   384
31.1841   378
31.1941   387
31.2041   364
31.2141   328
31.2241   359
31.2341   350
31.2441   381
31.2541   392
31.2641   385
31.2741   359
31.2841   361
31.2941   378
31.3041   371
31.3141   359
31.3241   379
31.3341   359
31.3441   367
31.3541   378
31.3641   395
31.3741   370
31.3841   355
31.3941   337
31.4041   380
31.4141   336
31.4241   369
31.4341   345
31.4441   388
31.4541   355
31.4641   359
31.4741   363
31.4841   371
31.4941   361
31.5041   352
31.5141   363
31.5241   371
31.5341   368
31.5441   354
31.5541   393
31.5641   394
31.5741   368
31.5841   387
31.5941   354
31.6041   334
31.6141   353
31.6241   391
31.6341   371
31.6441   357
31.6541   329
31.6641   337
31.6741   371
31.6841   336
31.6941   371
31.7041   359
31.7141   353
31.7241   344
31.7341   321
31.7441   348
31.7541   350
31.7641   349
31.7741   353
31.7841   325
31.7941   339
31.8041   349
31.8141   352
31.8241   365
31.8341   338
31.8441   364
31.8541   343
31.8641   348
31.8741   351
31.8841   330
31.8941   338
31.9041   338
31.9141   316
31.9241   373
31.9341   361
31.9441   342
31.9541   342
31.9641   324
31.9741   339
31.9841   354
31.9941   339
32.0041   307
32.0141   331
32.0241   364
32.0341   351
32.0441   343
32.0541   338
32.0641   332
32.0741   358
32.0841   334
32.0941   327
32.1041   347
32.1141   361
32.1241   338
32.1341   334
32.1441   301
32.1541   334
32.1641   348
32.1741   330
32.1841   344
32.1941   328
32.2041   320
32.2141   329
32.2241   327
32.2341   347
32.2441   300
32.2541   343
32.2641   333
32.2741   349
32.2841   319
32.2941   302
32.3041   331
32.3141   341
32.3241   323
32.3341   350
32.3441   316
32.3541   341
32.3641   303
32.3741   315
32.3841   310
32.3941   305
32.4041   322
32.4141   305
32.4241   289
32.4341   319
32.4441   320
32.4541   302
32.4641   329
32.4741   303
32.4841   310
32.4941   317
32.5041   295
32.5141   303
32.5241   329
32.5341   325
32.5441   282
32.5541   343
32.5641   307
32.5741   300
32.5841   304
32.5941   286
32.6041   316
32.6141   283
32.6241   311
32.6341   288
32.6441   308
32.6541   309
32.6641   301
32.6741   295
32.6841   284
32.6941   315
32.7041   297
32.7141   300
32.7241   258
32.7341   294
32.7441   288
32.7541   268
32.7641   285
32.7741   289
32.7841   292
32.7941   283
32.8041   314
32.8141   284
32.8241   311
32.8341   293
32.8441   280
32.8541   286
32.8641   286
32.8741   312
32.8841   288
32.8941   267
32.9041   277
32.9141   272
32.9241   281
32.9341   294
32.9441   276
32.9541   263
32.9641   279
32.9741   288
32.9841   296
32.9941   277
33.0041   270
33.0141   258
33.0241   284
33.0341   275
33.0441   282
33.0541   262
33.0641   278
33.0741   290
33.0841   286
33.0941   282
33.1041   297
33.1141   272
33.1241   274
33.1341   255
33.1441   279
33.1541   268
33.1641   267
33.1741   258
33.1841   273
33.1941   226
33.2041   266
33.2141   274
33.2241   281
33.2341   272
33.2441   231
33.2541   275
33.2641   287
33.2741   263
33.2841   259
33.2941   241
33.3041   282
33.3141   266
33.3241   231
33.3341   277
33.3441   255
33.3541   275
33.3641   268
33.3741   260
33.3841   255
33.3941   285
33.4041   254
33.4141   255
33.4241   264
33.4341   259
33.4441   244
33.4541   252
33.4641   270
33.4741   256
33.4841   237
33.4941   241
33.5041   228
33.5141   235
33.5241   274
33.5341   281
33.5441   217
33.5541   257
33.5641   264
33.5741   256
33.5841   252
33.5941   245
33.6041   244
33.6141   252
33.6241   249
33.6341   248
33.6441   240
33.6541   271
33.6641   244
33.6741   269
33.6841   246
33.6941   235
33.7041   214
33.7141   234
33.7241   259
33.7341   256
33.7441   242
33.7541   243
33.7641   262
33.7741   259
33.7841   269
33.7941   219
33.8041   246
33.8141   214
33.8241   221
33.8341   252
33.8441   255
33.8541   259
33.8641   234
33.8741   251
33.8841   237
33.8941   218
33.9041   244
33.9141   240
33.9241   253
33.9341   208
33.9441   228
33.9541   232
33.9641   231
33.9741   257
33.9841   240
33.9941   251
34.0041   242
34.0141   228
34.0241   206
34.0341   233
34.0441   231
34.0541   220
34.0641   217
34.0741   236
34.0841   231
34.0941   266
34.1041   234
34.1141   266
34.1241   231
34.1341   241
34.1441   218
34.1541   222
34.1641   244
34.1741   238
34.1841   217
34.1941   216
34.2041   210
34.2141   220
34.2241   223
34.2341   219
34.2441   253
34.2541   232
34.2641   233
34.2741   245
34.2841   222
34.2941   208
34.3041   254
34.3141   229
34.3241   210
34.3341   251
34.3441   230
34.3541   222
34.3641   198
34.3741   235
34.3841   187
34.3941   188
34.4041   196
34.4141   218
34.4241   238
34.4341   201
34.4441   213
34.4541   204
34.4641   187
34.4741   224
34.4841   213
34.4941   198
34.5041   173
34.5141   193
34.5241   207
34.5341   222
34.5441   207
34.5541   220
34.5641   190
34.5741   183
34.5841   215
34.5941   216
34.6041   213
34.6141   241
34.6241   237
34.6341   213
34.6441   236
34.6541   201
34.6641   202
34.6741   194
34.6841   204
34.6941   230
34.7041   189
34.7141   214
34.7241   196
34.7341   209
34.7441   200
34.7541   195
34.7641   173
34.7741   227
34.7841   208
34.7941   200
34.8041   192
34.8141   181
34.8241   172
34.8341   194
34.8441   206
34.8541   216
34.8641   197
34.8741   212
34.8841   190
34.8941   205
34.9041   189
34.9141   178
34.9241   194
34.9341   187
34.9441   193
34.9541   206
34.9641   172
34.9741   177
34.9841   187
34.9941   177
35.0041   212
35.0141   161
35.0241   183
35.0341   193
35.0441   175
35.0541   185
35.0641   188
35.0741   181
35.0841   185
35.0941   213
35.1041   175
35.1141   176
35.1241   186
35.1341   204
35.1441   169
35.1541   176
35.1641   176
35.1741   184
35.1841   164
35.1941   201
35.2041   186
35.2141   193
35.2241   201
35.2341   195
35.2441   188
35.2541   179
35.2641   210
35.2741   174
35.2841   165
35.2941   171
35.3041   172
35.3141   178
35.3241   174
35.3341   173
35.3441   191
35.3541   169
35.3641   177
35.3741   180
35.3841   186
35.3941   201
35.4041   201
35.4141   178
35.4241   186
35.4341   181
35.4441   168
35.4541   185
35.4641   179
35.4741   175
35.4841   196
35.4941   174
35.5041   168
35.5141   167
35.5241   181
35.5341   175
35.5441   198
35.5541   196
35.5641   146
35.5741   155
35.5841   180
35.5941   162
35.6041   165
35.6141   172
35.6241   184
35.6341   178
35.6441   161
35.6541   185
35.6641   177
35.6741   169
35.6841   191
35.6941   183
35.7041   164
35.7141   154
35.7241   152
35.7341   164
35.7441   146
35.7541   164
35.7641   163
35.7741   157
35.7841   163
35.7941   160
35.8041   179
35.8141   164
35.8241   153
35.8341   175
35.8441   153
35.8541   156
35.8641   161
35.8741   178
35.8841   148
35.8941   151
35.9041   158
35.9141   148
35.9241   133
35.9341   151
35.9441   183
35.9541   169
35.9641   151
35.9741   166
35.9841   146
35.9941   169
36.0041   159
36.0141   156
36.0241   160
36.0341   140
36.0441   153
36.0541   164
36.0641   138
36.0741   159
36.0841   136
36.0941   142
36.1041   147
36.1141   156
36.1241   150
36.1341   160
36.1441   162
36.1541   150
36.1641   163
36.1741   163
36.1841   155
36.1941   156
36.2041   151
36.2141   150
36.2241   144
36.2341   138
36.2441   142
36.2541   150
36.2641   154
36.2741   132
36.2841   154
36.2941   149
36.3041   159
36.3141   159
36.3241   151
36.3341   156
36.3441   151
36.3541   161
36.3641   157
36.3741   140
36.3841   152
36.3941   140
36.4041   139
36.4141   127
36.4241   151
36.4341   129
36.4441   144
36.4541   142
36.4641   148
36.4741   154
36.4841   126
36.4941   127
36.5041   132
36.5141   147
36.5241   142
36.5341   139
36.5441   139
36.5541   150
36.5641   134
36.5741   148
36.5841   140
36.5941   128
36.6041   137
36.6141   144
36.6241   148
36.6341   136
36.6441   149
36.6541   149
36.6641   144
36.6741   105
36.6841   138
36.6941   136
36.7041   140
36.7141   147
36.7241   114
36.7341   128
36.7441   134
36.7541   129
36.7641   115
36.7741   119
36.7841   122
36.7941   131
36.8041   122
36.8141   138
36.8241   137
36.8341   150
36.8441   141
36.8541   120
36.8641   130
36.8741   127
36.8841   133
36.8941   126
36.9041   118
36.9141   105
36.9241   125
36.9341   143
36.9441   133
36.9541   119
36.9641   132
36.9741   143
36.9841   110
36.9941   129
37.0041   142
37.0141   110
37.0241   110
37.0341   133
37.0441   135
37.0541   116
37.0641   132
37.0741   115
37.0841   111
37.0941   111
37.1041   150
37.1141   110
37.1241   116
37.1341   130
37.1441   134
37.1541   109
37.1641   137
37.1741   123
37.1841   114
37.1941   111
37.2041   126
37.2141   121
37.2241   118
37.2341   110
37.2441   112
37.2541   104
37.2641   119
37.2741   116
37.2841   103
37.2941   126
37.3041   129
37.3141   132
37.3241   109
37.3341   117
37.3441   112
37.3541   105
37.3641   115
37.3741   125
37.3841   108
37.3941   107
37.4041   108
37.4141   117
37.4241   125
37.4341   117
37.4441   111
37.4541   117
37.4641   109
37.4741   102
37.4841    96
37.4941    97
37.5041   114
37.5141   117
37.5241   136
37.5341   105
37.5441    98
37.5541   118
37.5641   111
37.5741   120
37.5841    98
37.5941   130
37.6041   114
37.6141   107
37.6241   106
37.6341   114
37.6441   101
37.6541   113
37.6641   101
37.6741    90
37.6841    96
37.6941   110
37.7041   121
37.7141   103
37.7241   100
37.7341   106
37.7441    97
37.7541    93
37.7641   102
37.7741   107
37.7841    98
37.7941   104
37.8041    92
37.8141    93
37.8241   104
37.8341   108
37.8441    88
37.8541    85
37.8641   105
37.8741    86
37.8841    98
37.8941    81
37.9041   116
37.9141    93
37.9241   102
37.9341    95
37.9441    79
37.9541    92
37.9641    91
37.9741   106
37.9841   112
37.9941    96
38.0041    94
38.0141   105
38.0241    98
38.0341    88
38.0441    96
38.0541    88
38.0641    90
38.0741    92
38.0841    84
38.0941    86
38.1041    95
38.1141   102
38.1241   103
38.1341    90
38.1441    80
38.1541    75
38.1641    97
38.1741    81
38.1841    91
38.1941   103
38.2041   105
38.2141   110
38.2241   103
38.2341    77
38.2441   100
38.2541    87
38.2641   101
38.2741    90
38.2841    91
38.2941    81
38.3041    85
38.3141    78
38.3241    85
38.3341   107
38.3441    93
38.3541    84
38.3641   102
38.3741    71
38.3841    79
38.3941    92
38.4041    92
38.4141    80
38.4241    74
38.4341    89
38.4441    79
38.4541    73
38.4641    91
38.4741    92
38.4841    87
38.4941    76
38.5041    72
38.5141    75
38.5241    91
38.5341    70
38.5441    81
38.5541    75
38.5641    86
38.5741    81
38.5841    71
38.5941    76
38.6041    76
38.6141    92
38.6241    82
38.6341    72
38.6441    73
38.6541    75
38.6641    81
38.6741    78
38.6841    82
38.6941    66
38.7041    86
38.7141    75
38.7241    72
38.7341    81
38.7441    79
38.7541    75
38.7641    76
38.7741    82
38.7841    85
38.7941    81
38.8041    72
38.8141    69
38.8241    83
38.8341    66
38.8441    77
38.8541    69
38.8641    78
38.8741    74
38.8841    62
38.8941    73
38.9041    74
38.9141    76
38.9241    67
38.9341    70
38.9441    85
38.9541    83
38.9641    79
38.9741    65
38.9841    67
38.9941    64
39.0041    91
39.0141    66
39.0241    67
39.0341    72
39.0441    68
39.0541    71
39.0641    69
39.0741    82
39.0841    58
39.0941    71
39.1041    72
39.1141    70
39.1241    67
39.1341    82
39.1441    75
39.1541    58
39.1641    59
39.1741    69
39.1841    69
39.1941    68
39.2041    67
39.2141    64
39.2241    63
39.2341    68
39.2441    69
39.2541    66
39.2641    65
39.2741    59
39.2841    69
39.2941    70
39.3041    66
39.3141    56
39.3241    62
39.3341    57
39.3441    54
39.3541    69
39.3641    68
39.3741    56
39.3841    51
39.3941    62
39.4041    68
39.4141    67
39.4241    70
39.4341    67
39.4441    69
39.4541    68
39.4641    64
39.4741    73
39.4841    64
39.4941    63
39.5041    59
39.5141    60
39.5241    62
39.5341    53
39.5441    62
39.5541    65
39.5641    65
39.5741    47
39.5841    58
39.5941    58
39.6041    48
39.6141    60
39.6241    37
39.6341    51
39.6441    63
39.6541    59
39.6641    49
39.6741    52
39.6841    58
39.6941    55
39.7041    59
39.7141    43
39.7241    54
39.7341    60
39.7441    72
39.7541    69
39.7641    66
39.7741    54
39.7841    56
39.7941    48
39.8041    45
39.8141    52
39.8241    61
39.8341    56
39.8441    49
39.8541    62
39.8641    61
39.8741    75
39.8841    51
39.8941    48
39.9041    48
39.9141    52
39.9241    45
39.9341    56
39.9441    46
39.9541    54
39.9641    48
39.9741    51
39.9841    56
39.9941    43
