Bruker Nano GmbH Berlin, Germany
Esprit 1.9

Date: 4/1/2021 4:22:37 PM
Real time: 18753
Life time: 17497
Pulse density: 100113


Detector type: XFlash 430
Window type: Custom type
Detector thickness: 0.45
Si dead layer:0.029

Calibration, lin.: 10
Calibration, abs.: -955.9
Mn FWHM: 137.05
Fano factor: 0.121
Channels: 4095

Energy Counts
-0.9559     0
-0.9459     0
-0.9359     0
-0.9259     0
-0.9159     0
-0.9059     0
-0.8959     0
-0.8859     0
-0.8759     0
-0.8659     0
-0.8559     0
-0.8459     0
-0.8359     0
-0.8259     0
-0.8159     0
-0.8059     0
-0.7959     0
-0.7859     0
-0.7759     0
-0.7659     0
-0.7559     0
-0.7459     0
-0.7359     0
-0.7259     0
-0.7159     0
-0.7059     0
-0.6959     0
-0.6859     0
-0.6759     0
-0.6659     0
-0.6559     0
-0.6459     0
-0.6359     0
-0.6259     0
-0.6159     0
-0.6059     0
-0.5959     0
-0.5859     0
-0.5759     0
-0.5659     0
-0.5559     0
-0.5459     0
-0.5359     0
-0.5259     0
-0.5159     0
-0.5059     0
-0.4959     0
-0.4859     0
-0.4759     0
-0.4659     0
-0.4559     0
-0.4459     0
-0.4359     0
-0.4259     0
-0.4159     0
-0.4059     0
-0.3959     0
-0.3859     0
-0.3759     0
-0.3659     0
-0.3559     0
-0.3459     0
-0.3359     0
-0.3259     0
-0.3159     0
-0.3059     0
-0.2959     0
-0.2859     0
-0.2759     0
-0.2659     0
-0.2559     0
-0.2459     0
-0.2359     0
-0.2259     0
-0.2159     0
-0.2059     0
-0.1959     0
-0.1859     0
-0.1759     0
-0.1659     0
-0.1559     0
-0.1459     0
-0.1359     0
-0.1259     0
-0.1159     2
-0.1059    15
-0.0959    44
-0.0859   207
-0.0759   675
-0.0659  1997
-0.0559  5117
-0.0459 11035
-0.0359 20521
-0.0259 33168
-0.0159 45803
-0.0059 53549
 0.0041 54266
 0.0141 46639
 0.0241 33968
 0.0341 21876
 0.0441 11810
 0.0541  5482
 0.0641  2176
 0.0741   776
 0.0841   228
 0.0941    73
 0.1041    23
 0.1141     8
 0.1241     7
 0.1341     5
 0.1441     3
 0.1541     2
 0.1641     4
 0.1741    18
 0.1841   151
 0.1941   276
 0.2041   276
 0.2141   260
 0.2241   278
 0.2341   289
 0.2441   274
 0.2541   285
 0.2641   286
 0.2741   290
 0.2841   285
 0.2941   250
 0.3041   248
 0.3141   254
 0.3241   268
 0.3341   275
 0.3441   254
 0.3541   269
 0.3641   259
 0.3741   224
 0.3841   265
 0.3941   265
 0.4041   248
 0.4141   251
 0.4241   243
 0.4341   243
 0.4441   220
 0.4541   223
 0.4641   226
 0.4741   234
 0.4841   224
 0.4941   219
 0.5041   246
 0.5141   221
 0.5241   213
 0.5341   224
 0.5441   231
 0.5541   215
 0.5641   213
 0.5741   214
 0.5841   212
 0.5941   202
 0.6041   199
 0.6141   210
 0.6241   209
 0.6341   209
 0.6441   200
 0.6541   210
 0.6641   213
 0.6741   207
 0.6841   205
 0.6941   205
 0.7041   208
 0.7141   196
 0.7241   198
 0.7341   194
 0.7441   201
 0.7541   212
 0.7641   202
 0.7741   195
 0.7841   206
 0.7941   199
 0.8041   202
 0.8141   197
 0.8241   185
 0.8341   200
 0.8441   199
 0.8541   182
 0.8641   191
 0.8741   196
 0.8841   197
 0.8941   182
 0.9041   188
 0.9141   211
 0.9241   195
 0.9341   181
 0.9441   177
 0.9541   188
 0.9641   201
 0.9741   185
 0.9841   189
 0.9941   162
 1.0041   164
 1.0141   200
 1.0241   182
 1.0341   176
 1.0441   178
 1.0541   182
 1.0641   178
 1.0741   188
 1.0841   177
 1.0941   173
 1.1041   164
 1.1141   172
 1.1241   177
 1.1341   190
 1.1441   192
 1.1541   142
 1.1641   149
 1.1741   163
 1.1841   166
 1.1941   160
 1.2041   160
 1.2141   157
 1.2241   177
 1.2341   186
 1.2441   172
 1.2541   169
 1.2641   153
 1.2741   174
 1.2841   163
 1.2941   167
 1.3041   158
 1.3141   147
 1.3241   138
 1.3341   156
 1.3441   164
 1.3541   149
 1.3641   154
 1.3741   158
 1.3841   154
 1.3941   167
 1.4041   164
 1.4141   159
 1.4241   153
 1.4341   168
 1.4441   159
 1.4541   158
 1.4641   159
 1.4741   168
 1.4841   157
 1.4941   139
 1.5041   149
 1.5141   159
 1.5241   160
 1.5341   156
 1.5441   148
 1.5541   152
 1.5641   138
 1.5741   150
 1.5841   164
 1.5941   153
 1.6041   151
 1.6141   149
 1.6241   157
 1.6341   158
 1.6441   184
 1.6541   202
 1.6641   219
 1.6741   252
 1.6841   358
 1.6941   383
 1.7041   561
 1.7141   612
 1.7241   650
 1.7341   725
 1.7441   697
 1.7541   677
 1.7641   576
 1.7741   512
 1.7841   418
 1.7941   364
 1.8041   323
 1.8141   279
 1.8241   209
 1.8341   199
 1.8441   193
 1.8541   177
 1.8641   195
 1.8741   179
 1.8841   165
 1.8941   169
 1.9041   170
 1.9141   177
 1.9241   177
 1.9341   171
 1.9441   166
 1.9541   167
 1.9641   155
 1.9741   170
 1.9841   190
 1.9941   197
 2.0041   190
 2.0141   205
 2.0241   206
 2.0341   184
 2.0441   198
 2.0541   184
 2.0641   162
 2.0741   152
 2.0841   143
 2.0941   145
 2.1041   140
 2.1141   167
 2.1241   122
 2.1341   156
 2.1441   146
 2.1541   137
 2.1641   142
 2.1741   138
 2.1841   143
 2.1941   142
 2.2041   131
 2.2141   133
 2.2241   144
 2.2341   142
 2.2441   146
 2.2541   164
 2.2641   149
 2.2741   153
 2.2841   111
 2.2941   135
 2.3041   130
 2.3141   131
 2.3241   131
 2.3341   154
 2.3441   150
 2.3541   135
 2.3641   133
 2.3741   121
 2.3841   150
 2.3941   141
 2.4041   127
 2.4141   138
 2.4241   122
 2.4341   145
 2.4441   121
 2.4541   123
 2.4641   125
 2.4741   142
 2.4841   112
 2.4941   124
 2.5041   142
 2.5141   110
 2.5241   121
 2.5341   127
 2.5441   129
 2.5541   127
 2.5641   126
 2.5741   122
 2.5841   114
 2.5941   132
 2.6041   137
 2.6141   129
 2.6241   118
 2.6341   138
 2.6441   124
 2.6541   103
 2.6641   113
 2.6741   117
 2.6841   117
 2.6941   138
 2.7041   121
 2.7141   115
 2.7241   116
 2.7341   110
 2.7441   109
 2.7541   116
 2.7641   130
 2.7741   128
 2.7841   108
 2.7941   150
 2.8041   137
 2.8141   114
 2.8241   119
 2.8341   143
 2.8441   134
 2.8541   125
 2.8641   123
 2.8741   137
 2.8841   120
 2.8941   128
 2.9041   126
 2.9141   122
 2.9241   112
 2.9341   116
 2.9441   113
 2.9541   125
 2.9641   112
 2.9741   112
 2.9841    96
 2.9941   109
 3.0041   110
 3.0141   135
 3.0241   106
 3.0341   107
 3.0441    87
 3.0541   111
 3.0641   101
 3.0741   101
 3.0841   115
 3.0941    94
 3.1041   112
 3.1141   100
 3.1241   100
 3.1341   104
 3.1441   102
 3.1541   119
 3.1641   117
 3.1741    91
 3.1841   113
 3.1941   115
 3.2041   133
 3.2141   121
 3.2241   157
 3.2341   198
 3.2441   218
 3.2541   253
 3.2641   286
 3.2741   349
 3.2841   384
 3.2941   443
 3.3041   449
 3.3141   452
 3.3241   443
 3.3341   394
 3.3441   396
 3.3541   339
 3.3641   283
 3.3741   251
 3.3841   200
 3.3941   186
 3.4041   143
 3.4141   127
 3.4241   116
 3.4341   106
 3.4441   107
 3.4541    84
 3.4641   112
 3.4741    82
 3.4841   112
 3.4941   109
 3.5041   124
 3.5141   105
 3.5241   130
 3.5341   151
 3.5441   145
 3.5541   151
 3.5641   171
 3.5741   234
 3.5841   240
 3.5941   272
 3.6041   356
 3.6141   421
 3.6241   474
 3.6341   595
 3.6441   708
 3.6541   845
 3.6641   920
 3.6741   989
 3.6841   978
 3.6941   984
 3.7041   956
 3.7141   901
 3.7241   804
 3.7341   659
 3.7441   565
 3.7541   435
 3.7641   333
 3.7741   256
 3.7841   201
 3.7941   173
 3.8041   143
 3.8141   116
 3.8241   112
 3.8341   101
 3.8441   101
 3.8541    88
 3.8641   104
 3.8741    80
 3.8841    93
 3.8941    99
 3.9041   110
 3.9141    87
 3.9241   107
 3.9341   123
 3.9441   141
 3.9541   148
 3.9641   148
 3.9741   166
 3.9841   172
 3.9941   167
 4.0041   176
 4.0141   192
 4.0241   205
 4.0341   177
 4.0441   175
 4.0541   153
 4.0641   132
 4.0741   148
 4.0841   114
 4.0941   110
 4.1041    92
 4.1141    97
 4.1241    74
 4.1341    89
 4.1441    64
 4.1541    77
 4.1641    66
 4.1741    89
 4.1841    70
 4.1941    69
 4.2041    82
 4.2141    60
 4.2241    72
 4.2341    76
 4.2441    65
 4.2541    75
 4.2641    70
 4.2741    65
 4.2841    57
 4.2941    68
 4.3041    76
 4.3141    72
 4.3241    80
 4.3341    77
 4.3441    96
 4.3541    86
 4.3641    68
 4.3741   105
 4.3841   148
 4.3941   149
 4.4041   185
 4.4141   235
 4.4241   276
 4.4341   325
 4.4441   366
 4.4541   455
 4.4641   508
 4.4741   551
 4.4841   635
 4.4941   665
 4.5041   626
 4.5141   638
 4.5241   631
 4.5341   616
 4.5441   537
 4.5541   475
 4.5641   390
 4.5741   334
 4.5841   233
 4.5941   203
 4.6041   177
 4.6141   183
 4.6241   155
 4.6341   113
 4.6441   123
 4.6541   134
 4.6641   123
 4.6741   113
 4.6841    89
 4.6941    98
 4.7041    92
 4.7141    76
 4.7241   115
 4.7341    88
 4.7441   100
 4.7541    86
 4.7641   103
 4.7741   107
 4.7841   117
 4.7941   131
 4.8041   116
 4.8141   120
 4.8241   144
 4.8341   156
 4.8441   151
 4.8541   181
 4.8641   170
 4.8741   188
 4.8841   199
 4.8941   202
 4.9041   206
 4.9141   209
 4.9241   223
 4.9341   197
 4.9441   215
 4.9541   212
 4.9641   183
 4.9741   200
 4.9841   177
 4.9941   178
 5.0041   138
 5.0141   142
 5.0241   110
 5.0341   102
 5.0441    88
 5.0541    88
 5.0641   116
 5.0741    85
 5.0841    83
 5.0941    85
 5.1041   111
 5.1141   118
 5.1241   109
 5.1341   105
 5.1441   113
 5.1541    98
 5.1641   107
 5.1741    98
 5.1841    99
 5.1941    93
 5.2041    99
 5.2141   122
 5.2241    94
 5.2341   114
 5.2441   100
 5.2541    98
 5.2641   104
 5.2741   108
 5.2841    97
 5.2941   108
 5.3041   104
 5.3141   113
 5.3241   133
 5.3341   121
 5.3441   155
 5.3541   158
 5.3641   177
 5.3741   199
 5.3841   190
 5.3941   198
 5.4041   207
 5.4141   193
 5.4241   208
 5.4341   178
 5.4441   176
 5.4541   172
 5.4641   179
 5.4741   157
 5.4841   138
 5.4941   134
 5.5041   150
 5.5141   123
 5.5241   118
 5.5341   114
 5.5441   118
 5.5541   122
 5.5641    95
 5.5741   110
 5.5841    96
 5.5941   114
 5.6041    93
 5.6141   102
 5.6241   111
 5.6341    90
 5.6441   110
 5.6541    96
 5.6641    73
 5.6741   103
 5.6841   103
 5.6941    97
 5.7041   104
 5.7141   104
 5.7241   131
 5.7341   128
 5.7441   131
 5.7541   151
 5.7641   130
 5.7741   148
 5.7841   187
 5.7941   200
 5.8041   221
 5.8141   276
 5.8241   336
 5.8341   377
 5.8441   395
 5.8541   428
 5.8641   467
 5.8741   492
 5.8841   517
 5.8941   521
 5.9041   538
 5.9141   506
 5.9241   504
 5.9341   429
 5.9441   412
 5.9541   384
 5.9641   298
 5.9741   296
 5.9841   224
 5.9941   222
 6.0041   173
 6.0141   181
 6.0241   155
 6.0341   132
 6.0441   145
 6.0541   164
 6.0641   131
 6.0741   151
 6.0841   127
 6.0941   153
 6.1041   127
 6.1141   158
 6.1241   151
 6.1341   154
 6.1441   180
 6.1541   200
 6.1641   195
 6.1741   230
 6.1841   245
 6.1941   312
 6.2041   409
 6.2141   493
 6.2241   716
 6.2341   994
 6.2441  1378
 6.2541  1904
 6.2641  2784
 6.2741  3748
 6.2841  5058
 6.2941  6738
 6.3041  8644
 6.3141 11007
 6.3241 13538
 6.3341 16359
 6.3441 18995
 6.3541 22033
 6.3641 24143
 6.3741 25994
 6.3841 27654
 6.3941 27882
 6.4041 27901
 6.4141 27088
 6.4241 25512
 6.4341 23355
 6.4441 20790
 6.4541 17889
 6.4641 15143
 6.4741 12501
 6.4841 10014
 6.4941  7738
 6.5041  5955
 6.5141  4322
 6.5241  3056
 6.5341  2254
 6.5441  1549
 6.5541  1132
 6.5641   783
 6.5741   577
 6.5841   394
 6.5941   312
 6.6041   255
 6.6141   262
 6.6241   205
 6.6341   172
 6.6441   176
 6.6541   178
 6.6641   177
 6.6741   172
 6.6841   163
 6.6941   142
 6.7041   176
 6.7141   164
 6.7241   197
 6.7341   193
 6.7441   189
 6.7541   195
 6.7641   184
 6.7741   225
 6.7841   187
 6.7941   204
 6.8041   206
 6.8141   203
 6.8241   265
 6.8341   258
 6.8441   265
 6.8541   290
 6.8641   344
 6.8741   351
 6.8841   393
 6.8941   492
 6.9041   589
 6.9141   690
 6.9241   889
 6.9341  1064
 6.9441  1351
 6.9541  1584
 6.9641  1886
 6.9741  2290
 6.9841  2678
 6.9941  3045
 7.0041  3518
 7.0141  3841
 7.0241  4095
 7.0341  4462
 7.0441  4573
 7.0541  4479
 7.0641  4457
 7.0741  4278
 7.0841  4084
 7.0941  3688
 7.1041  3237
 7.1141  2912
 7.1241  2494
 7.1341  2073
 7.1441  1650
 7.1541  1382
 7.1641  1121
 7.1741   879
 7.1841   663
 7.1941   566
 7.2041   424
 7.2141   319
 7.2241   297
 7.2341   264
 7.2441   219
 7.2541   211
 7.2641   198
 7.2741   206
 7.2841   206
 7.2941   215
 7.3041   199
 7.3141   258
 7.3241   229
 7.3341   251
 7.3441   229
 7.3541   266
 7.3641   285
 7.3741   270
 7.3841   306
 7.3941   347
 7.4041   348
 7.4141   346
 7.4241   359
 7.4341   371
 7.4441   378
 7.4541   393
 7.4641   371
 7.4741   363
 7.4841   346
 7.4941   336
 7.5041   298
 7.5141   355
 7.5241   320
 7.5341   280
 7.5441   254
 7.5541   241
 7.5641   228
 7.5741   245
 7.5841   215
 7.5941   203
 7.6041   217
 7.6141   207
 7.6241   223
 7.6341   196
 7.6441   202
 7.6541   177
 7.6641   204
 7.6741   181
 7.6841   175
 7.6941   200
 7.7041   176
 7.7141   197
 7.7241   211
 7.7341   197
 7.7441   206
 7.7541   225
 7.7641   220
 7.7741   234
 7.7841   220
 7.7941   252
 7.8041   261
 7.8141   221
 7.8241   223
 7.8341   291
 7.8441   266
 7.8541   234
 7.8641   288
 7.8741   305
 7.8841   318
 7.8941   319
 7.9041   325
 7.9141   324
 7.9241   340
 7.9341   353
 7.9441   375
 7.9541   414
 7.9641   412
 7.9741   425
 7.9841   467
 7.9941   522
 8.0041   558
 8.0141   546
 8.0241   645
 8.0341   693
 8.0441   699
 8.0541   782
 8.0641   811
 8.0741   893
 8.0841   922
 8.0941   976
 8.1041  1075
 8.1141  1092
 8.1241  1141
 8.1341  1170
 8.1441  1200
 8.1541  1283
 8.1641  1237
 8.1741  1280
 8.1841  1251
 8.1941  1297
 8.2041  1303
 8.2141  1353
 8.2241  1364
 8.2341  1346
 8.2441  1393
 8.2541  1475
 8.2641  1489
 8.2741  1613
 8.2841  1726
 8.2941  1849
 8.3041  1924
 8.3141  1987
 8.3241  2248
 8.3341  2370
 8.3441  2476
 8.3541  2505
 8.3641  2655
 8.3741  2895
 8.3841  2907
 8.3941  2770
 8.4041  2658
 8.4141  2598
 8.4241  2460
 8.4341  2323
 8.4441  2092
 8.4541  1875
 8.4641  1647
 8.4741  1489
 8.4841  1262
 8.4941  1051
 8.5041   909
 8.5141   760
 8.5241   693
 8.5341   623
 8.5441   538
 8.5541   506
 8.5641   470
 8.5741   443
 8.5841   416
 8.5941   387
 8.6041   408
 8.6141   412
 8.6241   426
 8.6341   411
 8.6441   395
 8.6541   406
 8.6641   442
 8.6741   407
 8.6841   421
 8.6941   367
 8.7041   387
 8.7141   369
 8.7241   353
 8.7341   334
 8.7441   311
 8.7541   318
 8.7641   326
 8.7741   316
 8.7841   327
 8.7941   293
 8.8041   318
 8.8141   297
 8.8241   301
 8.8341   288
 8.8441   310
 8.8541   296
 8.8641   321
 8.8741   306
 8.8841   323
 8.8941   276
 8.9041   312
 8.9141   310
 8.9241   322
 8.9341   302
 8.9441   308
 8.9541   312
 8.9641   319
 8.9741   332
 8.9841   322
 8.9941   331
 9.0041   340
 9.0141   362
 9.0241   373
 9.0341   398
 9.0441   400
 9.0541   406
 9.0641   409
 9.0741   413
 9.0841   419
 9.0941   462
 9.1041   497
 9.1141   447
 9.1241   491
 9.1341   506
 9.1441   508
 9.1541   552
 9.1641   579
 9.1741   628
 9.1841   642
 9.1941   658
 9.2041   680
 9.2141   740
 9.2241   755
 9.2341   795
 9.2441   877
 9.2541   881
 9.2641   939
 9.2741   965
 9.2841   969
 9.2941  1053
 9.3041   998
 9.3141  1038
 9.3241  1111
 9.3341  1145
 9.3441  1145
 9.3541  1230
 9.3641  1236
 9.3741  1240
 9.3841  1234
 9.3941  1229
 9.4041  1343
 9.4141  1368
 9.4241  1331
 9.4341  1351
 9.4441  1400
 9.4541  1422
 9.4641  1387
 9.4741  1401
 9.4841  1447
 9.4941  1470
 9.5041  1502
 9.5141  1547
 9.5241  1640
 9.5341  1627
 9.5441  1724
 9.5541  1774
 9.5641  1919
 9.5741  2008
 9.5841  2042
 9.5941  2227
 9.6041  2356
 9.6141  2446
 9.6241  2671
 9.6341  2682
 9.6441  2708
 9.6541  2785
 9.6641  2843
 9.6741  2778
 9.6841  2750
 9.6941  2696
 9.7041  2630
 9.7141  2436
 9.7241  2239
 9.7341  2200
 9.7441  1968
 9.7541  1818
 9.7641  1709
 9.7741  1566
 9.7841  1479
 9.7941  1381
 9.8041  1319
 9.8141  1220
 9.8241  1192
 9.8341  1166
 9.8441  1115
 9.8541  1149
 9.8641  1093
 9.8741  1112
 9.8841  1155
 9.8941  1247
 9.9041  1236
 9.9141  1269
 9.9241  1270
 9.9341  1315
 9.9441  1322
 9.9541  1319
 9.9641  1271
 9.9741  1304
 9.9841  1281
 9.9941  1245
10.0041  1127
10.0141  1090
10.0241  1015
10.0341   942
10.0441   830
10.0541   732
10.0641   663
10.0741   615
10.0841   541
10.0941   500
10.1041   454
10.1141   389
10.1241   349
10.1341   333
10.1441   302
10.1541   286
10.1641   262
10.1741   234
10.1841   231
10.1941   232
10.2041   230
10.2141   240
10.2241   206
10.2341   195
10.2441   192
10.2541   211
10.2641   185
10.2741   173
10.2841   171
10.2941   156
10.3041   162
10.3141   163
10.3241   165
10.3341   162
10.3441   157
10.3541   170
10.3641   172
10.3741   167
10.3841   162
10.3941   167
10.4041   161
10.4141   171
10.4241   160
10.4341   136
10.4441   149
10.4541   160
10.4641   159
10.4741   186
10.4841   203
10.4941   193
10.5041   184
10.5141   196
10.5241   196
10.5341   193
10.5441   179
10.5541   186
10.5641   190
10.5741   185
10.5841   178
10.5941   169
10.6041   181
10.6141   183
10.6241   202
10.6341   195
10.6441   190
10.6541   194
10.6641   182
10.6741   185
10.6841   185
10.6941   188
10.7041   195
10.7141   205
10.7241   219
10.7341   227
10.7441   217
10.7541   234
10.7641   251
10.7741   242
10.7841   244
10.7941   250
10.8041   252
10.8141   267
10.8241   279
10.8341   276
10.8441   287
10.8541   284
10.8641   303
10.8741   282
10.8841   286
10.8941   293
10.9041   288
10.9141   296
10.9241   298
10.9341   291
10.9441   282
10.9541   282
10.9641   287
10.9741   303
10.9841   274
10.9941   261
11.0041   276
11.0141   291
11.0241   279
11.0341   259
11.0441   257
11.0541   271
11.0641   276
11.0741   291
11.0841   274
11.0941   254
11.1041   233
11.1141   244
11.1241   261
11.1341   268
11.1441   271
11.1541   271
11.1641   288
11.1741   274
11.1841   303
11.1941   300
11.2041   315
11.2141   343
11.2241   358
11.2341   369
11.2441   359
11.2541   370
11.2641   403
11.2741   420
11.2841   408
11.2941   415
11.3041   398
11.3141   394
11.3241   361
11.3341   327
11.3441   338
11.3541   339
11.3641   312
11.3741   289
11.3841   278
11.3941   275
11.4041   244
11.4141   240
11.4241   236
11.4341   231
11.4441   218
11.4541   199
11.4641   213
11.4741   212
11.4841   184
11.4941   206
11.5041   219
11.5141   202
11.5241   202
11.5341   199
11.5441   193
11.5541   186
11.5641   183
11.5741   215
11.5841   228
11.5941   204
11.6041   194
11.6141   214
11.6241   220
11.6341   215
11.6441   201
11.6541   210
11.6641   202
11.6741   194
11.6841   204
11.6941   220
11.7041   210
11.7141   195
11.7241   183
11.7341   184
11.7441   174
11.7541   169
11.7641   179
11.7741   167
11.7841   151
11.7941   153
11.8041   146
11.8141   145
11.8241   140
11.8341   155
11.8441   153
11.8541   151
11.8641   154
11.8741   150
11.8841   144
11.8941   141
11.9041   155
11.9141   157
11.9241   164
11.9341   154
11.9441   152
11.9541   152
11.9641   167
11.9741   157
11.9841   152
11.9941   161
12.0041   156
12.0141   148
12.0241   149
12.0341   159
12.0441   165
12.0541   156
12.0641   136
12.0741   158
12.0841   180
12.0941   160
12.1041   164
12.1141   158
12.1241   147
12.1341   148
12.1441   140
12.1541   150
12.1641   162
12.1741   165
12.1841   155
12.1941   150
12.2041   137
12.2141   138
12.2241   134
12.2341   139
12.2441   148
12.2541   148
12.2641   145
12.2741   141
12.2841   132
12.2941   139
12.3041   156
12.3141   169
12.3241   167
12.3341   151
12.3441   144
12.3541   149
12.3641   148
12.3741   158
12.3841   155
12.3941   146
12.4041   142
12.4141   142
12.4241   152
12.4341   159
12.4441   142
12.4541   151
12.4641   166
12.4741   163
12.4841   155
12.4941   163
12.5041   157
12.5141   171
12.5241   172
12.5341   153
12.5441   170
12.5541   171
12.5641   148
12.5741   158
12.5841   159
12.5941   160
12.6041   161
12.6141   168
12.6241   153
12.6341   155
12.6441   153
12.6541   145
12.6641   147
12.6741   153
12.6841   158
12.6941   157
12.7041   151
12.7141   149
12.7241   155
12.7341   161
12.7441   161
12.7541   159
12.7641   159
12.7741   160
12.7841   161
12.7941   169
12.8041   180
12.8141   181
12.8241   167
12.8341   151
12.8441   153
12.8541   169
12.8641   175
12.8741   167
12.8841   161
12.8941   166
12.9041   173
12.9141   176
12.9241   182
12.9341   186
12.9441   184
12.9541   182
12.9641   183
12.9741   184
12.9841   193
12.9941   178
13.0041   169
13.0141   175
13.0241   177
13.0341   175
13.0441   182
13.0541   180
13.0641   178
13.0741   169
13.0841   177
13.0941   181
13.1041   186
13.1141   180
13.1241   163
13.1341   182
13.1441   190
13.1541   171
13.1641   178
13.1741   196
13.1841   203
13.1941   203
13.2041   200
13.2141   197
13.2241   212
13.2341   216
13.2441   216
13.2541   229
13.2641   253
13.2741   268
13.2841   268
13.2941   269
13.3041   275
13.3141   274
13.3241   288
13.3341   303
13.3441   307
13.3541   315
13.3641   327
13.3741   331
13.3841   317
13.3941   303
13.4041   303
13.4141   301
13.4241   298
13.4341   293
13.4441   276
13.4541   260
13.4641   255
13.4741   254
13.4841   252
13.4941   248
13.5041   239
13.5141   229
13.5241   222
13.5341   213
13.5441   199
13.5541   197
13.5641   211
13.5741   220
13.5841   214
13.5941   212
13.6041   222
13.6141   220
13.6241   205
13.6341   198
13.6441   196
13.6541   193
13.6641   189
13.6741   188
13.6841   194
13.6941   204
13.7041   211
13.7141   207
13.7241   201
13.7341   201
13.7441   199
13.7541   208
13.7641   204
13.7741   203
13.7841   200
13.7941   199
13.8041   207
13.8141   223
13.8241   222
13.8341   212
13.8441   211
13.8541   210
13.8641   224
13.8741   229
13.8841   214
13.8941   203
13.9041   216
13.9141   233
13.9241   234
13.9341   225
13.9441   232
13.9541   242
13.9641   237
13.9741   237
13.9841   236
13.9941   245
14.0041   268
14.0141   287
14.0241   277
14.0341   261
14.0441   287
14.0541   292
14.0641   279
14.0741   303
14.0841   325
14.0941   329
14.1041   328
14.1141   317
14.1241   323
14.1341   342
14.1441   340
14.1541   321
14.1641   315
14.1741   326
14.1841   308
14.1941   293
14.2041   311
14.2141   319
14.2241   292
14.2341   283
14.2441   284
14.2541   281
14.2641   297
14.2741   291
14.2841   256
14.2941   247
14.3041   246
14.3141   240
14.3241   254
14.3341   242
14.3441   239
14.3541   246
14.3641   253
14.3741   247
14.3841   227
14.3941   235
14.4041   241
14.4141   244
14.4241   242
14.4341   220
14.4441   224
14.4541   234
14.4641   230
14.4741   239
14.4841   243
14.4941   234
14.5041   242
14.5141   265
14.5241   249
14.5341   229
14.5441   223
14.5541   236
14.5641   235
14.5741   242
14.5841   230
14.5941   225
14.6041   264
14.6141   269
14.6241   251
14.6341   244
14.6441   239
14.6541   251
14.6641   241
14.6741   226
14.6841   235
14.6941   254
14.7041   263
14.7141   262
14.7241   256
14.7341   247
14.7441   250
14.7541   262
14.7641   288
14.7741   284
14.7841   280
14.7941   270
14.8041   253
14.8141   258
14.8241   284
14.8341   292
14.8441   292
14.8541   304
14.8641   293
14.8741   291
14.8841   273
14.8941   274
14.9041   283
14.9141   280
14.9241   290
14.9341   291
14.9441   283
14.9541   289
14.9641   315
14.9741   286
14.9841   284
14.9941   315
15.0041   304
15.0141   301
15.0241   309
15.0341   311
15.0441   279
15.0541   278
15.0641   274
15.0741   279
15.0841   272
15.0941   269
15.1041   279
15.1141   249
15.1241   247
15.1341   266
15.1441   293
15.1541   275
15.1641   246
15.1741   247
15.1841   248
15.1941   269
15.2041   290
15.2141   278
15.2241   260
15.2341   238
15.2441   238
15.2541   258
15.2641   263
15.2741   252
15.2841   248
15.2941   252
15.3041   264
15.3141   253
15.3241   246
15.3341   256
15.3441   273
15.3541   273
15.3641   251
15.3741   248
15.3841   255
15.3941   260
15.4041   263
15.4141   268
15.4241   274
15.4341   267
15.4441   277
15.4541   292
15.4641   274
15.4741   274
15.4841   287
15.4941   285
15.5041   293
15.5141   294
15.5241   279
15.5341   287
15.5441   310
15.5541   316
15.5641   324
15.5741   337
15.5841   339
15.5941   356
15.6041   384
15.6141   380
15.6241   389
15.6341   413
15.6441   442
15.6541   469
15.6641   471
15.6741   495
15.6841   499
15.6941   531
15.7041   563
15.7141   567
15.7241   582
15.7341   562
15.7441   553
15.7541   571
15.7641   563
15.7741   547
15.7841   537
15.7941   547
15.8041   534
15.8141   534
15.8241   516
15.8341   502
15.8441   484
15.8541   461
15.8641   462
15.8741   407
15.8841   399
15.8941   384
15.9041   404
15.9141   384
15.9241   355
15.9341   343
15.9441   331
15.9541   327
15.9641   301
15.9741   304
15.9841   319
15.9941   310
16.0041   291
16.0141   303
16.0241   298
16.0341   300
16.0441   315
16.0541   323
16.0641   296
16.0741   297
16.0841   311
16.0941   321
16.1041   325
16.1141   305
16.1241   296
16.1341   302
16.1441   294
16.1541   295
16.1641   315
16.1741   301
16.1841   304
16.1941   297
16.2041   304
16.2141   309
16.2241   323
16.2341   324
16.2441   307
16.2541   306
16.2641   305
16.2741   323
16.2841   303
16.2941   297
16.3041   322
16.3141   330
16.3241   324
16.3341   295
16.3441   293
16.3541   297
16.3641   333
16.3741   329
16.3841   326
16.3941   306
16.4041   321
16.4141   320
16.4241   322
16.4341   336
16.4441   346
16.4541   346
16.4641   320
16.4741   337
16.4841   325
16.4941   312
16.5041   337
16.5141   322
16.5241   313
16.5341   317
16.5441   320
16.5541   337
16.5641   353
16.5741   330
16.5841   342
16.5941   327
16.6041   319
16.6141   342
16.6241   347
16.6341   342
16.6441   318
16.6541   311
16.6641   335
16.6741   327
16.6841   325
16.6941   322
16.7041   317
16.7141   328
16.7241   348
16.7341   368
16.7441   362
16.7541   320
16.7641   337
16.7741   350
16.7841   332
16.7941   331
16.8041   323
16.8141   330
16.8241   354
16.8341   344
16.8441   365
16.8541   367
16.8641   350
16.8741   328
16.8841   339
16.8941   341
16.9041   318
16.9141   329
16.9241   326
16.9341   348
16.9441   364
16.9541   354
16.9641   324
16.9741   327
16.9841   345
16.9941   351
17.0041   348
17.0141   331
17.0241   334
17.0341   345
17.0441   353
17.0541   362
17.0641   355
17.0741   351
17.0841   349
17.0941   348
17.1041   349
17.1141   347
17.1241   335
17.1341   347
17.1441   356
17.1541   339
17.1641   357
17.1741   366
17.1841   362
17.1941   357
17.2041   366
17.2141   351
17.2241   349
17.2341   355
17.2441   350
17.2541   340
17.2641   361
17.2741   337
17.2841   337
17.2941   359
17.3041   361
17.3141   378
17.3241   377
17.3341   361
17.3441   369
17.3541   354
17.3641   365
17.3741   375
17.3841   376
17.3941   361
17.4041   386
17.4141   395
17.4241   370
17.4341   367
17.4441   358
17.4541   366
17.4641   376
17.4741   391
17.4841   359
17.4941   376
17.5041   371
17.5141   360
17.5241   384
17.5341   403
17.5441   385
17.5541   411
17.5641   415
17.5741   398
17.5841   382
17.5941   407
17.6041   432
17.6141   421
17.6241   398
17.6341   417
17.6441   428
17.6541   432
17.6641   423
17.6741   423
17.6841   401
17.6941   407
17.7041   420
17.7141   426
17.7241   420
17.7341   410
17.7441   430
17.7541   416
17.7641   401
17.7741   408
17.7841   412
17.7941   407
17.8041   404
17.8141   384
17.8241   370
17.8341   399
17.8441   395
17.8541   397
17.8641   412
17.8741   382
17.8841   390
17.8941   394
17.9041   399
17.9141   394
17.9241   407
17.9341   409
17.9441   388
17.9541   415
17.9641   401
17.9741   397
17.9841   408
17.9941   405
18.0041   416
18.0141   430
18.0241   399
18.0341   411
18.0441   404
18.0541   388
18.0641   417
18.0741   412
18.0841   402
18.0941   410
18.1041   384
18.1141   390
18.1241   406
18.1341   425
18.1441   391
18.1541   403
18.1641   390
18.1741   413
18.1841   443
18.1941   419
18.2041   378
18.2141   372
18.2241   385
18.2341   384
18.2441   393
18.2541   403
18.2641   405
18.2741   427
18.2841   435
18.2941   443
18.3041   407
18.3141   426
18.3241   412
18.3341   415
18.3441   446
18.3541   452
18.3641   434
18.3741   418
18.3841   418
18.3941   414
18.4041   413
18.4141   412
18.4241   417
18.4341   415
18.4441   422
18.4541   402
18.4641   452
18.4741   421
18.4841   426
18.4941   428
18.5041   410
18.5141   424
18.5241   437
18.5341   412
18.5441   378
18.5541   408
18.5641   434
18.5741   408
18.5841   411
18.5941   415
18.6041   401
18.6141   404
18.6241   431
18.6341   452
18.6441   444
18.6541   415
18.6641   443
18.6741   423
18.6841   435
18.6941   408
18.7041   418
18.7141   451
18.7241   446
18.7341   436
18.7441   420
18.7541   432
18.7641   409
18.7741   433
18.7841   454
18.7941   431
18.8041   441
18.8141   420
18.8241   444
18.8341   431
18.8441   411
18.8541   438
18.8641   417
18.8741   412
18.8841   439
18.8941   436
18.9041   420
18.9141   466
18.9241   433
18.9341   461
18.9441   423
18.9541   416
18.9641   465
18.9741   471
18.9841   437
18.9941   443
19.0041   438
19.0141   415
19.0241   434
19.0341   436
19.0441   418
19.0541   414
19.0641   446
19.0741   461
19.0841   441
19.0941   468
19.1041   433
19.1141   436
19.1241   445
19.1341   452
19.1441   461
19.1541   457
19.1641   450
19.1741   451
19.1841   413
19.1941   460
19.2041   435
19.2141   430
19.2241   438
19.2341   431
19.2441   453
19.2541   443
19.2641   459
19.2741   466
19.2841   461
19.2941   440
19.3041   475
19.3141   479
19.3241   451
19.3341   421
19.3441   463
19.3541   439
19.3641   456
19.3741   475
19.3841   478
19.3941   461
19.4041   426
19.4141   433
19.4241   437
19.4341   463
19.4441   468
19.4541   451
19.4641   469
19.4741   477
19.4841   460
19.4941   454
19.5041   442
19.5141   468
19.5241   460
19.5341   453
19.5441   452
19.5541   436
19.5641   439
19.5741   445
19.5841   463
19.5941   462
19.6041   450
19.6141   462
19.6241   451
19.6341   451
19.6441   465
19.6541   478
19.6641   470
19.6741   452
19.6841   437
19.6941   491
19.7041   463
19.7141   483
19.7241   452
19.7341   487
19.7441   449
19.7541   467
19.7641   479
19.7741   471
19.7841   483
19.7941   440
19.8041   434
19.8141   454
19.8241   479
19.8341   483
19.8441   467
19.8541   463
19.8641   439
19.8741   424
19.8841   464
19.8941   499
19.9041   469
19.9141   455
19.9241   468
19.9341   523
19.9441   497
19.9541   473
19.9641   483
19.9741   474
19.9841   485
19.9941   507
20.0041   477
20.0141   463
20.0241   473
20.0341   492
20.0441   466
20.0541   453
20.0641   450
20.0741   506
20.0841   490
20.0941   473
20.1041   465
20.1141   465
20.1241   486
20.1341   472
20.1441   482
20.1541   484
20.1641   514
20.1741   466
20.1841   452
20.1941   471
20.2041   500
20.2141   502
20.2241   484
20.2341   483
20.2441   488
20.2541   472
20.2641   465
20.2741   487
20.2841   463
20.2941   459
20.3041   508
20.3141   512
20.3241   455
20.3341   487
20.3441   475
20.3541   477
20.3641   495
20.3741   462
20.3841   493
20.3941   488
20.4041   449
20.4141   456
20.4241   474
20.4341   474
20.4441   530
20.4541   483
20.4641   523
20.4741   474
20.4841   473
20.4941   482
20.5041   451
20.5141   469
20.5241   489
20.5341   476
20.5441   490
20.5541   486
20.5641   480
20.5741   516
20.5841   509
20.5941   477
20.6041   495
20.6141   469
20.6241   511
20.6341   498
20.6441   475
20.6541   462
20.6641   468
20.6741   485
20.6841   470
20.6941   451
20.7041   482
20.7141   456
20.7241   449
20.7341   514
20.7441   480
20.7541   521
20.7641   532
20.7741   499
20.7841   500
20.7941   519
20.8041   496
20.8141   517
20.8241   523
20.8341   512
20.8441   535
20.8541   544
20.8641   506
20.8741   558
20.8841   602
20.8941   540
20.9041   562
20.9141   575
20.9241   580
20.9341   605
20.9441   628
20.9541   599
20.9641   621
20.9741   614
20.9841   610
20.9941   647
21.0041   634
21.0141   683
21.0241   692
21.0341   711
21.0441   755
21.0541   738
21.0641   739
21.0741   799
21.0841   718
21.0941   739
21.1041   710
21.1141   756
21.1241   741
21.1341   704
21.1441   757
21.1541   782
21.1641   761
21.1741   720
21.1841   725
21.1941   718
21.2041   729
21.2141   688
21.2241   680
21.2341   670
21.2441   670
21.2541   605
21.2641   670
21.2741   660
21.2841   659
21.2941   572
21.3041   572
21.3141   564
21.3241   580
21.3341   536
21.3441   550
21.3541   547
21.3641   549
21.3741   545
21.3841   499
21.3941   480
21.4041   494
21.4141   521
21.4241   511
21.4341   496
21.4441   522
21.4541   490
21.4641   507
21.4741   508
21.4841   501
21.4941   524
21.5041   490
21.5141   503
21.5241   493
21.5341   536
21.5441   482
21.5541   457
21.5641   522
21.5741   491
21.5841   520
21.5941   473
21.6041   505
21.6141   511
21.6241   482
21.6341   524
21.6441   483
21.6541   482
21.6641   488
21.6741   505
21.6841   492
21.6941   520
21.7041   487
21.7141   499
21.7241   498
21.7341   488
21.7441   484
21.7541   486
21.7641   497
21.7741   492
21.7841   492
21.7941   524
21.8041   491
21.8141   449
21.8241   493
21.8341   505
21.8441   485
21.8541   439
21.8641   508
21.8741   500
21.8841   481
21.8941   462
21.9041   483
21.9141   467
21.9241   473
21.9341   501
21.9441   495
21.9541   458
21.9641   481
21.9741   525
21.9841   472
21.9941   490
22.0041   457
22.0141   524
22.0241   491
22.0341   481
22.0441   512
22.0541   511
22.0641   529
22.0741   461
22.0841   489
22.0941   490
22.1041   468
22.1141   494
22.1241   478
22.1341   492
22.1441   476
22.1541   474
22.1641   485
22.1741   487
22.1841   478
22.1941   480
22.2041   525
22.2141   493
22.2241   519
22.2341   517
22.2441   473
22.2541   481
22.2641   536
22.2741   479
22.2841   495
22.2941   484
22.3041   473
22.3141   483
22.3241   466
22.3341   507
22.3441   479
22.3541   503
22.3641   477
22.3741   479
22.3841   517
22.3941   487
22.4041   474
22.4141   473
22.4241   502
22.4341   542
22.4441   486
22.4541   489
22.4641   465
22.4741   482
22.4841   477
22.4941   487
22.5041   501
22.5141   463
22.5241   511
22.5341   475
22.5441   498
22.5541   518
22.5641   493
22.5741   477
22.5841   472
22.5941   520
22.6041   485
22.6141   502
22.6241   499
22.6341   485
22.6441   529
22.6541   493
22.6641   521
22.6741   474
22.6841   485
22.6941   497
22.7041   480
22.7141   520
22.7241   461
22.7341   465
22.7441   512
22.7541   491
22.7641   531
22.7741   467
22.7841   510
22.7941   486
22.8041   532
22.8141   453
22.8241   480
22.8341   499
22.8441   507
22.8541   487
22.8641   471
22.8741   439
22.8841   528
22.8941   496
22.9041   453
22.9141   492
22.9241   496
22.9341   502
22.9441   526
22.9541   451
22.9641   499
22.9741   491
22.9841   466
22.9941   490
23.0041   534
23.0141   522
23.0241   508
23.0341   532
23.0441   497
23.0541   503
23.0641   494
23.0741   476
23.0841   480
23.0941   470
23.1041   454
23.1141   514
23.1241   483
23.1341   454
23.1441   510
23.1541   478
23.1641   488
23.1741   481
23.1841   493
23.1941   451
23.2041   445
23.2141   473
23.2241   474
23.2341   480
23.2441   437
23.2541   462
23.2641   484
23.2741   489
23.2841   506
23.2941   476
23.3041   493
23.3141   517
23.3241   488
23.3341   506
23.3441   558
23.3541   472
23.3641   510
23.3741   462
23.3841   470
23.3941   502
23.4041   475
23.4141   497
23.4241   454
23.4341   472
23.4441   459
23.4541   493
23.4641   541
23.4741   458
23.4841   459
23.4941   428
23.5041   514
23.5141   528
23.5241   526
23.5341   469
23.5441   532
23.5541   502
23.5641   466
23.5741   500
23.5841   490
23.5941   479
23.6041   485
23.6141   494
23.6241   488
23.6341   511
23.6441   543
23.6541   504
23.6641   562
23.6741   512
23.6841   476
23.6941   494
23.7041   514
23.7141   489
23.7241   515
23.7341   558
23.7441   525
23.7541   490
23.7641   482
23.7741   492
23.7841   482
23.7941   496
23.8041   511
23.8141   546
23.8241   549
23.8341   509
23.8441   524
23.8541   528
23.8641   491
23.8741   510
23.8841   512
23.8941   479
23.9041   496
23.9141   497
23.9241   491
23.9341   466
23.9441   511
23.9541   445
23.9641   510
23.9741   482
23.9841   471
23.9941   485
24.0041   457
24.0141   470
24.0241   435
24.0341   480
24.0441   471
24.0541   457
24.0641   492
24.0741   475
24.0841   463
24.0941   508
24.1041   488
24.1141   461
24.1241   493
24.1341   485
24.1441   474
24.1541   462
24.1641   496
24.1741   467
24.1841   479
24.1941   467
24.2041   477
24.2141   474
24.2241   442
24.2341   500
24.2441   478
24.2541   476
24.2641   476
24.2741   452
24.2841   468
24.2941   466
24.3041   430
24.3141   475
24.3241   473
24.3341   451
24.3441   492
24.3541   448
24.3641   508
24.3741   459
24.3841   436
24.3941   447
24.4041   469
24.4141   454
24.4241   479
24.4341   474
24.4441   470
24.4541   450
24.4641   431
24.4741   474
24.4841   461
24.4941   443
24.5041   457
24.5141   487
24.5241   469
24.5341   431
24.5441   472
24.5541   471
24.5641   469
24.5741   445
24.5841   476
24.5941   440
24.6041   436
24.6141   506
24.6241   439
24.6341   449
24.6441   437
24.6541   448
24.6641   414
24.6741   474
24.6841   474
24.6941   458
24.7041   463
24.7141   457
24.7241   426
24.7341   470
24.7441   481
24.7541   465
24.7641   450
24.7741   419
24.7841   452
24.7941   487
24.8041   480
24.8141   488
24.8241   412
24.8341   452
24.8441   438
24.8541   436
24.8641   470
24.8741   448
24.8841   402
24.8941   449
24.9041   469
24.9141   445
24.9241   459
24.9341   467
24.9441   429
24.9541   445
24.9641   453
24.9741   482
24.9841   448
24.9941   453
25.0041   465
25.0141   455
25.0241   453
25.0341   441
25.0441   428
25.0541   444
25.0641   421
25.0741   450
25.0841   449
25.0941   442
25.1041   447
25.1141   469
25.1241   458
25.1341   433
25.1441   424
25.1541   443
25.1641   455
25.1741   478
25.1841   428
25.1941   434
25.2041   453
25.2141   453
25.2241   444
25.2341   469
25.2441   443
25.2541   426
25.2641   425
25.2741   453
25.2841   404
25.2941   448
25.3041   448
25.3141   446
25.3241   446
25.3341   490
25.3441   464
25.3541   467
25.3641   413
25.3741   449
25.3841   450
25.3941   451
25.4041   439
25.4141   443
25.4241   448
25.4341   456
25.4441   440
25.4541   426
25.4641   391
25.4741   411
25.4841   412
25.4941   427
25.5041   422
25.5141   394
25.5241   416
25.5341   449
25.5441   431
25.5541   439
25.5641   420
25.5741   420
25.5841   411
25.5941   449
25.6041   420
25.6141   417
25.6241   459
25.6341   420
25.6441   397
25.6541   442
25.6641   416
25.6741   434
25.6841   424
25.6941   408
25.7041   422
25.7141   441
25.7241   421
25.7341   401
25.7441   424
25.7541   404
25.7641   434
25.7741   433
25.7841   393
25.7941   437
25.8041   406
25.8141   401
25.8241   450
25.8341   427
25.8441   406
25.8541   427
25.8641   409
25.8741   379
25.8841   454
25.8941   457
25.9041   451
25.9141   404
25.9241   420
25.9341   414
25.9441   400
25.9541   387
25.9641   413
25.9741   417
25.9841   407
25.9941   433
26.0041   408
26.0141   396
26.0241   386
26.0341   429
26.0441   391
26.0541   428
26.0641   397
26.0741   388
26.0841   395
26.0941   415
26.1041   426
26.1141   394
26.1241   452
26.1341   437
26.1441   401
26.1541   403
26.1641   419
26.1741   402
26.1841   379
26.1941   397
26.2041   405
26.2141   402
26.2241   404
26.2341   390
26.2441   384
26.2541   409
26.2641   395
26.2741   389
26.2841   408
26.2941   394
26.3041   385
26.3141   392
26.3241   413
26.3341   392
26.3441   399
26.3541   430
26.3641   421
26.3741   369
26.3841   422
26.3941   404
26.4041   392
26.4141   387
26.4241   382
26.4341   365
26.4441   394
26.4541   391
26.4641   384
26.4741   418
26.4841   367
26.4941   376
26.5041   377
26.5141   402
26.5241   390
26.5341   408
26.5441   394
26.5541   418
26.5641   379
26.5741   367
26.5841   407
26.5941   406
26.6041   363
26.6141   384
26.6241   371
26.6341   399
26.6441   396
26.6541   365
26.6641   370
26.6741   382
26.6841   350
26.6941   397
26.7041   408
26.7141   346
26.7241   346
26.7341   400
26.7441   383
26.7541   378
26.7641   395
26.7741   345
26.7841   393
26.7941   364
26.8041   380
26.8141   356
26.8241   348
26.8341   375
26.8441   367
26.8541   354
26.8641   383
26.8741   372
26.8841   346
26.8941   394
26.9041   370
26.9141   399
26.9241   387
26.9341   336
26.9441   403
26.9541   348
26.9641   372
26.9741   393
26.9841   377
26.9941   351
27.0041   394
27.0141   377
27.0241   376
27.0341   368
27.0441   354
27.0541   372
27.0641   383
27.0741   363
27.0841   366
27.0941   355
27.1041   360
27.1141   349
27.1241   371
27.1341   387
27.1441   396
27.1541   362
27.1641   373
27.1741   349
27.1841   349
27.1941   387
27.2041   387
27.2141   384
27.2241   359
27.2341   366
27.2441   372
27.2541   376
27.2641   384
27.2741   366
27.2841   367
27.2941   339
27.3041   389
27.3141   372
27.3241   397
27.3341   349
27.3441   347
27.3541   358
27.3641   375
27.3741   373
27.3841   382
27.3941   354
27.4041   351
27.4141   386
27.4241   330
27.4341   368
27.4441   361
27.4541   349
27.4641   351
27.4741   373
27.4841   344
27.4941   369
27.5041   345
27.5141   364
27.5241   355
27.5341   357
27.5441   347
27.5541   368
27.5641   345
27.5741   387
27.5841   351
27.5941   338
27.6041   367
27.6141   342
27.6241   367
27.6341   333
27.6441   356
27.6541   364
27.6641   326
27.6741   334
27.6841   333
27.6941   345
27.7041   353
27.7141   326
27.7241   330
27.7341   315
27.7441   347
27.7541   338
27.7641   355
27.7741   362
27.7841   332
27.7941   354
27.8041   340
27.8141   390
27.8241   361
27.8341   361
27.8441   315
27.8541   360
27.8641   320
27.8741   317
27.8841   342
27.8941   341
27.9041   356
27.9141   346
27.9241   314
27.9341   316
27.9441   315
27.9541   343
27.9641   350
27.9741   338
27.9841   348
27.9941   332
28.0041   330
28.0141   302
28.0241   318
28.0341   341
28.0441   347
28.0541   363
28.0641   340
28.0741   327
28.0841   320
28.0941   343
28.1041   349
28.1141   356
28.1241   331
28.1341   331
28.1441   311
28.1541   339
28.1641   355
28.1741   322
28.1841   346
28.1941   326
28.2041   331
28.2141   325
28.2241   302
28.2341   326
28.2441   306
28.2541   314
28.2641   297
28.2741   326
28.2841   313
28.2941   323
28.3041   334
28.3141   331
28.3241   319
28.3341   330
28.3441   340
28.3541   324
28.3641   326
28.3741   308
28.3841   340
28.3941   373
28.4041   323
28.4141   322
28.4241   314
28.4341   307
28.4441   320
28.4541   313
28.4641   289
28.4741   306
28.4841   312
28.4941   303
28.5041   318
28.5141   319
28.5241   345
28.5341   311
28.5441   329
28.5541   342
28.5641   314
28.5741   326
28.5841   291
28.5941   325
28.6041   311
28.6141   311
28.6241   306
28.6341   288
28.6441   322
28.6541   292
28.6641   282
28.6741   285
28.6841   286
28.6941   328
28.7041   289
28.7141   300
28.7241   312
28.7341   296
28.7441   267
28.7541   316
28.7641   297
28.7741   298
28.7841   303
28.7941   331
28.8041   292
28.8141   351
28.8241   300
28.8341   321
28.8441   275
28.8541   299
28.8641   292
28.8741   304
28.8841   299
28.8941   306
28.9041   302
28.9141   296
28.9241   320
28.9341   286
28.9441   310
28.9541   293
28.9641   312
28.9741   308
28.9841   261
28.9941   319
29.0041   283
29.0141   294
29.0241   300
29.0341   280
29.0441   297
29.0541   262
29.0641   282
29.0741   260
29.0841   304
29.0941   294
29.1041   302
29.1141   278
29.1241   306
29.1341   320
29.1441   304
29.1541   312
29.1641   282
29.1741   295
29.1841   280
29.1941   284
29.2041   286
29.2141   304
29.2241   292
29.2341   278
29.2441   295
29.2541   268
29.2641   285
29.2741   291
29.2841   292
29.2941   288
29.3041   291
29.3141   287
29.3241   326
29.3341   288
29.3441   281
29.3541   271
29.3641   270
29.3741   262
29.3841   252
29.3941   296
29.4041   282
29.4141   284
29.4241   260
29.4341   267
29.4441   269
29.4541   288
29.4641   262
29.4741   294
29.4841   249
29.4941   314
29.5041   275
29.5141   261
29.5241   275
29.5341   299
29.5441   265
29.5541   272
29.5641   253
29.5741   273
29.5841   250
29.5941   286
29.6041   282
29.6141   280
29.6241   277
29.6341   269
29.6441   260
29.6541   264
29.6641   266
29.6741   278
29.6841   258
29.6941   265
29.7041   273
29.7141   271
29.7241   269
29.7341   279
29.7441   252
29.7541   273
29.7641   276
29.7741   258
29.7841   273
29.7941   284
29.8041   267
29.8141   295
29.8241   254
29.8341   250
29.8441   278
29.8541   245
29.8641   238
29.8741   258
29.8841   281
29.8941   258
29.9041   267
29.9141   253
29.9241   281
29.9341   264
29.9441   279
29.9541   253
29.9641   266
29.9741   252
29.9841   300
29.9941   261
30.0041   261
30.0141   265
30.0241   248
30.0341   253
30.0441   261
30.0541   266
30.0641   236
30.0741   253
30.0841   242
30.0941   289
30.1041   255
30.1141   248
30.1241   249
30.1341   236
30.1441   251
30.1541   250
30.1641   254
30.1741   232
30.1841   260
30.1941   259
30.2041   257
30.2141   246
30.2241   277
30.2341   262
30.2441   261
30.2541   252
30.2641   255
30.2741   251
30.2841   249
30.2941   249
30.3041   228
30.3141   251
30.3241   263
30.3341   266
30.3441   259
30.3541   293
30.3641   252
30.3741   262
30.3841   261
30.3941   252
30.4041   238
30.4141   250
30.4241   266
30.4341   256
30.4441   264
30.4541   247
30.4641   250
30.4741   247
30.4841   251
30.4941   251
30.5041   254
30.5141   242
30.5241   251
30.5341   242
30.5441   254
30.5541   254
30.5641   262
30.5741   255
30.5841   241
30.5941   238
30.6041   264
30.6141   245
30.6241   256
30.6341   245
30.6441   204
30.6541   264
30.6641   238
30.6741   222
30.6841   252
30.6941   245
30.7041   214
30.7141   248
30.7241   243
30.7341   232
30.7441   250
30.7541   241
30.7641   236
30.7741   214
30.7841   233
30.7941   216
30.8041   195
30.8141   235
30.8241   242
30.8341   236
30.8441   259
30.8541   223
30.8641   236
30.8741   225
30.8841   237
30.8941   230
30.9041   210
30.9141   202
30.9241   219
30.9341   247
30.9441   206
30.9541   218
30.9641   212
30.9741   218
30.9841   245
30.9941   221
31.0041   231
31.0141   211
31.0241   186
31.0341   219
31.0441   241
31.0541   207
31.0641   201
31.0741   216
31.0841   216
31.0941   229
31.1041   223
31.1141   224
31.1241   235
31.1341   218
31.1441   234
31.1541   213
31.1641   241
31.1741   214
31.1841   202
31.1941   228
31.2041   222
31.2141   231
31.2241   226
31.2341   217
31.2441   207
31.2541   239
31.2641   192
31.2741   230
31.2841   215
31.2941   216
31.3041   206
31.3141   208
31.3241   214
31.3341   184
31.3441   197
31.3541   194
31.3641   201
31.3741   181
31.3841   207
31.3941   203
31.4041   213
31.4141   203
31.4241   213
31.4341   214
31.4441   215
31.4541   225
31.4641   212
31.4741   223
31.4841   191
31.4941   199
31.5041   223
31.5141   218
31.5241   209
31.5341   221
31.5441   207
31.5541   217
31.5641   204
31.5741   222
31.5841   206
31.5941   195
31.6041   208
31.6141   233
31.6241   207
31.6341   194
31.6441   192
31.6541   221
31.6641   227
31.6741   221
31.6841   226
31.6941   221
31.7041   202
31.7141   213
31.7241   212
31.7341   201
31.7441   196
31.7541   219
31.7641   202
31.7741   204
31.7841   198
31.7941   200
31.8041   210
31.8141   203
31.8241   214
31.8341   227
31.8441   195
31.8541   165
31.8641   204
31.8741   199
31.8841   204
31.8941   210
31.9041   190
31.9141   210
31.9241   187
31.9341   201
31.9441   215
31.9541   209
31.9641   184
31.9741   200
31.9841   188
31.9941   206
32.0041   200
32.0141   221
32.0241   208
32.0341   205
32.0441   205
32.0541   202
32.0641   208
32.0741   192
32.0841   216
32.0941   196
32.1041   219
32.1141   206
32.1241   191
32.1341   205
32.1441   219
32.1541   192
32.1641   212
32.1741   219
32.1841   200
32.1941   198
32.2041   216
32.2141   232
32.2241   220
32.2341   206
32.2441   207
32.2541   213
32.2641   202
32.2741   203
32.2841   201
32.2941   213
32.3041   204
32.3141   225
32.3241   184
32.3341   188
32.3441   166
32.3541   215
32.3641   206
32.3741   206
32.3841   192
32.3941   215
32.4041   198
32.4141   188
32.4241   172
32.4341   166
32.4441   159
32.4541   191
32.4641   176
32.4741   188
32.4841   168
32.4941   174
32.5041   164
32.5141   163
32.5241   189
32.5341   163
32.5441   161
32.5541   177
32.5641   172
32.5741   179
32.5841   172
32.5941   153
32.6041   172
32.6141   167
32.6241   190
32.6341   178
32.6441   179
32.6541   187
32.6641   172
32.6741   179
32.6841   179
32.6941   166
32.7041   170
32.7141   171
32.7241   167
32.7341   161
32.7441   157
32.7541   177
32.7641   161
32.7741   151
32.7841   157
32.7941   168
32.8041   174
32.8141   178
32.8241   170
32.8341   178
32.8441   181
32.8541   175
32.8641   173
32.8741   164
32.8841   162
32.8941   195
32.9041   166
32.9141   173
32.9241   176
32.9341   167
32.9441   186
32.9541   173
32.9641   167
32.9741   173
32.9841   158
32.9941   160
33.0041   160
33.0141   157
33.0241   175
33.0341   140
33.0441   152
33.0541   164
33.0641   146
33.0741   141
33.0841   141
33.0941   159
33.1041   149
33.1141   162
33.1241   182
33.1341   177
33.1441   172
33.1541   156
33.1641   134
33.1741   135
33.1841   142
33.1941   162
33.2041   144
33.2141   152
33.2241   159
33.2341   166
33.2441   163
33.2541   166
33.2641   163
33.2741   135
33.2841   137
33.2941   145
33.3041   154
33.3141   136
33.3241   123
33.3341   167
33.3441   167
33.3541   161
33.3641   168
33.3741   164
33.3841   165
33.3941   150
33.4041   182
33.4141   158
33.4241   152
33.4341   140
33.4441   159
33.4541   157
33.4641   164
33.4741   144
33.4841   153
33.4941   171
33.5041   154
33.5141   157
33.5241   145
33.5341   146
33.5441   123
33.5541   159
33.5641   153
33.5741   144
33.5841   143
33.5941   146
33.6041   153
33.6141   139
33.6241   154
33.6341   136
33.6441   152
33.6541   142
33.6641   115
33.6741   136
33.6841   137
33.6941   141
33.7041   140
33.7141   126
33.7241   132
33.7341   145
33.7441   130
33.7541   130
33.7641   140
33.7741   134
33.7841   146
33.7941   149
33.8041   129
33.8141   139
33.8241   144
33.8341   158
33.8441   143
33.8541   143
33.8641   147
33.8741   146
33.8841   141
33.8941   136
33.9041   144
33.9141   145
33.9241   141
33.9341   140
33.9441   130
33.9541   121
33.9641   143
33.9741   146
33.9841   140
33.9941   133
34.0041   141
34.0141   151
34.0241   139
34.0341   112
34.0441   143
34.0541   123
34.0641   132
34.0741   120
34.0841   124
34.0941   143
34.1041   127
34.1141   140
34.1241   136
34.1341   123
34.1441   123
34.1541   104
34.1641   137
34.1741   123
34.1841   139
34.1941   134
34.2041   144
34.2141   127
34.2241   132
34.2341   128
34.2441   136
34.2541   110
34.2641   107
34.2741   156
34.2841   124
34.2941   122
34.3041   133
34.3141   118
34.3241   119
34.3341   139
34.3441   148
34.3541   134
34.3641   144
34.3741   110
34.3841   128
34.3941   137
34.4041   114
34.4141   129
34.4241   126
34.4341   118
34.4441   130
34.4541   134
34.4641   118
34.4741   140
34.4841   124
34.4941   116
34.5041   128
34.5141   123
34.5241   119
34.5341   114
34.5441   116
34.5541   120
34.5641   105
34.5741   116
34.5841   109
34.5941   113
34.6041   136
34.6141   113
34.6241   138
34.6341   128
34.6441   143
34.6541   114
34.6641   139
34.6741   119
34.6841   124
34.6941   114
34.7041   120
34.7141   121
34.7241   123
34.7341   118
34.7441   120
34.7541   114
34.7641   123
34.7741   122
34.7841   125
34.7941   109
34.8041   112
34.8141   129
34.8241   109
34.8341   129
34.8441   116
34.8541   112
34.8641   114
34.8741   117
34.8841   120
34.8941   106
34.9041   139
34.9141   118
34.9241   101
34.9341    97
34.9441   110
34.9541   111
34.9641   104
34.9741   105
34.9841   117
34.9941   104
35.0041    99
35.0141   129
35.0241    89
35.0341   114
35.0441   125
35.0541   104
35.0641   113
35.0741    99
35.0841    96
35.0941    99
35.1041   128
35.1141   107
35.1241   114
35.1341   114
35.1441   112
35.1541   106
35.1641   113
35.1741   127
35.1841    98
35.1941   109
35.2041   107
35.2141   121
35.2241   107
35.2341   105
35.2441   113
35.2541    96
35.2641   104
35.2741   127
35.2841   107
35.2941   111
35.3041    84
35.3141    99
35.3241   104
35.3341   104
35.3441   118
35.3541    99
35.3641   118
35.3741   107
35.3841    86
35.3941    89
35.4041    89
35.4141    80
35.4241    89
35.4341   121
35.4441    98
35.4541    99
35.4641   115
35.4741    92
35.4841   109
35.4941    89
35.5041    94
35.5141    88
35.5241   105
35.5341   101
35.5441    85
35.5541   109
35.5641   130
35.5741    96
35.5841   101
35.5941    87
35.6041    88
35.6141    96
35.6241   114
35.6341   106
35.6441   109
35.6541    92
35.6641    92
35.6741    88
35.6841    96
35.6941    88
35.7041    85
35.7141   100
35.7241   105
35.7341    86
35.7441    90
35.7541    91
35.7641    90
35.7741    95
35.7841    94
35.7941   100
35.8041    87
35.8141   101
35.8241    86
35.8341    85
35.8441    93
35.8541    96
35.8641   111
35.8741   104
35.8841    87
35.8941   107
35.9041    86
35.9141    92
35.9241   102
35.9341    94
35.9441    79
35.9541    93
35.9641    81
35.9741    85
35.9841    75
35.9941    91
36.0041    84
36.0141    94
36.0241    76
36.0341    90
36.0441    80
36.0541    84
36.0641    88
36.0741    98
36.0841    95
36.0941    84
36.1041    98
36.1141    91
36.1241    89
36.1341   101
36.1441    99
36.1541    93
36.1641    74
36.1741    92
36.1841    81
36.1941    88
36.2041    74
36.2141    97
36.2241    97
36.2341    96
36.2441    82
36.2541    95
36.2641    96
36.2741    77
36.2841    96
36.2941    73
36.3041    90
36.3141   108
36.3241    85
36.3341    84
36.3441    90
36.3541    86
36.3641    85
36.3741    88
36.3841    75
36.3941   105
36.4041    72
36.4141    70
36.4241    82
36.4341    80
36.4441    72
36.4541    97
36.4641    88
36.4741    72
36.4841    70
36.4941    81
36.5041    85
36.5141   100
36.5241    82
36.5341    68
36.5441    76
36.5541    92
36.5641   101
36.5741    68
36.5841    84
36.5941    80
36.6041    93
36.6141    92
36.6241    90
36.6341    89
36.6441    81
36.6541    73
36.6641    62
36.6741    61
36.6841    83
36.6941    88
36.7041    79
36.7141    91
36.7241    84
36.7341    88
36.7441    81
36.7541    82
36.7641    80
36.7741    68
36.7841    84
36.7941    67
36.8041    79
36.8141    61
36.8241    80
36.8341    69
36.8441    93
36.8541    75
36.8641    86
36.8741    73
36.8841    75
36.8941    88
36.9041    62
36.9141    70
36.9241    70
36.9341    78
36.9441    70
36.9541    83
36.9641    63
36.9741    87
36.9841    64
36.9941    68
37.0041    73
37.0141    62
37.0241    79
37.0341    53
37.0441    69
37.0541    75
37.0641    65
37.0741    64
37.0841    75
37.0941    64
37.1041    64
37.1141    72
37.1241    59
37.1341    73
37.1441    63
37.1541    54
37.1641    74
37.1741    73
37.1841    56
37.1941    82
37.2041    61
37.2141    80
37.2241    68
37.2341    81
37.2441    69
37.2541    75
37.2641    71
37.2741    73
37.2841    85
37.2941    73
37.3041    82
37.3141    89
37.3241    63
37.3341    70
37.3441    64
37.3541    84
37.3641    60
37.3741    75
37.3841    76
37.3941    67
37.4041    60
37.4141    62
37.4241    72
37.4341    69
37.4441    68
37.4541    64
37.4641    66
37.4741    56
37.4841    78
37.4941    63
37.5041    64
37.5141    56
37.5241    62
37.5341    66
37.5441    66
37.5541    52
37.5641    64
37.5741    70
37.5841    73
37.5941    68
37.6041    66
37.6141    56
37.6241    64
37.6341    63
37.6441    64
37.6541    56
37.6641    54
37.6741    81
37.6841    52
37.6941    73
37.7041    61
37.7141    60
37.7241    56
37.7341    60
37.7441    61
37.7541    59
37.7641    50
37.7741    51
37.7841    57
37.7941    75
37.8041    77
37.8141    59
37.8241    77
37.8341    74
37.8441    54
37.8541    62
37.8641    55
37.8741    67
37.8841    47
37.8941    72
37.9041    66
37.9141    62
37.9241    65
37.9341    61
37.9441    70
37.9541    43
37.9641    64
37.9741    64
37.9841    50
37.9941    52
38.0041    57
38.0141    59
38.0241    62
38.0341    57
38.0441    69
38.0541    59
38.0641    53
38.0741    50
38.0841    39
38.0941    54
38.1041    62
38.1141    52
38.1241    44
38.1341    62
38.1441    52
38.1541    60
38.1641    48
38.1741    65
38.1841    68
38.1941    64
38.2041    50
38.2141    52
38.2241    50
38.2341    54
38.2441    48
38.2541    47
38.2641    53
38.2741    61
38.2841    53
38.2941    44
38.3041    46
38.3141    63
38.3241    53
38.3341    62
38.3441    58
38.3541    56
38.3641    41
38.3741    60
38.3841    53
38.3941    63
38.4041    53
38.4141    52
38.4241    42
38.4341    45
38.4441    59
38.4541    58
38.4641    49
38.4741    61
38.4841    45
38.4941    43
38.5041    44
38.5141    47
38.5241    52
38.5341    53
38.5441    33
38.5541    49
38.5641    49
38.5741    44
38.5841    42
38.5941    52
38.6041    48
38.6141    41
38.6241    41
38.6341    38
38.6441    47
38.6541    41
38.6641    53
38.6741    42
38.6841    43
38.6941    41
38.7041    50
38.7141    48
38.7241    44
38.7341    42
38.7441    50
38.7541    46
38.7641    53
38.7741    53
38.7841    48
38.7941    53
38.8041    36
38.8141    43
38.8241    35
38.8341    55
38.8441    39
38.8541    41
38.8641    49
38.8741    43
38.8841    44
38.8941    40
38.9041    39
38.9141    56
38.9241    48
38.9341    44
38.9441    38
38.9541    42
38.9641    36
38.9741    41
38.9841    34
38.9941    34
39.0041    42
39.0141    40
39.0241    53
39.0341    46
39.0441    37
39.0541    35
39.0641    48
39.0741    42
39.0841    49
39.0941    34
39.1041    39
39.1141    35
39.1241    35
39.1341    46
39.1441    49
39.1541    37
39.1641    45
39.1741    36
39.1841    38
39.1941    27
39.2041    45
39.2141    42
39.2241    31
39.2341    36
39.2441    38
39.2541    32
39.2641    29
39.2741    39
39.2841    36
39.2941    40
39.3041    38
39.3141    37
39.3241    38
39.3341    31
39.3441    37
39.3541    47
39.3641    41
39.3741    40
39.3841    38
39.3941    44
39.4041    60
39.4141    57
39.4241    36
39.4341    36
39.4441    46
39.4541    42
39.4641    38
39.4741    28
39.4841    33
39.4941    29
39.5041    35
39.5141    33
39.5241    38
39.5341    43
39.5441    29
39.5541    43
39.5641    29
39.5741    43
39.5841    31
39.5941    48
39.6041    30
39.6141    38
39.6241    32
39.6341    33
39.6441    33
39.6541    39
39.6641    31
39.6741    35
39.6841    31
39.6941    24
39.7041    30
39.7141    33
39.7241    28
39.7341    36
39.7441    31
39.7541    35
39.7641    32
39.7741    34
39.7841    35
39.7941    28
39.8041    34
39.8141    35
39.8241    38
39.8341    33
39.8441    38
39.8541    26
39.8641    37
39.8741    21
39.8841    27
39.8941    29
39.9041    30
39.9141    24
39.9241    31
39.9341    27
39.9441    24
39.9541    29
39.9641    22
39.9741    29
39.9841    20
