Bruker Nano GmbH Berlin, Germany
Esprit 1.9

Date: 5/14/2021 1:32:41 PM
Real time: 15113
Life time: 14124
Pulse density: 98890


Detector type: XFlash 430
Window type: Custom type
Detector thickness: 0.45
Si dead layer:0.029

Calibration, lin.: 10
Calibration, abs.: -955.9
Mn FWHM: 137.05
Fano factor: 0.121
Channels: 4095

Energy Counts
-0.9559     0
-0.9459     0
-0.9359     0
-0.9259     0
-0.9159     0
-0.9059     0
-0.8959     0
-0.8859     0
-0.8759     0
-0.8659     0
-0.8559     0
-0.8459     0
-0.8359     0
-0.8259     0
-0.8159     0
-0.8059     0
-0.7959     0
-0.7859     0
-0.7759     0
-0.7659     0
-0.7559     0
-0.7459     0
-0.7359     0
-0.7259     0
-0.7159     0
-0.7059     0
-0.6959     0
-0.6859     0
-0.6759     0
-0.6659     0
-0.6559     0
-0.6459     0
-0.6359     0
-0.6259     0
-0.6159     0
-0.6059     0
-0.5959     0
-0.5859     0
-0.5759     0
-0.5659     0
-0.5559     0
-0.5459     0
-0.5359     0
-0.5259     0
-0.5159     0
-0.5059     0
-0.4959     0
-0.4859     0
-0.4759     0
-0.4659     0
-0.4559     0
-0.4459     0
-0.4359     0
-0.4259     0
-0.4159     0
-0.4059     0
-0.3959     0
-0.3859     0
-0.3759     0
-0.3659     0
-0.3559     0
-0.3459     0
-0.3359     0
-0.3259     0
-0.3159     0
-0.3059     0
-0.2959     0
-0.2859     0
-0.2759     0
-0.2659     0
-0.2559     0
-0.2459     0
-0.2359     0
-0.2259     0
-0.2159     0
-0.2059     0
-0.1959     0
-0.1859     0
-0.1759     0
-0.1659     0
-0.1559     0
-0.1459     0
-0.1359     0
-0.1259     0
-0.1159     2
-0.1059    13
-0.0959    49
-0.0859   148
-0.0759   539
-0.0659  1602
-0.0559  4114
-0.0459  8957
-0.0359 16920
-0.0259 26759
-0.0159 36715
-0.0059 43136
 0.0041 43436
 0.0141 37612
 0.0241 27733
 0.0341 17746
 0.0441  9536
 0.0541  4426
 0.0641  1711
 0.0741   553
 0.0841   175
 0.0941    42
 0.1041    15
 0.1141     8
 0.1241     4
 0.1341     1
 0.1441     2
 0.1541     0
 0.1641     4
 0.1741    12
 0.1841    93
 0.1941   230
 0.2041   191
 0.2141   174
 0.2241   204
 0.2341   186
 0.2441   198
 0.2541   205
 0.2641   211
 0.2741   184
 0.2841   189
 0.2941   193
 0.3041   180
 0.3141   193
 0.3241   200
 0.3341   182
 0.3441   182
 0.3541   204
 0.3641   181
 0.3741   185
 0.3841   178
 0.3941   180
 0.4041   187
 0.4141   160
 0.4241   168
 0.4341   173
 0.4441   175
 0.4541   189
 0.4641   181
 0.4741   162
 0.4841   162
 0.4941   166
 0.5041   176
 0.5141   174
 0.5241   167
 0.5341   169
 0.5441   192
 0.5541   173
 0.5641   158
 0.5741   147
 0.5841   145
 0.5941   160
 0.6041   163
 0.6141   159
 0.6241   164
 0.6341   149
 0.6441   153
 0.6541   167
 0.6641   170
 0.6741   151
 0.6841   144
 0.6941   160
 0.7041   156
 0.7141   147
 0.7241   153
 0.7341   150
 0.7441   144
 0.7541   142
 0.7641   148
 0.7741   144
 0.7841   140
 0.7941   145
 0.8041   145
 0.8141   146
 0.8241   150
 0.8341   154
 0.8441   137
 0.8541   134
 0.8641   153
 0.8741   135
 0.8841   133
 0.8941   145
 0.9041   142
 0.9141   129
 0.9241   131
 0.9341   149
 0.9441   142
 0.9541   124
 0.9641   124
 0.9741   139
 0.9841   124
 0.9941   135
 1.0041   139
 1.0141   134
 1.0241   132
 1.0341   119
 1.0441   113
 1.0541   140
 1.0641   146
 1.0741   112
 1.0841   135
 1.0941   127
 1.1041   112
 1.1141   132
 1.1241   129
 1.1341   122
 1.1441   112
 1.1541   126
 1.1641   129
 1.1741   105
 1.1841   124
 1.1941   130
 1.2041   112
 1.2141   118
 1.2241   117
 1.2341   126
 1.2441   126
 1.2541   118
 1.2641   117
 1.2741   130
 1.2841   128
 1.2941   105
 1.3041   112
 1.3141   126
 1.3241   119
 1.3341   131
 1.3441   116
 1.3541   109
 1.3641   122
 1.3741   124
 1.3841   109
 1.3941   108
 1.4041   117
 1.4141   121
 1.4241   114
 1.4341    96
 1.4441   129
 1.4541   125
 1.4641   121
 1.4741   111
 1.4841   122
 1.4941   105
 1.5041   108
 1.5141   106
 1.5241   113
 1.5341   106
 1.5441   117
 1.5541   105
 1.5641   109
 1.5741   121
 1.5841   104
 1.5941   103
 1.6041   104
 1.6141    91
 1.6241   107
 1.6341   116
 1.6441   121
 1.6541   164
 1.6641   174
 1.6741   225
 1.6841   263
 1.6941   325
 1.7041   386
 1.7141   459
 1.7241   528
 1.7341   553
 1.7441   561
 1.7541   546
 1.7641   478
 1.7741   433
 1.7841   360
 1.7941   281
 1.8041   221
 1.8141   193
 1.8241   168
 1.8341   161
 1.8441   145
 1.8541   143
 1.8641   142
 1.8741   143
 1.8841   149
 1.8941   129
 1.9041   116
 1.9141   122
 1.9241   112
 1.9341   110
 1.9441   128
 1.9541   126
 1.9641   152
 1.9741   131
 1.9841   146
 1.9941   131
 2.0041   138
 2.0141   143
 2.0241   149
 2.0341   140
 2.0441   135
 2.0541   125
 2.0641   122
 2.0741   128
 2.0841   104
 2.0941   117
 2.1041   123
 2.1141   108
 2.1241   125
 2.1341   102
 2.1441   110
 2.1541   123
 2.1641    92
 2.1741   115
 2.1841   123
 2.1941   105
 2.2041    89
 2.2141    97
 2.2241   107
 2.2341   104
 2.2441   102
 2.2541    99
 2.2641    95
 2.2741   115
 2.2841    88
 2.2941   108
 2.3041    99
 2.3141   101
 2.3241   104
 2.3341    97
 2.3441    96
 2.3541    95
 2.3641    98
 2.3741   108
 2.3841    91
 2.3941    97
 2.4041    94
 2.4141    97
 2.4241    99
 2.4341   105
 2.4441    90
 2.4541    99
 2.4641    87
 2.4741    82
 2.4841    98
 2.4941    96
 2.5041    92
 2.5141    90
 2.5241   105
 2.5341    91
 2.5441    87
 2.5541    98
 2.5641   110
 2.5741    87
 2.5841    85
 2.5941    95
 2.6041    87
 2.6141   106
 2.6241    82
 2.6341    90
 2.6441    79
 2.6541    92
 2.6641    94
 2.6741    96
 2.6841    81
 2.6941    72
 2.7041    87
 2.7141    78
 2.7241    85
 2.7341    86
 2.7441    99
 2.7541    95
 2.7641   107
 2.7741   102
 2.7841    85
 2.7941   108
 2.8041   106
 2.8141   107
 2.8241    78
 2.8341    93
 2.8441    84
 2.8541   104
 2.8641    79
 2.8741    83
 2.8841    71
 2.8941    77
 2.9041    84
 2.9141   108
 2.9241    77
 2.9341    78
 2.9441    73
 2.9541   106
 2.9641    84
 2.9741    82
 2.9841    80
 2.9941    75
 3.0041    93
 3.0141    85
 3.0241    92
 3.0341    78
 3.0441    71
 3.0541    85
 3.0641    64
 3.0741    78
 3.0841    68
 3.0941    73
 3.1041    82
 3.1141    58
 3.1241    71
 3.1341    73
 3.1441    75
 3.1541    70
 3.1641    65
 3.1741    68
 3.1841    70
 3.1941    68
 3.2041    79
 3.2141    89
 3.2241    90
 3.2341    98
 3.2441   109
 3.2541   111
 3.2641   106
 3.2741   144
 3.2841   147
 3.2941   159
 3.3041   162
 3.3141   164
 3.3241   187
 3.3341   167
 3.3441   144
 3.3541   114
 3.3641   117
 3.3741   103
 3.3841    98
 3.3941    87
 3.4041    78
 3.4141    83
 3.4241    65
 3.4341    73
 3.4441    78
 3.4541    82
 3.4641    88
 3.4741    67
 3.4841    72
 3.4941    80
 3.5041    71
 3.5141    87
 3.5241    84
 3.5341    99
 3.5441   109
 3.5541   100
 3.5641   139
 3.5741   164
 3.5841   189
 3.5941   255
 3.6041   313
 3.6141   394
 3.6241   484
 3.6341   598
 3.6441   772
 3.6541   843
 3.6641  1024
 3.6741  1080
 3.6841  1194
 3.6941  1185
 3.7041  1088
 3.7141   988
 3.7241   876
 3.7341   756
 3.7441   596
 3.7541   515
 3.7641   372
 3.7741   278
 3.7841   208
 3.7941   157
 3.8041   115
 3.8141   119
 3.8241    75
 3.8341    96
 3.8441    80
 3.8541    75
 3.8641    69
 3.8741    64
 3.8841    68
 3.8941    68
 3.9041    68
 3.9141    74
 3.9241   108
 3.9341   108
 3.9441   116
 3.9541   141
 3.9641   170
 3.9741   206
 3.9841   217
 3.9941   215
 4.0041   210
 4.0141   243
 4.0241   244
 4.0341   191
 4.0441   211
 4.0541   178
 4.0641   167
 4.0741   144
 4.0841   136
 4.0941   122
 4.1041    91
 4.1141    88
 4.1241    70
 4.1341    61
 4.1441    59
 4.1541    48
 4.1641    68
 4.1741    61
 4.1841    43
 4.1941    44
 4.2041    49
 4.2141    56
 4.2241    58
 4.2341    50
 4.2441    51
 4.2541    56
 4.2641    51
 4.2741    57
 4.2841    61
 4.2941    60
 4.3041    60
 4.3141    56
 4.3241    53
 4.3341    66
 4.3441    60
 4.3541    59
 4.3641    72
 4.3741    97
 4.3841    95
 4.3941   107
 4.4041   128
 4.4141   171
 4.4241   216
 4.4341   243
 4.4441   284
 4.4541   355
 4.4641   421
 4.4741   473
 4.4841   525
 4.4941   541
 4.5041   592
 4.5141   530
 4.5241   522
 4.5341   482
 4.5441   420
 4.5541   392
 4.5641   340
 4.5741   317
 4.5841   233
 4.5941   172
 4.6041   136
 4.6141   108
 4.6241   128
 4.6341    83
 4.6441    98
 4.6541    69
 4.6641    72
 4.6741    72
 4.6841    73
 4.6941    71
 4.7041    59
 4.7141    71
 4.7241    91
 4.7341    75
 4.7441    52
 4.7541    71
 4.7641    76
 4.7741    70
 4.7841    81
 4.7941    72
 4.8041   101
 4.8141    81
 4.8241   107
 4.8341   106
 4.8441   100
 4.8541   131
 4.8641   118
 4.8741   124
 4.8841   142
 4.8941   162
 4.9041   146
 4.9141   167
 4.9241   192
 4.9341   182
 4.9441   157
 4.9541   152
 4.9641   160
 4.9741   151
 4.9841   152
 4.9941   139
 5.0041   137
 5.0141   106
 5.0241    91
 5.0341    85
 5.0441    82
 5.0541    63
 5.0641    75
 5.0741    79
 5.0841    73
 5.0941    69
 5.1041    61
 5.1141    61
 5.1241    63
 5.1341    71
 5.1441    66
 5.1541    81
 5.1641    79
 5.1741    78
 5.1841    74
 5.1941    84
 5.2041    64
 5.2141    64
 5.2241    82
 5.2341    73
 5.2441    72
 5.2541    74
 5.2641    74
 5.2741    70
 5.2841    68
 5.2941    90
 5.3041    70
 5.3141    73
 5.3241    73
 5.3341    77
 5.3441   113
 5.3541   105
 5.3641    93
 5.3741   104
 5.3841   131
 5.3941   123
 5.4041   111
 5.4141   121
 5.4241   121
 5.4341   127
 5.4441   109
 5.4541    97
 5.4641    96
 5.4741   112
 5.4841   101
 5.4941   117
 5.5041    82
 5.5141    88
 5.5241    92
 5.5341    94
 5.5441    72
 5.5541    73
 5.5641    72
 5.5741    65
 5.5841    77
 5.5941    68
 5.6041    75
 5.6141    75
 5.6241    76
 5.6341    71
 5.6441    77
 5.6541    66
 5.6641    82
 5.6741    92
 5.6841    77
 5.6941    94
 5.7041    79
 5.7141    72
 5.7241    82
 5.7341    80
 5.7441   102
 5.7541    84
 5.7641   107
 5.7741    97
 5.7841   144
 5.7941   145
 5.8041   177
 5.8141   206
 5.8241   200
 5.8341   262
 5.8441   281
 5.8541   306
 5.8641   314
 5.8741   420
 5.8841   419
 5.8941   380
 5.9041   379
 5.9141   364
 5.9241   347
 5.9341   330
 5.9441   307
 5.9541   260
 5.9641   211
 5.9741   214
 5.9841   175
 5.9941   152
 6.0041   178
 6.0141   145
 6.0241   112
 6.0341    96
 6.0441   110
 6.0541   101
 6.0641   130
 6.0741   102
 6.0841   119
 6.0941   114
 6.1041   123
 6.1141   114
 6.1241   116
 6.1341   142
 6.1441   149
 6.1541   165
 6.1641   194
 6.1741   193
 6.1841   261
 6.1941   288
 6.2041   401
 6.2141   508
 6.2241   643
 6.2341   904
 6.2441  1325
 6.2541  1820
 6.2641  2584
 6.2741  3509
 6.2841  4832
 6.2941  6185
 6.3041  8138
 6.3141 10456
 6.3241 12710
 6.3341 15333
 6.3441 18120
 6.3541 20557
 6.3641 22893
 6.3741 24611
 6.3841 26170
 6.3941 26711
 6.4041 26533
 6.4141 25858
 6.4241 24535
 6.4341 22457
 6.4441 20217
 6.4541 17232
 6.4641 14674
 6.4741 11973
 6.4841  9777
 6.4941  7444
 6.5041  5798
 6.5141  4326
 6.5241  3143
 6.5341  2237
 6.5441  1468
 6.5541  1042
 6.5641   741
 6.5741   502
 6.5841   381
 6.5941   309
 6.6041   222
 6.6141   192
 6.6241   152
 6.6341   154
 6.6441   160
 6.6541   129
 6.6641   143
 6.6741   128
 6.6841   118
 6.6941   156
 6.7041   142
 6.7141   119
 6.7241   131
 6.7341   121
 6.7441   156
 6.7541   157
 6.7641   164
 6.7741   177
 6.7841   152
 6.7941   181
 6.8041   188
 6.8141   203
 6.8241   215
 6.8341   203
 6.8441   274
 6.8541   249
 6.8641   269
 6.8741   322
 6.8841   357
 6.8941   447
 6.9041   542
 6.9141   602
 6.9241   856
 6.9341   965
 6.9441  1253
 6.9541  1513
 6.9641  1876
 6.9741  2200
 6.9841  2611
 6.9941  3024
 7.0041  3325
 7.0141  3720
 7.0241  4075
 7.0341  4198
 7.0441  4455
 7.0541  4534
 7.0641  4565
 7.0741  4303
 7.0841  4068
 7.0941  3629
 7.1041  3263
 7.1141  2854
 7.1241  2453
 7.1341  2093
 7.1441  1707
 7.1541  1370
 7.1641  1047
 7.1741   829
 7.1841   622
 7.1941   519
 7.2041   440
 7.2141   287
 7.2241   266
 7.2341   234
 7.2441   210
 7.2541   209
 7.2641   167
 7.2741   148
 7.2841   145
 7.2941   148
 7.3041   147
 7.3141   178
 7.3241   169
 7.3341   157
 7.3441   166
 7.3541   179
 7.3641   213
 7.3741   221
 7.3841   202
 7.3941   212
 7.4041   223
 7.4141   257
 7.4241   234
 7.4341   212
 7.4441   243
 7.4541   226
 7.4641   244
 7.4741   261
 7.4841   199
 7.4941   210
 7.5041   200
 7.5141   228
 7.5241   164
 7.5341   168
 7.5441   178
 7.5541   169
 7.5641   143
 7.5741   155
 7.5841   151
 7.5941   166
 7.6041   147
 7.6141   153
 7.6241   124
 7.6341   165
 7.6441   147
 7.6541   172
 7.6641   158
 7.6741   168
 7.6841   152
 7.6941   126
 7.7041   176
 7.7141   163
 7.7241   176
 7.7341   169
 7.7441   163
 7.7541   155
 7.7641   166
 7.7741   160
 7.7841   184
 7.7941   195
 7.8041   175
 7.8141   188
 7.8241   183
 7.8341   203
 7.8441   221
 7.8541   216
 7.8641   209
 7.8741   219
 7.8841   214
 7.8941   238
 7.9041   246
 7.9141   235
 7.9241   286
 7.9341   293
 7.9441   328
 7.9541   334
 7.9641   330
 7.9741   393
 7.9841   353
 7.9941   439
 8.0041   431
 8.0141   516
 8.0241   499
 8.0341   559
 8.0441   608
 8.0541   657
 8.0641   663
 8.0741   708
 8.0841   729
 8.0941   786
 8.1041   816
 8.1141   810
 8.1241   868
 8.1341   896
 8.1441   928
 8.1541   965
 8.1641   963
 8.1741   969
 8.1841   985
 8.1941  1000
 8.2041   971
 8.2141   990
 8.2241   984
 8.2341  1008
 8.2441  1028
 8.2541  1081
 8.2641  1130
 8.2741  1250
 8.2841  1284
 8.2941  1388
 8.3041  1495
 8.3141  1657
 8.3241  1764
 8.3341  1940
 8.3441  2062
 8.3541  2115
 8.3641  2296
 8.3741  2229
 8.3841  2300
 8.3941  2340
 8.4041  2256
 8.4141  2245
 8.4241  2101
 8.4341  1920
 8.4441  1702
 8.4541  1573
 8.4641  1388
 8.4741  1228
 8.4841  1045
 8.4941   884
 8.5041   771
 8.5141   659
 8.5241   556
 8.5341   499
 8.5441   416
 8.5541   351
 8.5641   337
 8.5741   308
 8.5841   294
 8.5941   314
 8.6041   309
 8.6141   313
 8.6241   313
 8.6341   279
 8.6441   292
 8.6541   288
 8.6641   285
 8.6741   298
 8.6841   298
 8.6941   280
 8.7041   258
 8.7141   277
 8.7241   254
 8.7341   247
 8.7441   255
 8.7541   248
 8.7641   265
 8.7741   238
 8.7841   239
 8.7941   226
 8.8041   237
 8.8141   206
 8.8241   216
 8.8341   234
 8.8441   223
 8.8541   219
 8.8641   204
 8.8741   250
 8.8841   244
 8.8941   232
 8.9041   258
 8.9141   264
 8.9241   263
 8.9341   257
 8.9441   242
 8.9541   243
 8.9641   241
 8.9741   255
 8.9841   272
 8.9941   230
 9.0041   274
 9.0141   289
 9.0241   290
 9.0341   312
 9.0441   330
 9.0541   313
 9.0641   312
 9.0741   337
 9.0841   336
 9.0941   334
 9.1041   360
 9.1141   368
 9.1241   377
 9.1341   425
 9.1441   429
 9.1541   433
 9.1641   444
 9.1741   445
 9.1841   440
 9.1941   512
 9.2041   546
 9.2141   556
 9.2241   545
 9.2341   601
 9.2441   591
 9.2541   701
 9.2641   717
 9.2741   732
 9.2841   773
 9.2941   765
 9.3041   826
 9.3141   858
 9.3241   827
 9.3341   883
 9.3441   901
 9.3541   927
 9.3641   927
 9.3741   990
 9.3841   961
 9.3941   959
 9.4041   948
 9.4141   992
 9.4241   948
 9.4341   978
 9.4441  1022
 9.4541  1050
 9.4641  1051
 9.4741  1042
 9.4841  1053
 9.4941  1082
 9.5041  1101
 9.5141  1154
 9.5241  1224
 9.5341  1250
 9.5441  1255
 9.5541  1337
 9.5641  1415
 9.5741  1517
 9.5841  1576
 9.5941  1700
 9.6041  1833
 9.6141  1875
 9.6241  1999
 9.6341  2031
 9.6441  2054
 9.6541  2130
 9.6641  2118
 9.6741  2174
 9.6841  2184
 9.6941  2087
 9.7041  2040
 9.7141  1876
 9.7241  1778
 9.7341  1715
 9.7441  1620
 9.7541  1421
 9.7641  1382
 9.7741  1278
 9.7841  1133
 9.7941  1066
 9.8041   990
 9.8141   894
 9.8241   874
 9.8341   850
 9.8441   781
 9.8541   804
 9.8641   828
 9.8741   854
 9.8841   847
 9.8941   847
 9.9041   869
 9.9141   874
 9.9241   889
 9.9341   885
 9.9441   905
 9.9541   880
 9.9641   878
 9.9741   851
 9.9841   804
 9.9941   798
10.0041   780
10.0141   694
10.0241   671
10.0341   577
10.0441   515
10.0541   457
10.0641   405
10.0741   349
10.0841   338
10.0941   302
10.1041   262
10.1141   233
10.1241   236
10.1341   231
10.1441   208
10.1541   191
10.1641   187
10.1741   177
10.1841   180
10.1941   162
10.2041   166
10.2141   182
10.2241   135
10.2341   152
10.2441   139
10.2541   128
10.2641   134
10.2741   134
10.2841   132
10.2941   137
10.3041   131
10.3141   112
10.3241   122
10.3341   121
10.3441   128
10.3541   116
10.3641   116
10.3741   115
10.3841   117
10.3941   119
10.4041   117
10.4141   109
10.4241   115
10.4341   125
10.4441   131
10.4541   124
10.4641   129
10.4741   136
10.4841   133
10.4941   122
10.5041   109
10.5141   121
10.5241   124
10.5341   140
10.5441   129
10.5541   143
10.5641   140
10.5741   137
10.5841   132
10.5941   128
10.6041   129
10.6141   131
10.6241   126
10.6341   146
10.6441   151
10.6541   163
10.6641   166
10.6741   163
10.6841   163
10.6941   161
10.7041   160
10.7141   153
10.7241   177
10.7341   176
10.7441   172
10.7541   166
10.7641   179
10.7741   193
10.7841   163
10.7941   182
10.8041   209
10.8141   188
10.8241   188
10.8341   200
10.8441   190
10.8541   207
10.8641   198
10.8741   205
10.8841   223
10.8941   215
10.9041   211
10.9141   211
10.9241   208
10.9341   229
10.9441   212
10.9541   201
10.9641   211
10.9741   207
10.9841   213
10.9941   227
11.0041   194
11.0141   182
11.0241   180
11.0341   186
11.0441   205
11.0541   198
11.0641   173
11.0741   181
11.0841   182
11.0941   159
11.1041   178
11.1141   196
11.1241   195
11.1341   195
11.1441   196
11.1541   197
11.1641   214
11.1741   199
11.1841   220
11.1941   233
11.2041   230
11.2141   243
11.2241   283
11.2341   299
11.2441   293
11.2541   310
11.2641   316
11.2741   305
11.2841   310
11.2941   297
11.3041   292
11.3141   277
11.3241   302
11.3341   297
11.3441   269
11.3541   274
11.3641   261
11.3741   223
11.3841   209
11.3941   202
11.4041   191
11.4141   177
11.4241   172
11.4341   178
11.4441   160
11.4541   157
11.4641   155
11.4741   154
11.4841   167
11.4941   158
11.5041   146
11.5141   144
11.5241   152
11.5341   148
11.5441   147
11.5541   140
11.5641   150
11.5741   165
11.5841   170
11.5941   161
11.6041   159
11.6141   158
11.6241   158
11.6341   163
11.6441   156
11.6541   164
11.6641   161
11.6741   168
11.6841   165
11.6941   164
11.7041   160
11.7141   142
11.7241   144
11.7341   137
11.7441   131
11.7541   122
11.7641   121
11.7741   122
11.7841   121
11.7941   118
11.8041   116
11.8141   117
11.8241   109
11.8341   108
11.8441   110
11.8541   109
11.8641    97
11.8741    94
11.8841    99
11.8941   108
11.9041    93
11.9141   109
11.9241   108
11.9341   110
11.9441   102
11.9541    93
11.9641    88
11.9741   108
11.9841   131
11.9941   134
12.0041   121
12.0141   121
12.0241   115
12.0341   120
12.0441   120
12.0541   109
12.0641   121
12.0741   111
12.0841   114
12.0941   120
12.1041   118
12.1141   118
12.1241   100
12.1341    99
12.1441   105
12.1541   105
12.1641   106
12.1741   102
12.1841   102
12.1941    96
12.2041    97
12.2141    98
12.2241    99
12.2341   112
12.2441   100
12.2541    91
12.2641   102
12.2741   114
12.2841   111
12.2941    94
12.3041    94
12.3141   109
12.3241   107
12.3341   109
12.3441   117
12.3541   113
12.3641   109
12.3741   108
12.3841   105
12.3941   112
12.4041   124
12.4141   117
12.4241   118
12.4341   115
12.4441   122
12.4541   113
12.4641   108
12.4741   118
12.4841   116
12.4941   110
12.5041   105
12.5141   104
12.5241   103
12.5341   109
12.5441   112
12.5541   114
12.5641   112
12.5741   109
12.5841   117
12.5941   123
12.6041   113
12.6141   117
12.6241   116
12.6341   119
12.6441   124
12.6541   117
12.6641   114
12.6741   114
12.6841   118
12.6941   129
12.7041   134
12.7141   125
12.7241   117
12.7341   113
12.7441   111
12.7541   112
12.7641   115
12.7741   117
12.7841   115
12.7941   108
12.8041   108
12.8141   116
12.8241   128
12.8341   133
12.8441   124
12.8541   116
12.8641   119
12.8741   113
12.8841   101
12.8941   103
12.9041   114
12.9141   119
12.9241   120
12.9341   122
12.9441   123
12.9541   123
12.9641   119
12.9741   111
12.9841   109
12.9941   121
13.0041   143
13.0141   154
13.0241   144
13.0341   135
13.0441   123
13.0541   119
13.0641   125
13.0741   124
13.0841   123
13.0941   122
13.1041   137
13.1141   139
13.1241   124
13.1341   119
13.1441   116
13.1541   119
13.1641   138
13.1741   137
13.1841   127
13.1941   131
13.2041   133
13.2141   147
13.2241   153
13.2341   147
13.2441   139
13.2541   138
13.2641   149
13.2741   160
13.2841   162
13.2941   171
13.3041   170
13.3141   178
13.3241   178
13.3341   172
13.3441   176
13.3541   171
13.3641   168
13.3741   176
13.3841   185
13.3941   188
13.4041   189
13.4141   186
13.4241   178
13.4341   177
13.4441   181
13.4541   179
13.4641   171
13.4741   162
13.4841   158
13.4941   159
13.5041   161
13.5141   162
13.5241   160
13.5341   154
13.5441   147
13.5541   140
13.5641   140
13.5741   145
13.5841   147
13.5941   147
13.6041   151
13.6141   153
13.6241   150
13.6341   142
13.6441   139
13.6541   149
13.6641   154
13.6741   154
13.6841   152
13.6941   155
13.7041   152
13.7141   143
13.7241   147
13.7341   152
13.7441   140
13.7541   132
13.7641   144
13.7741   158
13.7841   164
13.7941   156
13.8041   150
13.8141   143
13.8241   140
13.8341   152
13.8441   153
13.8541   150
13.8641   161
13.8741   160
13.8841   155
13.8941   160
13.9041   179
13.9141   181
13.9241   167
13.9341   173
13.9441   184
13.9541   197
13.9641   209
13.9741   221
13.9841   234
13.9941   246
14.0041   257
14.0141   274
14.0241   295
14.0341   309
14.0441   315
14.0541   327
14.0641   350
14.0741   376
14.0841   393
14.0941   408
14.1041   424
14.1141   433
14.1241   433
14.1341   437
14.1441   447
14.1541   452
14.1641   458
14.1741   460
14.1841   441
14.1941   422
14.2041   398
14.2141   375
14.2241   348
14.2341   329
14.2441   331
14.2541   290
14.2641   259
14.2741   254
14.2841   242
14.2941   233
14.3041   230
14.3141   213
14.3241   203
14.3341   198
14.3441   204
14.3541   213
14.3641   181
14.3741   157
14.3841   164
14.3941   172
14.4041   171
14.4141   173
14.4241   170
14.4341   171
14.4441   174
14.4541   170
14.4641   159
14.4741   155
14.4841   166
14.4941   170
14.5041   157
14.5141   157
14.5241   176
14.5341   180
14.5441   178
14.5541   157
14.5641   150
14.5741   170
14.5841   170
14.5941   175
14.6041   177
14.6141   164
14.6241   164
14.6341   159
14.6441   174
14.6541   183
14.6641   168
14.6741   166
14.6841   169
14.6941   161
14.7041   170
14.7141   177
14.7241   167
14.7341   155
14.7441   169
14.7541   165
14.7641   168
14.7741   188
14.7841   193
14.7941   192
14.8041   192
14.8141   192
14.8241   198
14.8341   194
14.8441   196
14.8541   195
14.8641   195
14.8741   201
14.8841   204
14.8941   207
14.9041   208
14.9141   201
14.9241   199
14.9341   199
14.9441   193
14.9541   198
14.9641   196
14.9741   198
14.9841   193
14.9941   197
15.0041   223
15.0141   223
15.0241   200
15.0341   195
15.0441   185
15.0541   177
15.0641   188
15.0741   181
15.0841   184
15.0941   195
15.1041   187
15.1141   193
15.1241   183
15.1341   173
15.1441   172
15.1541   181
15.1641   202
15.1741   191
15.1841   173
15.1941   183
15.2041   184
15.2141   184
15.2241   172
15.2341   163
15.2441   175
15.2541   201
15.2641   205
15.2741   186
15.2841   197
15.2941   184
15.3041   171
15.3141   169
15.3241   189
15.3341   190
15.3441   176
15.3541   182
15.3641   185
15.3741   187
15.3841   185
15.3941   180
15.4041   188
15.4141   186
15.4241   195
15.4341   193
15.4441   189
15.4541   197
15.4641   191
15.4741   184
15.4841   196
15.4941   191
15.5041   196
15.5141   194
15.5241   189
15.5341   193
15.5441   214
15.5541   218
15.5641   217
15.5741   230
15.5841   232
15.5941   236
15.6041   249
15.6141   259
15.6241   271
15.6341   282
15.6441   298
15.6541   290
15.6641   281
15.6741   296
15.6841   321
15.6941   344
15.7041   326
15.7141   336
15.7241   378
15.7341   398
15.7441   378
15.7541   355
15.7641   378
15.7741   404
15.7841   393
15.7941   379
15.8041   371
15.8141   347
15.8241   366
15.8341   342
15.8441   319
15.8541   319
15.8641   320
15.8741   328
15.8841   317
15.8941   275
15.9041   262
15.9141   295
15.9241   280
15.9341   263
15.9441   265
15.9541   239
15.9641   231
15.9741   236
15.9841   246
15.9941   236
16.0041   242
16.0141   230
16.0241   216
16.0341   210
16.0441   233
16.0541   216
16.0641   220
16.0741   209
16.0841   221
16.0941   211
16.1041   208
16.1141   210
16.1241   206
16.1341   227
16.1441   233
16.1541   220
16.1641   209
16.1741   213
16.1841   214
16.1941   197
16.2041   191
16.2141   188
16.2241   208
16.2341   237
16.2441   219
16.2541   200
16.2641   196
16.2741   213
16.2841   232
16.2941   226
16.3041   212
16.3141   218
16.3241   215
16.3341   217
16.3441   226
16.3541   220
16.3641   227
16.3741   233
16.3841   225
16.3941   228
16.4041   242
16.4141   244
16.4241   225
16.4341   227
16.4441   233
16.4541   239
16.4641   236
16.4741   213
16.4841   215
16.4941   234
16.5041   236
16.5141   224
16.5241   218
16.5341   217
16.5441   249
16.5541   258
16.5641   250
16.5741   232
16.5841   231
16.5941   224
16.6041   235
16.6141   226
16.6241   234
16.6341   250
16.6441   237
16.6541   226
16.6641   231
16.6741   228
16.6841   231
16.6941   249
16.7041   237
16.7141   240
16.7241   230
16.7341   226
16.7441   227
16.7541   255
16.7641   257
16.7741   239
16.7841   243
16.7941   238
16.8041   239
16.8141   223
16.8241   233
16.8341   231
16.8441   229
16.8541   228
16.8641   216
16.8741   248
16.8841   251
16.8941   243
16.9041   261
16.9141   255
16.9241   240
16.9341   250
16.9441   264
16.9541   257
16.9641   253
16.9741   223
16.9841   231
16.9941   239
17.0041   250
17.0141   259
17.0241   245
17.0341   255
17.0441   253
17.0541   238
17.0641   253
17.0741   247
17.0841   245
17.0941   245
17.1041   247
17.1141   243
17.1241   263
17.1341   251
17.1441   236
17.1541   246
17.1641   262
17.1741   270
17.1841   265
17.1941   258
17.2041   257
17.2141   245
17.2241   247
17.2341   243
17.2441   267
17.2541   276
17.2641   259
17.2741   259
17.2841   274
17.2941   268
17.3041   230
17.3141   257
17.3241   262
17.3341   246
17.3441   260
17.3541   252
17.3641   247
17.3741   252
17.3841   260
17.3941   263
17.4041   271
17.4141   262
17.4241   264
17.4341   248
17.4441   252
17.4541   251
17.4641   273
17.4741   295
17.4841   284
17.4941   269
17.5041   259
17.5141   280
17.5241   289
17.5341   279
17.5441   277
17.5541   270
17.5641   262
17.5741   271
17.5841   286
17.5941   287
17.6041   280
17.6141   261
17.6241   279
17.6341   317
17.6441   293
17.6541   281
17.6641   287
17.6741   302
17.6841   305
17.6941   304
17.7041   289
17.7141   283
17.7241   301
17.7341   288
17.7441   252
17.7541   281
17.7641   310
17.7741   320
17.7841   313
17.7941   303
17.8041   296
17.8141   273
17.8241   282
17.8341   284
17.8441   283
17.8541   273
17.8641   281
17.8741   280
17.8841   282
17.8941   282
17.9041   294
17.9141   287
17.9241   304
17.9341   298
17.9441   305
17.9541   295
17.9641   296
17.9741   277
17.9841   269
17.9941   281
18.0041   276
18.0141   287
18.0241   293
18.0341   298
18.0441   293
18.0541   296
18.0641   289
18.0741   306
18.0841   277
18.0941   253
18.1041   264
18.1141   281
18.1241   293
18.1341   302
18.1441   297
18.1541   284
18.1641   302
18.1741   301
18.1841   283
18.1941   261
18.2041   263
18.2141   273
18.2241   277
18.2341   290
18.2441   312
18.2541   311
18.2641   300
18.2741   288
18.2841   300
18.2941   303
18.3041   311
18.3141   283
18.3241   292
18.3341   317
18.3441   309
18.3541   294
18.3641   305
18.3741   299
18.3841   308
18.3941   313
18.4041   290
18.4141   293
18.4241   308
18.4341   299
18.4441   284
18.4541   293
18.4641   304
18.4741   316
18.4841   304
18.4941   296
18.5041   280
18.5141   286
18.5241   289
18.5341   291
18.5441   301
18.5541   302
18.5641   300
18.5741   302
18.5841   296
18.5941   300
18.6041   324
18.6141   282
18.6241   291
18.6341   300
18.6441   291
18.6541   294
18.6641   298
18.6741   310
18.6841   314
18.6941   288
18.7041   291
18.7141   305
18.7241   310
18.7341   301
18.7441   304
18.7541   322
18.7641   301
18.7741   305
18.7841   303
18.7941   328
18.8041   308
18.8141   294
18.8241   312
18.8341   324
18.8441   315
18.8541   297
18.8641   297
18.8741   308
18.8841   303
18.8941   306
18.9041   321
18.9141   277
18.9241   281
18.9341   313
18.9441   308
18.9541   316
18.9641   304
18.9741   325
18.9841   329
18.9941   310
19.0041   305
19.0141   295
19.0241   306
19.0341   307
19.0441   306
19.0541   330
19.0641   324
19.0741   324
19.0841   315
19.0941   308
19.1041   283
19.1141   344
19.1241   325
19.1341   319
19.1441   291
19.1541   311
19.1641   339
19.1741   302
19.1841   301
19.1941   319
19.2041   315
19.2141   313
19.2241   314
19.2341   286
19.2441   329
19.2541   321
19.2641   315
19.2741   316
19.2841   305
19.2941   307
19.3041   317
19.3141   326
19.3241   302
19.3341   312
19.3441   339
19.3541   331
19.3641   340
19.3741   335
19.3841   335
19.3941   343
19.4041   312
19.4141   326
19.4241   335
19.4341   319
19.4441   324
19.4541   317
19.4641   327
19.4741   315
19.4841   315
19.4941   313
19.5041   325
19.5141   324
19.5241   322
19.5341   327
19.5441   296
19.5541   314
19.5641   310
19.5741   329
19.5841   334
19.5941   307
19.6041   301
19.6141   315
19.6241   321
19.6341   330
19.6441   305
19.6541   340
19.6641   338
19.6741   289
19.6841   311
19.6941   338
19.7041   349
19.7141   304
19.7241   317
19.7341   303
19.7441   324
19.7541   360
19.7641   330
19.7741   350
19.7841   306
19.7941   322
19.8041   312
19.8141   326
19.8241   324
19.8341   325
19.8441   338
19.8541   308
19.8641   337
19.8741   328
19.8841   318
19.8941   291
19.9041   302
19.9141   340
19.9241   334
19.9341   326
19.9441   347
19.9541   339
19.9641   367
19.9741   339
19.9841   362
19.9941   351
20.0041   333
20.0141   340
20.0241   314
20.0341   302
20.0441   332
20.0541   356
20.0641   319
20.0741   357
20.0841   366
20.0941   341
20.1041   342
20.1141   362
20.1241   325
20.1341   313
20.1441   326
20.1541   371
20.1641   365
20.1741   331
20.1841   344
20.1941   341
20.2041   339
20.2141   340
20.2241   325
20.2341   351
20.2441   332
20.2541   334
20.2641   332
20.2741   327
20.2841   370
20.2941   348
20.3041   339
20.3141   329
20.3241   359
20.3341   329
20.3441   328
20.3541   357
20.3641   330
20.3741   345
20.3841   362
20.3941   354
20.4041   354
20.4141   338
20.4241   348
20.4341   363
20.4441   335
20.4541   338
20.4641   347
20.4741   343
20.4841   363
20.4941   323
20.5041   324
20.5141   359
20.5241   318
20.5341   356
20.5441   331
20.5541   348
20.5641   324
20.5741   320
20.5841   352
20.5941   356
20.6041   315
20.6141   339
20.6241   382
20.6341   362
20.6441   356
20.6541   374
20.6641   372
20.6741   380
20.6841   359
20.6941   348
20.7041   367
20.7141   354
20.7241   329
20.7341   345
20.7441   330
20.7541   343
20.7641   328
20.7741   337
20.7841   366
20.7941   344
20.8041   373
20.8141   337
20.8241   349
20.8341   370
20.8441   369
20.8541   377
20.8641   388
20.8741   386
20.8841   393
20.8941   368
20.9041   379
20.9141   413
20.9241   418
20.9341   404
20.9441   419
20.9541   415
20.9641   451
20.9741   473
20.9841   477
20.9941   458
21.0041   461
21.0141   440
21.0241   498
21.0341   509
21.0441   502
21.0541   479
21.0641   522
21.0741   535
21.0841   496
21.0941   514
21.1041   545
21.1141   519
21.1241   536
21.1341   532
21.1441   541
21.1541   498
21.1641   492
21.1741   519
21.1841   509
21.1941   520
21.2041   512
21.2141   531
21.2241   489
21.2341   472
21.2441   481
21.2541   487
21.2641   409
21.2741   398
21.2841   441
21.2941   375
21.3041   377
21.3141   433
21.3241   413
21.3341   421
21.3441   373
21.3541   398
21.3641   392
21.3741   404
21.3841   362
21.3941   351
21.4041   390
21.4141   351
21.4241   357
21.4341   333
21.4441   368
21.4541   354
21.4641   352
21.4741   330
21.4841   341
21.4941   342
21.5041   362
21.5141   327
21.5241   371
21.5341   342
21.5441   359
21.5541   383
21.5641   360
21.5741   353
21.5841   365
21.5941   343
21.6041   371
21.6141   354
21.6241   337
21.6341   369
21.6441   344
21.6541   338
21.6641   351
21.6741   332
21.6841   379
21.6941   342
21.7041   327
21.7141   344
21.7241   360
21.7341   364
21.7441   343
21.7541   335
21.7641   364
21.7741   335
21.7841   346
21.7941   378
21.8041   352
21.8141   326
21.8241   367
21.8341   377
21.8441   352
21.8541   318
21.8641   354
21.8741   322
21.8841   314
21.8941   342
21.9041   371
21.9141   347
21.9241   384
21.9341   358
21.9441   360
21.9541   357
21.9641   343
21.9741   351
21.9841   361
21.9941   367
22.0041   347
22.0141   331
22.0241   336
22.0341   329
22.0441   367
22.0541   358
22.0641   329
22.0741   331
22.0841   355
22.0941   335
22.1041   367
22.1141   333
22.1241   307
22.1341   339
22.1441   334
22.1541   344
22.1641   319
22.1741   364
22.1841   345
22.1941   365
22.2041   383
22.2141   347
22.2241   363
22.2341   358
22.2441   345
22.2541   355
22.2641   359
22.2741   324
22.2841   379
22.2941   331
22.3041   353
22.3141   346
22.3241   382
22.3341   323
22.3441   315
22.3541   322
22.3641   349
22.3741   392
22.3841   370
22.3941   346
22.4041   355
22.4141   312
22.4241   367
22.4341   338
22.4441   327
22.4541   383
22.4641   345
22.4741   346
22.4841   340
22.4941   362
22.5041   361
22.5141   354
22.5241   348
22.5341   352
22.5441   338
22.5541   331
22.5641   349
22.5741   346
22.5841   339
22.5941   332
22.6041   326
22.6141   338
22.6241   318
22.6341   339
22.6441   342
22.6541   357
22.6641   358
22.6741   344
22.6841   344
22.6941   397
22.7041   323
22.7141   374
22.7241   301
22.7341   372
22.7441   334
22.7541   346
22.7641   362
22.7741   348
22.7841   359
22.7941   367
22.8041   337
22.8141   371
22.8241   354
22.8341   336
22.8441   370
22.8541   315
22.8641   358
22.8741   346
22.8841   329
22.8941   340
22.9041   357
22.9141   338
22.9241   325
22.9341   336
22.9441   367
22.9541   325
22.9641   372
22.9741   353
22.9841   354
22.9941   337
23.0041   367
23.0141   358
23.0241   353
23.0341   327
23.0441   326
23.0541   353
23.0641   376
23.0741   369
23.0841   350
23.0941   344
23.1041   330
23.1141   369
23.1241   305
23.1341   332
23.1441   336
23.1541   368
23.1641   351
23.1741   358
23.1841   352
23.1941   303
23.2041   365
23.2141   335
23.2241   344
23.2341   340
23.2441   354
23.2541   326
23.2641   352
23.2741   332
23.2841   347
23.2941   327
23.3041   333
23.3141   331
23.3241   319
23.3341   342
23.3441   360
23.3541   348
23.3641   327
23.3741   355
23.3841   358
23.3941   364
23.4041   333
23.4141   332
23.4241   385
23.4341   367
23.4441   330
23.4541   370
23.4641   351
23.4741   313
23.4841   342
23.4941   341
23.5041   295
23.5141   352
23.5241   312
23.5341   335
23.5441   342
23.5541   334
23.5641   313
23.5741   317
23.5841   357
23.5941   371
23.6041   338
23.6141   345
23.6241   358
23.6341   337
23.6441   348
23.6541   335
23.6641   360
23.6741   407
23.6841   341
23.6941   355
23.7041   375
23.7141   344
23.7241   384
23.7341   401
23.7441   373
23.7541   358
23.7641   361
23.7741   380
23.7841   345
23.7941   394
23.8041   364
23.8141   337
23.8241   372
23.8341   352
23.8441   368
23.8541   359
23.8641   346
23.8741   381
23.8841   362
23.8941   349
23.9041   357
23.9141   362
23.9241   334
23.9341   368
23.9441   340
23.9541   352
23.9641   367
23.9741   337
23.9841   331
23.9941   332
24.0041   341
24.0141   342
24.0241   316
24.0341   354
24.0441   329
24.0541   322
24.0641   349
24.0741   328
24.0841   332
24.0941   322
24.1041   350
24.1141   342
24.1241   323
24.1341   345
24.1441   314
24.1541   324
24.1641   312
24.1741   349
24.1841   312
24.1941   317
24.2041   378
24.2141   345
24.2241   329
24.2341   341
24.2441   315
24.2541   355
24.2641   361
24.2741   338
24.2841   341
24.2941   357
24.3041   330
24.3141   334
24.3241   351
24.3341   310
24.3441   344
24.3541   337
24.3641   349
24.3741   349
24.3841   342
24.3941   347
24.4041   307
24.4141   346
24.4241   339
24.4341   310
24.4441   335
24.4541   313
24.4641   347
24.4741   372
24.4841   310
24.4941   306
24.5041   308
24.5141   293
24.5241   334
24.5341   320
24.5441   336
24.5541   325
24.5641   330
24.5741   307
24.5841   297
24.5941   337
24.6041   328
24.6141   311
24.6241   313
24.6341   322
24.6441   317
24.6541   307
24.6641   308
24.6741   319
24.6841   320
24.6941   330
24.7041   324
24.7141   313
24.7241   314
24.7341   314
24.7441   320
24.7541   335
24.7641   341
24.7741   303
24.7841   313
24.7941   331
24.8041   315
24.8141   336
24.8241   295
24.8341   309
24.8441   340
24.8541   325
24.8641   296
24.8741   325
24.8841   334
24.8941   302
24.9041   322
24.9141   313
24.9241   305
24.9341   316
24.9441   319
24.9541   305
24.9641   337
24.9741   311
24.9841   312
24.9941   327
25.0041   286
25.0141   339
25.0241   331
25.0341   304
25.0441   310
25.0541   321
25.0641   301
25.0741   316
25.0841   338
25.0941   354
25.1041   340
25.1141   339
25.1241   330
25.1341   315
25.1441   291
25.1541   325
25.1641   317
25.1741   328
25.1841   346
25.1941   338
25.2041   316
25.2141   306
25.2241   316
25.2341   296
25.2441   339
25.2541   338
25.2641   323
25.2741   325
25.2841   320
25.2941   351
25.3041   269
25.3141   304
25.3241   324
25.3341   309
25.3441   333
25.3541   322
25.3641   297
25.3741   307
25.3841   304
25.3941   332
25.4041   331
25.4141   296
25.4241   308
25.4341   315
25.4441   288
25.4541   311
25.4641   304
25.4741   312
25.4841   279
25.4941   361
25.5041   318
25.5141   311
25.5241   303
25.5341   319
25.5441   331
25.5541   317
25.5641   295
25.5741   290
25.5841   293
25.5941   322
25.6041   306
25.6141   277
25.6241   298
25.6341   327
25.6441   294
25.6541   291
25.6641   298
25.6741   308
25.6841   279
25.6941   297
25.7041   306
25.7141   296
25.7241   321
25.7341   294
25.7441   273
25.7541   276
25.7641   300
25.7741   322
25.7841   299
25.7941   285
25.8041   313
25.8141   287
25.8241   287
25.8341   302
25.8441   287
25.8541   314
25.8641   292
25.8741   299
25.8841   285
25.8941   277
25.9041   296
25.9141   279
25.9241   280
25.9341   294
25.9441   288
25.9541   287
25.9641   277
25.9741   268
25.9841   250
25.9941   298
26.0041   305
26.0141   287
26.0241   281
26.0341   281
26.0441   307
26.0541   286
26.0641   259
26.0741   262
26.0841   307
26.0941   308
26.1041   316
26.1141   302
26.1241   300
26.1341   297
26.1441   316
26.1541   288
26.1641   313
26.1741   265
26.1841   278
26.1941   300
26.2041   280
26.2141   288
26.2241   271
26.2341   313
26.2441   275
26.2541   268
26.2641   313
26.2741   253
26.2841   272
26.2941   293
26.3041   293
26.3141   298
26.3241   291
26.3341   299
26.3441   290
26.3541   264
26.3641   306
26.3741   286
26.3841   274
26.3941   280
26.4041   287
26.4141   290
26.4241   271
26.4341   257
26.4441   287
26.4541   279
26.4641   258
26.4741   255
26.4841   287
26.4941   278
26.5041   261
26.5141   244
26.5241   286
26.5341   267
26.5441   272
26.5541   311
26.5641   281
26.5741   278
26.5841   279
26.5941   282
26.6041   260
26.6141   270
26.6241   262
26.6341   261
26.6441   284
26.6541   270
26.6641   282
26.6741   293
26.6841   252
26.6941   249
26.7041   263
26.7141   243
26.7241   283
26.7341   246
26.7441   280
26.7541   276
26.7641   276
26.7741   270
26.7841   271
26.7941   282
26.8041   280
26.8141   258
26.8241   253
26.8341   282
26.8441   277
26.8541   267
26.8641   268
26.8741   250
26.8841   270
26.8941   275
26.9041   254
26.9141   289
26.9241   264
26.9341   273
26.9441   280
26.9541   280
26.9641   258
26.9741   261
26.9841   275
26.9941   278
27.0041   254
27.0141   261
27.0241   284
27.0341   255
27.0441   228
27.0541   271
27.0641   280
27.0741   259
27.0841   258
27.0941   265
27.1041   256
27.1141   267
27.1241   236
27.1341   260
27.1441   279
27.1541   259
27.1641   273
27.1741   266
27.1841   257
27.1941   265
27.2041   271
27.2141   263
27.2241   293
27.2341   266
27.2441   249
27.2541   258
27.2641   250
27.2741   247
27.2841   275
27.2941   238
27.3041   268
27.3141   264
27.3241   255
27.3341   249
27.3441   255
27.3541   277
27.3641   283
27.3741   286
27.3841   266
27.3941   260
27.4041   280
27.4141   271
27.4241   267
27.4341   242
27.4441   256
27.4541   244
27.4641   237
27.4741   258
27.4841   246
27.4941   243
27.5041   260
27.5141   242
27.5241   266
27.5341   259
27.5441   264
27.5541   249
27.5641   236
27.5741   256
27.5841   279
27.5941   272
27.6041   241
27.6141   233
27.6241   240
27.6341   223
27.6441   251
27.6541   254
27.6641   235
27.6741   249
27.6841   237
27.6941   257
27.7041   275
27.7141   233
27.7241   238
27.7341   247
27.7441   239
27.7541   249
27.7641   270
27.7741   250
27.7841   234
27.7941   224
27.8041   270
27.8141   234
27.8241   274
27.8341   219
27.8441   235
27.8541   253
27.8641   238
27.8741   225
27.8841   240
27.8941   237
27.9041   244
27.9141   262
27.9241   234
27.9341   220
27.9441   223
27.9541   225
27.9641   247
27.9741   246
27.9841   223
27.9941   240
28.0041   224
28.0141   249
28.0241   219
28.0341   224
28.0441   232
28.0541   253
28.0641   229
28.0741   252
28.0841   225
28.0941   236
28.1041   236
28.1141   233
28.1241   229
28.1341   218
28.1441   247
28.1541   197
28.1641   222
28.1741   240
28.1841   224
28.1941   243
28.2041   265
28.2141   225
28.2241   241
28.2341   232
28.2441   231
28.2541   221
28.2641   201
28.2741   246
28.2841   230
28.2941   219
28.3041   252
28.3141   209
28.3241   211
28.3341   220
28.3441   264
28.3541   268
28.3641   246
28.3741   240
28.3841   227
28.3941   234
28.4041   217
28.4141   235
28.4241   235
28.4341   248
28.4441   249
28.4541   258
28.4641   249
28.4741   205
28.4841   245
28.4941   240
28.5041   228
28.5141   245
28.5241   228
28.5341   240
28.5441   233
28.5541   263
28.5641   232
28.5741   233
28.5841   231
28.5941   222
28.6041   229
28.6141   225
28.6241   227
28.6341   215
28.6441   212
28.6541   233
28.6641   235
28.6741   217
28.6841   231
28.6941   239
28.7041   225
28.7141   228
28.7241   233
28.7341   200
28.7441   239
28.7541   216
28.7641   233
28.7741   221
28.7841   229
28.7941   216
28.8041   234
28.8141   215
28.8241   205
28.8341   207
28.8441   197
28.8541   210
28.8641   228
28.8741   188
28.8841   230
28.8941   211
28.9041   208
28.9141   221
28.9241   221
28.9341   210
28.9441   222
28.9541   212
28.9641   210
28.9741   232
28.9841   228
28.9941   214
29.0041   211
29.0141   219
29.0241   223
29.0341   218
29.0441   212
29.0541   202
29.0641   214
29.0741   204
29.0841   217
29.0941   210
29.1041   199
29.1141   221
29.1241   202
29.1341   208
29.1441   207
29.1541   214
29.1641   187
29.1741   204
29.1841   208
29.1941   210
29.2041   185
29.2141   215
29.2241   214
29.2341   207
29.2441   229
29.2541   197
29.2641   207
29.2741   205
29.2841   218
29.2941   219
29.3041   193
29.3141   211
29.3241   191
29.3341   214
29.3441   204
29.3541   198
29.3641   207
29.3741   199
29.3841   195
29.3941   183
29.4041   213
29.4141   192
29.4241   200
29.4341   199
29.4441   219
29.4541   201
29.4641   188
29.4741   235
29.4841   202
29.4941   210
29.5041   177
29.5141   216
29.5241   172
29.5341   210
29.5441   196
29.5541   200
29.5641   192
29.5741   190
29.5841   188
29.5941   199
29.6041   188
29.6141   197
29.6241   205
29.6341   193
29.6441   192
29.6541   205
29.6641   189
29.6741   186
29.6841   199
29.6941   199
29.7041   184
29.7141   206
29.7241   185
29.7341   189
29.7441   188
29.7541   196
29.7641   181
29.7741   194
29.7841   203
29.7941   195
29.8041   204
29.8141   180
29.8241   175
29.8341   203
29.8441   186
29.8541   195
29.8641   192
29.8741   168
29.8841   188
29.8941   183
29.9041   189
29.9141   180
29.9241   175
29.9341   200
29.9441   195
29.9541   195
29.9641   196
29.9741   175
29.9841   177
29.9941   185
30.0041   177
30.0141   197
30.0241   180
30.0341   188
30.0441   170
30.0541   186
30.0641   186
30.0741   186
30.0841   201
30.0941   184
30.1041   164
30.1141   181
30.1241   184
30.1341   171
30.1441   183
30.1541   197
30.1641   185
30.1741   198
30.1841   202
30.1941   160
30.2041   178
30.2141   179
30.2241   178
30.2341   167
30.2441   179
30.2541   187
30.2641   190
30.2741   169
30.2841   191
30.2941   180
30.3041   188
30.3141   171
30.3241   191
30.3341   176
30.3441   163
30.3541   193
30.3641   170
30.3741   181
30.3841   168
30.3941   187
30.4041   186
30.4141   183
30.4241   189
30.4341   166
30.4441   161
30.4541   180
30.4641   157
30.4741   166
30.4841   184
30.4941   167
30.5041   173
30.5141   170
30.5241   160
30.5341   171
30.5441   166
30.5541   152
30.5641   195
30.5741   192
30.5841   151
30.5941   180
30.6041   179
30.6141   165
30.6241   173
30.6341   176
30.6441   179
30.6541   168
30.6641   160
30.6741   192
30.6841   165
30.6941   155
30.7041   188
30.7141   184
30.7241   195
30.7341   167
30.7441   167
30.7541   158
30.7641   168
30.7741   168
30.7841   192
30.7941   172
30.8041   188
30.8141   156
30.8241   164
30.8341   166
30.8441   162
30.8541   159
30.8641   153
30.8741   163
30.8841   146
30.8941   153
30.9041   169
30.9141   161
30.9241   174
30.9341   151
30.9441   155
30.9541   159
30.9641   160
30.9741   176
30.9841   163
30.9941   159
31.0041   159
31.0141   158
31.0241   141
31.0341   138
31.0441   151
31.0541   168
31.0641   156
31.0741   143
31.0841   148
31.0941   184
31.1041   158
31.1141   154
31.1241   165
31.1341   180
31.1441   169
31.1541   158
31.1641   169
31.1741   155
31.1841   165
31.1941   150
31.2041   166
31.2141   162
31.2241   145
31.2341   144
31.2441   155
31.2541   145
31.2641   153
31.2741   145
31.2841   175
31.2941   153
31.3041   145
31.3141   131
31.3241   155
31.3341   143
31.3441   139
31.3541   145
31.3641   150
31.3741   163
31.3841   166
31.3941   141
31.4041   147
31.4141   133
31.4241   140
31.4341   135
31.4441   153
31.4541   172
31.4641   137
31.4741   154
31.4841   172
31.4941   138
31.5041   159
31.5141   158
31.5241   159
31.5341   138
31.5441   140
31.5541   139
31.5641   130
31.5741   164
31.5841   138
31.5941   141
31.6041   145
31.6141   163
31.6241   164
31.6341   142
31.6441   144
31.6541   157
31.6641   149
31.6741   148
31.6841   152
31.6941   148
31.7041   158
31.7141   168
31.7241   134
31.7341   137
31.7441   147
31.7541   160
31.7641   153
31.7741   164
31.7841   149
31.7941   135
31.8041   154
31.8141   151
31.8241   169
31.8341   133
31.8441   132
31.8541   131
31.8641   147
31.8741   161
31.8841   148
31.8941   156
31.9041   137
31.9141   170
31.9241   162
31.9341   137
31.9441   142
31.9541   153
31.9641   135
31.9741   120
31.9841   133
31.9941   140
32.0041   165
32.0141   140
32.0241   147
32.0341   135
32.0441   137
32.0541   142
32.0641   140
32.0741   131
32.0841   149
32.0941   150
32.1041   149
32.1141   123
32.1241   148
32.1341   148
32.1441   148
32.1541   161
32.1641   134
32.1741   159
32.1841   133
32.1941   147
32.2041   160
32.2141   143
32.2241   145
32.2341   166
32.2441   138
32.2541   142
32.2641   127
32.2741   145
32.2841   130
32.2941   129
32.3041   128
32.3141   126
32.3241   139
32.3341   128
32.3441   117
32.3541   131
32.3641   132
32.3741   142
32.3841   141
32.3941   141
32.4041   131
32.4141   132
32.4241   118
32.4341   119
32.4441   132
32.4541   132
32.4641   143
32.4741   128
32.4841   121
32.4941   131
32.5041   125
32.5141   127
32.5241   133
32.5341   130
32.5441   123
32.5541   119
32.5641   133
32.5741   128
32.5841   132
32.5941   111
32.6041   114
32.6141   126
32.6241   143
32.6341   134
32.6441   107
32.6541   107
32.6641    91
32.6741   135
32.6841   116
32.6941   116
32.7041   119
32.7141   123
32.7241   111
32.7341   111
32.7441   112
32.7541   145
32.7641   124
32.7741   119
32.7841   128
32.7941   123
32.8041   121
32.8141   125
32.8241   138
32.8341   138
32.8441   131
32.8541   113
32.8641   122
32.8741   117
32.8841   106
32.8941    99
32.9041   104
32.9141   111
32.9241   110
32.9341   130
32.9441   122
32.9541   113
32.9641   127
32.9741   118
32.9841   117
32.9941   102
33.0041   110
33.0141   119
33.0241   107
33.0341   115
33.0441   124
33.0541   100
33.0641   116
33.0741   140
33.0841    97
33.0941   108
33.1041   114
33.1141   102
33.1241   116
33.1341   129
33.1441   112
33.1541   112
33.1641   101
33.1741   117
33.1841   133
33.1941   114
33.2041   114
33.2141   109
33.2241    89
33.2341   115
33.2441    96
33.2541   117
33.2641   118
33.2741   105
33.2841   114
33.2941   119
33.3041    92
33.3141    92
33.3241   106
33.3341   139
33.3441    93
33.3541   133
33.3641   110
33.3741   111
33.3841   115
33.3941    89
33.4041   109
33.4141   113
33.4241    99
33.4341    99
33.4441   103
33.4541   114
33.4641   114
33.4741   109
33.4841   109
33.4941   109
33.5041   117
33.5141    98
33.5241   114
33.5341   113
33.5441   100
33.5541    98
33.5641   103
33.5741    97
33.5841    98
33.5941   117
33.6041    93
33.6141   109
33.6241   116
33.6341    99
33.6441   105
33.6541   105
33.6641   104
33.6741   100
33.6841   101
33.6941   104
33.7041   105
33.7141   106
33.7241    99
33.7341   127
33.7441    88
33.7541   101
33.7641   112
33.7741   109
33.7841    90
33.7941   105
33.8041    91
33.8141   111
33.8241    93
33.8341   130
33.8441    92
33.8541    98
33.8641   118
33.8741    91
33.8841    96
33.8941    89
33.9041    97
33.9141    89
33.9241   105
33.9341   114
33.9441    93
33.9541   108
33.9641   109
33.9741    86
33.9841   104
33.9941   104
34.0041   106
34.0141    94
34.0241    91
34.0341   103
34.0441    91
34.0541    92
34.0641   107
34.0741   106
34.0841   105
34.0941   111
34.1041    97
34.1141    97
34.1241    74
34.1341    85
34.1441    92
34.1541    97
34.1641    93
34.1741    91
34.1841    99
34.1941    93
34.2041   110
34.2141    90
34.2241    90
34.2341    92
34.2441    86
34.2541    82
34.2641    84
34.2741   106
34.2841    80
34.2941    89
34.3041    95
34.3141    95
34.3241    81
34.3341   103
34.3441    99
34.3541    73
34.3641    83
34.3741    88
34.3841    80
34.3941    79
34.4041    81
34.4141    74
34.4241   102
34.4341    82
34.4441    93
34.4541   108
34.4641    79
34.4741    72
34.4841    75
34.4941    81
34.5041    92
34.5141    72
34.5241    85
34.5341    76
34.5441    84
34.5541    88
34.5641    96
34.5741    74
34.5841    94
34.5941    89
34.6041    77
34.6141    93
34.6241    86
34.6341    93
34.6441    93
34.6541    96
34.6641    89
34.6741    85
34.6841    90
34.6941    93
34.7041    85
34.7141    87
34.7241    90
34.7341    86
34.7441    93
34.7541    82
34.7641    89
34.7741    74
34.7841    91
34.7941    88
34.8041    90
34.8141    77
34.8241    84
34.8341    89
34.8441    91
34.8541    81
34.8641    68
34.8741    92
34.8841    95
34.8941    87
34.9041    66
34.9141    82
34.9241    84
34.9341    82
34.9441    98
34.9541    76
34.9641    80
34.9741    67
34.9841    85
34.9941    77
35.0041    88
35.0141    88
35.0241    85
35.0341    83
35.0441    84
35.0541    74
35.0641    76
35.0741    83
35.0841    75
35.0941    88
35.1041    84
35.1141    85
35.1241    73
35.1341    86
35.1441    75
35.1541    78
35.1641    86
35.1741    73
35.1841    96
35.1941    69
35.2041    71
35.2141    66
35.2241    76
35.2341    87
35.2441    82
35.2541    83
35.2641    64
35.2741    90
35.2841    71
35.2941    69
35.3041    74
35.3141    70
35.3241    87
35.3341    98
35.3441    84
35.3541    72
35.3641    76
35.3741    69
35.3841    73
35.3941    97
35.4041    70
35.4141    90
35.4241    73
35.4341    73
35.4441    70
35.4541    68
35.4641    72
35.4741    74
35.4841    51
35.4941    87
35.5041    84
35.5141    72
35.5241    75
35.5341    96
35.5441    75
35.5541    64
35.5641    68
35.5741    67
35.5841    70
35.5941    74
35.6041    75
35.6141    49
35.6241    71
35.6341    65
35.6441    79
35.6541    79
35.6641    61
35.6741    59
35.6841    78
35.6941    69
35.7041    69
35.7141    64
35.7241    62
35.7341    63
35.7441    70
35.7541    68
35.7641    69
35.7741    60
35.7841    62
35.7941    74
35.8041    78
35.8141    76
35.8241    67
35.8341    74
35.8441    63
35.8541    73
35.8641    77
35.8741    66
35.8841    67
35.8941    66
35.9041    54
35.9141    44
35.9241    75
35.9341    69
35.9441    67
35.9541    56
35.9641    64
35.9741    71
35.9841    70
35.9941    69
36.0041    77
36.0141    64
36.0241    65
36.0341    57
36.0441    71
36.0541    66
36.0641    71
36.0741    65
36.0841    70
36.0941    57
36.1041    61
36.1141    55
36.1241    66
36.1341    78
36.1441    61
36.1541    73
36.1641    46
36.1741    58
36.1841    52
36.1941    64
36.2041    66
36.2141    63
36.2241    59
36.2341    48
36.2441    62
36.2541    64
36.2641    53
36.2741    46
36.2841    69
36.2941    69
36.3041    58
36.3141    54
36.3241    67
36.3341    61
36.3441    58
36.3541    63
36.3641    66
36.3741    64
36.3841    60
36.3941    65
36.4041    62
36.4141    66
36.4241    60
36.4341    65
36.4441    77
36.4541    57
36.4641    68
36.4741    63
36.4841    52
36.4941    57
36.5041    48
36.5141    59
36.5241    58
36.5341    56
36.5441    66
36.5541    57
36.5641    54
36.5741    71
36.5841    66
36.5941    67
36.6041    52
36.6141    49
36.6241    53
36.6341    62
36.6441    52
36.6541    53
36.6641    60
36.6741    61
36.6841    60
36.6941    44
36.7041    63
36.7141    55
36.7241    52
36.7341    59
36.7441    59
36.7541    55
36.7641    62
36.7741    60
36.7841    48
36.7941    61
36.8041    57
36.8141    52
36.8241    43
36.8341    51
36.8441    50
36.8541    59
36.8641    65
36.8741    51
36.8841    49
36.8941    43
36.9041    50
36.9141    43
36.9241    43
36.9341    63
36.9441    57
36.9541    49
36.9641    37
36.9741    58
36.9841    59
36.9941    61
37.0041    52
37.0141    54
37.0241    48
37.0341    55
37.0441    37
37.0541    56
37.0641    54
37.0741    62
37.0841    58
37.0941    63
37.1041    52
37.1141    47
37.1241    54
37.1341    38
37.1441    50
37.1541    40
37.1641    46
37.1741    51
37.1841    46
37.1941    48
37.2041    56
37.2141    45
37.2241    50
37.2341    33
37.2441    68
37.2541    43
37.2641    50
37.2741    51
37.2841    42
37.2941    43
37.3041    39
37.3141    56
37.3241    55
37.3341    41
37.3441    40
37.3541    62
37.3641    44
37.3741    49
37.3841    30
37.3941    49
37.4041    55
37.4141    61
37.4241    46
37.4341    42
37.4441    43
37.4541    50
37.4641    40
37.4741    53
37.4841    42
37.4941    52
37.5041    46
37.5141    45
37.5241    45
37.5341    33
37.5441    38
37.5541    51
37.5641    56
37.5741    47
37.5841    48
37.5941    46
37.6041    44
37.6141    44
37.6241    52
37.6341    52
37.6441    53
37.6541    38
37.6641    47
37.6741    50
37.6841    54
37.6941    45
37.7041    37
37.7141    32
37.7241    47
37.7341    34
37.7441    42
37.7541    53
37.7641    41
37.7741    40
37.7841    43
37.7941    46
37.8041    41
37.8141    49
37.8241    37
37.8341    42
37.8441    46
37.8541    47
37.8641    48
37.8741    38
37.8841    38
37.8941    39
37.9041    48
37.9141    46
37.9241    45
37.9341    35
37.9441    44
37.9541    39
37.9641    41
37.9741    38
37.9841    36
37.9941    43
38.0041    38
38.0141    45
38.0241    38
38.0341    32
38.0441    33
38.0541    39
38.0641    39
38.0741    27
38.0841    35
38.0941    46
38.1041    38
38.1141    35
38.1241    40
38.1341    37
38.1441    40
38.1541    47
38.1641    52
38.1741    30
38.1841    39
38.1941    48
38.2041    34
38.2141    46
38.2241    41
38.2341    36
38.2441    35
38.2541    33
38.2641    38
38.2741    43
38.2841    41
38.2941    31
38.3041    42
38.3141    38
38.3241    37
38.3341    34
38.3441    37
38.3541    34
38.3641    40
38.3741    36
38.3841    45
38.3941    39
38.4041    30
38.4141    26
38.4241    38
38.4341    32
38.4441    33
38.4541    29
38.4641    45
38.4741    40
38.4841    39
38.4941    35
38.5041    40
38.5141    36
38.5241    39
38.5341    29
38.5441    42
38.5541    36
38.5641    40
38.5741    31
38.5841    36
38.5941    39
38.6041    48
38.6141    28
38.6241    30
38.6341    38
38.6441    31
38.6541    32
38.6641    35
38.6741    36
38.6841    36
38.6941    27
38.7041    35
38.7141    30
38.7241    36
38.7341    30
38.7441    39
38.7541    33
38.7641    32
38.7741    28
38.7841    36
38.7941    35
38.8041    43
38.8141    31
38.8241    33
38.8341    29
38.8441    32
38.8541    30
38.8641    30
38.8741    31
38.8841    22
38.8941    29
38.9041    29
38.9141    27
38.9241    38
38.9341    30
38.9441    35
38.9541    36
38.9641    43
38.9741    27
38.9841    30
38.9941    23
39.0041    33
39.0141    25
39.0241    32
39.0341    30
39.0441    28
39.0541    26
39.0641    37
39.0741    30
39.0841    32
39.0941    34
39.1041    26
39.1141    40
39.1241    28
39.1341    31
39.1441    30
39.1541    30
39.1641    22
39.1741    25
39.1841    28
39.1941    23
39.2041    32
39.2141    26
39.2241    38
39.2341    25
39.2441    32
39.2541    28
39.2641    23
39.2741    32
39.2841    28
39.2941    32
39.3041    33
39.3141    31
39.3241    24
39.3341    30
39.3441    26
39.3541    32
39.3641    25
39.3741    33
39.3841    29
39.3941    35
39.4041    28
39.4141    22
39.4241    28
39.4341    22
39.4441    19
39.4541    25
39.4641    23
39.4741    25
39.4841    21
39.4941    25
39.5041    24
39.5141    27
39.5241    35
39.5341    21
39.5441    29
39.5541    27
39.5641    28
39.5741    35
39.5841    33
39.5941    30
39.6041    20
39.6141    18
39.6241    23
39.6341    21
39.6441    16
39.6541    23
39.6641    21
39.6741    18
39.6841    20
39.6941    29
39.7041    26
39.7141    14
39.7241    19
39.7341    25
39.7441    23
39.7541    19
39.7641    21
39.7741    23
39.7841    29
39.7941    23
39.8041    30
39.8141    27
39.8241    27
39.8341    25
39.8441    19
39.8541    23
39.8641    15
39.8741    13
39.8841    23
39.8941    23
39.9041    26
39.9141    17
39.9241    14
39.9341    23
39.9441    16
39.9541    23
39.9641    23
39.9741    22
39.9841    21
