Bruker Nano GmbH Berlin, Germany
Esprit 1.9

Date: 4/1/2021 4:48:29 PM
Real time: 32989
Life time: 31201
Pulse density: 76486


Detector type: XFlash 430
Window type: Custom type
Detector thickness: 0.45
Si dead layer:0.029

Calibration, lin.: 10
Calibration, abs.: -955.9
Mn FWHM: 137.05
Fano factor: 0.121
Channels: 4096

Energy Counts
-0.9559     0
-0.9459     0
-0.9359     0
-0.9259     0
-0.9159     0
-0.9059     0
-0.8959     0
-0.8859     0
-0.8759     0
-0.8659     0
-0.8559     0
-0.8459     0
-0.8359     0
-0.8259     0
-0.8159     0
-0.8059     0
-0.7959     0
-0.7859     0
-0.7759     0
-0.7659     0
-0.7559     0
-0.7459     0
-0.7359     0
-0.7259     0
-0.7159     0
-0.7059     0
-0.6959     0
-0.6859     0
-0.6759     0
-0.6659     0
-0.6559     0
-0.6459     0
-0.6359     0
-0.6259     0
-0.6159     0
-0.6059     0
-0.5959     0
-0.5859     0
-0.5759     0
-0.5659     0
-0.5559     0
-0.5459     0
-0.5359     0
-0.5259     0
-0.5159     0
-0.5059     0
-0.4959     0
-0.4859     0
-0.4759     0
-0.4659     0
-0.4559     0
-0.4459     0
-0.4359     0
-0.4259     0
-0.4159     0
-0.4059     0
-0.3959     0
-0.3859     0
-0.3759     0
-0.3659     0
-0.3559     0
-0.3459     0
-0.3359     0
-0.3259     0
-0.3159     0
-0.3059     0
-0.2959     0
-0.2859     0
-0.2759     0
-0.2659     0
-0.2559     0
-0.2459     0
-0.2359     0
-0.2259     0
-0.2159     0
-0.2059     0
-0.1959     0
-0.1859     0
-0.1759     0
-0.1659     0
-0.1559     0
-0.1459     0
-0.1359     1
-0.1259     0
-0.1159     6
-0.1059    26
-0.0959    91
-0.0859   327
-0.0759  1210
-0.0659  3627
-0.0559  9160
-0.0459 19724
-0.0359 37202
-0.0259 58994
-0.0159 81595
-0.0059 96293
 0.0041 95834
 0.0141 82625
 0.0241 61312
 0.0341 38489
 0.0441 21137
 0.0541  9649
 0.0641  3908
 0.0741  1326
 0.0841   417
 0.0941   131
 0.1041    37
 0.1141    19
 0.1241    14
 0.1341    12
 0.1441    14
 0.1541     6
 0.1641     3
 0.1741    40
 0.1841   303
 0.1941   545
 0.2041   451
 0.2141   512
 0.2241   524
 0.2341   489
 0.2441   469
 0.2541   500
 0.2641   542
 0.2741   495
 0.2841   514
 0.2941   492
 0.3041   500
 0.3141   479
 0.3241   472
 0.3341   474
 0.3441   488
 0.3541   503
 0.3641   485
 0.3741   459
 0.3841   457
 0.3941   477
 0.4041   479
 0.4141   466
 0.4241   471
 0.4341   474
 0.4441   450
 0.4541   420
 0.4641   412
 0.4741   430
 0.4841   433
 0.4941   438
 0.5041   430
 0.5141   424
 0.5241   426
 0.5341   391
 0.5441   404
 0.5541   403
 0.5641   382
 0.5741   401
 0.5841   407
 0.5941   415
 0.6041   408
 0.6141   388
 0.6241   401
 0.6341   434
 0.6441   434
 0.6541   424
 0.6641   393
 0.6741   386
 0.6841   398
 0.6941   395
 0.7041   400
 0.7141   399
 0.7241   408
 0.7341   396
 0.7441   363
 0.7541   375
 0.7641   380
 0.7741   370
 0.7841   347
 0.7941   348
 0.8041   372
 0.8141   369
 0.8241   354
 0.8341   363
 0.8441   381
 0.8541   375
 0.8641   351
 0.8741   352
 0.8841   362
 0.8941   360
 0.9041   351
 0.9141   337
 0.9241   339
 0.9341   334
 0.9441   358
 0.9541   344
 0.9641   342
 0.9741   329
 0.9841   348
 0.9941   343
 1.0041   359
 1.0141   348
 1.0241   312
 1.0341   354
 1.0441   311
 1.0541   317
 1.0641   331
 1.0741   318
 1.0841   338
 1.0941   298
 1.1041   326
 1.1141   330
 1.1241   339
 1.1341   331
 1.1441   303
 1.1541   318
 1.1641   324
 1.1741   307
 1.1841   329
 1.1941   330
 1.2041   342
 1.2141   318
 1.2241   322
 1.2341   318
 1.2441   306
 1.2541   299
 1.2641   293
 1.2741   299
 1.2841   296
 1.2941   312
 1.3041   309
 1.3141   331
 1.3241   305
 1.3341   267
 1.3441   291
 1.3541   319
 1.3641   302
 1.3741   304
 1.3841   336
 1.3941   319
 1.4041   312
 1.4141   324
 1.4241   325
 1.4341   319
 1.4441   305
 1.4541   323
 1.4641   311
 1.4741   282
 1.4841   309
 1.4941   307
 1.5041   288
 1.5141   290
 1.5241   301
 1.5341   297
 1.5441   309
 1.5541   290
 1.5641   260
 1.5741   281
 1.5841   288
 1.5941   293
 1.6041   293
 1.6141   311
 1.6241   280
 1.6341   309
 1.6441   312
 1.6541   341
 1.6641   391
 1.6741   495
 1.6841   570
 1.6941   724
 1.7041   797
 1.7141   965
 1.7241  1046
 1.7341  1081
 1.7441  1064
 1.7541  1008
 1.7641   976
 1.7741   857
 1.7841   716
 1.7941   582
 1.8041   530
 1.8141   444
 1.8241   421
 1.8341   380
 1.8441   359
 1.8541   371
 1.8641   331
 1.8741   321
 1.8841   312
 1.8941   308
 1.9041   272
 1.9141   298
 1.9241   289
 1.9341   311
 1.9441   339
 1.9541   375
 1.9641   338
 1.9741   379
 1.9841   353
 1.9941   357
 2.0041   367
 2.0141   368
 2.0241   351
 2.0341   359
 2.0441   346
 2.0541   314
 2.0641   336
 2.0741   308
 2.0841   272
 2.0941   284
 2.1041   294
 2.1141   257
 2.1241   333
 2.1341   276
 2.1441   283
 2.1541   270
 2.1641   272
 2.1741   256
 2.1841   263
 2.1941   274
 2.2041   266
 2.2141   246
 2.2241   251
 2.2341   261
 2.2441   274
 2.2541   265
 2.2641   257
 2.2741   240
 2.2841   260
 2.2941   269
 2.3041   253
 2.3141   253
 2.3241   245
 2.3341   249
 2.3441   251
 2.3541   259
 2.3641   256
 2.3741   245
 2.3841   230
 2.3941   222
 2.4041   271
 2.4141   229
 2.4241   265
 2.4341   228
 2.4441   253
 2.4541   244
 2.4641   233
 2.4741   232
 2.4841   249
 2.4941   255
 2.5041   226
 2.5141   224
 2.5241   226
 2.5341   238
 2.5441   249
 2.5541   237
 2.5641   213
 2.5741   239
 2.5841   234
 2.5941   253
 2.6041   240
 2.6141   222
 2.6241   237
 2.6341   227
 2.6441   216
 2.6541   219
 2.6641   227
 2.6741   204
 2.6841   253
 2.6941   214
 2.7041   209
 2.7141   207
 2.7241   247
 2.7341   219
 2.7441   219
 2.7541   238
 2.7641   217
 2.7741   213
 2.7841   208
 2.7941   244
 2.8041   235
 2.8141   226
 2.8241   223
 2.8341   230
 2.8441   243
 2.8541   230
 2.8641   210
 2.8741   235
 2.8841   215
 2.8941   231
 2.9041   219
 2.9141   233
 2.9241   214
 2.9341   251
 2.9441   222
 2.9541   253
 2.9641   192
 2.9741   225
 2.9841   224
 2.9941   203
 3.0041   211
 3.0141   177
 3.0241   214
 3.0341   206
 3.0441   204
 3.0541   178
 3.0641   198
 3.0741   201
 3.0841   202
 3.0941   195
 3.1041   190
 3.1141   186
 3.1241   191
 3.1341   179
 3.1441   182
 3.1541   192
 3.1641   199
 3.1741   192
 3.1841   183
 3.1941   200
 3.2041   189
 3.2141   212
 3.2241   180
 3.2341   191
 3.2441   211
 3.2541   215
 3.2641   188
 3.2741   215
 3.2841   257
 3.2941   243
 3.3041   254
 3.3141   230
 3.3241   232
 3.3341   253
 3.3441   245
 3.3541   215
 3.3641   205
 3.3741   223
 3.3841   172
 3.3941   179
 3.4041   177
 3.4141   182
 3.4241   168
 3.4341   174
 3.4441   171
 3.4541   179
 3.4641   178
 3.4741   188
 3.4841   214
 3.4941   191
 3.5041   228
 3.5141   239
 3.5241   254
 3.5341   305
 3.5441   343
 3.5541   444
 3.5641   553
 3.5741   764
 3.5841  1051
 3.5941  1521
 3.6041  2065
 3.6141  2861
 3.6241  3668
 3.6341  4722
 3.6441  5780
 3.6541  6792
 3.6641  7996
 3.6741  8645
 3.6841  8916
 3.6941  8958
 3.7041  8394
 3.7141  7830
 3.7241  6946
 3.7341  5989
 3.7441  4892
 3.7541  3672
 3.7641  2806
 3.7741  2081
 3.7841  1389
 3.7941   992
 3.8041   683
 3.8141   509
 3.8241   419
 3.8341   288
 3.8441   272
 3.8541   245
 3.8641   232
 3.8741   251
 3.8841   289
 3.8941   327
 3.9041   367
 3.9141   464
 3.9241   586
 3.9341   735
 3.9441   880
 3.9541  1125
 3.9641  1230
 3.9741  1446
 3.9841  1618
 3.9941  1685
 4.0041  1778
 4.0141  1865
 4.0241  1825
 4.0341  1629
 4.0441  1583
 4.0541  1400
 4.0641  1171
 4.0741   994
 4.0841   791
 4.0941   579
 4.1041   457
 4.1141   357
 4.1241   291
 4.1341   229
 4.1441   208
 4.1541   171
 4.1641   143
 4.1741   151
 4.1841   132
 4.1941   135
 4.2041   132
 4.2141   116
 4.2241   121
 4.2341   115
 4.2441   112
 4.2541   141
 4.2641   145
 4.2741   134
 4.2841   144
 4.2941   133
 4.3041   123
 4.3141   134
 4.3241   126
 4.3341   138
 4.3441   112
 4.3541   131
 4.3641   134
 4.3741   141
 4.3841   131
 4.3941   137
 4.4041   165
 4.4141   137
 4.4241   168
 4.4341   153
 4.4441   191
 4.4541   212
 4.4641   203
 4.4741   226
 4.4841   247
 4.4941   257
 4.5041   269
 4.5141   236
 4.5241   210
 4.5341   243
 4.5441   213
 4.5541   201
 4.5641   190
 4.5741   171
 4.5841   155
 4.5941   196
 4.6041   152
 4.6141   142
 4.6241   143
 4.6341   142
 4.6441   136
 4.6541   138
 4.6641   144
 4.6741   136
 4.6841   138
 4.6941   138
 4.7041   136
 4.7141   122
 4.7241   130
 4.7341   145
 4.7441   106
 4.7541   111
 4.7641   114
 4.7741   113
 4.7841   138
 4.7941   111
 4.8041   145
 4.8141   125
 4.8241   126
 4.8341   145
 4.8441   157
 4.8541   139
 4.8641   129
 4.8741   131
 4.8841   142
 4.8941   151
 4.9041   166
 4.9141   143
 4.9241   139
 4.9341   147
 4.9441   164
 4.9541   141
 4.9641   147
 4.9741   152
 4.9841   152
 4.9941   155
 5.0041   150
 5.0141   133
 5.0241   137
 5.0341   158
 5.0441   128
 5.0541   140
 5.0641   143
 5.0741   138
 5.0841   143
 5.0941   142
 5.1041   150
 5.1141   130
 5.1241   114
 5.1341   133
 5.1441   150
 5.1541   141
 5.1641   129
 5.1741   120
 5.1841   128
 5.1941   119
 5.2041   123
 5.2141   133
 5.2241   149
 5.2341   136
 5.2441   134
 5.2541   111
 5.2641   124
 5.2741   147
 5.2841   109
 5.2941   132
 5.3041   125
 5.3141   119
 5.3241   118
 5.3341   116
 5.3441   154
 5.3541   161
 5.3641   152
 5.3741   135
 5.3841   145
 5.3941   137
 5.4041   163
 5.4141   143
 5.4241   158
 5.4341   154
 5.4441   131
 5.4541   129
 5.4641   154
 5.4741   145
 5.4841   120
 5.4941   144
 5.5041   131
 5.5141   135
 5.5241   118
 5.5341   142
 5.5441   135
 5.5541   122
 5.5641   159
 5.5741   138
 5.5841   142
 5.5941   148
 5.6041   148
 5.6141   145
 5.6241   143
 5.6341   142
 5.6441   134
 5.6541   137
 5.6641   137
 5.6741   138
 5.6841   141
 5.6941   145
 5.7041   159
 5.7141   145
 5.7241   164
 5.7341   141
 5.7441   169
 5.7541   166
 5.7641   139
 5.7741   156
 5.7841   160
 5.7941   194
 5.8041   184
 5.8141   203
 5.8241   198
 5.8341   219
 5.8441   229
 5.8541   219
 5.8641   242
 5.8741   242
 5.8841   274
 5.8941   264
 5.9041   267
 5.9141   262
 5.9241   235
 5.9341   218
 5.9441   232
 5.9541   257
 5.9641   210
 5.9741   189
 5.9841   197
 5.9941   194
 6.0041   166
 6.0141   157
 6.0241   143
 6.0341   169
 6.0441   163
 6.0541   166
 6.0641   146
 6.0741   165
 6.0841   164
 6.0941   168
 6.1041   165
 6.1141   195
 6.1241   169
 6.1341   155
 6.1441   154
 6.1541   171
 6.1641   196
 6.1741   172
 6.1841   178
 6.1941   191
 6.2041   209
 6.2141   222
 6.2241   231
 6.2341   280
 6.2441   358
 6.2541   461
 6.2641   529
 6.2741   731
 6.2841   925
 6.2941  1186
 6.3041  1447
 6.3141  1859
 6.3241  2235
 6.3341  2569
 6.3441  3039
 6.3541  3415
 6.3641  3818
 6.3741  4071
 6.3841  4256
 6.3941  4316
 6.4041  4262
 6.4141  4246
 6.4241  3979
 6.4341  3624
 6.4441  3340
 6.4541  2939
 6.4641  2488
 6.4741  2054
 6.4841  1641
 6.4941  1382
 6.5041  1057
 6.5141   898
 6.5241   659
 6.5341   506
 6.5441   358
 6.5541   345
 6.5641   304
 6.5741   257
 6.5841   234
 6.5941   213
 6.6041   212
 6.6141   184
 6.6241   169
 6.6341   203
 6.6441   194
 6.6541   211
 6.6641   189
 6.6741   213
 6.6841   198
 6.6941   214
 6.7041   205
 6.7141   187
 6.7241   187
 6.7341   192
 6.7441   183
 6.7541   191
 6.7641   199
 6.7741   231
 6.7841   207
 6.7941   231
 6.8041   213
 6.8141   225
 6.8241   205
 6.8341   218
 6.8441   213
 6.8541   237
 6.8641   245
 6.8741   260
 6.8841   234
 6.8941   312
 6.9041   264
 6.9141   266
 6.9241   325
 6.9341   358
 6.9441   424
 6.9541   448
 6.9641   484
 6.9741   572
 6.9841   594
 6.9941   645
 7.0041   704
 7.0141   820
 7.0241   902
 7.0341   886
 7.0441   908
 7.0541   913
 7.0641   905
 7.0741   805
 7.0841   885
 7.0941   834
 7.1041   712
 7.1141   668
 7.1241   654
 7.1341   571
 7.1441   524
 7.1541   495
 7.1641   484
 7.1741   416
 7.1841   375
 7.1941   378
 7.2041   307
 7.2141   338
 7.2241   360
 7.2341   290
 7.2441   319
 7.2541   305
 7.2641   356
 7.2741   358
 7.2841   345
 7.2941   360
 7.3041   330
 7.3141   376
 7.3241   391
 7.3341   414
 7.3441   416
 7.3541   409
 7.3641   415
 7.3741   431
 7.3841   446
 7.3941   464
 7.4041   425
 7.4141   393
 7.4241   412
 7.4341   422
 7.4441   394
 7.4541   383
 7.4641   404
 7.4741   396
 7.4841   395
 7.4941   372
 7.5041   356
 7.5141   332
 7.5241   348
 7.5341   322
 7.5441   326
 7.5541   356
 7.5641   317
 7.5741   347
 7.5841   339
 7.5941   316
 7.6041   322
 7.6141   317
 7.6241   319
 7.6341   333
 7.6441   350
 7.6541   328
 7.6641   389
 7.6741   362
 7.6841   349
 7.6941   365
 7.7041   355
 7.7141   357
 7.7241   367
 7.7341   413
 7.7441   410
 7.7541   400
 7.7641   378
 7.7741   404
 7.7841   418
 7.7941   403
 7.8041   438
 7.8141   425
 7.8241   453
 7.8341   446
 7.8441   475
 7.8541   500
 7.8641   511
 7.8741   519
 7.8841   518
 7.8941   549
 7.9041   557
 7.9141   598
 7.9241   582
 7.9341   630
 7.9441   663
 7.9541   675
 7.9641   737
 7.9741   715
 7.9841   834
 7.9941   908
 8.0041   977
 8.0141  1010
 8.0241  1120
 8.0341  1105
 8.0441  1274
 8.0541  1383
 8.0641  1433
 8.0741  1545
 8.0841  1588
 8.0941  1723
 8.1041  1792
 8.1141  1812
 8.1241  1969
 8.1341  1991
 8.1441  2054
 8.1541  2139
 8.1641  2201
 8.1741  2201
 8.1841  2248
 8.1941  2348
 8.2041  2234
 8.2141  2322
 8.2241  2330
 8.2341  2306
 8.2441  2350
 8.2541  2625
 8.2641  2550
 8.2741  2682
 8.2841  2832
 8.2941  3085
 8.3041  3313
 8.3141  3577
 8.3241  3744
 8.3341  4105
 8.3441  4297
 8.3541  4516
 8.3641  4711
 8.3741  4892
 8.3841  4920
 8.3941  4872
 8.4041  4821
 8.4141  4662
 8.4241  4388
 8.4341  3976
 8.4441  3798
 8.4541  3424
 8.4641  2971
 8.4741  2667
 8.4841  2267
 8.4941  1924
 8.5041  1699
 8.5141  1396
 8.5241  1167
 8.5341  1010
 8.5441   894
 8.5541   731
 8.5641   644
 8.5741   642
 8.5841   599
 8.5941   546
 8.6041   574
 8.6141   579
 8.6241   548
 8.6341   532
 8.6441   563
 8.6541   571
 8.6641   585
 8.6741   555
 8.6841   559
 8.6941   600
 8.7041   559
 8.7141   552
 8.7241   541
 8.7341   562
 8.7441   528
 8.7541   562
 8.7641   555
 8.7741   513
 8.7841   495
 8.7941   529
 8.8041   511
 8.8141   511
 8.8241   498
 8.8341   538
 8.8441   512
 8.8541   488
 8.8641   500
 8.8741   505
 8.8841   499
 8.8941   527
 8.9041   548
 8.9141   543
 8.9241   525
 8.9341   530
 8.9441   570
 8.9541   609
 8.9641   554
 8.9741   590
 8.9841   601
 8.9941   618
 9.0041   602
 9.0141   634
 9.0241   646
 9.0341   632
 9.0441   649
 9.0541   729
 9.0641   740
 9.0741   731
 9.0841   782
 9.0941   768
 9.1041   804
 9.1141   859
 9.1241   846
 9.1341   887
 9.1441   944
 9.1541   955
 9.1641  1021
 9.1741  1004
 9.1841  1073
 9.1941  1160
 9.2041  1211
 9.2141  1196
 9.2241  1303
 9.2341  1397
 9.2441  1380
 9.2541  1467
 9.2641  1509
 9.2741  1648
 9.2841  1696
 9.2941  1748
 9.3041  1796
 9.3141  1907
 9.3241  1967
 9.3341  1975
 9.3441  2029
 9.3541  2178
 9.3641  2232
 9.3741  2171
 9.3841  2156
 9.3941  2315
 9.4041  2293
 9.4141  2376
 9.4241  2390
 9.4341  2367
 9.4441  2466
 9.4541  2453
 9.4641  2402
 9.4741  2429
 9.4841  2520
 9.4941  2512
 9.5041  2644
 9.5141  2689
 9.5241  2747
 9.5341  2933
 9.5441  3006
 9.5541  3123
 9.5641  3331
 9.5741  3517
 9.5841  3734
 9.5941  3882
 9.6041  4098
 9.6141  4279
 9.6241  4491
 9.6341  4663
 9.6441  4783
 9.6541  4817
 9.6641  4926
 9.6741  4855
 9.6841  4767
 9.6941  4762
 9.7041  4485
 9.7141  4303
 9.7241  4003
 9.7341  3688
 9.7441  3525
 9.7541  3317
 9.7641  2995
 9.7741  2846
 9.7841  2641
 9.7941  2446
 9.8041  2278
 9.8141  2100
 9.8241  2082
 9.8341  2038
 9.8441  2042
 9.8541  1971
 9.8641  2002
 9.8741  2020
 9.8841  2030
 9.8941  2106
 9.9041  2093
 9.9141  2151
 9.9241  2192
 9.9341  2202
 9.9441  2263
 9.9541  2223
 9.9641  2205
 9.9741  2083
 9.9841  1951
 9.9941  1881
10.0041  1785
10.0141  1683
10.0241  1583
10.0341  1425
10.0441  1272
10.0541  1135
10.0641  1041
10.0741   930
10.0841   863
10.0941   803
10.1041   643
10.1141   564
10.1241   546
10.1341   563
10.1441   492
10.1541   465
10.1641   486
10.1741   421
10.1841   425
10.1941   406
10.2041   385
10.2141   379
10.2241   371
10.2341   344
10.2441   368
10.2541   351
10.2641   321
10.2741   314
10.2841   322
10.2941   306
10.3041   295
10.3141   294
10.3241   292
10.3341   300
10.3441   302
10.3541   314
10.3641   281
10.3741   264
10.3841   289
10.3941   279
10.4041   291
10.4141   274
10.4241   283
10.4341   283
10.4441   273
10.4541   298
10.4641   300
10.4741   311
10.4841   293
10.4941   284
10.5041   294
10.5141   303
10.5241   299
10.5341   298
10.5441   308
10.5541   328
10.5641   334
10.5741   315
10.5841   324
10.5941   327
10.6041   324
10.6141   308
10.6241   314
10.6341   339
10.6441   327
10.6541   339
10.6641   342
10.6741   351
10.6841   344
10.6941   361
10.7041   391
10.7141   377
10.7241   412
10.7341   375
10.7441   382
10.7541   420
10.7641   440
10.7741   431
10.7841   426
10.7941   433
10.8041   442
10.8141   458
10.8241   470
10.8341   488
10.8441   498
10.8541   498
10.8641   491
10.8741   489
10.8841   485
10.8941   483
10.9041   477
10.9141   502
10.9241   511
10.9341   506
10.9441   490
10.9541   504
10.9641   517
10.9741   498
10.9841   504
10.9941   496
11.0041   484
11.0141   475
11.0241   481
11.0341   467
11.0441   454
11.0541   441
11.0641   428
11.0741   432
11.0841   449
11.0941   466
11.1041   462
11.1141   448
11.1241   434
11.1341   463
11.1441   472
11.1541   503
11.1641   525
11.1741   519
11.1841   541
11.1941   536
11.2041   585
11.2141   608
11.2241   634
11.2341   648
11.2441   715
11.2541   698
11.2641   700
11.2741   693
11.2841   671
11.2941   671
11.3041   663
11.3141   655
11.3241   642
11.3341   629
11.3441   614
11.3541   572
11.3641   528
11.3741   532
11.3841   507
11.3941   497
11.4041   443
11.4141   448
11.4241   434
11.4341   409
11.4441   341
11.4541   376
11.4641   387
11.4741   365
11.4841   356
11.4941   361
11.5041   370
11.5141   359
11.5241   362
11.5341   342
11.5441   334
11.5541   355
11.5641   355
11.5741   359
11.5841   398
11.5941   392
11.6041   400
11.6141   402
11.6241   375
11.6341   363
11.6441   386
11.6541   356
11.6641   377
11.6741   383
11.6841   356
11.6941   370
11.7041   372
11.7141   348
11.7241   365
11.7341   379
11.7441   349
11.7541   318
11.7641   310
11.7741   315
11.7841   291
11.7941   295
11.8041   305
11.8141   289
11.8241   269
11.8341   255
11.8441   263
11.8541   269
11.8641   269
11.8741   267
11.8841   277
11.8941   276
11.9041   267
11.9141   267
11.9241   267
11.9341   259
11.9441   259
11.9541   273
11.9641   284
11.9741   265
11.9841   273
11.9941   288
12.0041   292
12.0141   264
12.0241   255
12.0341   278
12.0441   295
12.0541   294
12.0641   293
12.0741   291
12.0841   280
12.0941   263
12.1041   257
12.1141   269
12.1241   275
12.1341   277
12.1441   263
12.1541   276
12.1641   282
12.1741   279
12.1841   282
12.1941   258
12.2041   254
12.2141   239
12.2241   260
12.2341   251
12.2441   268
12.2541   269
12.2641   265
12.2741   270
12.2841   268
12.2941   255
12.3041   256
12.3141   272
12.3241   270
12.3341   254
12.3441   238
12.3541   269
12.3641   273
12.3741   272
12.3841   279
12.3941   276
12.4041   257
12.4141   285
12.4241   290
12.4341   262
12.4441   246
12.4541   263
12.4641   283
12.4741   277
12.4841   271
12.4941   271
12.5041   282
12.5141   289
12.5241   294
12.5341   286
12.5441   265
12.5541   281
12.5641   259
12.5741   277
12.5841   282
12.5941   266
12.6041   269
12.6141   258
12.6241   268
12.6341   281
12.6441   270
12.6541   288
12.6641   294
12.6741   267
12.6841   269
12.6941   277
12.7041   273
12.7141   266
12.7241   292
12.7341   294
12.7441   279
12.7541   269
12.7641   266
12.7741   266
12.7841   273
12.7941   286
12.8041   305
12.8141   297
12.8241   290
12.8341   302
12.8441   302
12.8541   296
12.8641   293
12.8741   294
12.8841   278
12.8941   274
12.9041   295
12.9141   287
12.9241   302
12.9341   307
12.9441   300
12.9541   303
12.9641   287
12.9741   287
12.9841   296
12.9941   307
13.0041   311
13.0141   296
13.0241   293
13.0341   307
13.0441   308
13.0541   319
13.0641   337
13.0741   313
13.0841   300
13.0941   299
13.1041   293
13.1141   290
13.1241   303
13.1341   310
13.1441   295
13.1541   295
13.1641   304
13.1741   303
13.1841   322
13.1941   310
13.2041   302
13.2141   312
13.2241   320
13.2341   334
13.2441   332
13.2541   311
13.2641   315
13.2741   342
13.2841   333
13.2941   335
13.3041   345
13.3141   348
13.3241   380
13.3341   380
13.3441   351
13.3541   363
13.3641   381
13.3741   374
13.3841   366
13.3941   368
13.4041   362
13.4141   363
13.4241   389
13.4341   378
13.4441   366
13.4541   384
13.4641   363
13.4741   345
13.4841   354
13.4941   331
13.5041   316
13.5141   324
13.5241   334
13.5341   332
13.5441   323
13.5541   343
13.5641   334
13.5741   320
13.5841   317
13.5941   317
13.6041   332
13.6141   343
13.6241   340
13.6341   324
13.6441   316
13.6541   334
13.6641   339
13.6741   322
13.6841   338
13.6941   342
13.7041   332
13.7141   337
13.7241   338
13.7341   360
13.7441   359
13.7541   335
13.7641   352
13.7741   356
13.7841   346
13.7941   347
13.8041   346
13.8141   357
13.8241   342
13.8341   327
13.8441   348
13.8541   351
13.8641   341
13.8741   363
13.8841   373
13.8941   363
13.9041   370
13.9141   386
13.9241   382
13.9341   371
13.9441   409
13.9541   420
13.9641   380
13.9741   376
13.9841   408
13.9941   441
14.0041   439
14.0141   418
14.0241   437
14.0341   476
14.0441   494
14.0541   484
14.0641   468
14.0741   500
14.0841   534
14.0941   539
14.1041   551
14.1141   573
14.1241   578
14.1341   572
14.1441   571
14.1541   547
14.1641   542
14.1741   547
14.1841   534
14.1941   553
14.2041   553
14.2141   519
14.2241   514
14.2341   512
14.2441   509
14.2541   479
14.2641   451
14.2741   456
14.2841   455
14.2941   441
14.3041   430
14.3141   403
14.3241   393
14.3341   401
14.3441   414
14.3541   409
14.3641   388
14.3741   389
14.3841   381
14.3941   387
14.4041   401
14.4141   405
14.4241   389
14.4341   404
14.4441   420
14.4541   390
14.4641   394
14.4741   388
14.4841   396
14.4941   400
14.5041   418
14.5141   418
14.5241   396
14.5341   402
14.5441   397
14.5541   393
14.5641   409
14.5741   414
14.5841   392
14.5941   374
14.6041   394
14.6141   410
14.6241   406
14.6341   395
14.6441   408
14.6541   407
14.6641   411
14.6741   437
14.6841   401
14.6941   386
14.7041   416
14.7141   433
14.7241   431
14.7341   418
14.7441   396
14.7541   388
14.7641   397
14.7741   402
14.7841   429
14.7941   457
14.8041   432
14.8141   419
14.8241   429
14.8341   431
14.8441   437
14.8541   427
14.8641   437
14.8741   445
14.8841   438
14.8941   413
14.9041   431
14.9141   450
14.9241   440
14.9341   422
14.9441   427
14.9541   451
14.9641   455
14.9741   450
14.9841   452
14.9941   444
15.0041   456
15.0141   438
15.0241   438
15.0341   446
15.0441   438
15.0541   453
15.0641   431
15.0741   415
15.0841   425
15.0941   447
15.1041   428
15.1141   408
15.1241   421
15.1341   426
15.1441   464
15.1541   444
15.1641   423
15.1741   433
15.1841   415
15.1941   445
15.2041   476
15.2141   459
15.2241   469
15.2341   481
15.2441   480
15.2541   466
15.2641   450
15.2741   471
15.2841   450
15.2941   457
15.3041   462
15.3141   441
15.3241   443
15.3341   430
15.3441   464
15.3541   454
15.3641   448
15.3741   486
15.3841   457
15.3941   438
15.4041   454
15.4141   456
15.4241   463
15.4341   473
15.4441   476
15.4541   468
15.4641   479
15.4741   482
15.4841   485
15.4941   494
15.5041   497
15.5141   501
15.5241   503
15.5341   514
15.5441   533
15.5541   541
15.5641   578
15.5741   590
15.5841   603
15.5941   638
15.6041   637
15.6141   680
15.6241   732
15.6341   776
15.6441   786
15.6541   836
15.6641   852
15.6741   860
15.6841   937
15.6941  1003
15.7041   989
15.7141   983
15.7241  1040
15.7341  1054
15.7441  1037
15.7541  1032
15.7641  1040
15.7741  1055
15.7841  1027
15.7941   996
15.8041   964
15.8141   930
15.8241   912
15.8341   928
15.8441   854
15.8541   824
15.8641   804
15.8741   758
15.8841   733
15.8941   730
15.9041   688
15.9141   635
15.9241   627
15.9341   631
15.9441   570
15.9541   564
15.9641   559
15.9741   536
15.9841   570
15.9941   567
16.0041   522
16.0141   524
16.0241   532
16.0341   574
16.0441   536
16.0541   492
16.0641   505
16.0741   507
16.0841   490
16.0941   507
16.1041   510
16.1141   526
16.1241   533
16.1341   535
16.1441   535
16.1541   520
16.1641   516
16.1741   509
16.1841   534
16.1941   550
16.2041   542
16.2141   530
16.2241   547
16.2341   538
16.2441   528
16.2541   532
16.2641   541
16.2741   520
16.2841   529
16.2941   517
16.3041   529
16.3141   515
16.3241   520
16.3341   540
16.3441   539
16.3541   531
16.3641   538
16.3741   549
16.3841   549
16.3941   543
16.4041   523
16.4141   544
16.4241   564
16.4341   565
16.4441   554
16.4541   557
16.4641   558
16.4741   553
16.4841   552
16.4941   571
16.5041   576
16.5141   555
16.5241   548
16.5341   548
16.5441   572
16.5541   585
16.5641   580
16.5741   559
16.5841   547
16.5941   543
16.6041   563
16.6141   541
16.6241   584
16.6341   596
16.6441   573
16.6541   547
16.6641   578
16.6741   589
16.6841   554
16.6941   570
16.7041   578
16.7141   579
16.7241   568
16.7341   573
16.7441   599
16.7541   582
16.7641   565
16.7741   548
16.7841   589
16.7941   587
16.8041   578
16.8141   605
16.8241   569
16.8341   562
16.8441   576
16.8541   611
16.8641   597
16.8741   581
16.8841   592
16.8941   582
16.9041   612
16.9141   623
16.9241   613
16.9341   624
16.9441   613
16.9541   583
16.9641   550
16.9741   554
16.9841   605
16.9941   623
17.0041   612
17.0141   623
17.0241   626
17.0341   625
17.0441   586
17.0541   621
17.0641   623
17.0741   620
17.0841   607
17.0941   603
17.1041   611
17.1141   610
17.1241   592
17.1341   621
17.1441   618
17.1541   611
17.1641   615
17.1741   605
17.1841   641
17.1941   631
17.2041   618
17.2141   598
17.2241   642
17.2341   637
17.2441   640
17.2541   575
17.2641   579
17.2741   635
17.2841   664
17.2941   633
17.3041   627
17.3141   625
17.3241   644
17.3341   635
17.3441   656
17.3541   668
17.3641   659
17.3741   642
17.3841   631
17.3941   649
17.4041   630
17.4141   623
17.4241   643
17.4341   623
17.4441   655
17.4541   658
17.4641   660
17.4741   651
17.4841   669
17.4941   671
17.5041   669
17.5141   688
17.5241   686
17.5341   687
17.5441   673
17.5541   712
17.5641   678
17.5741   703
17.5841   725
17.5941   725
17.6041   753
17.6141   755
17.6241   725
17.6341   707
17.6441   752
17.6541   754
17.6641   744
17.6741   729
17.6841   772
17.6941   743
17.7041   732
17.7141   753
17.7241   750
17.7341   761
17.7441   752
17.7541   739
17.7641   739
17.7741   714
17.7841   709
17.7941   702
17.8041   679
17.8141   698
17.8241   667
17.8341   690
17.8441   698
17.8541   705
17.8641   680
17.8741   674
17.8841   689
17.8941   685
17.9041   703
17.9141   717
17.9241   712
17.9341   668
17.9441   672
17.9541   706
17.9641   720
17.9741   720
17.9841   710
17.9941   717
18.0041   693
18.0141   730
18.0241   714
18.0341   698
18.0441   713
18.0541   700
18.0641   700
18.0741   715
18.0841   720
18.0941   736
18.1041   713
18.1141   694
18.1241   703
18.1341   743
18.1441   706
18.1541   671
18.1641   674
18.1741   669
18.1841   711
18.1941   676
18.2041   720
18.2141   712
18.2241   704
18.2341   703
18.2441   723
18.2541   756
18.2641   742
18.2741   759
18.2841   728
18.2941   664
18.3041   742
18.3141   739
18.3241   753
18.3341   743
18.3441   697
18.3541   716
18.3641   740
18.3741   729
18.3841   714
18.3941   742
18.4041   749
18.4141   742
18.4241   754
18.4341   747
18.4441   723
18.4541   704
18.4641   737
18.4741   706
18.4841   739
18.4941   741
18.5041   750
18.5141   784
18.5241   728
18.5341   744
18.5441   737
18.5541   703
18.5641   703
18.5741   747
18.5841   774
18.5941   760
18.6041   770
18.6141   781
18.6241   709
18.6341   749
18.6441   746
18.6541   741
18.6641   745
18.6741   766
18.6841   749
18.6941   718
18.7041   753
18.7141   710
18.7241   765
18.7341   772
18.7441   796
18.7541   780
18.7641   765
18.7741   743
18.7841   760
18.7941   738
18.8041   746
18.8141   790
18.8241   799
18.8341   782
18.8441   797
18.8541   788
18.8641   756
18.8741   791
18.8841   819
18.8941   756
18.9041   737
18.9141   779
18.9241   767
18.9341   771
18.9441   759
18.9541   802
18.9641   822
18.9741   803
18.9841   791
18.9941   807
19.0041   786
19.0141   802
19.0241   783
19.0341   764
19.0441   791
19.0541   769
19.0641   789
19.0741   789
19.0841   777
19.0941   779
19.1041   762
19.1141   753
19.1241   731
19.1341   763
19.1441   831
19.1541   820
19.1641   814
19.1741   826
19.1841   789
19.1941   772
19.2041   753
19.2141   791
19.2241   789
19.2341   832
19.2441   844
19.2541   837
19.2641   828
19.2741   793
19.2841   793
19.2941   783
19.3041   817
19.3141   840
19.3241   816
19.3341   769
19.3441   799
19.3541   789
19.3641   806
19.3741   817
19.3841   816
19.3941   800
19.4041   786
19.4141   791
19.4241   822
19.4341   839
19.4441   866
19.4541   819
19.4641   815
19.4741   810
19.4841   814
19.4941   818
19.5041   792
19.5141   779
19.5241   849
19.5341   819
19.5441   814
19.5541   808
19.5641   841
19.5741   809
19.5841   817
19.5941   825
19.6041   802
19.6141   846
19.6241   827
19.6341   781
19.6441   779
19.6541   825
19.6641   785
19.6741   800
19.6841   833
19.6941   850
19.7041   818
19.7141   804
19.7241   821
19.7341   788
19.7441   825
19.7541   825
19.7641   776
19.7741   844
19.7841   841
19.7941   837
19.8041   866
19.8141   833
19.8241   840
19.8341   840
19.8441   847
19.8541   850
19.8641   835
19.8741   852
19.8841   838
19.8941   875
19.9041   839
19.9141   805
19.9241   819
19.9341   835
19.9441   846
19.9541   864
19.9641   787
19.9741   845
19.9841   828
19.9941   850
20.0041   851
20.0141   858
20.0241   843
20.0341   866
20.0441   864
20.0541   859
20.0641   833
20.0741   830
20.0841   848
20.0941   863
20.1041   862
20.1141   808
20.1241   829
20.1341   838
20.1441   856
20.1541   840
20.1641   817
20.1741   835
20.1841   828
20.1941   852
20.2041   850
20.2141   865
20.2241   861
20.2341   871
20.2441   845
20.2541   888
20.2641   858
20.2741   873
20.2841   838
20.2941   897
20.3041   869
20.3141   844
20.3241   831
20.3341   900
20.3441   886
20.3541   866
20.3641   926
20.3741   886
20.3841   908
20.3941   898
20.4041   839
20.4141   844
20.4241   922
20.4341   878
20.4441   840
20.4541   850
20.4641   857
20.4741   848
20.4841   866
20.4941   858
20.5041   868
20.5141   858
20.5241   873
20.5341   880
20.5441   889
20.5541   839
20.5641   871
20.5741   851
20.5841   876
20.5941   878
20.6041   922
20.6141   899
20.6241   882
20.6341   874
20.6441   862
20.6541   915
20.6641   865
20.6741   860
20.6841   907
20.6941   866
20.7041   853
20.7141   858
20.7241   922
20.7341   910
20.7441   880
20.7541   898
20.7641   890
20.7741   902
20.7841   887
20.7941   882
20.8041   917
20.8141   886
20.8241   938
20.8341   958
20.8441   899
20.8541   939
20.8641   963
20.8741   923
20.8841  1079
20.8941  1011
20.9041  1023
20.9141  1066
20.9241  1069
20.9341  1100
20.9441  1067
20.9541  1087
20.9641  1138
20.9741  1160
20.9841  1223
20.9941  1257
21.0041  1282
21.0141  1240
21.0241  1272
21.0341  1247
21.0441  1270
21.0541  1306
21.0641  1357
21.0741  1347
21.0841  1338
21.0941  1316
21.1041  1372
21.1141  1434
21.1241  1363
21.1341  1398
21.1441  1358
21.1541  1441
21.1641  1396
21.1741  1396
21.1841  1343
21.1941  1404
21.2041  1313
21.2141  1255
21.2241  1312
21.2341  1276
21.2441  1218
21.2541  1168
21.2641  1209
21.2741  1124
21.2841  1201
21.2941  1091
21.3041  1048
21.3141  1081
21.3241  1035
21.3341  1007
21.3441  1023
21.3541   943
21.3641  1021
21.3741   996
21.3841   952
21.3941   939
21.4041   913
21.4141   936
21.4241   935
21.4341   940
21.4441   962
21.4541   905
21.4641   917
21.4741   875
21.4841   882
21.4941   873
21.5041   935
21.5141   868
21.5241   893
21.5341   959
21.5441   923
21.5541   947
21.5641   896
21.5741   865
21.5841   907
21.5941   886
21.6041   911
21.6141   884
21.6241   883
21.6341   910
21.6441   873
21.6541   909
21.6641   889
21.6741   916
21.6841   864
21.6941   956
21.7041   918
21.7141   908
21.7241   911
21.7341   926
21.7441   967
21.7541   911
21.7641   861
21.7741   916
21.7841   891
21.7941   932
21.8041   881
21.8141   859
21.8241   899
21.8341   894
21.8441   881
21.8541   856
21.8641   908
21.8741   918
21.8841   902
21.8941   900
21.9041   909
21.9141   920
21.9241   902
21.9341   903
21.9441   952
21.9541   906
21.9641   930
21.9741   890
21.9841   936
21.9941   879
22.0041   854
22.0141   870
22.0241   936
22.0341   947
22.0441   892
22.0541   887
22.0641   894
22.0741   933
22.0841   915
22.0941   931
22.1041   935
22.1141   874
22.1241   898
22.1341   901
22.1441   924
22.1541   968
22.1641   943
22.1741   933
22.1841   951
22.1941   880
22.2041   881
22.2141   929
22.2241   906
22.2341   923
22.2441   879
22.2541   926
22.2641   820
22.2741   872
22.2841   913
22.2941   932
22.3041   947
22.3141   906
22.3241   910
22.3341   887
22.3441   923
22.3541   950
22.3641   946
22.3741   935
22.3841   915
22.3941   946
22.4041   881
22.4141   912
22.4241   919
22.4341   911
22.4441   932
22.4541   909
22.4641   953
22.4741   888
22.4841   899
22.4941   909
22.5041   952
22.5141   980
22.5241   883
22.5341   870
22.5441   881
22.5541   928
22.5641   870
22.5741   921
22.5841   942
22.5941   889
22.6041   942
22.6141   951
22.6241   917
22.6341   917
22.6441   919
22.6541   933
22.6641   897
22.6741   893
22.6841   910
22.6941   896
22.7041   901
22.7141   926
22.7241   872
22.7341   885
22.7441   883
22.7541   893
22.7641   887
22.7741   945
22.7841   848
22.7941   906
22.8041   957
22.8141   890
22.8241   902
22.8341   974
22.8441   886
22.8541   928
22.8641   923
22.8741   883
22.8841   847
22.8941   942
22.9041   909
22.9141   861
22.9241   970
22.9341   898
22.9441   864
22.9541   984
22.9641   883
22.9741   892
22.9841   919
22.9941   930
23.0041   956
23.0141   922
23.0241   863
23.0341   954
23.0441   860
23.0541   939
23.0641   824
23.0741   955
23.0841   909
23.0941   905
23.1041   869
23.1141   904
23.1241   921
23.1341   894
23.1441   887
23.1541   907
23.1641   926
23.1741   857
23.1841   908
23.1941   906
23.2041   913
23.2141   957
23.2241   903
23.2341   889
23.2441   899
23.2541   880
23.2641   971
23.2741   900
23.2841   903
23.2941   909
23.3041   881
23.3141   933
23.3241   913
23.3341   905
23.3441   862
23.3541   869
23.3641   901
23.3741   911
23.3841   905
23.3941   858
23.4041   897
23.4141   870
23.4241   911
23.4341   891
23.4441   918
23.4541   870
23.4641   831
23.4741   896
23.4841   865
23.4941   874
23.5041   918
23.5141   931
23.5241   886
23.5341   897
23.5441   891
23.5541   876
23.5641   862
23.5741   934
23.5841   890
23.5941   927
23.6041   900
23.6141   922
23.6241   925
23.6341   876
23.6441   910
23.6541   939
23.6641   958
23.6741   960
23.6841   923
23.6941   962
23.7041   927
23.7141   951
23.7241  1000
23.7341   933
23.7441   961
23.7541   965
23.7641   978
23.7741   992
23.7841   989
23.7941   973
23.8041   933
23.8141   950
23.8241   953
23.8341   968
23.8441   954
23.8541   997
23.8641   926
23.8741   969
23.8841   955
23.8941   901
23.9041   987
23.9141   929
23.9241   985
23.9341   927
23.9441   928
23.9541   867
23.9641   874
23.9741   890
23.9841   934
23.9941   856
24.0041   901
24.0141   871
24.0241   883
24.0341   886
24.0441   875
24.0541   914
24.0641   853
24.0741   867
24.0841   814
24.0941   930
24.1041   872
24.1141   841
24.1241   879
24.1341   856
24.1441   893
24.1541   806
24.1641   910
24.1741   862
24.1841   837
24.1941   838
24.2041   865
24.2141   860
24.2241   910
24.2341   849
24.2441   875
24.2541   855
24.2641   896
24.2741   873
24.2841   826
24.2941   841
24.3041   845
24.3141   884
24.3241   898
24.3341   868
24.3441   924
24.3541   854
24.3641   867
24.3741   867
24.3841   902
24.3941   810
24.4041   870
24.4141   893
24.4241   874
24.4341   863
24.4441   858
24.4541   878
24.4641   877
24.4741   883
24.4841   880
24.4941   852
24.5041   814
24.5141   834
24.5241   860
24.5341   837
24.5441   856
24.5541   883
24.5641   873
24.5741   835
24.5841   855
24.5941   806
24.6041   864
24.6141   909
24.6241   807
24.6341   832
24.6441   868
24.6541   850
24.6641   832
24.6741   851
24.6841   846
24.6941   818
24.7041   833
24.7141   819
24.7241   806
24.7341   835
24.7441   816
24.7541   819
24.7641   842
24.7741   859
24.7841   810
24.7941   766
24.8041   858
24.8141   823
24.8241   814
24.8341   875
24.8441   870
24.8541   905
24.8641   819
24.8741   867
24.8841   816
24.8941   788
24.9041   875
24.9141   837
24.9241   871
24.9341   860
24.9441   891
24.9541   799
24.9641   804
24.9741   844
24.9841   805
24.9941   796
25.0041   876
25.0141   851
25.0241   803
25.0341   861
25.0441   836
25.0541   771
25.0641   826
25.0741   836
25.0841   875
25.0941   830
25.1041   852
25.1141   853
25.1241   839
25.1341   814
25.1441   871
25.1541   852
25.1641   823
25.1741   854
25.1841   862
25.1941   851
25.2041   854
25.2141   829
25.2241   818
25.2341   831
25.2441   883
25.2541   867
25.2641   870
25.2741   840
25.2841   814
25.2941   906
25.3041   865
25.3141   798
25.3241   825
25.3341   851
25.3441   787
25.3541   824
25.3641   845
25.3741   882
25.3841   835
25.3941   839
25.4041   854
25.4141   825
25.4241   800
25.4341   807
25.4441   803
25.4541   805
25.4641   828
25.4741   801
25.4841   758
25.4941   818
25.5041   821
25.5141   800
25.5241   822
25.5341   797
25.5441   760
25.5541   770
25.5641   782
25.5741   802
25.5841   782
25.5941   815
25.6041   806
25.6141   769
25.6241   829
25.6341   832
25.6441   838
25.6541   769
25.6641   730
25.6741   796
25.6841   788
25.6941   783
25.7041   762
25.7141   794
25.7241   775
25.7341   766
25.7441   799
25.7541   761
25.7641   771
25.7741   757
25.7841   771
25.7941   780
25.8041   815
25.8141   738
25.8241   779
25.8341   797
25.8441   705
25.8541   760
25.8641   815
25.8741   751
25.8841   801
25.8941   786
25.9041   800
25.9141   743
25.9241   808
25.9341   770
25.9441   745
25.9541   780
25.9641   768
25.9741   756
25.9841   752
25.9941   812
26.0041   773
26.0141   760
26.0241   747
26.0341   807
26.0441   790
26.0541   754
26.0641   787
26.0741   774
26.0841   765
26.0941   715
26.1041   753
26.1141   753
26.1241   762
26.1341   748
26.1441   781
26.1541   782
26.1641   793
26.1741   798
26.1841   752
26.1941   711
26.2041   743
26.2141   772
26.2241   759
26.2341   799
26.2441   725
26.2541   772
26.2641   768
26.2741   774
26.2841   750
26.2941   744
26.3041   778
26.3141   757
26.3241   770
26.3341   759
26.3441   746
26.3541   740
26.3641   764
26.3741   744
26.3841   739
26.3941   745
26.4041   800
26.4141   726
26.4241   763
26.4341   738
26.4441   706
26.4541   769
26.4641   780
26.4741   753
26.4841   746
26.4941   733
26.5041   760
26.5141   762
26.5241   747
26.5341   757
26.5441   774
26.5541   795
26.5641   757
26.5741   726
26.5841   750
26.5941   708
26.6041   743
26.6141   783
26.6241   761
26.6341   728
26.6441   712
26.6541   732
26.6641   714
26.6741   719
26.6841   763
26.6941   777
26.7041   738
26.7141   742
26.7241   691
26.7341   721
26.7441   690
26.7541   738
26.7641   732
26.7741   714
26.7841   727
26.7941   740
26.8041   700
26.8141   713
26.8241   709
26.8341   701
26.8441   700
26.8541   684
26.8641   759
26.8741   732
26.8841   710
26.8941   739
26.9041   672
26.9141   711
26.9241   689
26.9341   701
26.9441   721
26.9541   708
26.9641   719
26.9741   734
26.9841   735
26.9941   711
27.0041   716
27.0141   775
27.0241   725
27.0341   736
27.0441   679
27.0541   687
27.0641   695
27.0741   680
27.0841   725
27.0941   692
27.1041   680
27.1141   668
27.1241   704
27.1341   667
27.1441   720
27.1541   696
27.1641   688
27.1741   726
27.1841   723
27.1941   709
27.2041   680
27.2141   723
27.2241   758
27.2341   698
27.2441   733
27.2541   722
27.2641   717
27.2741   696
27.2841   662
27.2941   650
27.3041   705
27.3141   748
27.3241   702
27.3341   671
27.3441   735
27.3541   689
27.3641   712
27.3741   764
27.3841   772
27.3941   686
27.4041   664
27.4141   750
27.4241   700
27.4341   722
27.4441   682
27.4541   651
27.4641   693
27.4741   704
27.4841   687
27.4941   718
27.5041   715
27.5141   678
27.5241   683
27.5341   656
27.5441   714
27.5541   685
27.5641   671
27.5741   677
27.5841   630
27.5941   692
27.6041   665
27.6141   675
27.6241   653
27.6341   662
27.6441   651
27.6541   698
27.6641   669
27.6741   669
27.6841   684
27.6941   731
27.7041   697
27.7141   711
27.7241   656
27.7341   647
27.7441   618
27.7541   662
27.7641   635
27.7741   661
27.7841   665
27.7941   643
27.8041   679
27.8141   672
27.8241   627
27.8341   655
27.8441   670
27.8541   652
27.8641   617
27.8741   659
27.8841   687
27.8941   647
27.9041   687
27.9141   654
27.9241   648
27.9341   638
27.9441   655
27.9541   655
27.9641   652
27.9741   649
27.9841   643
27.9941   657
28.0041   634
28.0141   650
28.0241   639
28.0341   649
28.0441   652
28.0541   635
28.0641   649
28.0741   632
28.0841   624
28.0941   629
28.1041   663
28.1141   602
28.1241   602
28.1341   650
28.1441   616
28.1541   633
28.1641   613
28.1741   586
28.1841   681
28.1941   654
28.2041   660
28.2141   607
28.2241   600
28.2341   649
28.2441   636
28.2541   599
28.2641   657
28.2741   658
28.2841   617
28.2941   643
28.3041   629
28.3141   624
28.3241   602
28.3341   565
28.3441   632
28.3541   652
28.3641   592
28.3741   608
28.3841   610
28.3941   622
28.4041   622
28.4141   603
28.4241   583
28.4341   646
28.4441   619
28.4541   574
28.4641   606
28.4741   666
28.4841   641
28.4941   632
28.5041   636
28.5141   655
28.5241   629
28.5341   635
28.5441   617
28.5541   618
28.5641   596
28.5741   599
28.5841   600
28.5941   614
28.6041   598
28.6141   591
28.6241   657
28.6341   585
28.6441   595
28.6541   633
28.6641   554
28.6741   567
28.6841   602
28.6941   617
28.7041   635
28.7141   592
28.7241   603
28.7341   601
28.7441   636
28.7541   618
28.7641   626
28.7741   603
28.7841   582
28.7941   604
28.8041   599
28.8141   599
28.8241   599
28.8341   570
28.8441   551
28.8541   545
28.8641   572
28.8741   529
28.8841   550
28.8941   607
28.9041   549
28.9141   613
28.9241   597
28.9341   608
28.9441   564
28.9541   573
28.9641   603
28.9741   587
28.9841   536
28.9941   567
29.0041   578
29.0141   588
29.0241   608
29.0341   583
29.0441   561
29.0541   519
29.0641   579
29.0741   580
29.0841   580
29.0941   542
29.1041   558
29.1141   589
29.1241   582
29.1341   603
29.1441   530
29.1541   539
29.1641   553
29.1741   580
29.1841   529
29.1941   585
29.2041   554
29.2141   559
29.2241   546
29.2341   544
29.2441   518
29.2541   571
29.2641   567
29.2741   563
29.2841   516
29.2941   539
29.3041   556
29.3141   531
29.3241   545
29.3341   544
29.3441   519
29.3541   520
29.3641   512
29.3741   540
29.3841   538
29.3941   558
29.4041   525
29.4141   564
29.4241   539
29.4341   552
29.4441   550
29.4541   527
29.4641   565
29.4741   573
29.4841   514
29.4941   545
29.5041   555
29.5141   498
29.5241   552
29.5341   564
29.5441   572
29.5541   516
29.5641   515
29.5741   557
29.5841   561
29.5941   572
29.6041   541
29.6141   544
29.6241   522
29.6341   546
29.6441   485
29.6541   517
29.6641   541
29.6741   479
29.6841   509
29.6941   530
29.7041   531
29.7141   520
29.7241   519
29.7341   550
29.7441   544
29.7541   511
29.7641   503
29.7741   536
29.7841   512
29.7941   539
29.8041   516
29.8141   544
29.8241   531
29.8341   560
29.8441   468
29.8541   501
29.8641   516
29.8741   513
29.8841   507
29.8941   521
29.9041   537
29.9141   511
29.9241   502
29.9341   509
29.9441   507
29.9541   490
29.9641   495
29.9741   534
29.9841   519
29.9941   529
30.0041   515
30.0141   507
30.0241   514
30.0341   488
30.0441   492
30.0541   480
30.0641   489
30.0741   468
30.0841   494
30.0941   497
30.1041   505
30.1141   499
30.1241   513
30.1341   512
30.1441   494
30.1541   476
30.1641   534
30.1741   478
30.1841   500
30.1941   501
30.2041   512
30.2141   470
30.2241   473
30.2341   499
30.2441   495
30.2541   505
30.2641   477
30.2741   468
30.2841   501
30.2941   475
30.3041   488
30.3141   459
30.3241   461
30.3341   495
30.3441   488
30.3541   476
30.3641   498
30.3741   459
30.3841   491
30.3941   480
30.4041   451
30.4141   494
30.4241   430
30.4341   465
30.4441   483
30.4541   488
30.4641   467
30.4741   493
30.4841   444
30.4941   464
30.5041   478
30.5141   498
30.5241   421
30.5341   471
30.5441   463
30.5541   486
30.5641   437
30.5741   459
30.5841   500
30.5941   488
30.6041   477
30.6141   500
30.6241   440
30.6341   484
30.6441   461
30.6541   487
30.6641   455
30.6741   434
30.6841   458
30.6941   478
30.7041   489
30.7141   456
30.7241   436
30.7341   469
30.7441   433
30.7541   452
30.7641   487
30.7741   451
30.7841   483
30.7941   445
30.8041   490
30.8141   460
30.8241   444
30.8341   450
30.8441   447
30.8541   465
30.8641   478
30.8741   458
30.8841   441
30.8941   480
30.9041   454
30.9141   471
30.9241   443
30.9341   443
30.9441   432
30.9541   440
30.9641   433
30.9741   477
30.9841   453
30.9941   444
31.0041   454
31.0141   451
31.0241   432
31.0341   438
31.0441   462
31.0541   443
31.0641   420
31.0741   433
31.0841   431
31.0941   399
31.1041   405
31.1141   441
31.1241   456
31.1341   404
31.1441   430
31.1541   396
31.1641   436
31.1741   404
31.1841   436
31.1941   432
31.2041   428
31.2141   417
31.2241   417
31.2341   427
31.2441   453
31.2541   417
31.2641   404
31.2741   433
31.2841   414
31.2941   429
31.3041   420
31.3141   434
31.3241   413
31.3341   391
31.3441   409
31.3541   391
31.3641   411
31.3741   413
31.3841   418
31.3941   389
31.4041   402
31.4141   452
31.4241   459
31.4341   423
31.4441   386
31.4541   397
31.4641   383
31.4741   405
31.4841   405
31.4941   394
31.5041   415
31.5141   448
31.5241   438
31.5341   427
31.5441   373
31.5541   411
31.5641   393
31.5741   424
31.5841   376
31.5941   416
31.6041   404
31.6141   420
31.6241   399
31.6341   411
31.6441   430
31.6541   423
31.6641   413
31.6741   441
31.6841   389
31.6941   357
31.7041   386
31.7141   421
31.7241   398
31.7341   400
31.7441   417
31.7541   384
31.7641   405
31.7741   402
31.7841   389
31.7941   406
31.8041   377
31.8141   382
31.8241   358
31.8341   379
31.8441   390
31.8541   414
31.8641   392
31.8741   397
31.8841   366
31.8941   380
31.9041   362
31.9141   405
31.9241   370
31.9341   365
31.9441   400
31.9541   375
31.9641   383
31.9741   378
31.9841   421
31.9941   397
32.0041   380
32.0141   362
32.0241   380
32.0341   418
32.0441   347
32.0541   399
32.0641   373
32.0741   339
32.0841   372
32.0941   399
32.1041   385
32.1141   386
32.1241   329
32.1341   398
32.1441   391
32.1541   373
32.1641   364
32.1741   375
32.1841   389
32.1941   387
32.2041   396
32.2141   385
32.2241   333
32.2341   346
32.2441   362
32.2541   365
32.2641   337
32.2741   396
32.2841   384
32.2941   351
32.3041   351
32.3141   364
32.3241   383
32.3341   325
32.3441   349
32.3541   352
32.3641   341
32.3741   363
32.3841   373
32.3941   349
32.4041   343
32.4141   389
32.4241   340
32.4341   372
32.4441   368
32.4541   349
32.4641   388
32.4741   360
32.4841   348
32.4941   358
32.5041   349
32.5141   331
32.5241   329
32.5341   342
32.5441   351
32.5541   347
32.5641   318
32.5741   322
32.5841   361
32.5941   322
32.6041   361
32.6141   357
32.6241   333
32.6341   357
32.6441   306
32.6541   358
32.6641   344
32.6741   333
32.6841   338
32.6941   334
32.7041   346
32.7141   338
32.7241   332
32.7341   311
32.7441   334
32.7541   348
32.7641   328
32.7741   305
32.7841   360
32.7941   323
32.8041   344
32.8141   340
32.8241   310
32.8341   326
32.8441   349
32.8541   349
32.8641   327
32.8741   311
32.8841   348
32.8941   320
32.9041   295
32.9141   313
32.9241   317
32.9341   342
32.9441   305
32.9541   325
32.9641   332
32.9741   306
32.9841   363
32.9941   343
33.0041   306
33.0141   322
33.0241   332
33.0341   324
33.0441   309
33.0541   332
33.0641   293
33.0741   295
33.0841   311
33.0941   317
33.1041   329
33.1141   305
33.1241   338
33.1341   306
33.1441   333
33.1541   298
33.1641   305
33.1741   315
33.1841   332
33.1941   308
33.2041   323
33.2141   318
33.2241   326
33.2341   321
33.2441   297
33.2541   304
33.2641   297
33.2741   296
33.2841   312
33.2941   298
33.3041   307
33.3141   292
33.3241   310
33.3341   320
33.3441   301
33.3541   293
33.3641   299
33.3741   296
33.3841   302
33.3941   286
33.4041   302
33.4141   309
33.4241   310
33.4341   290
33.4441   318
33.4541   281
33.4641   315
33.4741   277
33.4841   278
33.4941   289
33.5041   282
33.5141   304
33.5241   315
33.5341   301
33.5441   296
33.5541   283
33.5641   281
33.5741   278
33.5841   311
33.5941   293
33.6041   273
33.6141   283
33.6241   274
33.6341   287
33.6441   325
33.6541   301
33.6641   286
33.6741   309
33.6841   300
33.6941   310
33.7041   291
33.7141   279
33.7241   291
33.7341   265
33.7441   281
33.7541   284
33.7641   264
33.7741   297
33.7841   285
33.7941   292
33.8041   301
33.8141   305
33.8241   263
33.8341   278
33.8441   285
33.8541   273
33.8641   262
33.8741   274
33.8841   286
33.8941   269
33.9041   278
33.9141   261
33.9241   306
33.9341   272
33.9441   261
33.9541   283
33.9641   260
33.9741   267
33.9841   245
33.9941   276
34.0041   263
34.0141   287
34.0241   259
34.0341   287
34.0441   260
34.0541   267
34.0641   260
34.0741   242
34.0841   251
34.0941   288
34.1041   228
34.1141   266
34.1241   257
34.1341   231
34.1441   249
34.1541   245
34.1641   266
34.1741   262
34.1841   259
34.1941   261
34.2041   258
34.2141   291
34.2241   256
34.2341   247
34.2441   232
34.2541   234
34.2641   268
34.2741   270
34.2841   283
34.2941   255
34.3041   264
34.3141   251
34.3241   244
34.3341   257
34.3441   274
34.3541   248
34.3641   252
34.3741   249
34.3841   252
34.3941   256
34.4041   263
34.4141   273
34.4241   247
34.4341   259
34.4441   271
34.4541   247
34.4641   270
34.4741   258
34.4841   261
34.4941   246
34.5041   264
34.5141   239
34.5241   238
34.5341   243
34.5441   269
34.5541   253
34.5641   246
34.5741   259
34.5841   229
34.5941   252
34.6041   258
34.6141   256
34.6241   221
34.6341   223
34.6441   231
34.6541   247
34.6641   227
34.6741   235
34.6841   235
34.6941   232
34.7041   234
34.7141   236
34.7241   253
34.7341   229
34.7441   231
34.7541   222
34.7641   229
34.7741   247
34.7841   213
34.7941   250
34.8041   249
34.8141   258
34.8241   228
34.8341   253
34.8441   233
34.8541   216
34.8641   206
34.8741   235
34.8841   221
34.8941   216
34.9041   251
34.9141   198
34.9241   243
34.9341   236
34.9441   207
34.9541   225
34.9641   201
34.9741   241
34.9841   211
34.9941   242
35.0041   225
35.0141   218
35.0241   217
35.0341   217
35.0441   209
35.0541   204
35.0641   230
35.0741   219
35.0841   214
35.0941   198
35.1041   207
35.1141   231
35.1241   214
35.1341   226
35.1441   230
35.1541   255
35.1641   210
35.1741   189
35.1841   197
35.1941   188
35.2041   230
35.2141   192
35.2241   194
35.2341   211
35.2441   212
35.2541   222
35.2641   204
35.2741   205
35.2841   230
35.2941   207
35.3041   196
35.3141   218
35.3241   219
35.3341   223
35.3441   223
35.3541   200
35.3641   180
35.3741   212
35.3841   231
35.3941   204
35.4041   237
35.4141   208
35.4241   186
35.4341   206
35.4441   218
35.4541   198
35.4641   185
35.4741   207
35.4841   211
35.4941   208
35.5041   173
35.5141   218
35.5241   219
35.5341   182
35.5441   190
35.5541   213
35.5641   185
35.5741   199
35.5841   191
35.5941   199
35.6041   201
35.6141   185
35.6241   201
35.6341   197
35.6441   169
35.6541   183
35.6641   185
35.6741   187
35.6841   195
35.6941   188
35.7041   193
35.7141   193
35.7241   186
35.7341   200
35.7441   203
35.7541   220
35.7641   176
35.7741   202
35.7841   184
35.7941   165
35.8041   206
35.8141   189
35.8241   197
35.8341   199
35.8441   186
35.8541   194
35.8641   187
35.8741   201
35.8841   195
35.8941   206
35.9041   199
35.9141   176
35.9241   165
35.9341   200
35.9441   195
35.9541   183
35.9641   202
35.9741   186
35.9841   172
35.9941   197
36.0041   176
36.0141   179
36.0241   204
36.0341   165
36.0441   171
36.0541   164
36.0641   180
36.0741   179
36.0841   187
36.0941   175
36.1041   172
36.1141   184
36.1241   203
36.1341   197
36.1441   163
36.1541   153
36.1641   168
36.1741   193
36.1841   182
36.1941   200
36.2041   162
36.2141   189
36.2241   162
36.2341   175
36.2441   172
36.2541   161
36.2641   178
36.2741   185
36.2841   175
36.2941   180
36.3041   188
36.3141   172
36.3241   175
36.3341   174
36.3441   169
36.3541   164
36.3641   163
36.3741   174
36.3841   162
36.3941   184
36.4041   169
36.4141   167
36.4241   147
36.4341   162
36.4441   191
36.4541   182
36.4641   134
36.4741   190
36.4841   166
36.4941   155
36.5041   156
36.5141   182
36.5241   166
36.5341   161
36.5441   153
36.5541   162
36.5641   160
36.5741   167
36.5841   166
36.5941   158
36.6041   159
36.6141   150
36.6241   145
36.6341   165
36.6441   161
36.6541   157
36.6641   154
36.6741   159
36.6841   145
36.6941   158
36.7041   153
36.7141   159
36.7241   147
36.7341   150
36.7441   160
36.7541   154
36.7641   151
36.7741   153
36.7841   127
36.7941   166
36.8041   149
36.8141   138
36.8241   138
36.8341   149
36.8441   135
36.8541   155
36.8641   151
36.8741   162
36.8841   135
36.8941   161
36.9041   164
36.9141   148
36.9241   137
36.9341   165
36.9441   139
36.9541   150
36.9641   144
36.9741   155
36.9841   136
36.9941   153
37.0041   148
37.0141   154
37.0241   118
37.0341   128
37.0441   156
37.0541   135
37.0641   150
37.0741   148
37.0841   140
37.0941   158
37.1041   146
37.1141   138
37.1241   137
37.1341   152
37.1441   127
37.1541   145
37.1641   137
37.1741   140
37.1841   151
37.1941   116
37.2041   138
37.2141   134
37.2241   140
37.2341   148
37.2441   131
37.2541   139
37.2641   131
37.2741   133
37.2841   137
37.2941   142
37.3041   133
37.3141   127
37.3241   144
37.3341   143
37.3441   141
37.3541   142
37.3641   131
37.3741   134
37.3841   114
37.3941   113
37.4041   141
37.4141   153
37.4241   122
37.4341   139
37.4441   119
37.4541   126
37.4641   121
37.4741   124
37.4841   153
37.4941   127
37.5041   126
37.5141   129
37.5241   112
37.5341   127
37.5441   148
37.5541   132
37.5641   101
37.5741   124
37.5841   129
37.5941   119
37.6041   150
37.6141   126
37.6241   104
37.6341   104
37.6441   110
37.6541   106
37.6641   117
37.6741   114
37.6841   133
37.6941   102
37.7041   119
37.7141   121
37.7241   140
37.7341   114
37.7441   130
37.7541   120
37.7641   137
37.7741   136
37.7841   118
37.7941   121
37.8041   118
37.8141   120
37.8241   116
37.8341   118
37.8441   126
37.8541   127
37.8641   128
37.8741   107
37.8841   116
37.8941   108
37.9041   129
37.9141   114
37.9241   115
37.9341   126
37.9441   114
37.9541   118
37.9641    96
37.9741   122
37.9841   121
37.9941   123
38.0041   109
38.0141   118
38.0241   104
38.0341   128
38.0441   130
38.0541   107
38.0641   124
38.0741   101
38.0841   113
38.0941   107
38.1041   101
38.1141   110
38.1241    96
38.1341   113
38.1441   121
38.1541   106
38.1641   130
38.1741   124
38.1841   108
38.1941    92
38.2041   103
38.2141   105
38.2241   101
38.2341   128
38.2441    92
38.2541   110
38.2641    87
38.2741   101
38.2841   104
38.2941   100
38.3041    97
38.3141   104
38.3241   107
38.3341   106
38.3441   115
38.3541   103
38.3641    95
38.3741   114
38.3841   113
38.3941    88
38.4041    98
38.4141   104
38.4241    92
38.4341   103
38.4441    84
38.4541   100
38.4641   112
38.4741    97
38.4841   109
38.4941    90
38.5041    93
38.5141    97
38.5241    99
38.5341    97
38.5441    89
38.5541   115
38.5641    92
38.5741    94
38.5841    90
38.5941    84
38.6041    94
38.6141    80
38.6241    83
38.6341    87
38.6441   100
38.6541   104
38.6641    95
38.6741    99
38.6841    86
38.6941    96
38.7041    85
38.7141    86
38.7241    96
38.7341    80
38.7441    97
38.7541    95
38.7641    85
38.7741    93
38.7841   100
38.7941    90
38.8041    85
38.8141    88
38.8241    95
38.8341    95
38.8441   109
38.8541    92
38.8641    81
38.8741    92
38.8841    98
38.8941    75
38.9041    87
38.9141    86
38.9241   113
38.9341    90
38.9441    93
38.9541    95
38.9641    86
38.9741    88
38.9841    76
38.9941    81
39.0041    85
39.0141    83
39.0241    87
39.0341    92
39.0441    94
39.0541    90
39.0641    91
39.0741    91
39.0841    88
39.0941    70
39.1041    89
39.1141    76
39.1241    71
39.1341    81
39.1441    69
39.1541    73
39.1641    84
39.1741    76
39.1841    72
39.1941    82
39.2041    75
39.2141    77
39.2241    83
39.2341    85
39.2441    62
39.2541    72
39.2641    70
39.2741    81
39.2841    69
39.2941    81
39.3041    82
39.3141    85
39.3241    85
39.3341    60
39.3441    72
39.3541    80
39.3641    69
39.3741    81
39.3841    82
39.3941    69
39.4041    66
39.4141    78
39.4241    61
39.4341    60
39.4441    71
39.4541    70
39.4641    68
39.4741    83
39.4841    56
39.4941    75
39.5041    63
39.5141    81
39.5241    60
39.5341    65
39.5441    71
39.5541    55
39.5641    73
39.5741    71
39.5841    68
39.5941    83
39.6041    71
39.6141    69
39.6241    59
39.6341    71
39.6441    67
39.6541    80
39.6641    74
39.6741    64
39.6841    65
39.6941    60
39.7041    55
39.7141    68
39.7241    69
39.7341    60
39.7441    63
39.7541    50
39.7641    61
39.7741    63
39.7841    57
39.7941    63
39.8041    72
39.8141    56
39.8241    67
39.8341    52
39.8441    60
39.8541    80
39.8641    77
39.8741    56
39.8841    68
39.8941    65
39.9041    75
39.9141    64
39.9241    70
39.9341    67
39.9441    59
39.9541    80
39.9641    61
39.9741    56
39.9841    47
39.9941    51
