Bruker Nano GmbH Berlin, Germany
Esprit 1.9

Date: 5/14/2021 1:29:50 PM
Real time: 16218
Life time: 15156
Pulse density: 97761


Detector type: XFlash 430
Window type: Custom type
Detector thickness: 0.45
Si dead layer:0.029

Calibration, lin.: 10
Calibration, abs.: -955.9
Mn FWHM: 137.05
Fano factor: 0.121
Channels: 4095

Energy Counts
-0.9559     0
-0.9459     0
-0.9359     0
-0.9259     0
-0.9159     0
-0.9059     0
-0.8959     0
-0.8859     0
-0.8759     0
-0.8659     0
-0.8559     0
-0.8459     0
-0.8359     0
-0.8259     0
-0.8159     0
-0.8059     0
-0.7959     0
-0.7859     0
-0.7759     0
-0.7659     0
-0.7559     0
-0.7459     0
-0.7359     0
-0.7259     0
-0.7159     0
-0.7059     0
-0.6959     0
-0.6859     0
-0.6759     0
-0.6659     0
-0.6559     0
-0.6459     0
-0.6359     0
-0.6259     0
-0.6159     0
-0.6059     0
-0.5959     0
-0.5859     0
-0.5759     0
-0.5659     0
-0.5559     0
-0.5459     0
-0.5359     0
-0.5259     0
-0.5159     0
-0.5059     0
-0.4959     0
-0.4859     0
-0.4759     0
-0.4659     0
-0.4559     0
-0.4459     0
-0.4359     0
-0.4259     0
-0.4159     0
-0.4059     0
-0.3959     0
-0.3859     0
-0.3759     0
-0.3659     0
-0.3559     0
-0.3459     0
-0.3359     0
-0.3259     0
-0.3159     0
-0.3059     0
-0.2959     0
-0.2859     0
-0.2759     0
-0.2659     0
-0.2559     0
-0.2459     0
-0.2359     0
-0.2259     0
-0.2159     0
-0.2059     0
-0.1959     0
-0.1859     0
-0.1759     0
-0.1659     0
-0.1559     0
-0.1459     0
-0.1359     0
-0.1259     2
-0.1159     1
-0.1059    12
-0.0959    43
-0.0859   161
-0.0759   608
-0.0659  1688
-0.0559  4496
-0.0459  9689
-0.0359 17991
-0.0259 28831
-0.0159 39991
-0.0059 46507
 0.0041 46487
 0.0141 40035
 0.0241 29525
 0.0341 18832
 0.0441 10231
 0.0541  4732
 0.0641  1973
 0.0741   662
 0.0841   186
 0.0941    67
 0.1041    16
 0.1141    13
 0.1241     7
 0.1341     4
 0.1441     4
 0.1541     1
 0.1641     5
 0.1741     1
 0.1841   132
 0.1941   255
 0.2041   218
 0.2141   235
 0.2241   209
 0.2341   216
 0.2441   221
 0.2541   237
 0.2641   238
 0.2741   236
 0.2841   258
 0.2941   233
 0.3041   225
 0.3141   224
 0.3241   232
 0.3341   229
 0.3441   222
 0.3541   221
 0.3641   194
 0.3741   189
 0.3841   206
 0.3941   216
 0.4041   200
 0.4141   207
 0.4241   203
 0.4341   192
 0.4441   199
 0.4541   204
 0.4641   197
 0.4741   201
 0.4841   193
 0.4941   201
 0.5041   187
 0.5141   202
 0.5241   198
 0.5341   198
 0.5441   196
 0.5541   195
 0.5641   201
 0.5741   204
 0.5841   201
 0.5941   186
 0.6041   181
 0.6141   192
 0.6241   186
 0.6341   185
 0.6441   183
 0.6541   183
 0.6641   200
 0.6741   177
 0.6841   169
 0.6941   176
 0.7041   169
 0.7141   165
 0.7241   175
 0.7341   164
 0.7441   157
 0.7541   169
 0.7641   178
 0.7741   182
 0.7841   175
 0.7941   171
 0.8041   159
 0.8141   163
 0.8241   168
 0.8341   151
 0.8441   163
 0.8541   160
 0.8641   147
 0.8741   154
 0.8841   159
 0.8941   161
 0.9041   172
 0.9141   163
 0.9241   151
 0.9341   165
 0.9441   154
 0.9541   152
 0.9641   156
 0.9741   152
 0.9841   140
 0.9941   147
 1.0041   143
 1.0141   152
 1.0241   151
 1.0341   149
 1.0441   144
 1.0541   168
 1.0641   141
 1.0741   143
 1.0841   166
 1.0941   132
 1.1041   139
 1.1141   141
 1.1241   131
 1.1341   153
 1.1441   155
 1.1541   155
 1.1641   159
 1.1741   163
 1.1841   143
 1.1941   137
 1.2041   128
 1.2141   157
 1.2241   149
 1.2341   162
 1.2441   131
 1.2541   136
 1.2641   137
 1.2741   136
 1.2841   143
 1.2941   133
 1.3041   133
 1.3141   125
 1.3241   134
 1.3341   134
 1.3441   149
 1.3541   146
 1.3641   146
 1.3741   133
 1.3841   131
 1.3941   136
 1.4041   134
 1.4141   155
 1.4241   146
 1.4341   140
 1.4441   147
 1.4541   135
 1.4641   130
 1.4741   129
 1.4841   130
 1.4941   132
 1.5041   127
 1.5141   122
 1.5241   124
 1.5341   117
 1.5441   140
 1.5541   143
 1.5641   134
 1.5741   135
 1.5841   117
 1.5941   131
 1.6041   124
 1.6141   137
 1.6241   122
 1.6341   136
 1.6441   150
 1.6541   178
 1.6641   212
 1.6741   267
 1.6841   310
 1.6941   391
 1.7041   458
 1.7141   555
 1.7241   616
 1.7341   621
 1.7441   594
 1.7541   544
 1.7641   543
 1.7741   486
 1.7841   386
 1.7941   311
 1.8041   256
 1.8141   217
 1.8241   189
 1.8341   171
 1.8441   171
 1.8541   171
 1.8641   162
 1.8741   168
 1.8841   149
 1.8941   136
 1.9041   127
 1.9141   116
 1.9241   151
 1.9341   132
 1.9441   138
 1.9541   128
 1.9641   147
 1.9741   156
 1.9841   167
 1.9941   177
 2.0041   179
 2.0141   160
 2.0241   171
 2.0341   144
 2.0441   157
 2.0541   140
 2.0641   135
 2.0741   139
 2.0841   144
 2.0941   146
 2.1041   136
 2.1141   123
 2.1241   133
 2.1341   110
 2.1441   120
 2.1541   105
 2.1641   131
 2.1741   113
 2.1841   133
 2.1941   133
 2.2041   115
 2.2141   113
 2.2241    90
 2.2341   133
 2.2441   120
 2.2541   114
 2.2641   124
 2.2741   130
 2.2841   126
 2.2941   116
 2.3041   118
 2.3141   106
 2.3241   105
 2.3341   110
 2.3441   117
 2.3541   117
 2.3641   104
 2.3741    90
 2.3841   117
 2.3941   107
 2.4041   108
 2.4141   105
 2.4241    98
 2.4341    98
 2.4441   105
 2.4541   110
 2.4641   121
 2.4741    98
 2.4841   126
 2.4941    90
 2.5041    81
 2.5141   107
 2.5241   101
 2.5341   105
 2.5441   114
 2.5541    92
 2.5641   105
 2.5741   103
 2.5841   114
 2.5941   101
 2.6041   107
 2.6141   105
 2.6241   110
 2.6341    99
 2.6441   103
 2.6541    96
 2.6641   102
 2.6741   112
 2.6841   100
 2.6941    93
 2.7041    82
 2.7141   109
 2.7241    96
 2.7341   102
 2.7441    92
 2.7541   100
 2.7641    98
 2.7741    93
 2.7841   107
 2.7941    93
 2.8041    91
 2.8141   102
 2.8241   108
 2.8341    85
 2.8441   116
 2.8541   113
 2.8641   108
 2.8741    82
 2.8841    84
 2.8941   110
 2.9041    91
 2.9141    85
 2.9241    79
 2.9341    92
 2.9441    78
 2.9541    87
 2.9641    80
 2.9741   103
 2.9841    88
 2.9941    79
 3.0041    86
 3.0141    94
 3.0241    88
 3.0341    98
 3.0441    96
 3.0541    94
 3.0641    83
 3.0741    77
 3.0841    79
 3.0941    74
 3.1041    92
 3.1141    83
 3.1241    85
 3.1341    93
 3.1441    80
 3.1541    86
 3.1641   102
 3.1741    79
 3.1841    97
 3.1941    77
 3.2041    94
 3.2141    97
 3.2241   108
 3.2341   103
 3.2441   111
 3.2541   140
 3.2641   154
 3.2741   137
 3.2841   196
 3.2941   166
 3.3041   184
 3.3141   195
 3.3241   179
 3.3341   177
 3.3441   171
 3.3541   157
 3.3641   143
 3.3741   137
 3.3841   121
 3.3941    93
 3.4041   100
 3.4141    99
 3.4241    72
 3.4341    81
 3.4441    69
 3.4541    80
 3.4641    77
 3.4741    80
 3.4841    82
 3.4941    87
 3.5041    77
 3.5141    82
 3.5241    86
 3.5341    92
 3.5441    97
 3.5541   106
 3.5641   125
 3.5741   171
 3.5841   195
 3.5941   226
 3.6041   297
 3.6141   369
 3.6241   472
 3.6341   616
 3.6441   735
 3.6541   858
 3.6641   950
 3.6741   965
 3.6841  1070
 3.6941  1034
 3.7041  1028
 3.7141   951
 3.7241   804
 3.7341   706
 3.7441   570
 3.7541   469
 3.7641   390
 3.7741   293
 3.7841   208
 3.7941   166
 3.8041   137
 3.8141   108
 3.8241    92
 3.8341    79
 3.8441    82
 3.8541    74
 3.8641    77
 3.8741    74
 3.8841    77
 3.8941    82
 3.9041    82
 3.9141    90
 3.9241   102
 3.9341    93
 3.9441   113
 3.9541   145
 3.9641   158
 3.9741   164
 3.9841   192
 3.9941   188
 4.0041   234
 4.0141   208
 4.0241   193
 4.0341   197
 4.0441   179
 4.0541   187
 4.0641   137
 4.0741   124
 4.0841   123
 4.0941   105
 4.1041    77
 4.1141    62
 4.1241    72
 4.1341    79
 4.1441    79
 4.1541    60
 4.1641    51
 4.1741    50
 4.1841    53
 4.1941    67
 4.2041    66
 4.2141    54
 4.2241    60
 4.2341    51
 4.2441    56
 4.2541    57
 4.2641    53
 4.2741    54
 4.2841    66
 4.2941    69
 4.3041    69
 4.3141    73
 4.3241    68
 4.3341    57
 4.3441    63
 4.3541    59
 4.3641    69
 4.3741    75
 4.3841    75
 4.3941    96
 4.4041   122
 4.4141   139
 4.4241   161
 4.4341   203
 4.4441   216
 4.4541   264
 4.4641   296
 4.4741   308
 4.4841   354
 4.4941   351
 4.5041   379
 4.5141   377
 4.5241   358
 4.5341   356
 4.5441   288
 4.5541   291
 4.5641   219
 4.5741   187
 4.5841   172
 4.5941   140
 4.6041   142
 4.6141    98
 4.6241   106
 4.6341    75
 4.6441    89
 4.6541    73
 4.6641    77
 4.6741    73
 4.6841    70
 4.6941    50
 4.7041    84
 4.7141    61
 4.7241    73
 4.7341    75
 4.7441    59
 4.7541    70
 4.7641    83
 4.7741    89
 4.7841    94
 4.7941   100
 4.8041   106
 4.8141    99
 4.8241    99
 4.8341    95
 4.8441   105
 4.8541   111
 4.8641   138
 4.8741   154
 4.8841   139
 4.8941   137
 4.9041   143
 4.9141   127
 4.9241   136
 4.9341   175
 4.9441   158
 4.9541   127
 4.9641   135
 4.9741   137
 4.9841   116
 4.9941   108
 5.0041    93
 5.0141    85
 5.0241    85
 5.0341    98
 5.0441    85
 5.0541    81
 5.0641    76
 5.0741    79
 5.0841    83
 5.0941    82
 5.1041    83
 5.1141    63
 5.1241    76
 5.1341    68
 5.1441    77
 5.1541    78
 5.1641    74
 5.1741    78
 5.1841    61
 5.1941    61
 5.2041    70
 5.2141    73
 5.2241    77
 5.2341    60
 5.2441    63
 5.2541    69
 5.2641    60
 5.2741    59
 5.2841    63
 5.2941    70
 5.3041    65
 5.3141    80
 5.3241    84
 5.3341    81
 5.3441    88
 5.3541    91
 5.3641    80
 5.3741   100
 5.3841   107
 5.3941   106
 5.4041    89
 5.4141    94
 5.4241   102
 5.4341    99
 5.4441   106
 5.4541   112
 5.4641    89
 5.4741    94
 5.4841    94
 5.4941    93
 5.5041    82
 5.5141    83
 5.5241   103
 5.5341    88
 5.5441    92
 5.5541    90
 5.5641    87
 5.5741    97
 5.5841    72
 5.5941    87
 5.6041    76
 5.6141    79
 5.6241    82
 5.6341    81
 5.6441    77
 5.6541    85
 5.6641    85
 5.6741    76
 5.6841    69
 5.6941    85
 5.7041    90
 5.7141    76
 5.7241    81
 5.7341   101
 5.7441   126
 5.7541   121
 5.7641   140
 5.7741   164
 5.7841   175
 5.7941   202
 5.8041   257
 5.8141   281
 5.8241   326
 5.8341   430
 5.8441   492
 5.8541   531
 5.8641   536
 5.8741   593
 5.8841   604
 5.8941   611
 5.9041   631
 5.9141   622
 5.9241   560
 5.9341   525
 5.9441   470
 5.9541   383
 5.9641   362
 5.9741   282
 5.9841   236
 5.9941   203
 6.0041   156
 6.0141   159
 6.0241   142
 6.0341   119
 6.0441   109
 6.0541   107
 6.0641   106
 6.0741   108
 6.0841   117
 6.0941   125
 6.1041   131
 6.1141   132
 6.1241   111
 6.1341   121
 6.1441   145
 6.1541   159
 6.1641   166
 6.1741   197
 6.1841   190
 6.1941   255
 6.2041   342
 6.2141   443
 6.2241   539
 6.2341   756
 6.2441  1087
 6.2541  1542
 6.2641  2002
 6.2741  2910
 6.2841  3992
 6.2941  5262
 6.3041  6627
 6.3141  8492
 6.3241 10304
 6.3341 12533
 6.3441 14698
 6.3541 16685
 6.3641 18560
 6.3741 20169
 6.3841 21213
 6.3941 21481
 6.4041 21499
 6.4141 20795
 6.4241 19816
 6.4341 18083
 6.4441 16176
 6.4541 14136
 6.4641 12017
 6.4741  9885
 6.4841  7871
 6.4941  6190
 6.5041  4674
 6.5141  3465
 6.5241  2560
 6.5341  1857
 6.5441  1254
 6.5541   895
 6.5641   667
 6.5741   511
 6.5841   346
 6.5941   262
 6.6041   206
 6.6141   188
 6.6241   162
 6.6341   165
 6.6441   142
 6.6541   141
 6.6641   163
 6.6741   151
 6.6841   145
 6.6941   122
 6.7041   169
 6.7141   155
 6.7241   122
 6.7341   139
 6.7441   144
 6.7541   153
 6.7641   144
 6.7741   150
 6.7841   188
 6.7941   156
 6.8041   219
 6.8141   166
 6.8241   193
 6.8341   184
 6.8441   214
 6.8541   220
 6.8641   239
 6.8741   276
 6.8841   318
 6.8941   382
 6.9041   462
 6.9141   526
 6.9241   687
 6.9341   819
 6.9441   988
 6.9541  1175
 6.9641  1496
 6.9741  1769
 6.9841  2051
 6.9941  2403
 7.0041  2705
 7.0141  3135
 7.0241  3319
 7.0341  3523
 7.0441  3555
 7.0541  3627
 7.0641  3639
 7.0741  3554
 7.0841  3391
 7.0941  2991
 7.1041  2758
 7.1141  2348
 7.1241  2023
 7.1341  1658
 7.1441  1436
 7.1541  1157
 7.1641   938
 7.1741   772
 7.1841   587
 7.1941   414
 7.2041   357
 7.2141   269
 7.2241   257
 7.2341   218
 7.2441   183
 7.2541   161
 7.2641   168
 7.2741   163
 7.2841   195
 7.2941   187
 7.3041   150
 7.3141   154
 7.3241   167
 7.3341   179
 7.3441   182
 7.3541   211
 7.3641   203
 7.3741   203
 7.3841   212
 7.3941   209
 7.4041   235
 7.4141   214
 7.4241   196
 7.4341   215
 7.4441   193
 7.4541   215
 7.4641   223
 7.4741   215
 7.4841   195
 7.4941   160
 7.5041   178
 7.5141   196
 7.5241   184
 7.5341   187
 7.5441   165
 7.5541   163
 7.5641   146
 7.5741   140
 7.5841   173
 7.5941   162
 7.6041   158
 7.6141   166
 7.6241   155
 7.6341   155
 7.6441   138
 7.6541   153
 7.6641   169
 7.6741   184
 7.6841   172
 7.6941   183
 7.7041   182
 7.7141   162
 7.7241   164
 7.7341   164
 7.7441   172
 7.7541   187
 7.7641   173
 7.7741   199
 7.7841   195
 7.7941   179
 7.8041   207
 7.8141   207
 7.8241   196
 7.8341   213
 7.8441   205
 7.8541   232
 7.8641   260
 7.8741   245
 7.8841   255
 7.8941   254
 7.9041   253
 7.9141   258
 7.9241   276
 7.9341   298
 7.9441   341
 7.9541   350
 7.9641   392
 7.9741   428
 7.9841   450
 7.9941   474
 8.0041   462
 8.0141   550
 8.0241   649
 8.0341   648
 8.0441   653
 8.0541   733
 8.0641   803
 8.0741   807
 8.0841   861
 8.0941   863
 8.1041   908
 8.1141   915
 8.1241  1002
 8.1341  1032
 8.1441  1065
 8.1541  1018
 8.1641  1101
 8.1741  1055
 8.1841  1081
 8.1941  1051
 8.2041  1077
 8.2141  1126
 8.2241  1129
 8.2341  1168
 8.2441  1158
 8.2541  1206
 8.2641  1171
 8.2741  1305
 8.2841  1407
 8.2941  1444
 8.3041  1570
 8.3141  1756
 8.3241  1891
 8.3341  1921
 8.3441  2062
 8.3541  2327
 8.3641  2300
 8.3741  2324
 8.3841  2419
 8.3941  2372
 8.4041  2413
 8.4141  2351
 8.4241  2243
 8.4341  2027
 8.4441  1868
 8.4541  1624
 8.4641  1468
 8.4741  1347
 8.4841  1121
 8.4941  1037
 8.5041   902
 8.5141   747
 8.5241   676
 8.5341   606
 8.5441   570
 8.5541   580
 8.5641   575
 8.5741   550
 8.5841   533
 8.5941   556
 8.6041   580
 8.6141   610
 8.6241   577
 8.6341   604
 8.6441   571
 8.6541   601
 8.6641   540
 8.6741   542
 8.6841   531
 8.6941   470
 8.7041   441
 8.7141   394
 8.7241   349
 8.7341   320
 8.7441   356
 8.7541   331
 8.7641   278
 8.7741   269
 8.7841   259
 8.7941   250
 8.8041   226
 8.8141   231
 8.8241   238
 8.8341   245
 8.8441   217
 8.8541   220
 8.8641   220
 8.8741   239
 8.8841   243
 8.8941   256
 8.9041   247
 8.9141   233
 8.9241   239
 8.9341   244
 8.9441   248
 8.9541   249
 8.9641   259
 8.9741   253
 8.9841   286
 8.9941   280
 9.0041   297
 9.0141   300
 9.0241   291
 9.0341   301
 9.0441   294
 9.0541   301
 9.0641   311
 9.0741   347
 9.0841   356
 9.0941   361
 9.1041   367
 9.1141   387
 9.1241   412
 9.1341   410
 9.1441   449
 9.1541   447
 9.1641   455
 9.1741   518
 9.1841   491
 9.1941   531
 9.2041   558
 9.2141   601
 9.2241   623
 9.2341   677
 9.2441   669
 9.2541   714
 9.2641   702
 9.2741   803
 9.2841   809
 9.2941   829
 9.3041   864
 9.3141   905
 9.3241   929
 9.3341   971
 9.3441   989
 9.3541   980
 9.3641   966
 9.3741  1017
 9.3841  1047
 9.3941  1061
 9.4041  1054
 9.4141  1020
 9.4241  1068
 9.4341  1056
 9.4441  1089
 9.4541  1122
 9.4641  1155
 9.4741  1177
 9.4841  1187
 9.4941  1177
 9.5041  1151
 9.5141  1241
 9.5241  1223
 9.5341  1284
 9.5441  1328
 9.5541  1420
 9.5641  1503
 9.5741  1641
 9.5841  1662
 9.5941  1737
 9.6041  1928
 9.6141  1939
 9.6241  2081
 9.6341  2187
 9.6441  2169
 9.6541  2253
 9.6641  2239
 9.6741  2242
 9.6841  2165
 9.6941  2093
 9.7041  2031
 9.7141  2015
 9.7241  1851
 9.7341  1725
 9.7441  1590
 9.7541  1474
 9.7641  1398
 9.7741  1285
 9.7841  1163
 9.7941  1156
 9.8041  1064
 9.8141   961
 9.8241   940
 9.8341   932
 9.8441   907
 9.8541   889
 9.8641   855
 9.8741   910
 9.8841   936
 9.8941   955
 9.9041   925
 9.9141   981
 9.9241   956
 9.9341  1020
 9.9441   983
 9.9541   973
 9.9641   976
 9.9741   942
 9.9841   909
 9.9941   854
10.0041   834
10.0141   759
10.0241   730
10.0341   641
10.0441   578
10.0541   522
10.0641   465
10.0741   428
10.0841   411
10.0941   343
10.1041   336
10.1141   298
10.1241   259
10.1341   256
10.1441   237
10.1541   223
10.1641   223
10.1741   219
10.1841   192
10.1941   195
10.2041   192
10.2141   184
10.2241   207
10.2341   189
10.2441   170
10.2541   175
10.2641   172
10.2741   157
10.2841   152
10.2941   175
10.3041   174
10.3141   163
10.3241   150
10.3341   162
10.3441   171
10.3541   158
10.3641   130
10.3741   130
10.3841   128
10.3941   134
10.4041   141
10.4141   127
10.4241   131
10.4341   138
10.4441   138
10.4541   144
10.4641   134
10.4741   140
10.4841   142
10.4941   162
10.5041   164
10.5141   154
10.5241   147
10.5341   139
10.5441   138
10.5541   137
10.5641   138
10.5741   154
10.5841   162
10.5941   156
10.6041   158
10.6141   167
10.6241   162
10.6341   150
10.6441   158
10.6541   149
10.6641   158
10.6741   163
10.6841   155
10.6941   167
10.7041   185
10.7141   183
10.7241   166
10.7341   171
10.7441   185
10.7541   186
10.7641   188
10.7741   211
10.7841   199
10.7941   220
10.8041   209
10.8141   209
10.8241   237
10.8341   227
10.8441   232
10.8541   229
10.8641   209
10.8741   230
10.8841   242
10.8941   213
10.9041   221
10.9141   252
10.9241   230
10.9341   226
10.9441   224
10.9541   233
10.9641   234
10.9741   228
10.9841   232
10.9941   229
11.0041   204
11.0141   199
11.0241   231
11.0341   204
11.0441   203
11.0541   224
11.0641   236
11.0741   207
11.0841   202
11.0941   202
11.1041   204
11.1141   200
11.1241   200
11.1341   218
11.1441   222
11.1541   229
11.1641   239
11.1741   244
11.1841   253
11.1941   264
11.2041   279
11.2141   273
11.2241   305
11.2341   284
11.2441   291
11.2541   299
11.2641   322
11.2741   336
11.2841   338
11.2941   323
11.3041   305
11.3141   291
11.3241   310
11.3341   295
11.3441   280
11.3541   257
11.3641   241
11.3741   241
11.3841   232
11.3941   209
11.4041   183
11.4141   182
11.4241   200
11.4341   188
11.4441   183
11.4541   178
11.4641   172
11.4741   187
11.4841   188
11.4941   178
11.5041   174
11.5141   174
11.5241   170
11.5341   151
11.5441   165
11.5541   175
11.5641   162
11.5741   156
11.5841   169
11.5941   179
11.6041   188
11.6141   193
11.6241   178
11.6341   175
11.6441   171
11.6541   178
11.6641   186
11.6741   207
11.6841   187
11.6941   158
11.7041   166
11.7141   152
11.7241   157
11.7341   151
11.7441   128
11.7541   123
11.7641   123
11.7741   146
11.7841   129
11.7941   122
11.8041   130
11.8141   113
11.8241   112
11.8341   119
11.8441   141
11.8541   114
11.8641   105
11.8741   113
11.8841   117
11.8941   130
11.9041   132
11.9141   134
11.9241   138
11.9341   122
11.9441   130
11.9541   134
11.9641   130
11.9741   122
11.9841   127
11.9941   140
12.0041   142
12.0141   138
12.0241   127
12.0341   130
12.0441   131
12.0541   122
12.0641   130
12.0741   126
12.0841   131
12.0941   136
12.1041   126
12.1141   123
12.1241   124
12.1341   128
12.1441   119
12.1541   104
12.1641   107
12.1741   115
12.1841   119
12.1941   112
12.2041   118
12.2141   124
12.2241   116
12.2341   107
12.2441   116
12.2541   120
12.2641   115
12.2741   114
12.2841   110
12.2941   119
12.3041   117
12.3141   119
12.3241   115
12.3341   111
12.3441   109
12.3541   114
12.3641   121
12.3741   118
12.3841   118
12.3941   121
12.4041   128
12.4141   143
12.4241   131
12.4341   125
12.4441   123
12.4541   123
12.4641   126
12.4741   130
12.4841   125
12.4941   131
12.5041   136
12.5141   134
12.5241   142
12.5341   146
12.5441   145
12.5541   146
12.5641   137
12.5741   130
12.5841   138
12.5941   141
12.6041   146
12.6141   139
12.6241   147
12.6341   146
12.6441   141
12.6541   140
12.6641   137
12.6741   142
12.6841   144
12.6941   138
12.7041   137
12.7141   158
12.7241   159
12.7341   148
12.7441   145
12.7541   142
12.7641   143
12.7741   146
12.7841   147
12.7941   148
12.8041   148
12.8141   146
12.8241   144
12.8341   146
12.8441   148
12.8541   150
12.8641   151
12.8741   151
12.8841   148
12.8941   146
12.9041   148
12.9141   150
12.9241   148
12.9341   147
12.9441   149
12.9541   149
12.9641   149
12.9741   150
12.9841   153
12.9941   155
13.0041   153
13.0141   152
13.0241   153
13.0341   157
13.0441   159
13.0541   160
13.0641   159
13.0741   160
13.0841   162
13.0941   162
13.1041   159
13.1141   158
13.1241   161
13.1341   165
13.1441   166
13.1541   165
13.1641   165
13.1741   165
13.1841   165
13.1941   170
13.2041   176
13.2141   177
13.2241   182
13.2341   184
13.2441   184
13.2541   191
13.2641   211
13.2741   214
13.2841   219
13.2941   223
13.3041   218
13.3141   229
13.3241   227
13.3341   240
13.3441   245
13.3541   245
13.3641   253
13.3741   262
13.3841   257
13.3941   255
13.4041   266
13.4141   261
13.4241   251
13.4341   240
13.4441   240
13.4541   237
13.4641   243
13.4741   236
13.4841   217
13.4941   201
13.5041   193
13.5141   194
13.5241   186
13.5341   180
13.5441   186
13.5541   189
13.5641   183
13.5741   182
13.5841   179
13.5941   176
13.6041   190
13.6141   189
13.6241   182
13.6341   185
13.6441   184
13.6541   162
13.6641   150
13.6741   174
13.6841   194
13.6941   183
13.7041   181
13.7141   190
13.7241   185
13.7341   175
13.7441   175
13.7541   185
13.7641   179
13.7741   176
13.7841   182
13.7941   182
13.8041   177
13.8141   181
13.8241   183
13.8341   176
13.8441   177
13.8541   180
13.8641   186
13.8741   202
13.8841   212
13.8941   218
13.9041   210
13.9141   199
13.9241   215
13.9341   241
13.9441   276
13.9541   287
13.9641   287
13.9741   298
13.9841   321
13.9941   355
14.0041   397
14.0141   436
14.0241   447
14.0341   464
14.0441   512
14.0541   543
14.0641   591
14.0741   641
14.0841   647
14.0941   697
14.1041   760
14.1141   775
14.1241   766
14.1341   794
14.1441   808
14.1541   768
14.1641   740
14.1741   733
14.1841   739
14.1941   734
14.2041   702
14.2141   653
14.2241   578
14.2341   548
14.2441   515
14.2541   459
14.2641   459
14.2741   411
14.2841   343
14.2941   335
14.3041   329
14.3141   306
14.3241   286
14.3341   272
14.3441   268
14.3541   245
14.3641   227
14.3741   241
14.3841   232
14.3941   226
14.4041   223
14.4141   214
14.4241   221
14.4341   218
14.4441   185
14.4541   191
14.4641   213
14.4741   213
14.4841   199
14.4941   199
14.5041   211
14.5141   206
14.5241   197
14.5341   210
14.5441   224
14.5541   224
14.5641   205
14.5741   200
14.5841   211
14.5941   208
14.6041   196
14.6141   211
14.6241   215
14.6341   208
14.6441   206
14.6541   207
14.6641   223
14.6741   225
14.6841   206
14.6941   209
14.7041   205
14.7141   211
14.7241   223
14.7341   213
14.7441   218
14.7541   239
14.7641   248
14.7741   237
14.7841   232
14.7941   228
14.8041   216
14.8141   226
14.8241   234
14.8341   229
14.8441   227
14.8541   245
14.8641   254
14.8741   240
14.8841   236
14.8941   241
14.9041   252
14.9141   252
14.9241   263
14.9341   249
14.9441   233
14.9541   239
14.9641   245
14.9741   257
14.9841   253
14.9941   254
15.0041   257
15.0141   240
15.0241   238
15.0341   247
15.0441   258
15.0541   261
15.0641   252
15.0741   234
15.0841   231
15.0941   222
15.1041   230
15.1141   242
15.1241   239
15.1341   257
15.1441   266
15.1541   248
15.1641   241
15.1741   256
15.1841   256
15.1941   232
15.2041   214
15.2141   244
15.2241   248
15.2341   234
15.2441   228
15.2541   236
15.2641   257
15.2741   256
15.2841   233
15.2941   246
15.3041   263
15.3141   248
15.3241   243
15.3341   238
15.3441   251
15.3541   257
15.3641   257
15.3741   238
15.3841   227
15.3941   248
15.4041   246
15.4141   243
15.4241   258
15.4341   266
15.4441   283
15.4541   272
15.4641   255
15.4741   246
15.4841   274
15.4941   274
15.5041   262
15.5141   274
15.5241   269
15.5341   276
15.5441   289
15.5541   286
15.5641   287
15.5741   280
15.5841   292
15.5941   312
15.6041   306
15.6141   315
15.6241   337
15.6341   327
15.6441   321
15.6541   358
15.6641   380
15.6741   395
15.6841   419
15.6941   434
15.7041   443
15.7141   422
15.7241   443
15.7341   452
15.7441   460
15.7541   473
15.7641   467
15.7741   463
15.7841   487
15.7941   494
15.8041   504
15.8141   473
15.8241   461
15.8341   466
15.8441   473
15.8541   480
15.8641   443
15.8741   405
15.8841   417
15.8941   407
15.9041   388
15.9141   389
15.9241   370
15.9341   355
15.9441   336
15.9541   338
15.9641   332
15.9741   319
15.9841   330
15.9941   329
16.0041   311
16.0141   300
16.0241   313
16.0341   294
16.0441   287
16.0541   302
16.0641   303
16.0741   296
16.0841   292
16.0941   303
16.1041   312
16.1141   289
16.1241   292
16.1341   301
16.1441   295
16.1541   310
16.1641   326
16.1741   290
16.1841   281
16.1941   292
16.2041   295
16.2141   277
16.2241   304
16.2341   316
16.2441   312
16.2541   328
16.2641   329
16.2741   311
16.2841   318
16.2941   320
16.3041   295
16.3141   312
16.3241   304
16.3341   303
16.3441   297
16.3541   304
16.3641   298
16.3741   304
16.3841   300
16.3941   302
16.4041   277
16.4141   295
16.4241   310
16.4341   284
16.4441   303
16.4541   320
16.4641   331
16.4741   321
16.4841   304
16.4941   319
16.5041   305
16.5141   308
16.5241   315
16.5341   321
16.5441   313
16.5541   316
16.5641   328
16.5741   306
16.5841   317
16.5941   328
16.6041   323
16.6141   295
16.6241   324
16.6341   335
16.6441   324
16.6541   311
16.6641   314
16.6741   302
16.6841   317
16.6941   327
16.7041   333
16.7141   304
16.7241   312
16.7341   334
16.7441   328
16.7541   343
16.7641   327
16.7741   316
16.7841   329
16.7941   310
16.8041   305
16.8141   321
16.8241   333
16.8341   328
16.8441   327
16.8541   327
16.8641   338
16.8741   347
16.8841   337
16.8941   316
16.9041   324
16.9141   315
16.9241   315
16.9341   312
16.9441   336
16.9541   307
16.9641   340
16.9741   357
16.9841   336
16.9941   330
17.0041   327
17.0141   339
17.0241   348
17.0341   333
17.0441   356
17.0541   345
17.0641   326
17.0741   308
17.0841   335
17.0941   353
17.1041   328
17.1141   333
17.1241   333
17.1341   327
17.1441   325
17.1541   343
17.1641   340
17.1741   330
17.1841   329
17.1941   359
17.2041   353
17.2141   354
17.2241   330
17.2341   354
17.2441   344
17.2541   344
17.2641   353
17.2741   358
17.2841   353
17.2941   393
17.3041   353
17.3141   349
17.3241   363
17.3341   356
17.3441   346
17.3541   354
17.3641   375
17.3741   385
17.3841   341
17.3941   347
17.4041   329
17.4141   356
17.4241   351
17.4341   340
17.4441   363
17.4541   350
17.4641   333
17.4741   367
17.4841   355
17.4941   350
17.5041   360
17.5141   379
17.5241   367
17.5341   386
17.5441   384
17.5541   403
17.5641   394
17.5741   383
17.5841   367
17.5941   364
17.6041   398
17.6141   409
17.6241   397
17.6341   389
17.6441   346
17.6541   380
17.6641   393
17.6741   395
17.6841   414
17.6941   402
17.7041   403
17.7141   385
17.7241   386
17.7341   405
17.7441   394
17.7541   374
17.7641   387
17.7741   390
17.7841   375
17.7941   383
17.8041   377
17.8141   412
17.8241   401
17.8341   365
17.8441   383
17.8541   391
17.8641   362
17.8741   395
17.8841   358
17.8941   390
17.9041   384
17.9141   385
17.9241   392
17.9341   370
17.9441   385
17.9541   382
17.9641   375
17.9741   383
17.9841   396
17.9941   398
18.0041   407
18.0141   375
18.0241   381
18.0341   399
18.0441   391
18.0541   382
18.0641   391
18.0741   396
18.0841   374
18.0941   370
18.1041   361
18.1141   399
18.1241   382
18.1341   389
18.1441   384
18.1541   383
18.1641   399
18.1741   402
18.1841   381
18.1941   395
18.2041   366
18.2141   357
18.2241   381
18.2341   404
18.2441   399
18.2541   404
18.2641   402
18.2741   395
18.2841   410
18.2941   435
18.3041   411
18.3141   390
18.3241   383
18.3341   411
18.3441   423
18.3541   426
18.3641   396
18.3741   392
18.3841   401
18.3941   395
18.4041   408
18.4141   373
18.4241   382
18.4341   403
18.4441   390
18.4541   369
18.4641   378
18.4741   401
18.4841   391
18.4941   430
18.5041   426
18.5141   415
18.5241   438
18.5341   418
18.5441   421
18.5541   410
18.5641   382
18.5741   424
18.5841   395
18.5941   377
18.6041   401
18.6141   440
18.6241   413
18.6341   404
18.6441   410
18.6541   389
18.6641   407
18.6741   398
18.6841   420
18.6941   397
18.7041   401
18.7141   398
18.7241   401
18.7341   361
18.7441   397
18.7541   413
18.7641   397
18.7741   440
18.7841   433
18.7941   392
18.8041   405
18.8141   419
18.8241   421
18.8341   415
18.8441   405
18.8541   407
18.8641   416
18.8741   411
18.8841   436
18.8941   439
18.9041   386
18.9141   407
18.9241   405
18.9341   427
18.9441   384
18.9541   393
18.9641   442
18.9741   464
18.9841   430
18.9941   411
19.0041   423
19.0141   402
19.0241   411
19.0341   408
19.0441   425
19.0541   411
19.0641   413
19.0741   396
19.0841   394
19.0941   399
19.1041   437
19.1141   437
19.1241   437
19.1341   410
19.1441   421
19.1541   409
19.1641   430
19.1741   415
19.1841   393
19.1941   421
19.2041   422
19.2141   446
19.2241   389
19.2341   391
19.2441   407
19.2541   436
19.2641   433
19.2741   419
19.2841   414
19.2941   436
19.3041   412
19.3141   413
19.3241   422
19.3341   428
19.3441   435
19.3541   444
19.3641   433
19.3741   449
19.3841   442
19.3941   454
19.4041   429
19.4141   419
19.4241   402
19.4341   442
19.4441   410
19.4541   453
19.4641   461
19.4741   441
19.4841   435
19.4941   410
19.5041   424
19.5141   454
19.5241   425
19.5341   438
19.5441   446
19.5541   440
19.5641   431
19.5741   435
19.5841   446
19.5941   456
19.6041   449
19.6141   418
19.6241   439
19.6341   421
19.6441   416
19.6541   403
19.6641   431
19.6741   426
19.6841   406
19.6941   429
19.7041   457
19.7141   446
19.7241   455
19.7341   425
19.7441   435
19.7541   446
19.7641   454
19.7741   467
19.7841   411
19.7941   447
19.8041   465
19.8141   426
19.8241   430
19.8341   445
19.8441   433
19.8541   396
19.8641   427
19.8741   422
19.8841   449
19.8941   431
19.9041   447
19.9141   427
19.9241   412
19.9341   452
19.9441   427
19.9541   417
19.9641   435
19.9741   456
19.9841   461
19.9941   438
20.0041   429
20.0141   467
20.0241   444
20.0341   420
20.0441   445
20.0541   450
20.0641   467
20.0741   481
20.0841   472
20.0941   444
20.1041   432
20.1141   421
20.1241   436
20.1341   478
20.1441   474
20.1541   469
20.1641   417
20.1741   427
20.1841   455
20.1941   483
20.2041   486
20.2141   442
20.2241   414
20.2341   432
20.2441   419
20.2541   468
20.2641   465
20.2741   468
20.2841   430
20.2941   446
20.3041   442
20.3141   442
20.3241   445
20.3341   442
20.3441   433
20.3541   436
20.3641   430
20.3741   439
20.3841   437
20.3941   452
20.4041   464
20.4141   413
20.4241   453
20.4341   426
20.4441   436
20.4541   440
20.4641   442
20.4741   441
20.4841   432
20.4941   418
20.5041   484
20.5141   452
20.5241   447
20.5341   447
20.5441   444
20.5541   458
20.5641   435
20.5741   429
20.5841   424
20.5941   445
20.6041   450
20.6141   476
20.6241   455
20.6341   461
20.6441   440
20.6541   442
20.6641   458
20.6741   466
20.6841   416
20.6941   438
20.7041   481
20.7141   461
20.7241   429
20.7341   443
20.7441   422
20.7541   454
20.7641   446
20.7741   423
20.7841   445
20.7941   451
20.8041   458
20.8141   460
20.8241   457
20.8341   479
20.8441   483
20.8541   473
20.8641   493
20.8741   525
20.8841   523
20.8941   498
20.9041   538
20.9141   536
20.9241   528
20.9341   518
20.9441   515
20.9541   495
20.9641   538
20.9741   588
20.9841   589
20.9941   573
21.0041   618
21.0141   628
21.0241   611
21.0341   617
21.0441   616
21.0541   604
21.0641   658
21.0741   672
21.0841   676
21.0941   633
21.1041   679
21.1141   645
21.1241   655
21.1341   635
21.1441   675
21.1541   657
21.1641   667
21.1741   634
21.1841   675
21.1941   620
21.2041   674
21.2141   617
21.2241   616
21.2341   636
21.2441   586
21.2541   590
21.2641   555
21.2741   576
21.2841   516
21.2941   522
21.3041   492
21.3141   518
21.3241   523
21.3341   528
21.3441   506
21.3541   496
21.3641   503
21.3741   503
21.3841   467
21.3941   426
21.4041   438
21.4141   495
21.4241   474
21.4341   468
21.4441   482
21.4541   459
21.4641   453
21.4741   474
21.4841   460
21.4941   442
21.5041   470
21.5141   458
21.5241   471
21.5341   464
21.5441   459
21.5541   429
21.5641   439
21.5741   444
21.5841   426
21.5941   481
21.6041   481
21.6141   448
21.6241   434
21.6341   496
21.6441   463
21.6541   472
21.6641   461
21.6741   433
21.6841   460
21.6941   439
21.7041   435
21.7141   430
21.7241   462
21.7341   465
21.7441   464
21.7541   472
21.7641   441
21.7741   453
21.7841   427
21.7941   475
21.8041   443
21.8141   500
21.8241   422
21.8341   437
21.8441   461
21.8541   442
21.8641   449
21.8741   487
21.8841   460
21.8941   443
21.9041   478
21.9141   434
21.9241   437
21.9341   410
21.9441   462
21.9541   469
21.9641   462
21.9741   470
21.9841   452
21.9941   474
22.0041   442
22.0141   471
22.0241   460
22.0341   458
22.0441   444
22.0541   465
22.0641   411
22.0741   449
22.0841   456
22.0941   454
22.1041   468
22.1141   442
22.1241   457
22.1341   444
22.1441   465
22.1541   457
22.1641   444
22.1741   448
22.1841   482
22.1941   473
22.2041   439
22.2141   442
22.2241   453
22.2341   411
22.2441   433
22.2541   413
22.2641   414
22.2741   429
22.2841   437
22.2941   447
22.3041   482
22.3141   460
22.3241   436
22.3341   463
22.3441   462
22.3541   456
22.3641   447
22.3741   440
22.3841   460
22.3941   445
22.4041   417
22.4141   443
22.4241   436
22.4341   460
22.4441   401
22.4541   431
22.4641   464
22.4741   481
22.4841   483
22.4941   451
22.5041   418
22.5141   478
22.5241   464
22.5341   438
22.5441   448
22.5541   445
22.5641   432
22.5741   413
22.5841   424
22.5941   431
22.6041   417
22.6141   459
22.6241   434
22.6341   448
22.6441   400
22.6541   438
22.6641   433
22.6741   426
22.6841   426
22.6941   483
22.7041   430
22.7141   407
22.7241   470
22.7341   455
22.7441   438
22.7541   418
22.7641   453
22.7741   424
22.7841   459
22.7941   451
22.8041   431
22.8141   427
22.8241   474
22.8341   448
22.8441   467
22.8541   435
22.8641   411
22.8741   411
22.8841   418
22.8941   441
22.9041   401
22.9141   428
22.9241   426
22.9341   433
22.9441   468
22.9541   405
22.9641   408
22.9741   470
22.9841   467
22.9941   403
23.0041   434
23.0141   438
23.0241   426
23.0341   439
23.0441   437
23.0541   449
23.0641   447
23.0741   421
23.0841   450
23.0941   416
23.1041   414
23.1141   393
23.1241   448
23.1341   458
23.1441   447
23.1541   445
23.1641   420
23.1741   439
23.1841   415
23.1941   446
23.2041   467
23.2141   426
23.2241   420
23.2341   440
23.2441   386
23.2541   431
23.2641   442
23.2741   432
23.2841   417
23.2941   423
23.3041   381
23.3141   407
23.3241   432
23.3341   420
23.3441   397
23.3541   438
23.3641   441
23.3741   414
23.3841   446
23.3941   431
23.4041   418
23.4141   433
23.4241   418
23.4341   452
23.4441   433
23.4541   423
23.4641   435
23.4741   425
23.4841   394
23.4941   401
23.5041   422
23.5141   431
23.5241   381
23.5341   409
23.5441   430
23.5541   409
23.5641   410
23.5741   434
23.5841   418
23.5941   432
23.6041   439
23.6141   431
23.6241   394
23.6341   440
23.6441   458
23.6541   426
23.6641   426
23.6741   433
23.6841   485
23.6941   414
23.7041   465
23.7141   473
23.7241   427
23.7341   464
23.7441   480
23.7541   468
23.7641   443
23.7741   446
23.7841   433
23.7941   479
23.8041   412
23.8141   464
23.8241   451
23.8341   422
23.8441   451
23.8541   450
23.8641   483
23.8741   412
23.8841   507
23.8941   421
23.9041   430
23.9141   410
23.9241   417
23.9341   431
23.9441   430
23.9541   446
23.9641   421
23.9741   441
23.9841   446
23.9941   449
24.0041   438
24.0141   413
24.0241   407
24.0341   402
24.0441   410
24.0541   422
24.0641   414
24.0741   402
24.0841   366
24.0941   425
24.1041   410
24.1141   416
24.1241   423
24.1341   393
24.1441   409
24.1541   443
24.1641   416
24.1741   415
24.1841   407
24.1941   416
24.2041   418
24.2141   406
24.2241   401
24.2341   436
24.2441   405
24.2541   400
24.2641   396
24.2741   443
24.2841   398
24.2941   434
24.3041   395
24.3141   425
24.3241   423
24.3341   404
24.3441   393
24.3541   407
24.3641   408
24.3741   416
24.3841   411
24.3941   415
24.4041   425
24.4141   381
24.4241   393
24.4341   409
24.4441   459
24.4541   394
24.4641   417
24.4741   401
24.4841   392
24.4941   409
24.5041   397
24.5141   408
24.5241   390
24.5341   393
24.5441   430
24.5541   373
24.5641   431
24.5741   405
24.5841   412
24.5941   378
24.6041   405
24.6141   399
24.6241   365
24.6341   365
24.6441   399
24.6541   418
24.6641   425
24.6741   406
24.6841   404
24.6941   409
24.7041   384
24.7141   371
24.7241   388
24.7341   367
24.7441   382
24.7541   414
24.7641   407
24.7741   376
24.7841   386
24.7941   382
24.8041   407
24.8141   397
24.8241   404
24.8341   376
24.8441   359
24.8541   377
24.8641   373
24.8741   414
24.8841   373
24.8941   410
24.9041   399
24.9141   387
24.9241   387
24.9341   388
24.9441   383
24.9541   378
24.9641   387
24.9741   397
24.9841   360
24.9941   402
25.0041   364
25.0141   396
25.0241   379
25.0341   383
25.0441   378
25.0541   375
25.0641   397
25.0741   377
25.0841   341
25.0941   362
25.1041   365
25.1141   393
25.1241   371
25.1341   392
25.1441   396
25.1541   393
25.1641   404
25.1741   383
25.1841   393
25.1941   366
25.2041   399
25.2141   428
25.2241   381
25.2341   392
25.2441   393
25.2541   409
25.2641   399
25.2741   413
25.2841   434
25.2941   419
25.3041   377
25.3141   390
25.3241   395
25.3341   410
25.3441   400
25.3541   387
25.3641   410
25.3741   394
25.3841   347
25.3941   378
25.4041   378
25.4141   403
25.4241   384
25.4341   384
25.4441   405
25.4541   389
25.4641   368
25.4741   356
25.4841   369
25.4941   367
25.5041   373
25.5141   384
25.5241   366
25.5341   354
25.5441   374
25.5541   345
25.5641   359
25.5741   354
25.5841   356
25.5941   342
25.6041   338
25.6141   371
25.6241   398
25.6341   387
25.6441   356
25.6541   347
25.6641   364
25.6741   355
25.6841   389
25.6941   351
25.7041   375
25.7141   359
25.7241   382
25.7341   374
25.7441   393
25.7541   349
25.7641   359
25.7741   361
25.7841   342
25.7941   371
25.8041   333
25.8141   329
25.8241   370
25.8341   345
25.8441   319
25.8541   369
25.8641   377
25.8741   330
25.8841   348
25.8941   367
25.9041   388
25.9141   369
25.9241   340
25.9341   357
25.9441   400
25.9541   385
25.9641   346
25.9741   371
25.9841   355
25.9941   345
26.0041   352
26.0141   349
26.0241   354
26.0341   355
26.0441   373
26.0541   352
26.0641   359
26.0741   346
26.0841   327
26.0941   323
26.1041   345
26.1141   335
26.1241   313
26.1341   342
26.1441   348
26.1541   346
26.1641   355
26.1741   346
26.1841   381
26.1941   383
26.2041   349
26.2141   341
26.2241   311
26.2341   370
26.2441   329
26.2541   341
26.2641   311
26.2741   334
26.2841   381
26.2941   327
26.3041   337
26.3141   325
26.3241   353
26.3341   325
26.3441   350
26.3541   382
26.3641   357
26.3741   326
26.3841   363
26.3941   322
26.4041   355
26.4141   327
26.4241   326
26.4341   331
26.4441   358
26.4541   360
26.4641   348
26.4741   336
26.4841   318
26.4941   329
26.5041   329
26.5141   344
26.5241   330
26.5341   326
26.5441   355
26.5541   341
26.5641   323
26.5741   349
26.5841   359
26.5941   356
26.6041   327
26.6141   312
26.6241   339
26.6341   344
26.6441   371
26.6541   344
26.6641   332
26.6741   299
26.6841   336
26.6941   348
26.7041   323
26.7141   295
26.7241   335
26.7341   340
26.7441   336
26.7541   310
26.7641   335
26.7741   319
26.7841   321
26.7941   330
26.8041   320
26.8141   340
26.8241   314
26.8341   310
26.8441   308
26.8541   326
26.8641   299
26.8741   314
26.8841   326
26.8941   306
26.9041   314
26.9141   319
26.9241   330
26.9341   320
26.9441   333
26.9541   316
26.9641   306
26.9741   295
26.9841   310
26.9941   289
27.0041   283
27.0141   323
27.0241   338
27.0341   331
27.0441   333
27.0541   332
27.0641   309
27.0741   309
27.0841   314
27.0941   289
27.1041   306
27.1141   324
27.1241   329
27.1341   319
27.1441   341
27.1541   307
27.1641   334
27.1741   321
27.1841   312
27.1941   310
27.2041   327
27.2141   319
27.2241   332
27.2341   325
27.2441   336
27.2541   351
27.2641   308
27.2741   331
27.2841   309
27.2941   300
27.3041   325
27.3141   296
27.3241   300
27.3341   282
27.3441   312
27.3541   298
27.3641   301
27.3741   329
27.3841   317
27.3941   290
27.4041   306
27.4141   334
27.4241   294
27.4341   317
27.4441   299
27.4541   269
27.4641   303
27.4741   343
27.4841   302
27.4941   310
27.5041   306
27.5141   316
27.5241   305
27.5341   316
27.5441   321
27.5541   321
27.5641   304
27.5741   307
27.5841   330
27.5941   309
27.6041   294
27.6141   315
27.6241   253
27.6341   283
27.6441   291
27.6541   266
27.6641   290
27.6741   288
27.6841   297
27.6941   297
27.7041   304
27.7141   310
27.7241   279
27.7341   280
27.7441   288
27.7541   300
27.7641   297
27.7741   277
27.7841   274
27.7941   270
27.8041   308
27.8141   275
27.8241   284
27.8341   278
27.8441   286
27.8541   316
27.8641   296
27.8741   317
27.8841   290
27.8941   280
27.9041   295
27.9141   284
27.9241   291
27.9341   269
27.9441   271
27.9541   263
27.9641   262
27.9741   274
27.9841   287
27.9941   306
28.0041   287
28.0141   268
28.0241   281
28.0341   280
28.0441   292
28.0541   252
28.0641   288
28.0741   284
28.0841   266
28.0941   256
28.1041   288
28.1141   284
28.1241   246
28.1341   274
28.1441   295
28.1541   240
28.1641   268
28.1741   255
28.1841   296
28.1941   281
28.2041   263
28.2141   247
28.2241   293
28.2341   277
28.2441   273
28.2541   251
28.2641   280
28.2741   288
28.2841   272
28.2941   282
28.3041   255
28.3141   282
28.3241   269
28.3341   290
28.3441   261
28.3541   274
28.3641   249
28.3741   270
28.3841   258
28.3941   269
28.4041   247
28.4141   308
28.4241   289
28.4341   281
28.4441   267
28.4541   277
28.4641   295
28.4741   270
28.4841   279
28.4941   258
28.5041   281
28.5141   258
28.5241   260
28.5341   246
28.5441   229
28.5541   277
28.5641   280
28.5741   279
28.5841   264
28.5941   291
28.6041   270
28.6141   298
28.6241   283
28.6341   225
28.6441   281
28.6541   278
28.6641   239
28.6741   254
28.6841   260
28.6941   254
28.7041   290
28.7141   259
28.7241   245
28.7341   246
28.7441   257
28.7541   251
28.7641   231
28.7741   249
28.7841   248
28.7941   267
28.8041   238
28.8141   248
28.8241   251
28.8341   246
28.8441   255
28.8541   236
28.8641   248
28.8741   258
28.8841   251
28.8941   258
28.9041   265
28.9141   245
28.9241   260
28.9341   255
28.9441   242
28.9541   254
28.9641   257
28.9741   265
28.9841   262
28.9941   263
29.0041   240
29.0141   237
29.0241   267
29.0341   247
29.0441   242
29.0541   238
29.0641   238
29.0741   257
29.0841   259
29.0941   233
29.1041   266
29.1141   274
29.1241   258
29.1341   243
29.1441   252
29.1541   251
29.1641   261
29.1741   260
29.1841   243
29.1941   272
29.2041   235
29.2141   260
29.2241   233
29.2341   235
29.2441   257
29.2541   251
29.2641   269
29.2741   217
29.2841   238
29.2941   232
29.3041   245
29.3141   223
29.3241   242
29.3341   244
29.3441   245
29.3541   261
29.3641   274
29.3741   236
29.3841   243
29.3941   244
29.4041   235
29.4141   230
29.4241   251
29.4341   250
29.4441   220
29.4541   212
29.4641   229
29.4741   235
29.4841   224
29.4941   218
29.5041   220
29.5141   215
29.5241   219
29.5341   206
29.5441   213
29.5541   205
29.5641   234
29.5741   251
29.5841   231
29.5941   235
29.6041   226
29.6141   213
29.6241   227
29.6341   247
29.6441   252
29.6541   203
29.6641   234
29.6741   238
29.6841   238
29.6941   232
29.7041   228
29.7141   214
29.7241   210
29.7341   215
29.7441   257
29.7541   224
29.7641   238
29.7741   235
29.7841   219
29.7941   214
29.8041   215
29.8141   188
29.8241   216
29.8341   204
29.8441   261
29.8541   251
29.8641   215
29.8741   240
29.8841   213
29.8941   216
29.9041   217
29.9141   214
29.9241   231
29.9341   218
29.9441   198
29.9541   227
29.9641   202
29.9741   219
29.9841   227
29.9941   216
30.0041   186
30.0141   219
30.0241   204
30.0341   220
30.0441   208
30.0541   218
30.0641   217
30.0741   219
30.0841   222
30.0941   215
30.1041   203
30.1141   215
30.1241   189
30.1341   205
30.1441   221
30.1541   222
30.1641   207
30.1741   197
30.1841   215
30.1941   210
30.2041   206
30.2141   209
30.2241   196
30.2341   209
30.2441   206
30.2541   216
30.2641   232
30.2741   213
30.2841   204
30.2941   189
30.3041   208
30.3141   208
30.3241   221
30.3341   185
30.3441   211
30.3541   210
30.3641   210
30.3741   221
30.3841   204
30.3941   219
30.4041   205
30.4141   212
30.4241   196
30.4341   202
30.4441   200
30.4541   211
30.4641   208
30.4741   206
30.4841   194
30.4941   182
30.5041   210
30.5141   184
30.5241   201
30.5341   210
30.5441   180
30.5541   216
30.5641   216
30.5741   201
30.5841   192
30.5941   190
30.6041   193
30.6141   210
30.6241   208
30.6341   193
30.6441   207
30.6541   181
30.6641   206
30.6741   175
30.6841   181
30.6941   184
30.7041   202
30.7141   200
30.7241   210
30.7341   168
30.7441   198
30.7541   191
30.7641   197
30.7741   197
30.7841   170
30.7941   189
30.8041   189
30.8141   209
30.8241   208
30.8341   201
30.8441   160
30.8541   210
30.8641   192
30.8741   195
30.8841   184
30.8941   181
30.9041   197
30.9141   199
30.9241   174
30.9341   198
30.9441   210
30.9541   201
30.9641   184
30.9741   183
30.9841   184
30.9941   195
31.0041   184
31.0141   194
31.0241   216
31.0341   200
31.0441   163
31.0541   175
31.0641   193
31.0741   181
31.0841   208
31.0941   183
31.1041   166
31.1141   170
31.1241   169
31.1341   182
31.1441   175
31.1541   177
31.1641   182
31.1741   178
31.1841   157
31.1941   160
31.2041   178
31.2141   176
31.2241   185
31.2341   157
31.2441   192
31.2541   174
31.2641   194
31.2741   173
31.2841   174
31.2941   200
31.3041   176
31.3141   191
31.3241   167
31.3341   173
31.3441   147
31.3541   180
31.3641   173
31.3741   145
31.3841   160
31.3941   192
31.4041   175
31.4141   155
31.4241   172
31.4341   174
31.4441   190
31.4541   176
31.4641   164
31.4741   160
31.4841   144
31.4941   169
31.5041   174
31.5141   185
31.5241   157
31.5341   161
31.5441   171
31.5541   152
31.5641   171
31.5741   175
31.5841   184
31.5941   197
31.6041   189
31.6141   193
31.6241   177
31.6341   189
31.6441   178
31.6541   173
31.6641   174
31.6741   167
31.6841   180
31.6941   165
31.7041   171
31.7141   165
31.7241   171
31.7341   177
31.7441   196
31.7541   178
31.7641   157
31.7741   185
31.7841   178
31.7941   177
31.8041   186
31.8141   163
31.8241   183
31.8341   185
31.8441   182
31.8541   164
31.8641   173
31.8741   178
31.8841   163
31.8941   186
31.9041   172
31.9141   168
31.9241   172
31.9341   161
31.9441   177
31.9541   158
31.9641   170
31.9741   164
31.9841   158
31.9941   175
32.0041   162
32.0141   155
32.0241   160
32.0341   147
32.0441   159
32.0541   135
32.0641   169
32.0741   145
32.0841   197
32.0941   164
32.1041   168
32.1141   158
32.1241   180
32.1341   176
32.1441   186
32.1541   173
32.1641   177
32.1741   176
32.1841   180
32.1941   181
32.2041   181
32.2141   182
32.2241   166
32.2341   188
32.2441   167
32.2541   169
32.2641   197
32.2741   155
32.2841   195
32.2941   153
32.3041   164
32.3141   162
32.3241   164
32.3341   163
32.3441   142
32.3541   165
32.3641   182
32.3741   150
32.3841   158
32.3941   166
32.4041   142
32.4141   161
32.4241   166
32.4341   153
32.4441   161
32.4541   121
32.4641   152
32.4741   134
32.4841   141
32.4941   140
32.5041   164
32.5141   159
32.5241   141
32.5341   145
32.5441   160
32.5541   150
32.5641   155
32.5741   127
32.5841   138
32.5941   138
32.6041   162
32.6141   156
32.6241   138
32.6341   119
32.6441   137
32.6541   139
32.6641   134
32.6741   145
32.6841   119
32.6941   142
32.7041   123
32.7141   133
32.7241   161
32.7341   150
32.7441   136
32.7541   128
32.7641   141
32.7741   118
32.7841   124
32.7941   157
32.8041   132
32.8141   157
32.8241   143
32.8341   132
32.8441   124
32.8541   153
32.8641   124
32.8741   147
32.8841   125
32.8941   136
32.9041   110
32.9141   136
32.9241   128
32.9341   145
32.9441   157
32.9541   129
32.9641   135
32.9741   142
32.9841   151
32.9941   130
33.0041   140
33.0141   130
33.0241   127
33.0341   148
33.0441   142
33.0541   113
33.0641   135
33.0741   129
33.0841   144
33.0941   118
33.1041   128
33.1141   123
33.1241   135
33.1341   129
33.1441   134
33.1541   141
33.1641   149
33.1741   130
33.1841   130
33.1941   121
33.2041   114
33.2141   130
33.2241   130
33.2341   131
33.2441   128
33.2541   125
33.2641   116
33.2741   118
33.2841   141
33.2941   141
33.3041   122
33.3141   134
33.3241   120
33.3341   119
33.3441   131
33.3541   147
33.3641   123
33.3741   139
33.3841   123
33.3941   125
33.4041   113
33.4141   129
33.4241   116
33.4341   130
33.4441   135
33.4541   120
33.4641   120
33.4741   116
33.4841   122
33.4941   136
33.5041   126
33.5141   133
33.5241   121
33.5341   128
33.5441   123
33.5541   112
33.5641   109
33.5741   120
33.5841   112
33.5941   117
33.6041   106
33.6141   112
33.6241   123
33.6341   126
33.6441   130
33.6541   106
33.6641   126
33.6741    97
33.6841   120
33.6941   101
33.7041   131
33.7141   108
33.7241   130
33.7341   116
33.7441   127
33.7541   116
33.7641   116
33.7741   129
33.7841   100
33.7941    95
33.8041   115
33.8141   130
33.8241   113
33.8341   125
33.8441   120
33.8541   129
33.8641   115
33.8741   121
33.8841   113
33.8941   127
33.9041   119
33.9141   115
33.9241   104
33.9341   107
33.9441   106
33.9541   118
33.9641   111
33.9741   112
33.9841   107
33.9941   114
34.0041   116
34.0141   103
34.0241   117
34.0341   119
34.0441   137
34.0541   120
34.0641   113
34.0741   115
34.0841    92
34.0941   108
34.1041   116
34.1141    93
34.1241    99
34.1341   113
34.1441   101
34.1541   106
34.1641   106
34.1741   101
34.1841   116
34.1941   118
34.2041   102
34.2141   119
34.2241   129
34.2341   112
34.2441   123
34.2541   109
34.2641   111
34.2741   104
34.2841    99
34.2941    93
34.3041   113
34.3141    91
34.3241    94
34.3341   105
34.3441    92
34.3541   107
34.3641   101
34.3741   125
34.3841   109
34.3941   121
34.4041    87
34.4141   104
34.4241    91
34.4341    99
34.4441   115
34.4541    79
34.4641   110
34.4741   105
34.4841   113
34.4941   102
34.5041   101
34.5141    90
34.5241   103
34.5341    89
34.5441   116
34.5541    99
34.5641   100
34.5741   101
34.5841   102
34.5941    94
34.6041   117
34.6141    94
34.6241    98
34.6341    97
34.6441    92
34.6541    99
34.6641    85
34.6741    86
34.6841    89
34.6941    83
34.7041   107
34.7141    97
34.7241    83
34.7341    95
34.7441    85
34.7541    88
34.7641    89
34.7741    89
34.7841    98
34.7941    83
34.8041    95
34.8141    96
34.8241    91
34.8341   101
34.8441    94
34.8541    91
34.8641    91
34.8741    87
34.8841    96
34.8941    91
34.9041    99
34.9141   106
34.9241    92
34.9341    82
34.9441    94
34.9541    80
34.9641    75
34.9741    86
34.9841    86
34.9941    71
35.0041    83
35.0141   100
35.0241    74
35.0341    92
35.0441    90
35.0541    72
35.0641    83
35.0741    90
35.0841    92
35.0941    81
35.1041    86
35.1141    97
35.1241    76
35.1341    88
35.1441    81
35.1541   101
35.1641    83
35.1741    90
35.1841    96
35.1941    79
35.2041   101
35.2141    74
35.2241    90
35.2341   110
35.2441    88
35.2541    94
35.2641    80
35.2741    79
35.2841    83
35.2941    85
35.3041    75
35.3141    90
35.3241    86
35.3341    82
35.3441    90
35.3541    93
35.3641    77
35.3741    88
35.3841    89
35.3941    74
35.4041    84
35.4141    73
35.4241    82
35.4341    74
35.4441    91
35.4541    83
35.4641    86
35.4741    82
35.4841    88
35.4941    75
35.5041    87
35.5141    71
35.5241    75
35.5341    83
35.5441    75
35.5541    72
35.5641    74
35.5741    89
35.5841    70
35.5941    78
35.6041    80
35.6141    71
35.6241    85
35.6341    74
35.6441    75
35.6541    86
35.6641    86
35.6741    75
35.6841    96
35.6941    69
35.7041    77
35.7141    85
35.7241    86
35.7341    76
35.7441    85
35.7541    88
35.7641    88
35.7741    65
35.7841    79
35.7941    76
35.8041    72
35.8141    68
35.8241    74
35.8341    66
35.8441    80
35.8541    66
35.8641    68
35.8741    71
35.8841    91
35.8941    60
35.9041    62
35.9141    62
35.9241    68
35.9341    55
35.9441    75
35.9541    65
35.9641    67
35.9741    74
35.9841    66
35.9941    72
36.0041    91
36.0141    67
36.0241    87
36.0341    67
36.0441    60
36.0541    54
36.0641    75
36.0741    70
36.0841    65
36.0941    79
36.1041    72
36.1141    64
36.1241    61
36.1341    70
36.1441    72
36.1541    60
36.1641    77
36.1741    68
36.1841    62
36.1941    71
36.2041    77
36.2141    69
36.2241    71
36.2341    74
36.2441    62
36.2541    79
36.2641    69
36.2741    66
36.2841    75
36.2941    79
36.3041    62
36.3141    77
36.3241    64
36.3341    82
36.3441    74
36.3541    74
36.3641    76
36.3741    78
36.3841    93
36.3941    73
36.4041    55
36.4141    60
36.4241    67
36.4341    78
36.4441    81
36.4541    59
36.4641    59
36.4741    73
36.4841    69
36.4941    64
36.5041    78
36.5141    72
36.5241    76
36.5341    67
36.5441    52
36.5541    68
36.5641    64
36.5741    72
36.5841    68
36.5941    59
36.6041    78
36.6141    71
36.6241    54
36.6341    61
36.6441    66
36.6541    66
36.6641    70
36.6741    59
36.6841    54
36.6941    63
36.7041    68
36.7141    73
36.7241    59
36.7341    71
36.7441    77
36.7541    65
36.7641    60
36.7741    68
36.7841    59
36.7941    70
36.8041    53
36.8141    56
36.8241    57
36.8341    59
36.8441    81
36.8541    66
36.8641    54
36.8741    60
36.8841    56
36.8941    64
36.9041    56
36.9141    53
36.9241    65
36.9341    52
36.9441    63
36.9541    63
36.9641    60
36.9741    51
36.9841    61
36.9941    54
37.0041    59
37.0141    61
37.0241    48
37.0341    56
37.0441    60
37.0541    54
37.0641    44
37.0741    61
37.0841    46
37.0941    54
37.1041    60
37.1141    48
37.1241    72
37.1341    54
37.1441    56
37.1541    61
37.1641    56
37.1741    65
37.1841    68
37.1941    54
37.2041    44
37.2141    61
37.2241    53
37.2341    46
37.2441    58
37.2541    61
37.2641    53
37.2741    49
37.2841    56
37.2941    63
37.3041    50
37.3141    54
37.3241    57
37.3341    45
37.3441    63
37.3541    50
37.3641    57
37.3741    70
37.3841    46
37.3941    52
37.4041    50
37.4141    42
37.4241    50
37.4341    68
37.4441    54
37.4541    34
37.4641    54
37.4741    60
37.4841    56
37.4941    52
37.5041    40
37.5141    46
37.5241    52
37.5341    56
37.5441    62
37.5541    49
37.5641    53
37.5741    45
37.5841    63
37.5941    56
37.6041    46
37.6141    55
37.6241    42
37.6341    48
37.6441    56
37.6541    38
37.6641    52
37.6741    44
37.6841    36
37.6941    40
37.7041    38
37.7141    37
37.7241    32
37.7341    57
37.7441    48
37.7541    44
37.7641    59
37.7741    54
37.7841    54
37.7941    44
37.8041    41
37.8141    51
37.8241    39
37.8341    51
37.8441    43
37.8541    40
37.8641    49
37.8741    50
37.8841    46
37.8941    53
37.9041    45
37.9141    45
37.9241    45
37.9341    51
37.9441    44
37.9541    52
37.9641    39
37.9741    44
37.9841    43
37.9941    49
38.0041    50
38.0141    39
38.0241    50
38.0341    59
38.0441    46
38.0541    41
38.0641    39
38.0741    45
38.0841    37
38.0941    52
38.1041    51
38.1141    50
38.1241    41
38.1341    34
38.1441    40
38.1541    35
38.1641    51
38.1741    45
38.1841    35
38.1941    45
38.2041    52
38.2141    49
38.2241    39
38.2341    34
38.2441    34
38.2541    38
38.2641    41
38.2741    39
38.2841    39
38.2941    47
38.3041    40
38.3141    41
38.3241    30
38.3341    36
38.3441    35
38.3541    45
38.3641    40
38.3741    38
38.3841    31
38.3941    29
38.4041    36
38.4141    36
38.4241    24
38.4341    46
38.4441    36
38.4541    42
38.4641    41
38.4741    44
38.4841    42
38.4941    37
38.5041    42
38.5141    38
38.5241    32
38.5341    45
38.5441    46
38.5541    40
38.5641    35
38.5741    32
38.5841    36
38.5941    41
38.6041    33
38.6141    32
38.6241    34
38.6341    33
38.6441    42
38.6541    41
38.6641    29
38.6741    40
38.6841    33
38.6941    42
38.7041    40
38.7141    30
38.7241    44
38.7341    48
38.7441    43
38.7541    33
38.7641    36
38.7741    33
38.7841    36
38.7941    39
38.8041    37
38.8141    29
38.8241    31
38.8341    33
38.8441    38
38.8541    42
38.8641    34
38.8741    34
38.8841    32
38.8941    27
38.9041    31
38.9141    41
38.9241    34
38.9341    43
38.9441    27
38.9541    19
38.9641    27
38.9741    39
38.9841    26
38.9941    31
39.0041    25
39.0141    36
39.0241    45
39.0341    31
39.0441    26
39.0541    30
39.0641    36
39.0741    37
39.0841    29
39.0941    29
39.1041    26
39.1141    45
39.1241    26
39.1341    33
39.1441    33
39.1541    28
39.1641    37
39.1741    27
39.1841    29
39.1941    31
39.2041    32
39.2141    19
39.2241    39
39.2341    32
39.2441    36
39.2541    33
39.2641    26
39.2741    36
39.2841    35
39.2941    28
39.3041    35
39.3141    22
39.3241    32
39.3341    32
39.3441    33
39.3541    32
39.3641    23
39.3741    24
39.3841    23
39.3941    26
39.4041    23
39.4141    33
39.4241    31
39.4341    23
39.4441    32
39.4541    28
39.4641    31
39.4741    19
39.4841    33
39.4941    27
39.5041    32
39.5141    30
39.5241    23
39.5341    37
39.5441    21
39.5541    30
39.5641    21
39.5741    32
39.5841    20
39.5941    28
39.6041    27
39.6141    24
39.6241    31
39.6341    31
39.6441    31
39.6541    21
39.6641    33
39.6741    28
39.6841    23
39.6941    28
39.7041    33
39.7141    28
39.7241    28
39.7341    24
39.7441    18
39.7541    27
39.7641    25
39.7741    35
39.7841    23
39.7941    22
39.8041    14
39.8141    25
39.8241    28
39.8341    27
39.8441    26
39.8541    25
39.8641    21
39.8741    14
39.8841    17
39.8941    16
39.9041    23
39.9141    24
39.9241    20
39.9341    22
39.9441    26
39.9541    30
39.9641    21
39.9741    16
39.9841    34
