Bruker Nano GmbH Berlin, Germany
Esprit 1.9

Date: 5/14/2021 3:55:26 PM
Real time: 17784
Life time: 16681
Pulse density: 91995


Detector type: XFlash 430
Window type: Custom type
Detector thickness: 0.45
Si dead layer:0.029

Calibration, lin.: 10
Calibration, abs.: -955.9
Mn FWHM: 137.05
Fano factor: 0.121
Channels: 4095

Energy Counts
-0.9559     0
-0.9459     0
-0.9359     0
-0.9259     0
-0.9159     0
-0.9059     0
-0.8959     0
-0.8859     0
-0.8759     0
-0.8659     0
-0.8559     0
-0.8459     0
-0.8359     0
-0.8259     0
-0.8159     0
-0.8059     0
-0.7959     0
-0.7859     0
-0.7759     0
-0.7659     0
-0.7559     0
-0.7459     0
-0.7359     0
-0.7259     0
-0.7159     0
-0.7059     0
-0.6959     0
-0.6859     0
-0.6759     0
-0.6659     0
-0.6559     0
-0.6459     0
-0.6359     0
-0.6259     0
-0.6159     0
-0.6059     0
-0.5959     0
-0.5859     0
-0.5759     0
-0.5659     0
-0.5559     0
-0.5459     0
-0.5359     0
-0.5259     0
-0.5159     0
-0.5059     0
-0.4959     0
-0.4859     0
-0.4759     0
-0.4659     0
-0.4559     0
-0.4459     0
-0.4359     0
-0.4259     0
-0.4159     0
-0.4059     0
-0.3959     0
-0.3859     0
-0.3759     0
-0.3659     0
-0.3559     0
-0.3459     0
-0.3359     0
-0.3259     0
-0.3159     0
-0.3059     0
-0.2959     0
-0.2859     0
-0.2759     0
-0.2659     0
-0.2559     0
-0.2459     0
-0.2359     0
-0.2259     0
-0.2159     0
-0.2059     0
-0.1959     0
-0.1859     0
-0.1759     0
-0.1659     0
-0.1559     0
-0.1459     0
-0.1359     0
-0.1259     0
-0.1159     0
-0.1059    14
-0.0959    57
-0.0859   186
-0.0759   642
-0.0659  1971
-0.0559  4894
-0.0459 10454
-0.0359 19800
-0.0259 31940
-0.0159 43834
-0.0059 50941
 0.0041 51413
 0.0141 44279
 0.0241 32836
 0.0341 20495
 0.0441 11157
 0.0541  5109
 0.0641  2107
 0.0741   743
 0.0841   236
 0.0941    56
 0.1041    18
 0.1141    13
 0.1241     4
 0.1341     6
 0.1441     0
 0.1541     3
 0.1641     0
 0.1741    16
 0.1841   133
 0.1941   276
 0.2041   264
 0.2141   268
 0.2241   267
 0.2341   228
 0.2441   259
 0.2541   260
 0.2641   266
 0.2741   251
 0.2841   249
 0.2941   254
 0.3041   266
 0.3141   252
 0.3241   254
 0.3341   234
 0.3441   252
 0.3541   230
 0.3641   245
 0.3741   230
 0.3841   230
 0.3941   228
 0.4041   228
 0.4141   237
 0.4241   265
 0.4341   242
 0.4441   227
 0.4541   224
 0.4641   222
 0.4741   215
 0.4841   230
 0.4941   220
 0.5041   229
 0.5141   219
 0.5241   196
 0.5341   208
 0.5441   225
 0.5541   214
 0.5641   207
 0.5741   217
 0.5841   221
 0.5941   205
 0.6041   192
 0.6141   206
 0.6241   202
 0.6341   195
 0.6441   209
 0.6541   203
 0.6641   195
 0.6741   210
 0.6841   198
 0.6941   185
 0.7041   190
 0.7141   203
 0.7241   190
 0.7341   180
 0.7441   182
 0.7541   187
 0.7641   189
 0.7741   197
 0.7841   195
 0.7941   194
 0.8041   203
 0.8141   195
 0.8241   184
 0.8341   174
 0.8441   154
 0.8541   155
 0.8641   167
 0.8741   170
 0.8841   180
 0.8941   171
 0.9041   170
 0.9141   174
 0.9241   183
 0.9341   178
 0.9441   180
 0.9541   189
 0.9641   178
 0.9741   168
 0.9841   169
 0.9941   175
 1.0041   160
 1.0141   180
 1.0241   167
 1.0341   148
 1.0441   171
 1.0541   182
 1.0641   162
 1.0741   145
 1.0841   173
 1.0941   151
 1.1041   154
 1.1141   173
 1.1241   167
 1.1341   161
 1.1441   175
 1.1541   155
 1.1641   164
 1.1741   173
 1.1841   182
 1.1941   170
 1.2041   154
 1.2141   152
 1.2241   144
 1.2341   155
 1.2441   159
 1.2541   163
 1.2641   165
 1.2741   156
 1.2841   152
 1.2941   172
 1.3041   152
 1.3141   157
 1.3241   141
 1.3341   145
 1.3441   154
 1.3541   147
 1.3641   139
 1.3741   148
 1.3841   137
 1.3941   152
 1.4041   156
 1.4141   164
 1.4241   136
 1.4341   146
 1.4441   144
 1.4541   147
 1.4641   145
 1.4741   143
 1.4841   146
 1.4941   163
 1.5041   175
 1.5141   167
 1.5241   130
 1.5341   139
 1.5441   152
 1.5541   147
 1.5641   137
 1.5741   137
 1.5841   131
 1.5941   136
 1.6041   147
 1.6141   147
 1.6241   164
 1.6341   163
 1.6441   166
 1.6541   187
 1.6641   206
 1.6741   248
 1.6841   330
 1.6941   416
 1.7041   521
 1.7141   549
 1.7241   645
 1.7341   648
 1.7441   737
 1.7541   648
 1.7641   585
 1.7741   481
 1.7841   418
 1.7941   329
 1.8041   290
 1.8141   263
 1.8241   233
 1.8341   230
 1.8441   185
 1.8541   181
 1.8641   172
 1.8741   136
 1.8841   159
 1.8941   161
 1.9041   155
 1.9141   151
 1.9241   164
 1.9341   139
 1.9441   144
 1.9541   160
 1.9641   177
 1.9741   188
 1.9841   180
 1.9941   202
 2.0041   170
 2.0141   209
 2.0241   202
 2.0341   196
 2.0441   171
 2.0541   167
 2.0641   141
 2.0741   143
 2.0841   163
 2.0941   150
 2.1041   133
 2.1141   127
 2.1241   141
 2.1341   143
 2.1441   139
 2.1541   134
 2.1641   131
 2.1741   138
 2.1841   134
 2.1941   128
 2.2041   131
 2.2141   138
 2.2241   146
 2.2341   135
 2.2441   139
 2.2541   119
 2.2641   135
 2.2741   149
 2.2841   126
 2.2941   141
 2.3041   126
 2.3141   143
 2.3241   122
 2.3341   122
 2.3441   133
 2.3541   133
 2.3641   121
 2.3741   118
 2.3841   133
 2.3941   122
 2.4041   113
 2.4141   114
 2.4241   127
 2.4341   123
 2.4441   136
 2.4541   129
 2.4641   111
 2.4741   124
 2.4841   129
 2.4941   121
 2.5041   107
 2.5141   115
 2.5241   111
 2.5341   116
 2.5441   132
 2.5541   114
 2.5641   118
 2.5741   129
 2.5841   130
 2.5941   133
 2.6041   145
 2.6141   122
 2.6241   103
 2.6341   112
 2.6441   131
 2.6541   129
 2.6641   105
 2.6741   116
 2.6841   102
 2.6941   112
 2.7041   103
 2.7141    98
 2.7241   124
 2.7341   100
 2.7441   100
 2.7541   116
 2.7641   115
 2.7741   107
 2.7841   108
 2.7941   138
 2.8041   102
 2.8141   109
 2.8241   137
 2.8341   118
 2.8441   109
 2.8541   108
 2.8641   119
 2.8741   116
 2.8841   109
 2.8941   108
 2.9041    96
 2.9141   118
 2.9241   103
 2.9341   122
 2.9441   121
 2.9541   103
 2.9641   123
 2.9741    95
 2.9841    89
 2.9941    83
 3.0041    88
 3.0141   105
 3.0241   128
 3.0341    96
 3.0441   118
 3.0541   106
 3.0641    96
 3.0741    93
 3.0841   102
 3.0941    88
 3.1041   117
 3.1141    95
 3.1241    81
 3.1341    85
 3.1441   100
 3.1541   103
 3.1641    98
 3.1741   100
 3.1841   102
 3.1941    86
 3.2041   106
 3.2141   118
 3.2241   120
 3.2341   136
 3.2441   150
 3.2541   166
 3.2641   190
 3.2741   217
 3.2841   248
 3.2941   248
 3.3041   253
 3.3141   272
 3.3241   273
 3.3341   237
 3.3441   255
 3.3541   185
 3.3641   172
 3.3741   166
 3.3841   127
 3.3941   121
 3.4041   107
 3.4141    97
 3.4241   100
 3.4341    88
 3.4441    92
 3.4541    91
 3.4641    93
 3.4741    93
 3.4841    92
 3.4941    92
 3.5041    85
 3.5141   111
 3.5241   112
 3.5341   129
 3.5441   130
 3.5541   170
 3.5641   187
 3.5741   252
 3.5841   312
 3.5941   410
 3.6041   518
 3.6141   628
 3.6241   848
 3.6341  1111
 3.6441  1297
 3.6541  1491
 3.6641  1645
 3.6741  1869
 3.6841  1944
 3.6941  2027
 3.7041  1821
 3.7141  1687
 3.7241  1556
 3.7341  1264
 3.7441  1063
 3.7541   851
 3.7641   596
 3.7741   491
 3.7841   342
 3.7941   242
 3.8041   197
 3.8141   159
 3.8241   123
 3.8341   116
 3.8441    92
 3.8541    99
 3.8641    90
 3.8741    95
 3.8841    99
 3.8941   113
 3.9041   125
 3.9141   129
 3.9241   163
 3.9341   182
 3.9441   212
 3.9541   259
 3.9641   269
 3.9741   324
 3.9841   331
 3.9941   370
 4.0041   420
 4.0141   414
 4.0241   409
 4.0341   363
 4.0441   374
 4.0541   320
 4.0641   277
 4.0741   237
 4.0841   188
 4.0941   148
 4.1041   133
 4.1141    97
 4.1241    86
 4.1341    78
 4.1441    72
 4.1541    61
 4.1641    63
 4.1741    69
 4.1841    56
 4.1941    73
 4.2041    58
 4.2141    59
 4.2241    65
 4.2341    47
 4.2441    54
 4.2541    54
 4.2641    68
 4.2741    58
 4.2841    57
 4.2941    79
 4.3041    73
 4.3141    81
 4.3241    58
 4.3341    64
 4.3441    82
 4.3541    80
 4.3641    84
 4.3741    84
 4.3841   100
 4.3941   106
 4.4041   118
 4.4141   161
 4.4241   180
 4.4341   224
 4.4441   249
 4.4541   290
 4.4641   367
 4.4741   393
 4.4841   422
 4.4941   456
 4.5041   452
 4.5141   443
 4.5241   442
 4.5341   395
 4.5441   375
 4.5541   298
 4.5641   266
 4.5741   231
 4.5841   207
 4.5941   171
 4.6041   121
 4.6141   100
 4.6241   100
 4.6341    99
 4.6441   121
 4.6541    83
 4.6641    91
 4.6741    83
 4.6841    85
 4.6941    95
 4.7041    58
 4.7141    70
 4.7241    80
 4.7341    88
 4.7441    80
 4.7541    90
 4.7641    76
 4.7741    81
 4.7841    87
 4.7941    93
 4.8041    85
 4.8141    93
 4.8241    98
 4.8341   112
 4.8441   114
 4.8541   113
 4.8641   119
 4.8741   121
 4.8841   143
 4.8941   156
 4.9041   155
 4.9141   141
 4.9241   139
 4.9341   165
 4.9441   134
 4.9541   152
 4.9641   149
 4.9741   129
 4.9841   139
 4.9941   128
 5.0041   115
 5.0141   101
 5.0241    99
 5.0341    89
 5.0441    81
 5.0541    86
 5.0641    89
 5.0741    86
 5.0841    77
 5.0941    80
 5.1041    72
 5.1141    96
 5.1241    92
 5.1341    99
 5.1441    65
 5.1541    79
 5.1641    78
 5.1741    67
 5.1841    73
 5.1941    79
 5.2041    70
 5.2141    87
 5.2241    74
 5.2341    82
 5.2441    76
 5.2541    85
 5.2641    83
 5.2741    75
 5.2841    72
 5.2941    84
 5.3041    84
 5.3141   100
 5.3241   103
 5.3341   117
 5.3441   110
 5.3541   107
 5.3641   120
 5.3741   135
 5.3841   121
 5.3941   143
 5.4041   146
 5.4141   146
 5.4241   159
 5.4341   154
 5.4441   122
 5.4541   122
 5.4641   121
 5.4741   120
 5.4841   123
 5.4941   101
 5.5041   107
 5.5141    90
 5.5241   100
 5.5341    90
 5.5441    89
 5.5541    94
 5.5641    90
 5.5741    81
 5.5841    90
 5.5941    92
 5.6041    88
 5.6141    77
 5.6241    90
 5.6341    68
 5.6441    78
 5.6541    90
 5.6641    87
 5.6741    83
 5.6841    93
 5.6941    88
 5.7041   100
 5.7141    93
 5.7241    96
 5.7341    98
 5.7441   101
 5.7541   126
 5.7641   130
 5.7741   144
 5.7841   171
 5.7941   192
 5.8041   238
 5.8141   272
 5.8241   332
 5.8341   369
 5.8441   380
 5.8541   441
 5.8641   525
 5.8741   525
 5.8841   536
 5.8941   538
 5.9041   525
 5.9141   510
 5.9241   495
 5.9341   434
 5.9441   392
 5.9541   356
 5.9641   347
 5.9741   286
 5.9841   235
 5.9941   231
 6.0041   172
 6.0141   164
 6.0241   148
 6.0341   127
 6.0441   146
 6.0541   101
 6.0641   117
 6.0741    98
 6.0841   116
 6.0941   112
 6.1041   127
 6.1141   141
 6.1241   107
 6.1341   122
 6.1441   142
 6.1541   161
 6.1641   162
 6.1741   175
 6.1841   189
 6.1941   231
 6.2041   269
 6.2141   379
 6.2241   488
 6.2341   641
 6.2441   847
 6.2541  1259
 6.2641  1697
 6.2741  2310
 6.2841  3253
 6.2941  4127
 6.3041  5422
 6.3141  6752
 6.3241  8373
 6.3341  9891
 6.3441 12050
 6.3541 13454
 6.3641 15042
 6.3741 16222
 6.3841 16961
 6.3941 17118
 6.4041 17270
 6.4141 16992
 6.4241 16013
 6.4341 14513
 6.4441 12943
 6.4541 11258
 6.4641  9615
 6.4741  7876
 6.4841  6220
 6.4941  4939
 6.5041  3892
 6.5141  2800
 6.5241  2030
 6.5341  1448
 6.5441  1071
 6.5541   795
 6.5641   520
 6.5741   365
 6.5841   288
 6.5941   229
 6.6041   215
 6.6141   183
 6.6241   148
 6.6341   143
 6.6441   153
 6.6541   129
 6.6641   150
 6.6741   161
 6.6841   158
 6.6941   126
 6.7041   136
 6.7141   135
 6.7241   156
 6.7341   138
 6.7441   132
 6.7541   137
 6.7641   170
 6.7741   132
 6.7841   145
 6.7941   153
 6.8041   163
 6.8141   182
 6.8241   181
 6.8341   192
 6.8441   207
 6.8541   212
 6.8641   267
 6.8741   279
 6.8841   309
 6.8941   347
 6.9041   426
 6.9141   464
 6.9241   612
 6.9341   684
 6.9441   824
 6.9541  1014
 6.9641  1238
 6.9741  1468
 6.9841  1768
 6.9941  2045
 7.0041  2258
 7.0141  2515
 7.0241  2574
 7.0341  2820
 7.0441  2918
 7.0541  3012
 7.0641  2910
 7.0741  2837
 7.0841  2628
 7.0941  2354
 7.1041  2158
 7.1141  1997
 7.1241  1671
 7.1341  1428
 7.1441  1178
 7.1541   965
 7.1641   794
 7.1741   648
 7.1841   504
 7.1941   425
 7.2041   346
 7.2141   281
 7.2241   229
 7.2341   254
 7.2441   197
 7.2541   186
 7.2641   186
 7.2741   171
 7.2841   204
 7.2941   198
 7.3041   222
 7.3141   198
 7.3241   197
 7.3341   230
 7.3441   201
 7.3541   228
 7.3641   287
 7.3741   262
 7.3841   289
 7.3941   284
 7.4041   304
 7.4141   334
 7.4241   302
 7.4341   302
 7.4441   320
 7.4541   314
 7.4641   308
 7.4741   324
 7.4841   316
 7.4941   307
 7.5041   262
 7.5141   260
 7.5241   259
 7.5341   228
 7.5441   235
 7.5541   230
 7.5641   219
 7.5741   205
 7.5841   181
 7.5941   183
 7.6041   168
 7.6141   180
 7.6241   213
 7.6341   186
 7.6441   175
 7.6541   200
 7.6641   191
 7.6741   185
 7.6841   186
 7.6941   188
 7.7041   201
 7.7141   212
 7.7241   214
 7.7341   207
 7.7441   208
 7.7541   221
 7.7641   235
 7.7741   263
 7.7841   213
 7.7941   233
 7.8041   234
 7.8141   236
 7.8241   256
 7.8341   254
 7.8441   268
 7.8541   269
 7.8641   278
 7.8741   286
 7.8841   280
 7.8941   317
 7.9041   327
 7.9141   324
 7.9241   347
 7.9341   372
 7.9441   364
 7.9541   382
 7.9641   428
 7.9741   434
 7.9841   461
 7.9941   534
 8.0041   537
 8.0141   597
 8.0241   641
 8.0341   701
 8.0441   754
 8.0541   816
 8.0641   797
 8.0741   902
 8.0841   969
 8.0941   947
 8.1041  1013
 8.1141  1065
 8.1241  1098
 8.1341  1166
 8.1441  1203
 8.1541  1194
 8.1641  1257
 8.1741  1296
 8.1841  1285
 8.1941  1268
 8.2041  1298
 8.2141  1338
 8.2241  1360
 8.2341  1329
 8.2441  1412
 8.2541  1446
 8.2641  1527
 8.2741  1633
 8.2841  1712
 8.2941  1839
 8.3041  2023
 8.3141  2120
 8.3241  2307
 8.3341  2472
 8.3441  2567
 8.3541  2751
 8.3641  2883
 8.3741  2899
 8.3841  3055
 8.3941  2986
 8.4041  2968
 8.4141  2841
 8.4241  2701
 8.4341  2426
 8.4441  2249
 8.4541  2081
 8.4641  1758
 8.4741  1552
 8.4841  1411
 8.4941  1150
 8.5041   991
 8.5141   850
 8.5241   726
 8.5341   629
 8.5441   524
 8.5541   494
 8.5641   433
 8.5741   424
 8.5841   387
 8.5941   399
 8.6041   350
 8.6141   366
 8.6241   386
 8.6341   335
 8.6441   372
 8.6541   382
 8.6641   347
 8.6741   376
 8.6841   371
 8.6941   353
 8.7041   340
 8.7141   329
 8.7241   370
 8.7341   332
 8.7441   295
 8.7541   337
 8.7641   293
 8.7741   299
 8.7841   284
 8.7941   327
 8.8041   317
 8.8141   281
 8.8241   282
 8.8341   267
 8.8441   285
 8.8541   297
 8.8641   280
 8.8741   290
 8.8841   313
 8.8941   293
 8.9041   300
 8.9141   287
 8.9241   333
 8.9341   315
 8.9441   302
 8.9541   347
 8.9641   358
 8.9741   343
 8.9841   341
 8.9941   339
 9.0041   344
 9.0141   350
 9.0241   352
 9.0341   375
 9.0441   403
 9.0541   358
 9.0641   399
 9.0741   407
 9.0841   445
 9.0941   441
 9.1041   400
 9.1141   462
 9.1241   488
 9.1341   489
 9.1441   530
 9.1541   491
 9.1641   555
 9.1741   583
 9.1841   626
 9.1941   676
 9.2041   649
 9.2141   685
 9.2241   744
 9.2341   774
 9.2441   817
 9.2541   838
 9.2641   887
 9.2741   902
 9.2841   984
 9.2941   982
 9.3041  1029
 9.3141  1034
 9.3241  1133
 9.3341  1136
 9.3441  1150
 9.3541  1187
 9.3641  1189
 9.3741  1241
 9.3841  1223
 9.3941  1289
 9.4041  1242
 9.4141  1324
 9.4241  1304
 9.4341  1414
 9.4441  1373
 9.4541  1346
 9.4641  1343
 9.4741  1450
 9.4841  1453
 9.4941  1487
 9.5041  1519
 9.5141  1530
 9.5241  1550
 9.5341  1637
 9.5441  1649
 9.5541  1849
 9.5641  1980
 9.5741  2041
 9.5841  2135
 9.5941  2235
 9.6041  2321
 9.6141  2474
 9.6241  2677
 9.6341  2669
 9.6441  2785
 9.6541  2827
 9.6641  2895
 9.6741  2785
 9.6841  2800
 9.6941  2659
 9.7041  2537
 9.7141  2381
 9.7241  2323
 9.7341  2186
 9.7441  2054
 9.7541  1879
 9.7641  1793
 9.7741  1677
 9.7841  1460
 9.7941  1381
 9.8041  1306
 9.8141  1226
 9.8241  1175
 9.8341  1176
 9.8441  1115
 9.8541  1114
 9.8641  1130
 9.8741  1115
 9.8841  1136
 9.8941  1173
 9.9041  1237
 9.9141  1258
 9.9241  1203
 9.9341  1217
 9.9441  1286
 9.9541  1202
 9.9641  1204
 9.9741  1190
 9.9841  1170
 9.9941  1083
10.0041  1052
10.0141   921
10.0241   846
10.0341   794
10.0441   780
10.0541   665
10.0641   613
10.0741   549
10.0841   502
10.0941   451
10.1041   394
10.1141   364
10.1241   338
10.1341   308
10.1441   307
10.1541   286
10.1641   277
10.1741   256
10.1841   233
10.1941   241
10.2041   241
10.2141   234
10.2241   216
10.2341   203
10.2441   191
10.2541   212
10.2641   183
10.2741   179
10.2841   185
10.2941   190
10.3041   176
10.3141   179
10.3241   176
10.3341   170
10.3441   171
10.3541   150
10.3641   156
10.3741   151
10.3841   171
10.3941   165
10.4041   158
10.4141   153
10.4241   163
10.4341   152
10.4441   151
10.4541   174
10.4641   151
10.4741   153
10.4841   171
10.4941   174
10.5041   182
10.5141   167
10.5241   177
10.5341   178
10.5441   190
10.5541   168
10.5641   170
10.5741   181
10.5841   175
10.5941   183
10.6041   167
10.6141   179
10.6241   197
10.6341   196
10.6441   176
10.6541   182
10.6641   187
10.6741   200
10.6841   199
10.6941   213
10.7041   207
10.7141   221
10.7241   219
10.7341   208
10.7441   217
10.7541   206
10.7641   210
10.7741   238
10.7841   273
10.7941   286
10.8041   277
10.8141   263
10.8241   265
10.8341   259
10.8441   264
10.8541   270
10.8641   276
10.8741   283
10.8841   280
10.8941   282
10.9041   307
10.9141   303
10.9241   285
10.9341   296
10.9441   286
10.9541   283
10.9641   298
10.9741   294
10.9841   289
10.9941   268
11.0041   274
11.0141   266
11.0241   267
11.0341   266
11.0441   247
11.0541   267
11.0641   254
11.0741   244
11.0841   257
11.0941   262
11.1041   257
11.1141   245
11.1241   261
11.1341   244
11.1441   244
11.1541   286
11.1641   293
11.1741   306
11.1841   294
11.1941   283
11.2041   317
11.2141   328
11.2241   352
11.2341   361
11.2441   377
11.2541   387
11.2641   414
11.2741   409
11.2841   410
11.2941   392
11.3041   360
11.3141   353
11.3241   353
11.3341   338
11.3441   331
11.3541   329
11.3641   329
11.3741   296
11.3841   268
11.3941   254
11.4041   250
11.4141   268
11.4241   232
11.4341   217
11.4441   210
11.4541   198
11.4641   186
11.4741   190
11.4841   186
11.4941   182
11.5041   176
11.5141   202
11.5241   219
11.5341   198
11.5441   190
11.5541   203
11.5641   209
11.5741   215
11.5841   222
11.5941   206
11.6041   211
11.6141   219
11.6241   201
11.6341   190
11.6441   198
11.6541   197
11.6641   194
11.6741   191
11.6841   196
11.6941   213
11.7041   214
11.7141   191
11.7241   174
11.7341   172
11.7441   166
11.7541   171
11.7641   161
11.7741   175
11.7841   177
11.7941   169
11.8041   157
11.8141   146
11.8241   152
11.8341   153
11.8441   149
11.8541   141
11.8641   136
11.8741   141
11.8841   140
11.8941   131
11.9041   133
11.9141   142
11.9241   147
11.9341   144
11.9441   140
11.9541   145
11.9641   160
11.9741   152
11.9841   153
11.9941   151
12.0041   147
12.0141   150
12.0241   156
12.0341   155
12.0441   158
12.0541   161
12.0641   151
12.0741   144
12.0841   139
12.0941   142
12.1041   161
12.1141   152
12.1241   152
12.1341   157
12.1441   149
12.1541   138
12.1641   140
12.1741   149
12.1841   135
12.1941   120
12.2041   135
12.2141   144
12.2241   144
12.2341   138
12.2441   136
12.2541   142
12.2641   156
12.2741   148
12.2841   141
12.2941   141
12.3041   143
12.3141   143
12.3241   135
12.3341   139
12.3441   141
12.3541   140
12.3641   151
12.3741   148
12.3841   143
12.3941   149
12.4041   143
12.4141   132
12.4241   138
12.4341   146
12.4441   145
12.4541   137
12.4641   149
12.4741   154
12.4841   150
12.4941   138
12.5041   146
12.5141   151
12.5241   144
12.5341   140
12.5441   154
12.5541   167
12.5641   181
12.5741   164
12.5841   147
12.5941   155
12.6041   160
12.6141   171
12.6241   173
12.6341   158
12.6441   143
12.6541   147
12.6641   163
12.6741   165
12.6841   178
12.6941   175
12.7041   163
12.7141   156
12.7241   145
12.7341   147
12.7441   152
12.7541   146
12.7641   145
12.7741   152
12.7841   159
12.7941   161
12.8041   167
12.8141   171
12.8241   165
12.8341   160
12.8441   166
12.8541   172
12.8641   169
12.8741   164
12.8841   166
12.8941   176
12.9041   182
12.9141   178
12.9241   170
12.9341   168
12.9441   172
12.9541   175
12.9641   177
12.9741   174
12.9841   168
12.9941   165
13.0041   164
13.0141   163
13.0241   166
13.0341   173
13.0441   173
13.0541   169
13.0641   173
13.0741   181
13.0841   184
13.0941   185
13.1041   181
13.1141   169
13.1241   161
13.1341   162
13.1441   168
13.1541   189
13.1641   192
13.1741   183
13.1841   190
13.1941   190
13.2041   183
13.2141   190
13.2241   197
13.2341   200
13.2441   209
13.2541   209
13.2641   201
13.2741   223
13.2841   231
13.2941   213
13.3041   205
13.3141   233
13.3241   246
13.3341   246
13.3441   258
13.3541   258
13.3641   262
13.3741   260
13.3841   252
13.3941   268
13.4041   263
13.4141   248
13.4241   265
13.4341   253
13.4441   241
13.4541   227
13.4641   207
13.4741   219
13.4841   227
13.4941   226
13.5041   218
13.5141   223
13.5241   233
13.5341   211
13.5441   199
13.5541   196
13.5641   196
13.5741   201
13.5841   197
13.5941   200
13.6041   201
13.6141   192
13.6241   186
13.6341   184
13.6441   183
13.6541   200
13.6641   205
13.6741   190
13.6841   188
13.6941   197
13.7041   198
13.7141   203
13.7241   192
13.7341   181
13.7441   206
13.7541   215
13.7641   200
13.7741   204
13.7841   215
13.7941   211
13.8041   196
13.8141   193
13.8241   210
13.8341   211
13.8441   208
13.8541   206
13.8641   205
13.8741   206
13.8841   210
13.8941   221
13.9041   218
13.9141   220
13.9241   227
13.9341   226
13.9441   221
13.9541   231
13.9641   245
13.9741   246
13.9841   249
13.9941   267
14.0041   285
14.0141   296
14.0241   305
14.0341   330
14.0441   364
14.0541   353
14.0641   336
14.0741   362
14.0841   393
14.0941   418
14.1041   435
14.1141   437
14.1241   439
14.1341   431
14.1441   464
14.1541   484
14.1641   442
14.1741   436
14.1841   438
14.1941   433
14.2041   409
14.2141   386
14.2241   380
14.2341   379
14.2441   371
14.2541   331
14.2641   306
14.2741   318
14.2841   311
14.2941   273
14.3041   263
14.3141   265
14.3241   256
14.3341   241
14.3441   245
14.3541   235
14.3641   223
14.3741   225
14.3841   227
14.3941   242
14.4041   234
14.4141   232
14.4241   238
14.4341   231
14.4441   235
14.4541   234
14.4641   222
14.4741   218
14.4841   223
14.4941   222
14.5041   225
14.5141   216
14.5241   211
14.5341   218
14.5441   213
14.5541   218
14.5641   219
14.5741   218
14.5841   219
14.5941   218
14.6041   234
14.6141   237
14.6241   242
14.6341   227
14.6441   215
14.6541   231
14.6641   239
14.6741   235
14.6841   232
14.6941   230
14.7041   231
14.7141   230
14.7241   229
14.7341   248
14.7441   257
14.7541   240
14.7641   235
14.7741   244
14.7841   235
14.7941   231
14.8041   239
14.8141   242
14.8241   265
14.8341   262
14.8441   245
14.8541   247
14.8641   268
14.8741   259
14.8841   238
14.8941   234
14.9041   255
14.9141   261
14.9241   269
14.9341   253
14.9441   235
14.9541   266
14.9641   272
14.9741   270
14.9841   282
14.9941   266
15.0041   257
15.0141   256
15.0241   262
15.0341   246
15.0441   242
15.0541   259
15.0641   267
15.0741   262
15.0841   268
15.0941   248
15.1041   252
15.1141   255
15.1241   258
15.1341   260
15.1441   260
15.1541   250
15.1641   238
15.1741   250
15.1841   250
15.1941   236
15.2041   236
15.2141   251
15.2241   241
15.2341   266
15.2441   287
15.2541   286
15.2641   258
15.2741   269
15.2841   264
15.2941   239
15.3041   244
15.3141   263
15.3241   256
15.3341   259
15.3441   270
15.3541   259
15.3641   271
15.3741   271
15.3841   256
15.3941   253
15.4041   265
15.4141   269
15.4241   257
15.4341   278
15.4441   274
15.4541   262
15.4641   273
15.4741   279
15.4841   277
15.4941   285
15.5041   267
15.5141   279
15.5241   300
15.5341   283
15.5441   282
15.5541   294
15.5641   298
15.5741   302
15.5841   307
15.5941   339
15.6041   344
15.6141   328
15.6241   354
15.6341   379
15.6441   393
15.6541   396
15.6641   397
15.6741   413
15.6841   428
15.6941   437
15.7041   441
15.7141   480
15.7241   446
15.7341   435
15.7441   458
15.7541   484
15.7641   488
15.7741   450
15.7841   468
15.7941   485
15.8041   463
15.8141   466
15.8241   457
15.8341   460
15.8441   459
15.8541   444
15.8641   439
15.8741   423
15.8841   390
15.8941   371
15.9041   361
15.9141   366
15.9241   362
15.9341   342
15.9441   303
15.9541   308
15.9641   301
15.9741   299
15.9841   307
15.9941   334
16.0041   323
16.0141   309
16.0241   319
16.0341   312
16.0441   301
16.0541   301
16.0641   309
16.0741   309
16.0841   321
16.0941   315
16.1041   308
16.1141   293
16.1241   297
16.1341   319
16.1441   309
16.1541   289
16.1641   276
16.1741   308
16.1841   317
16.1941   311
16.2041   309
16.2141   311
16.2241   310
16.2341   291
16.2441   317
16.2541   336
16.2641   307
16.2741   299
16.2841   330
16.2941   311
16.3041   282
16.3141   299
16.3241   305
16.3341   286
16.3441   294
16.3541   302
16.3641   317
16.3741   305
16.3841   297
16.3941   295
16.4041   291
16.4141   286
16.4241   281
16.4341   328
16.4441   329
16.4541   319
16.4641   319
16.4741   314
16.4841   321
16.4941   322
16.5041   299
16.5141   307
16.5241   318
16.5341   314
16.5441   312
16.5541   315
16.5641   343
16.5741   349
16.5841   320
16.5941   310
16.6041   329
16.6141   332
16.6241   329
16.6341   318
16.6441   313
16.6541   325
16.6641   324
16.6741   339
16.6841   339
16.6941   342
16.7041   345
16.7141   353
16.7241   338
16.7341   344
16.7441   333
16.7541   349
16.7641   347
16.7741   349
16.7841   319
16.7941   345
16.8041   357
16.8141   349
16.8241   325
16.8341   333
16.8441   325
16.8541   314
16.8641   325
16.8741   328
16.8841   337
16.8941   324
16.9041   316
16.9141   304
16.9241   321
16.9341   346
16.9441   329
16.9541   340
16.9641   354
16.9741   335
16.9841   330
16.9941   337
17.0041   338
17.0141   356
17.0241   343
17.0341   357
17.0441   377
17.0541   363
17.0641   360
17.0741   380
17.0841   360
17.0941   333
17.1041   366
17.1141   367
17.1241   333
17.1341   330
17.1441   363
17.1541   355
17.1641   380
17.1741   359
17.1841   342
17.1941   345
17.2041   366
17.2141   378
17.2241   359
17.2341   344
17.2441   344
17.2541   363
17.2641   360
17.2741   371
17.2841   380
17.2941   367
17.3041   374
17.3141   363
17.3241   352
17.3341   367
17.3441   367
17.3541   338
17.3641   337
17.3741   338
17.3841   365
17.3941   378
17.4041   372
17.4141   387
17.4241   367
17.4341   349
17.4441   360
17.4541   334
17.4641   341
17.4741   365
17.4841   385
17.4941   366
17.5041   372
17.5141   375
17.5241   385
17.5341   398
17.5441   401
17.5541   399
17.5641   396
17.5741   400
17.5841   406
17.5941   405
17.6041   416
17.6141   413
17.6241   383
17.6341   395
17.6441   404
17.6541   394
17.6641   416
17.6741   417
17.6841   387
17.6941   395
17.7041   398
17.7141   390
17.7241   405
17.7341   412
17.7441   420
17.7541   421
17.7641   392
17.7741   372
17.7841   376
17.7941   380
17.8041   402
17.8141   394
17.8241   381
17.8341   387
17.8441   373
17.8541   386
17.8641   403
17.8741   409
17.8841   370
17.8941   359
17.9041   368
17.9141   396
17.9241   388
17.9341   398
17.9441   402
17.9541   414
17.9641   401
17.9741   398
17.9841   408
17.9941   408
18.0041   397
18.0141   388
18.0241   399
18.0341   402
18.0441   405
18.0541   397
18.0641   417
18.0741   426
18.0841   415
18.0941   402
18.1041   416
18.1141   407
18.1241   381
18.1341   412
18.1441   391
18.1541   401
18.1641   396
18.1741   414
18.1841   423
18.1941   409
18.2041   414
18.2141   436
18.2241   406
18.2341   398
18.2441   406
18.2541   409
18.2641   385
18.2741   396
18.2841   427
18.2941   430
18.3041   446
18.3141   419
18.3241   396
18.3341   400
18.3441   410
18.3541   431
18.3641   392
18.3741   412
18.3841   417
18.3941   436
18.4041   421
18.4141   418
18.4241   420
18.4341   399
18.4441   392
18.4541   399
18.4641   434
18.4741   428
18.4841   406
18.4941   434
18.5041   416
18.5141   434
18.5241   440
18.5341   432
18.5441   410
18.5541   416
18.5641   434
18.5741   429
18.5841   436
18.5941   438
18.6041   421
18.6141   411
18.6241   414
18.6341   416
18.6441   407
18.6541   394
18.6641   414
18.6741   397
18.6841   441
18.6941   419
18.7041   429
18.7141   419
18.7241   394
18.7341   432
18.7441   435
18.7541   442
18.7641   443
18.7741   432
18.7841   417
18.7941   414
18.8041   427
18.8141   422
18.8241   453
18.8341   433
18.8441   408
18.8541   412
18.8641   417
18.8741   427
18.8841   430
18.8941   447
18.9041   454
18.9141   446
18.9241   421
18.9341   432
18.9441   416
18.9541   417
18.9641   424
18.9741   452
18.9841   469
18.9941   443
19.0041   435
19.0141   400
19.0241   411
19.0341   456
19.0441   437
19.0541   450
19.0641   459
19.0741   441
19.0841   465
19.0941   418
19.1041   417
19.1141   454
19.1241   456
19.1341   443
19.1441   432
19.1541   430
19.1641   445
19.1741   430
19.1841   442
19.1941   427
19.2041   459
19.2141   486
19.2241   456
19.2341   435
19.2441   447
19.2541   452
19.2641   430
19.2741   423
19.2841   442
19.2941   460
19.3041   446
19.3141   450
19.3241   444
19.3341   444
19.3441   471
19.3541   440
19.3641   431
19.3741   460
19.3841   453
19.3941   465
19.4041   436
19.4141   431
19.4241   435
19.4341   442
19.4441   445
19.4541   452
19.4641   464
19.4741   447
19.4841   440
19.4941   471
19.5041   448
19.5141   442
19.5241   424
19.5341   483
19.5441   478
19.5541   470
19.5641   447
19.5741   472
19.5841   497
19.5941   460
19.6041   452
19.6141   464
19.6241   478
19.6341   468
19.6441   462
19.6541   439
19.6641   449
19.6741   450
19.6841   446
19.6941   457
19.7041   495
19.7141   455
19.7241   472
19.7341   471
19.7441   445
19.7541   440
19.7641   469
19.7741   464
19.7841   428
19.7941   445
19.8041   481
19.8141   449
19.8241   454
19.8341   474
19.8441   492
19.8541   437
19.8641   459
19.8741   477
19.8841   478
19.8941   462
19.9041   487
19.9141   484
19.9241   444
19.9341   430
19.9441   434
19.9541   477
19.9641   488
19.9741   459
19.9841   457
19.9941   468
20.0041   460
20.0141   477
20.0241   483
20.0341   468
20.0441   471
20.0541   451
20.0641   452
20.0741   467
20.0841   439
20.0941   460
20.1041   423
20.1141   463
20.1241   483
20.1341   458
20.1441   496
20.1541   471
20.1641   492
20.1741   450
20.1841   505
20.1941   462
20.2041   475
20.2141   451
20.2241   479
20.2341   481
20.2441   466
20.2541   468
20.2641   484
20.2741   453
20.2841   461
20.2941   507
20.3041   456
20.3141   471
20.3241   444
20.3341   450
20.3441   496
20.3541   480
20.3641   501
20.3741   486
20.3841   477
20.3941   488
20.4041   489
20.4141   470
20.4241   490
20.4341   502
20.4441   492
20.4541   468
20.4641   490
20.4741   452
20.4841   471
20.4941   507
20.5041   481
20.5141   463
20.5241   506
20.5341   477
20.5441   492
20.5541   489
20.5641   477
20.5741   476
20.5841   469
20.5941   507
20.6041   490
20.6141   484
20.6241   463
20.6341   479
20.6441   451
20.6541   487
20.6641   488
20.6741   473
20.6841   486
20.6941   501
20.7041   453
20.7141   478
20.7241   492
20.7341   500
20.7441   474
20.7541   482
20.7641   470
20.7741   474
20.7841   461
20.7941   488
20.8041   509
20.8141   473
20.8241   490
20.8341   517
20.8441   519
20.8541   545
20.8641   525
20.8741   533
20.8841   549
20.8941   520
20.9041   552
20.9141   579
20.9241   568
20.9341   603
20.9441   559
20.9541   570
20.9641   637
20.9741   624
20.9841   646
20.9941   630
21.0041   642
21.0141   637
21.0241   657
21.0341   692
21.0441   720
21.0541   680
21.0641   697
21.0741   744
21.0841   739
21.0941   726
21.1041   732
21.1141   718
21.1241   629
21.1341   694
21.1441   757
21.1541   718
21.1641   709
21.1741   754
21.1841   726
21.1941   735
21.2041   711
21.2141   693
21.2241   663
21.2341   629
21.2441   618
21.2541   611
21.2641   628
21.2741   615
21.2841   617
21.2941   594
21.3041   604
21.3141   579
21.3241   579
21.3341   598
21.3441   542
21.3541   530
21.3641   521
21.3741   542
21.3841   512
21.3941   521
21.4041   490
21.4141   505
21.4241   490
21.4341   483
21.4441   459
21.4541   494
21.4641   482
21.4741   472
21.4841   501
21.4941   496
21.5041   503
21.5141   453
21.5241   537
21.5341   477
21.5441   492
21.5541   505
21.5641   447
21.5741   480
21.5841   490
21.5941   492
21.6041   468
21.6141   511
21.6241   482
21.6341   501
21.6441   487
21.6541   491
21.6641   443
21.6741   484
21.6841   476
21.6941   490
21.7041   496
21.7141   457
21.7241   494
21.7341   492
21.7441   480
21.7541   508
21.7641   460
21.7741   502
21.7841   466
21.7941   482
21.8041   481
21.8141   502
21.8241   493
21.8341   511
21.8441   514
21.8541   481
21.8641   511
21.8741   464
21.8841   479
21.8941   528
21.9041   505
21.9141   474
21.9241   456
21.9341   482
21.9441   535
21.9541   497
21.9641   456
21.9741   510
21.9841   468
21.9941   554
22.0041   511
22.0141   556
22.0241   500
22.0341   440
22.0441   486
22.0541   497
22.0641   498
22.0741   485
22.0841   484
22.0941   470
22.1041   489
22.1141   485
22.1241   485
22.1341   506
22.1441   517
22.1541   481
22.1641   436
22.1741   503
22.1841   474
22.1941   490
22.2041   472
22.2141   478
22.2241   434
22.2341   496
22.2441   481
22.2541   476
22.2641   456
22.2741   490
22.2841   500
22.2941   502
22.3041   480
22.3141   459
22.3241   471
22.3341   483
22.3441   507
22.3541   517
22.3641   493
22.3741   455
22.3841   517
22.3941   471
22.4041   497
22.4141   459
22.4241   484
22.4341   461
22.4441   529
22.4541   475
22.4641   452
22.4741   505
22.4841   469
22.4941   515
22.5041   481
22.5141   490
22.5241   486
22.5341   478
22.5441   490
22.5541   449
22.5641   466
22.5741   500
22.5841   498
22.5941   462
22.6041   450
22.6141   488
22.6241   475
22.6341   502
22.6441   478
22.6541   482
22.6641   474
22.6741   483
22.6841   454
22.6941   469
22.7041   475
22.7141   485
22.7241   487
22.7341   496
22.7441   476
22.7541   467
22.7641   490
22.7741   441
22.7841   459
22.7941   443
22.8041   491
22.8141   507
22.8241   488
22.8341   451
22.8441   462
22.8541   503
22.8641   435
22.8741   481
22.8841   473
22.8941   482
22.9041   503
22.9141   483
22.9241   457
22.9341   449
22.9441   463
22.9541   481
22.9641   482
22.9741   450
22.9841   490
22.9941   477
23.0041   465
23.0141   503
23.0241   494
23.0341   484
23.0441   494
23.0541   486
23.0641   425
23.0741   443
23.0841   475
23.0941   514
23.1041   455
23.1141   504
23.1241   473
23.1341   461
23.1441   488
23.1541   477
23.1641   435
23.1741   511
23.1841   461
23.1941   450
23.2041   425
23.2141   486
23.2241   472
23.2341   469
23.2441   489
23.2541   458
23.2641   473
23.2741   456
23.2841   495
23.2941   451
23.3041   479
23.3141   482
23.3241   438
23.3341   440
23.3441   448
23.3541   446
23.3641   487
23.3741   500
23.3841   483
23.3941   443
23.4041   487
23.4141   451
23.4241   469
23.4341   480
23.4441   472
23.4541   462
23.4641   486
23.4741   472
23.4841   469
23.4941   455
23.5041   484
23.5141   469
23.5241   453
23.5341   502
23.5441   479
23.5541   468
23.5641   455
23.5741   449
23.5841   451
23.5941   469
23.6041   472
23.6141   480
23.6241   478
23.6341   484
23.6441   446
23.6541   462
23.6641   512
23.6741   488
23.6841   494
23.6941   486
23.7041   495
23.7141   503
23.7241   491
23.7341   563
23.7441   473
23.7541   497
23.7641   542
23.7741   486
23.7841   491
23.7941   527
23.8041   509
23.8141   474
23.8241   482
23.8341   492
23.8441   526
23.8541   487
23.8641   501
23.8741   482
23.8841   486
23.8941   528
23.9041   482
23.9141   500
23.9241   493
23.9341   464
23.9441   450
23.9541   481
23.9641   461
23.9741   499
23.9841   484
23.9941   464
24.0041   472
24.0141   468
24.0241   439
24.0341   457
24.0441   457
24.0541   448
24.0641   470
24.0741   449
24.0841   429
24.0941   422
24.1041   482
24.1141   445
24.1241   449
24.1341   432
24.1441   433
24.1541   464
24.1641   482
24.1741   435
24.1841   414
24.1941   469
24.2041   449
24.2141   474
24.2241   446
24.2341   446
24.2441   464
24.2541   486
24.2641   438
24.2741   438
24.2841   433
24.2941   470
24.3041   433
24.3141   433
24.3241   434
24.3341   485
24.3441   449
24.3541   468
24.3641   468
24.3741   420
24.3841   459
24.3941   396
24.4041   439
24.4141   438
24.4241   411
24.4341   462
24.4441   458
24.4541   408
24.4641   453
24.4741   428
24.4841   458
24.4941   448
24.5041   410
24.5141   452
24.5241   418
24.5341   465
24.5441   456
24.5541   428
24.5641   423
24.5741   442
24.5841   421
24.5941   445
24.6041   450
24.6141   426
24.6241   464
24.6341   442
24.6441   405
24.6541   435
24.6641   431
24.6741   452
24.6841   434
24.6941   417
24.7041   414
24.7141   459
24.7241   404
24.7341   419
24.7441   432
24.7541   420
24.7641   446
24.7741   470
24.7841   418
24.7941   439
24.8041   424
24.8141   427
24.8241   447
24.8341   393
24.8441   439
24.8541   419
24.8641   455
24.8741   434
24.8841   435
24.8941   423
24.9041   465
24.9141   440
24.9241   447
24.9341   438
24.9441   422
24.9541   450
24.9641   474
24.9741   465
24.9841   436
24.9941   450
25.0041   457
25.0141   442
25.0241   438
25.0341   469
25.0441   448
25.0541   410
25.0641   441
25.0741   407
25.0841   415
25.0941   445
25.1041   419
25.1141   426
25.1241   440
25.1341   423
25.1441   419
25.1541   445
25.1641   462
25.1741   420
25.1841   414
25.1941   429
25.2041   440
25.2141   437
25.2241   460
25.2341   443
25.2441   445
25.2541   412
25.2641   434
25.2741   461
25.2841   424
25.2941   465
25.3041   402
25.3141   399
25.3241   439
25.3341   421
25.3441   414
25.3541   444
25.3641   408
25.3741   426
25.3841   413
25.3941   426
25.4041   428
25.4141   426
25.4241   447
25.4341   412
25.4441   397
25.4541   446
25.4641   406
25.4741   407
25.4841   381
25.4941   372
25.5041   419
25.5141   418
25.5241   406
25.5341   439
25.5441   396
25.5541   440
25.5641   384
25.5741   392
25.5841   376
25.5941   407
25.6041   416
25.6141   427
25.6241   428
25.6341   419
25.6441   402
25.6541   383
25.6641   419
25.6741   419
25.6841   421
25.6941   429
25.7041   419
25.7141   374
25.7241   396
25.7341   377
25.7441   418
25.7541   386
25.7641   376
25.7741   375
25.7841   378
25.7941   389
25.8041   370
25.8141   389
25.8241   391
25.8341   403
25.8441   377
25.8541   412
25.8641   418
25.8741   409
25.8841   392
25.8941   381
25.9041   374
25.9141   386
25.9241   390
25.9341   363
25.9441   379
25.9541   432
25.9641   383
25.9741   374
25.9841   384
25.9941   410
26.0041   375
26.0141   383
26.0241   410
26.0341   346
26.0441   395
26.0541   397
26.0641   385
26.0741   406
26.0841   396
26.0941   394
26.1041   352
26.1141   385
26.1241   388
26.1341   374
26.1441   397
26.1541   367
26.1641   366
26.1741   375
26.1841   365
26.1941   389
26.2041   387
26.2141   391
26.2241   361
26.2341   389
26.2441   393
26.2541   374
26.2641   399
26.2741   386
26.2841   409
26.2941   394
26.3041   374
26.3141   387
26.3241   377
26.3341   378
26.3441   395
26.3541   392
26.3641   384
26.3741   381
26.3841   362
26.3941   382
26.4041   370
26.4141   381
26.4241   376
26.4341   375
26.4441   422
26.4541   354
26.4641   366
26.4741   363
26.4841   374
26.4941   359
26.5041   348
26.5141   363
26.5241   401
26.5341   352
26.5441   381
26.5541   385
26.5641   383
26.5741   339
26.5841   361
26.5941   351
26.6041   427
26.6141   372
26.6241   364
26.6341   359
26.6441   351
26.6541   358
26.6641   377
26.6741   406
26.6841   361
26.6941   350
26.7041   357
26.7141   350
26.7241   344
26.7341   342
26.7441   365
26.7541   373
26.7641   363
26.7741   378
26.7841   362
26.7941   391
26.8041   344
26.8141   362
26.8241   383
26.8341   368
26.8441   371
26.8541   369
26.8641   346
26.8741   358
26.8841   359
26.8941   364
26.9041   368
26.9141   391
26.9241   352
26.9341   356
26.9441   354
26.9541   375
26.9641   360
26.9741   347
26.9841   328
26.9941   358
27.0041   349
27.0141   325
27.0241   335
27.0341   352
27.0441   358
27.0541   366
27.0641   371
27.0741   352
27.0841   331
27.0941   333
27.1041   344
27.1141   324
27.1241   357
27.1341   369
27.1441   378
27.1541   368
27.1641   356
27.1741   357
27.1841   352
27.1941   344
27.2041   382
27.2141   348
27.2241   335
27.2341   337
27.2441   343
27.2541   350
27.2641   317
27.2741   345
27.2841   360
27.2941   310
27.3041   341
27.3141   345
27.3241   352
27.3341   377
27.3441   368
27.3541   362
27.3641   350
27.3741   385
27.3841   373
27.3941   350
27.4041   361
27.4141   349
27.4241   341
27.4341   292
27.4441   344
27.4541   359
27.4641   353
27.4741   340
27.4841   342
27.4941   367
27.5041   325
27.5141   344
27.5241   349
27.5341   350
27.5441   356
27.5541   341
27.5641   337
27.5741   336
27.5841   361
27.5941   319
27.6041   339
27.6141   335
27.6241   331
27.6341   314
27.6441   349
27.6541   320
27.6641   334
27.6741   333
27.6841   330
27.6941   341
27.7041   320
27.7141   320
27.7241   325
27.7341   337
27.7441   336
27.7541   329
27.7641   334
27.7741   314
27.7841   321
27.7941   307
27.8041   307
27.8141   357
27.8241   341
27.8341   338
27.8441   329
27.8541   328
27.8641   323
27.8741   312
27.8841   306
27.8941   345
27.9041   326
27.9141   340
27.9241   291
27.9341   308
27.9441   307
27.9541   331
27.9641   290
27.9741   309
27.9841   302
27.9941   336
28.0041   318
28.0141   280
28.0241   287
28.0341   280
28.0441   319
28.0541   312
28.0641   327
28.0741   334
28.0841   301
28.0941   329
28.1041   288
28.1141   327
28.1241   297
28.1341   340
28.1441   305
28.1541   318
28.1641   340
28.1741   278
28.1841   318
28.1941   297
28.2041   319
28.2141   318
28.2241   339
28.2341   308
28.2441   282
28.2541   319
28.2641   308
28.2741   340
28.2841   296
28.2941   302
28.3041   316
28.3141   306
28.3241   285
28.3341   323
28.3441   267
28.3541   299
28.3641   319
28.3741   308
28.3841   325
28.3941   273
28.4041   312
28.4141   305
28.4241   319
28.4341   319
28.4441   300
28.4541   320
28.4641   296
28.4741   291
28.4841   314
28.4941   315
28.5041   336
28.5141   300
28.5241   290
28.5341   295
28.5441   322
28.5541   312
28.5641   281
28.5741   270
28.5841   280
28.5941   336
28.6041   296
28.6141   330
28.6241   348
28.6341   312
28.6441   293
28.6541   316
28.6641   321
28.6741   321
28.6841   280
28.6941   301
28.7041   296
28.7141   295
28.7241   315
28.7341   282
28.7441   316
28.7541   275
28.7641   276
28.7741   282
28.7841   287
28.7941   268
28.8041   313
28.8141   273
28.8241   287
28.8341   303
28.8441   258
28.8541   261
28.8641   282
28.8741   300
28.8841   310
28.8941   317
28.9041   302
28.9141   264
28.9241   295
28.9341   307
28.9441   286
28.9541   321
28.9641   297
28.9741   280
28.9841   266
28.9941   288
29.0041   271
29.0141   292
29.0241   269
29.0341   264
29.0441   252
29.0541   299
29.0641   265
29.0741   296
29.0841   285
29.0941   292
29.1041   269
29.1141   287
29.1241   276
29.1341   268
29.1441   274
29.1541   267
29.1641   253
29.1741   261
29.1841   290
29.1941   268
29.2041   280
29.2141   269
29.2241   265
29.2341   265
29.2441   283
29.2541   283
29.2641   280
29.2741   257
29.2841   285
29.2941   280
29.3041   292
29.3141   267
29.3241   250
29.3341   235
29.3441   258
29.3541   244
29.3641   267
29.3741   273
29.3841   265
29.3941   247
29.4041   264
29.4141   276
29.4241   250
29.4341   274
29.4441   263
29.4541   251
29.4641   264
29.4741   245
29.4841   281
29.4941   266
29.5041   256
29.5141   270
29.5241   268
29.5341   243
29.5441   264
29.5541   262
29.5641   261
29.5741   257
29.5841   269
29.5941   287
29.6041   258
29.6141   233
29.6241   248
29.6341   263
29.6441   260
29.6541   247
29.6641   245
29.6741   243
29.6841   245
29.6941   275
29.7041   259
29.7141   273
29.7241   270
29.7341   212
29.7441   244
29.7541   263
29.7641   261
29.7741   237
29.7841   234
29.7941   235
29.8041   261
29.8141   270
29.8241   250
29.8341   264
29.8441   246
29.8541   246
29.8641   244
29.8741   241
29.8841   242
29.8941   225
29.9041   265
29.9141   258
29.9241   237
29.9341   262
29.9441   266
29.9541   234
29.9641   240
29.9741   244
29.9841   255
29.9941   241
30.0041   243
30.0141   248
30.0241   233
30.0341   261
30.0441   256
30.0541   225
30.0641   244
30.0741   234
30.0841   248
30.0941   230
30.1041   230
30.1141   230
30.1241   245
30.1341   232
30.1441   228
30.1541   231
30.1641   236
30.1741   240
30.1841   238
30.1941   238
30.2041   238
30.2141   262
30.2241   216
30.2341   236
30.2441   242
30.2541   231
30.2641   238
30.2741   248
30.2841   235
30.2941   234
30.3041   229
30.3141   220
30.3241   212
30.3341   220
30.3441   228
30.3541   261
30.3641   206
30.3741   215
30.3841   220
30.3941   204
30.4041   203
30.4141   241
30.4241   260
30.4341   231
30.4441   263
30.4541   217
30.4641   225
30.4741   216
30.4841   235
30.4941   243
30.5041   232
30.5141   206
30.5241   238
30.5341   212
30.5441   238
30.5541   226
30.5641   220
30.5741   222
30.5841   233
30.5941   243
30.6041   223
30.6141   221
30.6241   221
30.6341   219
30.6441   216
30.6541   240
30.6641   226
30.6741   209
30.6841   241
30.6941   227
30.7041   213
30.7141   227
30.7241   222
30.7341   193
30.7441   215
30.7541   236
30.7641   216
30.7741   223
30.7841   200
30.7941   204
30.8041   223
30.8141   206
30.8241   220
30.8341   231
30.8441   229
30.8541   214
30.8641   211
30.8741   220
30.8841   231
30.8941   243
30.9041   212
30.9141   228
30.9241   231
30.9341   219
30.9441   217
30.9541   221
30.9641   214
30.9741   229
30.9841   213
30.9941   221
31.0041   218
31.0141   194
31.0241   188
31.0341   217
31.0441   187
31.0541   208
31.0641   224
31.0741   204
31.0841   216
31.0941   224
31.1041   222
31.1141   212
31.1241   204
31.1341   235
31.1441   223
31.1541   205
31.1641   199
31.1741   190
31.1841   186
31.1941   203
31.2041   211
31.2141   230
31.2241   197
31.2341   209
31.2441   207
31.2541   207
31.2641   197
31.2741   213
31.2841   198
31.2941   214
31.3041   212
31.3141   208
31.3241   204
31.3341   217
31.3441   204
31.3541   216
31.3641   183
31.3741   197
31.3841   186
31.3941   211
31.4041   193
31.4141   190
31.4241   205
31.4341   206
31.4441   182
31.4541   173
31.4641   195
31.4741   197
31.4841   177
31.4941   200
31.5041   187
31.5141   227
31.5241   205
31.5341   203
31.5441   201
31.5541   172
31.5641   186
31.5741   198
31.5841   206
31.5941   220
31.6041   219
31.6141   187
31.6241   199
31.6341   183
31.6441   186
31.6541   189
31.6641   202
31.6741   194
31.6841   190
31.6941   174
31.7041   183
31.7141   184
31.7241   244
31.7341   195
31.7441   188
31.7541   214
31.7641   200
31.7741   197
31.7841   205
31.7941   191
31.8041   191
31.8141   151
31.8241   184
31.8341   197
31.8441   173
31.8541   198
31.8641   178
31.8741   187
31.8841   208
31.8941   198
31.9041   184
31.9141   187
31.9241   178
31.9341   187
31.9441   198
31.9541   180
31.9641   185
31.9741   172
31.9841   194
31.9941   194
32.0041   215
32.0141   209
32.0241   201
32.0341   178
32.0441   186
32.0541   184
32.0641   160
32.0741   183
32.0841   176
32.0941   178
32.1041   171
32.1141   205
32.1241   181
32.1341   176
32.1441   228
32.1541   172
32.1641   177
32.1741   185
32.1841   158
32.1941   179
32.2041   193
32.2141   188
32.2241   186
32.2341   193
32.2441   203
32.2541   176
32.2641   206
32.2741   188
32.2841   161
32.2941   183
32.3041   166
32.3141   181
32.3241   182
32.3341   191
32.3441   173
32.3541   171
32.3641   203
32.3741   173
32.3841   168
32.3941   174
32.4041   156
32.4141   172
32.4241   175
32.4341   148
32.4441   166
32.4541   168
32.4641   159
32.4741   188
32.4841   156
32.4941   170
32.5041   158
32.5141   179
32.5241   172
32.5341   165
32.5441   165
32.5541   166
32.5641   170
32.5741   172
32.5841   170
32.5941   155
32.6041   153
32.6141   164
32.6241   191
32.6341   150
32.6441   171
32.6541   143
32.6641   160
32.6741   173
32.6841   160
32.6941   172
32.7041   144
32.7141   172
32.7241   151
32.7341   165
32.7441   148
32.7541   151
32.7641   163
32.7741   162
32.7841   160
32.7941   161
32.8041   166
32.8141   147
32.8241   178
32.8341   147
32.8441   187
32.8541   166
32.8641   148
32.8741   168
32.8841   155
32.8941   171
32.9041   168
32.9141   163
32.9241   158
32.9341   169
32.9441   160
32.9541   148
32.9641   138
32.9741   175
32.9841   151
32.9941   144
33.0041   151
33.0141   163
33.0241   150
33.0341   143
33.0441   142
33.0541   151
33.0641   169
33.0741   172
33.0841   149
33.0941   147
33.1041   156
33.1141   162
33.1241   157
33.1341   142
33.1441   165
33.1541   124
33.1641   139
33.1741   137
33.1841   151
33.1941   139
33.2041   151
33.2141   161
33.2241   143
33.2341   140
33.2441   124
33.2541   119
33.2641   139
33.2741   157
33.2841   162
33.2941   132
33.3041   145
33.3141   156
33.3241   161
33.3341   173
33.3441   144
33.3541   145
33.3641   150
33.3741   140
33.3841   150
33.3941   154
33.4041   134
33.4141   138
33.4241   143
33.4341   139
33.4441   146
33.4541   136
33.4641   139
33.4741   152
33.4841   157
33.4941   138
33.5041   129
33.5141   140
33.5241   140
33.5341   149
33.5441   142
33.5541   137
33.5641   150
33.5741   136
33.5841   141
33.5941   142
33.6041   142
33.6141   135
33.6241   135
33.6341   139
33.6441   132
33.6541   127
33.6641   122
33.6741   129
33.6841   105
33.6941   134
33.7041   137
33.7141   132
33.7241   141
33.7341   126
33.7441   125
33.7541   125
33.7641   138
33.7741   134
33.7841   132
33.7941   129
33.8041   136
33.8141   129
33.8241   119
33.8341   120
33.8441   144
33.8541   129
33.8641   121
33.8741   132
33.8841   124
33.8941   157
33.9041   144
33.9141   133
33.9241   126
33.9341   131
33.9441   128
33.9541   126
33.9641   134
33.9741   131
33.9841   144
33.9941   126
34.0041   117
34.0141   148
34.0241   148
34.0341   129
34.0441   135
34.0541   130
34.0641   130
34.0741   145
34.0841   110
34.0941   131
34.1041   125
34.1141    96
34.1241   126
34.1341   119
34.1441   147
34.1541   132
34.1641   136
34.1741   126
34.1841   136
34.1941   121
34.2041   131
34.2141   117
34.2241   124
34.2341   136
34.2441   125
34.2541   124
34.2641   119
34.2741   121
34.2841   121
34.2941   106
34.3041   120
34.3141   118
34.3241   120
34.3341   118
34.3441   130
34.3541   109
34.3641   105
34.3741   118
34.3841   117
34.3941   125
34.4041   124
34.4141   131
34.4241   123
34.4341   109
34.4441   112
34.4541   112
34.4641   107
34.4741   109
34.4841   123
34.4941   113
34.5041   129
34.5141   108
34.5241   134
34.5341   105
34.5441   112
34.5541   111
34.5641   126
34.5741   115
34.5841   112
34.5941    99
34.6041   105
34.6141   108
34.6241   126
34.6341   109
34.6441   121
34.6541   120
34.6641   119
34.6741    98
34.6841   118
34.6941   125
34.7041   119
34.7141   108
34.7241    93
34.7341   115
34.7441   110
34.7541   104
34.7641   112
34.7741   107
34.7841   111
34.7941   102
34.8041    90
34.8141    89
34.8241   108
34.8341   130
34.8441   109
34.8541   125
34.8641   115
34.8741   104
34.8841   103
34.8941   102
34.9041   117
34.9141   103
34.9241   127
34.9341   104
34.9441   115
34.9541   105
34.9641    84
34.9741   108
34.9841   113
34.9941   106
35.0041   109
35.0141   108
35.0241    98
35.0341    95
35.0441   113
35.0541   116
35.0641    98
35.0741    98
35.0841   115
35.0941   109
35.1041   110
35.1141   106
35.1241   108
35.1341    94
35.1441    95
35.1541   117
35.1641   106
35.1741    94
35.1841    95
35.1941    91
35.2041   110
35.2141   112
35.2241    90
35.2341   102
35.2441    90
35.2541   107
35.2641   101
35.2741   114
35.2841   101
35.2941    86
35.3041   109
35.3141   100
35.3241   120
35.3341   109
35.3441    93
35.3541    93
35.3641    92
35.3741    75
35.3841    95
35.3941    93
35.4041   104
35.4141    79
35.4241   101
35.4341    98
35.4441   100
35.4541   101
35.4641    93
35.4741   108
35.4841   101
35.4941    99
35.5041    92
35.5141    93
35.5241   101
35.5341    75
35.5441    91
35.5541   117
35.5641    95
35.5741    94
35.5841    95
35.5941   105
35.6041    93
35.6141    96
35.6241    87
35.6341   102
35.6441    96
35.6541    92
35.6641    90
35.6741    98
35.6841    98
35.6941    95
35.7041   112
35.7141   124
35.7241   104
35.7341   100
35.7441   102
35.7541    95
35.7641    97
35.7741    87
35.7841    87
35.7941   108
35.8041    87
35.8141    90
35.8241    90
35.8341   100
35.8441    96
35.8541    98
35.8641    83
35.8741    84
35.8841    94
35.8941    80
35.9041    83
35.9141   105
35.9241    90
35.9341   112
35.9441   109
35.9541    98
35.9641    91
35.9741    78
35.9841    85
35.9941    97
36.0041    74
36.0141    83
36.0241    91
36.0341    95
36.0441    81
36.0541    86
36.0641    78
36.0741    84
36.0841    90
36.0941    89
36.1041    91
36.1141    92
36.1241    78
36.1341    90
36.1441    94
36.1541    95
36.1641    93
36.1741    86
36.1841    81
36.1941    76
36.2041    71
36.2141    81
36.2241    87
36.2341   100
36.2441    82
36.2541    68
36.2641    67
36.2741    79
36.2841    93
36.2941    70
36.3041    56
36.3141    80
36.3241    85
36.3341    66
36.3441    73
36.3541    70
36.3641    87
36.3741    82
36.3841    80
36.3941    74
36.4041    80
36.4141    71
36.4241    77
36.4341   101
36.4441    81
36.4541    88
36.4641    74
36.4741    81
36.4841    70
36.4941    94
36.5041    78
36.5141    95
36.5241    77
36.5341    69
36.5441    68
36.5541    75
36.5641    74
36.5741    66
36.5841    56
36.5941    76
36.6041    68
36.6141    80
36.6241    64
36.6341    63
36.6441    69
36.6541    82
36.6641    78
36.6741    70
36.6841    67
36.6941    81
36.7041    75
36.7141    78
36.7241    70
36.7341    70
36.7441    73
36.7541    60
36.7641    87
36.7741    62
36.7841    73
36.7941    96
36.8041    64
36.8141    65
36.8241    55
36.8341    65
36.8441    69
36.8541    68
36.8641    75
36.8741    74
36.8841    76
36.8941    57
36.9041    61
36.9141    73
36.9241    60
36.9341    73
36.9441    60
36.9541    64
36.9641    69
36.9741    66
36.9841    78
36.9941    74
37.0041    50
37.0141    62
37.0241    62
37.0341    58
37.0441    79
37.0541    66
37.0641    70
37.0741    64
37.0841    80
37.0941    69
37.1041    67
37.1141    59
37.1241    59
37.1341    75
37.1441    79
37.1541    64
37.1641    64
37.1741    82
37.1841    67
37.1941    56
37.2041    53
37.2141    74
37.2241    56
37.2341    59
37.2441    52
37.2541    51
37.2641    58
37.2741    64
37.2841    62
37.2941    80
37.3041    66
37.3141    69
37.3241    61
37.3341    69
37.3441    70
37.3541    61
37.3641    62
37.3741    69
37.3841    62
37.3941    60
37.4041    77
37.4141    61
37.4241    56
37.4341    64
37.4441    69
37.4541    55
37.4641    54
37.4741    59
37.4841    61
37.4941    51
37.5041    66
37.5141    58
37.5241    50
37.5341    46
37.5441    65
37.5541    57
37.5641    62
37.5741    66
37.5841    55
37.5941    65
37.6041    52
37.6141    53
37.6241    67
37.6341    59
37.6441    65
37.6541    61
37.6641    42
37.6741    56
37.6841    54
37.6941    56
37.7041    67
37.7141    57
37.7241    66
37.7341    49
37.7441    63
37.7541    45
37.7641    56
37.7741    44
37.7841    49
37.7941    42
37.8041    61
37.8141    54
37.8241    62
37.8341    69
37.8441    72
37.8541    53
37.8641    59
37.8741    48
37.8841    59
37.8941    53
37.9041    69
37.9141    56
37.9241    46
37.9341    55
37.9441    53
37.9541    55
37.9641    62
37.9741    50
37.9841    55
37.9941    50
38.0041    51
38.0141    50
38.0241    50
38.0341    44
38.0441    49
38.0541    53
38.0641    45
38.0741    50
38.0841    58
38.0941    54
38.1041    47
38.1141    59
38.1241    46
38.1341    47
38.1441    56
38.1541    57
38.1641    47
38.1741    37
38.1841    59
38.1941    61
38.2041    66
38.2141    47
38.2241    48
38.2341    47
38.2441    63
38.2541    61
38.2641    56
38.2741    43
38.2841    39
38.2941    46
38.3041    49
38.3141    56
38.3241    51
38.3341    55
38.3441    37
38.3541    52
38.3641    47
38.3741    44
38.3841    36
38.3941    49
38.4041    37
38.4141    48
38.4241    50
38.4341    48
38.4441    49
38.4541    42
38.4641    44
38.4741    36
38.4841    56
38.4941    46
38.5041    52
38.5141    57
38.5241    39
38.5341    38
38.5441    34
38.5541    57
38.5641    44
38.5741    47
38.5841    32
38.5941    46
38.6041    43
38.6141    39
38.6241    54
38.6341    35
38.6441    41
38.6541    48
38.6641    44
38.6741    44
38.6841    34
38.6941    43
38.7041    39
38.7141    39
38.7241    49
38.7341    45
38.7441    32
38.7541    50
38.7641    42
38.7741    44
38.7841    56
38.7941    43
38.8041    46
38.8141    39
38.8241    49
38.8341    48
38.8441    45
38.8541    40
38.8641    31
38.8741    38
38.8841    35
38.8941    51
38.9041    36
38.9141    58
38.9241    58
38.9341    45
38.9441    36
38.9541    35
38.9641    42
38.9741    54
38.9841    45
38.9941    38
39.0041    39
39.0141    31
39.0241    47
39.0341    45
39.0441    38
39.0541    37
39.0641    32
39.0741    33
39.0841    38
39.0941    38
39.1041    35
39.1141    39
39.1241    53
39.1341    34
39.1441    33
39.1541    25
39.1641    30
39.1741    27
39.1841    31
39.1941    50
39.2041    34
39.2141    36
39.2241    42
39.2341    33
39.2441    38
39.2541    35
39.2641    36
39.2741    34
39.2841    32
39.2941    28
39.3041    39
39.3141    39
39.3241    40
39.3341    33
39.3441    29
39.3541    32
39.3641    34
39.3741    30
39.3841    30
39.3941    35
39.4041    33
39.4141    32
39.4241    32
39.4341    41
39.4441    26
39.4541    33
39.4641    27
39.4741    36
39.4841    32
39.4941    26
39.5041    28
39.5141    34
39.5241    27
39.5341    28
39.5441    23
39.5541    28
39.5641    23
39.5741    51
39.5841    32
39.5941    32
39.6041    38
39.6141    31
39.6241    25
39.6341    33
39.6441    30
39.6541    30
39.6641    37
39.6741    31
39.6841    27
39.6941    29
39.7041    39
39.7141    28
39.7241    27
39.7341    29
39.7441    30
39.7541    31
39.7641    22
39.7741    27
39.7841    31
39.7941    28
39.8041    33
39.8141    25
39.8241    25
39.8341    33
39.8441    29
39.8541    28
39.8641    31
39.8741    24
39.8841    22
39.8941    31
39.9041    23
39.9141    25
39.9241    31
39.9341    20
39.9441    21
39.9541    22
39.9641    31
39.9741    26
39.9841    26
