Bruker Nano GmbH Berlin, Germany
Esprit 1.9

Date: 4/21/2021 1:44:30 PM
Real time: 24796
Life time: 23398
Pulse density: 82667


Detector type: XFlash 430
Window type: Custom type
Detector thickness: 0.45
Si dead layer:0.029

Calibration, lin.: 10
Calibration, abs.: -955.9
Mn FWHM: 137.05
Fano factor: 0.121
Channels: 4095

Energy Counts
-0.9559     0
-0.9459     0
-0.9359     0
-0.9259     0
-0.9159     0
-0.9059     0
-0.8959     0
-0.8859     0
-0.8759     0
-0.8659     0
-0.8559     0
-0.8459     0
-0.8359     0
-0.8259     0
-0.8159     0
-0.8059     0
-0.7959     0
-0.7859     0
-0.7759     0
-0.7659     0
-0.7559     0
-0.7459     0
-0.7359     0
-0.7259     0
-0.7159     0
-0.7059     0
-0.6959     0
-0.6859     0
-0.6759     0
-0.6659     0
-0.6559     0
-0.6459     0
-0.6359     0
-0.6259     0
-0.6159     0
-0.6059     0
-0.5959     0
-0.5859     0
-0.5759     0
-0.5659     0
-0.5559     0
-0.5459     0
-0.5359     0
-0.5259     0
-0.5159     0
-0.5059     0
-0.4959     0
-0.4859     0
-0.4759     0
-0.4659     0
-0.4559     0
-0.4459     0
-0.4359     0
-0.4259     0
-0.4159     0
-0.4059     0
-0.3959     0
-0.3859     0
-0.3759     0
-0.3659     0
-0.3559     0
-0.3459     0
-0.3359     0
-0.3259     0
-0.3159     0
-0.3059     0
-0.2959     0
-0.2859     0
-0.2759     0
-0.2659     0
-0.2559     0
-0.2459     0
-0.2359     0
-0.2259     0
-0.2159     0
-0.2059     0
-0.1959     0
-0.1859     0
-0.1759     0
-0.1659     0
-0.1559     1
-0.1459     0
-0.1359     1
-0.1259     0
-0.1159    10
-0.1059    17
-0.0959    76
-0.0859   253
-0.0759   913
-0.0659  2693
-0.0559  6828
-0.0459 14754
-0.0359 27931
-0.0259 44533
-0.0159 60929
-0.0059 71781
 0.0041 72526
 0.0141 62313
 0.0241 45561
 0.0341 28977
 0.0441 15581
 0.0541  7250
 0.0641  2854
 0.0741   954
 0.0841   291
 0.0941    91
 0.1041    35
 0.1141    13
 0.1241     8
 0.1341     8
 0.1441     5
 0.1541     7
 0.1641     7
 0.1741     1
 0.1841   194
 0.1941   368
 0.2041   353
 0.2141   321
 0.2241   325
 0.2341   339
 0.2441   326
 0.2541   330
 0.2641   355
 0.2741   344
 0.2841   353
 0.2941   357
 0.3041   337
 0.3141   343
 0.3241   335
 0.3341   296
 0.3441   316
 0.3541   307
 0.3641   304
 0.3741   308
 0.3841   320
 0.3941   299
 0.4041   294
 0.4141   301
 0.4241   307
 0.4341   306
 0.4441   300
 0.4541   294
 0.4641   281
 0.4741   292
 0.4841   275
 0.4941   268
 0.5041   295
 0.5141   325
 0.5241   288
 0.5341   289
 0.5441   290
 0.5541   281
 0.5641   287
 0.5741   266
 0.5841   238
 0.5941   252
 0.6041   266
 0.6141   265
 0.6241   267
 0.6341   264
 0.6441   278
 0.6541   261
 0.6641   248
 0.6741   273
 0.6841   271
 0.6941   248
 0.7041   234
 0.7141   252
 0.7241   248
 0.7341   244
 0.7441   262
 0.7541   243
 0.7641   255
 0.7741   246
 0.7841   228
 0.7941   241
 0.8041   243
 0.8141   238
 0.8241   229
 0.8341   224
 0.8441   238
 0.8541   247
 0.8641   242
 0.8741   219
 0.8841   217
 0.8941   216
 0.9041   230
 0.9141   226
 0.9241   233
 0.9341   199
 0.9441   212
 0.9541   223
 0.9641   219
 0.9741   207
 0.9841   227
 0.9941   236
 1.0041   213
 1.0141   244
 1.0241   251
 1.0341   232
 1.0441   226
 1.0541   223
 1.0641   229
 1.0741   207
 1.0841   211
 1.0941   225
 1.1041   223
 1.1141   227
 1.1241   222
 1.1341   212
 1.1441   225
 1.1541   202
 1.1641   212
 1.1741   216
 1.1841   209
 1.1941   222
 1.2041   216
 1.2141   218
 1.2241   210
 1.2341   201
 1.2441   184
 1.2541   191
 1.2641   199
 1.2741   188
 1.2841   214
 1.2941   222
 1.3041   199
 1.3141   201
 1.3241   194
 1.3341   201
 1.3441   215
 1.3541   198
 1.3641   215
 1.3741   180
 1.3841   192
 1.3941   195
 1.4041   181
 1.4141   196
 1.4241   222
 1.4341   192
 1.4441   203
 1.4541   191
 1.4641   193
 1.4741   188
 1.4841   222
 1.4941   208
 1.5041   192
 1.5141   208
 1.5241   201
 1.5341   176
 1.5441   185
 1.5541   198
 1.5641   187
 1.5741   187
 1.5841   182
 1.5941   200
 1.6041   174
 1.6141   179
 1.6241   209
 1.6341   205
 1.6441   231
 1.6541   264
 1.6641   292
 1.6741   357
 1.6841   438
 1.6941   534
 1.7041   646
 1.7141   769
 1.7241   812
 1.7341   818
 1.7441   870
 1.7541   845
 1.7641   745
 1.7741   644
 1.7841   526
 1.7941   442
 1.8041   375
 1.8141   320
 1.8241   321
 1.8341   275
 1.8441   249
 1.8541   270
 1.8641   232
 1.8741   219
 1.8841   202
 1.8941   221
 1.9041   196
 1.9141   189
 1.9241   190
 1.9341   203
 1.9441   236
 1.9541   213
 1.9641   226
 1.9741   218
 1.9841   236
 1.9941   274
 2.0041   243
 2.0141   234
 2.0241   243
 2.0341   234
 2.0441   242
 2.0541   217
 2.0641   221
 2.0741   188
 2.0841   199
 2.0941   183
 2.1041   203
 2.1141   193
 2.1241   176
 2.1341   185
 2.1441   175
 2.1541   201
 2.1641   177
 2.1741   176
 2.1841   183
 2.1941   195
 2.2041   182
 2.2141   192
 2.2241   169
 2.2341   192
 2.2441   158
 2.2541   166
 2.2641   150
 2.2741   157
 2.2841   159
 2.2941   180
 2.3041   162
 2.3141   165
 2.3241   182
 2.3341   177
 2.3441   156
 2.3541   158
 2.3641   157
 2.3741   150
 2.3841   148
 2.3941   175
 2.4041   166
 2.4141   147
 2.4241   173
 2.4341   176
 2.4441   176
 2.4541   182
 2.4641   178
 2.4741   158
 2.4841   168
 2.4941   166
 2.5041   193
 2.5141   156
 2.5241   154
 2.5341   166
 2.5441   156
 2.5541   164
 2.5641   138
 2.5741   171
 2.5841   169
 2.5941   161
 2.6041   162
 2.6141   159
 2.6241   168
 2.6341   179
 2.6441   163
 2.6541   156
 2.6641   165
 2.6741   149
 2.6841   166
 2.6941   164
 2.7041   148
 2.7141   155
 2.7241   144
 2.7341   146
 2.7441   155
 2.7541   146
 2.7641   161
 2.7741   131
 2.7841   140
 2.7941   157
 2.8041   147
 2.8141   150
 2.8241   153
 2.8341   150
 2.8441   174
 2.8541   193
 2.8641   177
 2.8741   131
 2.8841   138
 2.8941   162
 2.9041   135
 2.9141   127
 2.9241   133
 2.9341   155
 2.9441   142
 2.9541   128
 2.9641   139
 2.9741   136
 2.9841   145
 2.9941   152
 3.0041   162
 3.0141   170
 3.0241   125
 3.0341   128
 3.0441   152
 3.0541   144
 3.0641   107
 3.0741   114
 3.0841   117
 3.0941   110
 3.1041   116
 3.1141   140
 3.1241   120
 3.1341   145
 3.1441   121
 3.1541   140
 3.1641   116
 3.1741   113
 3.1841   128
 3.1941   129
 3.2041   152
 3.2141   118
 3.2241   174
 3.2341   179
 3.2441   185
 3.2541   231
 3.2641   248
 3.2741   313
 3.2841   318
 3.2941   346
 3.3041   392
 3.3141   367
 3.3241   383
 3.3341   344
 3.3441   326
 3.3541   277
 3.3641   262
 3.3741   212
 3.3841   188
 3.3941   162
 3.4041   155
 3.4141   144
 3.4241   131
 3.4341   129
 3.4441   124
 3.4541   109
 3.4641   114
 3.4741   113
 3.4841   113
 3.4941   114
 3.5041   111
 3.5141   140
 3.5241   161
 3.5341   139
 3.5441   152
 3.5541   186
 3.5641   214
 3.5741   247
 3.5841   314
 3.5941   366
 3.6041   476
 3.6141   565
 3.6241   712
 3.6341   926
 3.6441  1053
 3.6541  1241
 3.6641  1419
 3.6741  1486
 3.6841  1521
 3.6941  1555
 3.7041  1460
 3.7141  1382
 3.7241  1269
 3.7341  1058
 3.7441   888
 3.7541   670
 3.7641   527
 3.7741   390
 3.7841   305
 3.7941   257
 3.8041   195
 3.8141   160
 3.8241   132
 3.8341   122
 3.8441   100
 3.8541   105
 3.8641   104
 3.8741   122
 3.8841   106
 3.8941   115
 3.9041   128
 3.9141   139
 3.9241   157
 3.9341   163
 3.9441   194
 3.9541   212
 3.9641   236
 3.9741   275
 3.9841   279
 3.9941   305
 4.0041   312
 4.0141   315
 4.0241   311
 4.0341   285
 4.0441   260
 4.0541   260
 4.0641   215
 4.0741   208
 4.0841   174
 4.0941   152
 4.1041   121
 4.1141   126
 4.1241   111
 4.1341   109
 4.1441    86
 4.1541    82
 4.1641    98
 4.1741    85
 4.1841    85
 4.1941    77
 4.2041    91
 4.2141    89
 4.2241   100
 4.2341    99
 4.2441    89
 4.2541    94
 4.2641    84
 4.2741    92
 4.2841   106
 4.2941    81
 4.3041    88
 4.3141    94
 4.3241    91
 4.3341   105
 4.3441    95
 4.3541    97
 4.3641    96
 4.3741   105
 4.3841   132
 4.3941   127
 4.4041   184
 4.4141   196
 4.4241   233
 4.4341   288
 4.4441   341
 4.4541   358
 4.4641   437
 4.4741   490
 4.4841   552
 4.4941   521
 4.5041   547
 4.5141   544
 4.5241   538
 4.5341   510
 4.5441   407
 4.5541   414
 4.5641   327
 4.5741   288
 4.5841   270
 4.5941   225
 4.6041   173
 4.6141   163
 4.6241   117
 4.6341   136
 4.6441   129
 4.6541   107
 4.6641    98
 4.6741    88
 4.6841    88
 4.6941   108
 4.7041   123
 4.7141    91
 4.7241   112
 4.7341   111
 4.7441   114
 4.7541   119
 4.7641   134
 4.7741   117
 4.7841   135
 4.7941   138
 4.8041   139
 4.8141   143
 4.8241   147
 4.8341   161
 4.8441   157
 4.8541   152
 4.8641   171
 4.8741   171
 4.8841   183
 4.8941   199
 4.9041   203
 4.9141   206
 4.9241   229
 4.9341   197
 4.9441   183
 4.9541   217
 4.9641   178
 4.9741   178
 4.9841   179
 4.9941   162
 5.0041   135
 5.0141   137
 5.0241   113
 5.0341   133
 5.0441   115
 5.0541   113
 5.0641   109
 5.0741   122
 5.0841   121
 5.0941   117
 5.1041   123
 5.1141   104
 5.1241   119
 5.1341   129
 5.1441   110
 5.1541   125
 5.1641   102
 5.1741   113
 5.1841   107
 5.1941    96
 5.2041   134
 5.2141    99
 5.2241   110
 5.2341   108
 5.2441   109
 5.2541    95
 5.2641    98
 5.2741   110
 5.2841   115
 5.2941    90
 5.3041   101
 5.3141   116
 5.3241   122
 5.3341   133
 5.3441   143
 5.3541   144
 5.3641   148
 5.3741   145
 5.3841   140
 5.3941   178
 5.4041   161
 5.4141   161
 5.4241   165
 5.4341   145
 5.4441   151
 5.4541   151
 5.4641   153
 5.4741   138
 5.4841   148
 5.4941   139
 5.5041   131
 5.5141   136
 5.5241   131
 5.5341   124
 5.5441   118
 5.5541   115
 5.5641   113
 5.5741   122
 5.5841    96
 5.5941   148
 5.6041   105
 5.6141   121
 5.6241   121
 5.6341   119
 5.6441   121
 5.6541   107
 5.6641   119
 5.6741   128
 5.6841   117
 5.6941   116
 5.7041   120
 5.7141   132
 5.7241   129
 5.7341   133
 5.7441   166
 5.7541   158
 5.7641   197
 5.7741   191
 5.7841   217
 5.7941   237
 5.8041   260
 5.8141   278
 5.8241   332
 5.8341   387
 5.8441   400
 5.8541   473
 5.8641   525
 5.8741   552
 5.8841   541
 5.8941   576
 5.9041   489
 5.9141   493
 5.9241   496
 5.9341   507
 5.9441   413
 5.9541   371
 5.9641   332
 5.9741   296
 5.9841   260
 5.9941   232
 6.0041   226
 6.0141   203
 6.0241   168
 6.0341   156
 6.0441   166
 6.0541   160
 6.0641   157
 6.0741   154
 6.0841   126
 6.0941   158
 6.1041   167
 6.1141   166
 6.1241   176
 6.1341   164
 6.1441   178
 6.1541   169
 6.1641   181
 6.1741   217
 6.1841   241
 6.1941   287
 6.2041   339
 6.2141   428
 6.2241   491
 6.2341   728
 6.2441  1028
 6.2541  1342
 6.2641  1824
 6.2741  2524
 6.2841  3420
 6.2941  4487
 6.3041  5556
 6.3141  7218
 6.3241  8956
 6.3341 10529
 6.3441 12545
 6.3541 14522
 6.3641 16083
 6.3741 17438
 6.3841 18359
 6.3941 18786
 6.4041 18765
 6.4141 18303
 6.4241 17525
 6.4341 15919
 6.4441 14327
 6.4541 12346
 6.4641 10484
 6.4741  8688
 6.4841  6962
 6.4941  5342
 6.5041  4192
 6.5141  3162
 6.5241  2296
 6.5341  1668
 6.5441  1145
 6.5541   840
 6.5641   611
 6.5741   433
 6.5841   334
 6.5941   298
 6.6041   257
 6.6141   210
 6.6241   154
 6.6341   176
 6.6441   188
 6.6541   155
 6.6641   188
 6.6741   163
 6.6841   178
 6.6941   184
 6.7041   174
 6.7141   173
 6.7241   183
 6.7341   188
 6.7441   162
 6.7541   184
 6.7641   187
 6.7741   196
 6.7841   196
 6.7941   182
 6.8041   189
 6.8141   197
 6.8241   230
 6.8341   216
 6.8441   212
 6.8541   254
 6.8641   269
 6.8741   291
 6.8841   299
 6.8941   392
 6.9041   437
 6.9141   516
 6.9241   693
 6.9341   816
 6.9441   902
 6.9541  1154
 6.9641  1359
 6.9741  1570
 6.9841  1888
 6.9941  2163
 7.0041  2403
 7.0141  2614
 7.0241  2886
 7.0341  3074
 7.0441  3133
 7.0541  3186
 7.0641  3136
 7.0741  3080
 7.0841  2859
 7.0941  2705
 7.1041  2416
 7.1141  2136
 7.1241  1873
 7.1341  1581
 7.1441  1399
 7.1541  1106
 7.1641   841
 7.1741   717
 7.1841   581
 7.1941   473
 7.2041   395
 7.2141   340
 7.2241   302
 7.2341   284
 7.2441   288
 7.2541   229
 7.2641   230
 7.2741   242
 7.2841   239
 7.2941   268
 7.3041   249
 7.3141   261
 7.3241   264
 7.3341   308
 7.3441   296
 7.3541   306
 7.3641   324
 7.3741   359
 7.3841   352
 7.3941   346
 7.4041   374
 7.4141   324
 7.4241   347
 7.4341   376
 7.4441   380
 7.4541   355
 7.4641   331
 7.4741   327
 7.4841   290
 7.4941   299
 7.5041   298
 7.5141   314
 7.5241   293
 7.5341   275
 7.5441   280
 7.5541   272
 7.5641   243
 7.5741   256
 7.5841   258
 7.5941   236
 7.6041   245
 7.6141   247
 7.6241   236
 7.6341   244
 7.6441   227
 7.6541   239
 7.6641   250
 7.6741   253
 7.6841   251
 7.6941   273
 7.7041   269
 7.7141   233
 7.7241   272
 7.7341   292
 7.7441   284
 7.7541   295
 7.7641   302
 7.7741   322
 7.7841   327
 7.7941   328
 7.8041   307
 7.8141   320
 7.8241   339
 7.8341   369
 7.8441   346
 7.8541   385
 7.8641   349
 7.8741   371
 7.8841   366
 7.8941   393
 7.9041   450
 7.9141   444
 7.9241   440
 7.9341   490
 7.9441   519
 7.9541   530
 7.9641   531
 7.9741   584
 7.9841   682
 7.9941   692
 8.0041   746
 8.0141   817
 8.0241   901
 8.0341   938
 8.0441  1014
 8.0541  1023
 8.0641  1094
 8.0741  1226
 8.0841  1253
 8.0941  1280
 8.1041  1397
 8.1141  1483
 8.1241  1485
 8.1341  1503
 8.1441  1596
 8.1541  1613
 8.1641  1706
 8.1741  1663
 8.1841  1702
 8.1941  1758
 8.2041  1745
 8.2141  1685
 8.2241  1705
 8.2341  1740
 8.2441  1717
 8.2541  1824
 8.2641  1960
 8.2741  2043
 8.2841  2151
 8.2941  2334
 8.3041  2536
 8.3141  2718
 8.3241  2899
 8.3341  3075
 8.3441  3276
 8.3541  3554
 8.3641  3650
 8.3741  3727
 8.3841  3785
 8.3941  3830
 8.4041  3772
 8.4141  3537
 8.4241  3362
 8.4341  3148
 8.4441  2890
 8.4541  2563
 8.4641  2260
 8.4741  2000
 8.4841  1691
 8.4941  1492
 8.5041  1250
 8.5141  1095
 8.5241   949
 8.5341   807
 8.5441   703
 8.5541   640
 8.5641   578
 8.5741   555
 8.5841   534
 8.5941   514
 8.6041   522
 8.6141   528
 8.6241   519
 8.6341   488
 8.6441   475
 8.6541   512
 8.6641   519
 8.6741   494
 8.6841   493
 8.6941   438
 8.7041   488
 8.7141   439
 8.7241   465
 8.7341   434
 8.7441   404
 8.7541   385
 8.7641   401
 8.7741   388
 8.7841   398
 8.7941   418
 8.8041   390
 8.8141   386
 8.8241   363
 8.8341   395
 8.8441   371
 8.8541   355
 8.8641   377
 8.8741   395
 8.8841   365
 8.8941   400
 8.9041   399
 8.9141   430
 8.9241   431
 8.9341   433
 8.9441   424
 8.9541   419
 8.9641   458
 8.9741   462
 8.9841   450
 8.9941   461
 9.0041   500
 9.0141   496
 9.0241   544
 9.0341   487
 9.0441   524
 9.0541   521
 9.0641   544
 9.0741   557
 9.0841   553
 9.0941   589
 9.1041   591
 9.1141   605
 9.1241   670
 9.1341   702
 9.1441   681
 9.1541   734
 9.1641   786
 9.1741   805
 9.1841   830
 9.1941   880
 9.2041   927
 9.2141   960
 9.2241  1000
 9.2341  1032
 9.2441  1129
 9.2541  1134
 9.2641  1173
 9.2741  1220
 9.2841  1289
 9.2941  1363
 9.3041  1375
 9.3141  1410
 9.3241  1494
 9.3341  1564
 9.3441  1572
 9.3541  1655
 9.3641  1682
 9.3741  1730
 9.3841  1741
 9.3941  1738
 9.4041  1663
 9.4141  1724
 9.4241  1765
 9.4341  1786
 9.4441  1800
 9.4541  1835
 9.4641  1916
 9.4741  1931
 9.4841  1923
 9.4941  1991
 9.5041  2110
 9.5141  2153
 9.5241  2159
 9.5341  2224
 9.5441  2347
 9.5541  2473
 9.5641  2716
 9.5741  2892
 9.5841  3028
 9.5941  3249
 9.6041  3417
 9.6141  3589
 9.6241  3729
 9.6341  3886
 9.6441  4090
 9.6541  4085
 9.6641  4155
 9.6741  4317
 9.6841  4161
 9.6941  3977
 9.7041  3860
 9.7141  3578
 9.7241  3463
 9.7341  3257
 9.7441  2978
 9.7541  2720
 9.7641  2497
 9.7741  2342
 9.7841  2076
 9.7941  2022
 9.8041  1821
 9.8141  1681
 9.8241  1631
 9.8341  1556
 9.8441  1496
 9.8541  1475
 9.8641  1441
 9.8741  1502
 9.8841  1527
 9.8941  1578
 9.9041  1644
 9.9141  1622
 9.9241  1656
 9.9341  1680
 9.9441  1640
 9.9541  1609
 9.9641  1622
 9.9741  1537
 9.9841  1463
 9.9941  1391
10.0041  1375
10.0141  1256
10.0241  1163
10.0341  1117
10.0441   969
10.0541   850
10.0641   753
10.0741   730
10.0841   660
10.0941   561
10.1041   531
10.1141   497
10.1241   403
10.1341   406
10.1441   407
10.1541   340
10.1641   332
10.1741   301
10.1841   302
10.1941   306
10.2041   282
10.2141   266
10.2241   266
10.2341   257
10.2441   251
10.2541   245
10.2641   262
10.2741   254
10.2841   214
10.2941   223
10.3041   209
10.3141   209
10.3241   220
10.3341   213
10.3441   220
10.3541   191
10.3641   209
10.3741   206
10.3841   188
10.3941   183
10.4041   206
10.4141   221
10.4241   208
10.4341   196
10.4441   196
10.4541   197
10.4641   219
10.4741   217
10.4841   230
10.4941   248
10.5041   229
10.5141   223
10.5241   233
10.5341   240
10.5441   226
10.5541   228
10.5641   235
10.5741   246
10.5841   235
10.5941   219
10.6041   258
10.6141   259
10.6241   244
10.6341   264
10.6441   247
10.6541   243
10.6641   250
10.6741   264
10.6841   256
10.6941   277
10.7041   294
10.7141   277
10.7241   302
10.7341   311
10.7441   296
10.7541   301
10.7641   302
10.7741   299
10.7841   321
10.7941   346
10.8041   333
10.8141   329
10.8241   357
10.8341   332
10.8441   338
10.8541   365
10.8641   338
10.8741   346
10.8841   357
10.8941   344
10.9041   346
10.9141   362
10.9241   377
10.9341   376
10.9441   387
10.9541   382
10.9641   360
10.9741   348
10.9841   360
10.9941   357
11.0041   364
11.0141   348
11.0241   342
11.0341   353
11.0441   362
11.0541   334
11.0641   340
11.0741   330
11.0841   335
11.0941   335
11.1041   333
11.1141   333
11.1241   344
11.1341   361
11.1441   340
11.1541   338
11.1641   371
11.1741   441
11.1841   467
11.1941   475
11.2041   451
11.2141   469
11.2241   479
11.2341   509
11.2441   529
11.2541   539
11.2641   550
11.2741   602
11.2841   599
11.2941   549
11.3041   517
11.3141   552
11.3241   531
11.3341   513
11.3441   470
11.3541   454
11.3641   437
11.3741   389
11.3841   374
11.3941   358
11.4041   347
11.4141   313
11.4241   300
11.4341   292
11.4441   298
11.4541   283
11.4641   288
11.4741   277
11.4841   267
11.4941   268
11.5041   276
11.5141   267
11.5241   280
11.5341   264
11.5441   270
11.5541   286
11.5641   319
11.5741   312
11.5841   318
11.5941   316
11.6041   291
11.6141   278
11.6241   270
11.6341   298
11.6441   288
11.6541   275
11.6641   272
11.6741   270
11.6841   272
11.6941   273
11.7041   267
11.7141   265
11.7241   246
11.7341   244
11.7441   234
11.7541   217
11.7641   209
11.7741   208
11.7841   215
11.7941   209
11.8041   214
11.8141   215
11.8241   209
11.8341   195
11.8441   191
11.8541   195
11.8641   180
11.8741   184
11.8841   182
11.8941   175
11.9041   184
11.9141   199
11.9241   215
11.9341   209
11.9441   189
11.9541   201
11.9641   198
11.9741   207
11.9841   217
11.9941   212
12.0041   202
12.0141   188
12.0241   190
12.0341   192
12.0441   183
12.0541   193
12.0641   204
12.0741   215
12.0841   209
12.0941   196
12.1041   212
12.1141   205
12.1241   221
12.1341   212
12.1441   204
12.1541   220
12.1641   210
12.1741   202
12.1841   190
12.1941   170
12.2041   175
12.2141   190
12.2241   183
12.2341   173
12.2441   202
12.2541   193
12.2641   194
12.2741   197
12.2841   195
12.2941   181
12.3041   191
12.3141   209
12.3241   196
12.3341   195
12.3441   194
12.3541   194
12.3641   184
12.3741   174
12.3841   204
12.3941   210
12.4041   212
12.4141   205
12.4241   216
12.4341   207
12.4441   212
12.4541   220
12.4641   215
12.4741   217
12.4841   198
12.4941   196
12.5041   226
12.5141   213
12.5241   192
12.5341   210
12.5441   224
12.5541   214
12.5641   212
12.5741   200
12.5841   204
12.5941   213
12.6041   213
12.6141   215
12.6241   217
12.6341   207
12.6441   218
12.6541   225
12.6641   227
12.6741   214
12.6841   213
12.6941   204
12.7041   204
12.7141   219
12.7241   241
12.7341   225
12.7441   210
12.7541   213
12.7641   215
12.7741   214
12.7841   212
12.7941   210
12.8041   210
12.8141   216
12.8241   222
12.8341   224
12.8441   223
12.8541   224
12.8641   227
12.8741   223
12.8841   215
12.8941   213
12.9041   221
12.9141   228
12.9241   228
12.9341   232
12.9441   233
12.9541   230
12.9641   233
12.9741   236
12.9841   233
12.9941   227
13.0041   226
13.0141   244
13.0241   242
13.0341   227
13.0441   225
13.0541   232
13.0641   230
13.0741   228
13.0841   245
13.0941   239
13.1041   222
13.1141   239
13.1241   235
13.1341   243
13.1441   235
13.1541   225
13.1641   219
13.1741   243
13.1841   258
13.1941   267
13.2041   285
13.2141   261
13.2241   260
13.2341   294
13.2441   319
13.2541   317
13.2641   311
13.2741   327
13.2841   311
13.2941   332
13.3041   360
13.3141   364
13.3241   386
13.3341   392
13.3441   387
13.3541   387
13.3641   401
13.3741   410
13.3841   423
13.3941   421
13.4041   436
13.4141   422
13.4241   401
13.4341   402
13.4441   390
13.4541   373
13.4641   372
13.4741   352
13.4841   332
13.4941   338
13.5041   336
13.5141   291
13.5241   274
13.5341   269
13.5441   273
13.5541   288
13.5641   285
13.5741   292
13.5841   271
13.5941   277
13.6041   295
13.6141   276
13.6241   279
13.6341   287
13.6441   275
13.6541   274
13.6641   272
13.6741   264
13.6841   270
13.6941   260
13.7041   263
13.7141   266
13.7241   243
13.7341   237
13.7441   260
13.7541   284
13.7641   274
13.7741   261
13.7841   265
13.7941   244
13.8041   242
13.8141   266
13.8241   267
13.8341   257
13.8441   270
13.8541   276
13.8641   274
13.8741   268
13.8841   283
13.8941   295
13.9041   304
13.9141   321
13.9241   327
13.9341   354
13.9441   362
13.9541   392
13.9641   430
13.9741   450
13.9841   479
13.9941   526
14.0041   582
14.0141   603
14.0241   643
14.0341   722
14.0441   779
14.0541   820
14.0641   888
14.0741   955
14.0841   970
14.0941  1010
14.1041  1098
14.1141  1145
14.1241  1136
14.1341  1179
14.1441  1239
14.1541  1238
14.1641  1182
14.1741  1138
14.1841  1132
14.1941  1087
14.2041  1052
14.2141   996
14.2241   920
14.2341   858
14.2441   804
14.2541   743
14.2641   663
14.2741   602
14.2841   558
14.2941   532
14.3041   483
14.3141   427
14.3241   404
14.3341   381
14.3441   380
14.3541   377
14.3641   344
14.3741   335
14.3841   338
14.3941   319
14.4041   316
14.4141   318
14.4241   303
14.4341   295
14.4441   309
14.4541   312
14.4641   307
14.4741   294
14.4841   291
14.4941   295
14.5041   298
14.5141   294
14.5241   309
14.5341   312
14.5441   295
14.5541   302
14.5641   314
14.5741   306
14.5841   284
14.5941   295
14.6041   308
14.6141   302
14.6241   295
14.6341   300
14.6441   296
14.6541   314
14.6641   313
14.6741   308
14.6841   307
14.6941   300
14.7041   300
14.7141   299
14.7241   310
14.7341   321
14.7441   333
14.7541   343
14.7641   331
14.7741   340
14.7841   346
14.7941   327
14.8041   330
14.8141   328
14.8241   321
14.8341   342
14.8441   373
14.8541   374
14.8641   362
14.8741   374
14.8841   393
14.8941   396
14.9041   386
14.9141   378
14.9241   387
14.9341   385
14.9441   376
14.9541   378
14.9641   398
14.9741   394
14.9841   378
14.9941   362
15.0041   344
15.0141   364
15.0241   366
15.0341   377
15.0441   365
15.0541   352
15.0641   324
15.0741   319
15.0841   343
15.0941   343
15.1041   338
15.1141   327
15.1241   322
15.1341   346
15.1441   358
15.1541   336
15.1641   344
15.1741   342
15.1841   318
15.1941   311
15.2041   324
15.2141   328
15.2241   336
15.2341   341
15.2441   329
15.2541   328
15.2641   334
15.2741   343
15.2841   331
15.2941   334
15.3041   351
15.3141   364
15.3241   338
15.3341   325
15.3441   307
15.3541   309
15.3641   340
15.3741   338
15.3841   332
15.3941   341
15.4041   326
15.4141   327
15.4241   329
15.4341   340
15.4441   333
15.4541   322
15.4641   329
15.4741   320
15.4841   342
15.4941   359
15.5041   365
15.5141   369
15.5241   385
15.5341   394
15.5441   376
15.5541   373
15.5641   405
15.5741   409
15.5841   415
15.5941   426
15.6041   437
15.6141   453
15.6241   449
15.6341   446
15.6441   478
15.6541   499
15.6641   541
15.6741   565
15.6841   577
15.6941   607
15.7041   632
15.7141   645
15.7241   688
15.7341   703
15.7441   693
15.7541   685
15.7641   688
15.7741   730
15.7841   716
15.7941   723
15.8041   723
15.8141   706
15.8241   681
15.8341   663
15.8441   625
15.8541   619
15.8641   649
15.8741   639
15.8841   616
15.8941   549
15.9041   482
15.9141   513
15.9241   488
15.9341   465
15.9441   473
15.9541   464
15.9641   475
15.9741   441
15.9841   439
15.9941   407
16.0041   422
16.0141   435
16.0241   399
16.0341   418
16.0441   391
16.0541   388
16.0641   392
16.0741   418
16.0841   416
16.0941   431
16.1041   429
16.1141   404
16.1241   406
16.1341   403
16.1441   409
16.1541   399
16.1641   400
16.1741   404
16.1841   411
16.1941   404
16.2041   407
16.2141   376
16.2241   394
16.2341   387
16.2441   405
16.2541   410
16.2641   431
16.2741   392
16.2841   378
16.2941   395
16.3041   385
16.3141   374
16.3241   385
16.3341   389
16.3441   382
16.3541   401
16.3641   408
16.3741   417
16.3841   422
16.3941   398
16.4041   371
16.4141   414
16.4241   395
16.4341   387
16.4441   396
16.4541   432
16.4641   419
16.4741   424
16.4841   394
16.4941   393
16.5041   406
16.5141   434
16.5241   432
16.5341   409
16.5441   414
16.5541   414
16.5641   422
16.5741   394
16.5841   385
16.5941   412
16.6041   417
16.6141   417
16.6241   422
16.6341   429
16.6441   431
16.6541   423
16.6641   413
16.6741   410
16.6841   411
16.6941   403
16.7041   432
16.7141   441
16.7241   446
16.7341   419
16.7441   425
16.7541   420
16.7641   418
16.7741   444
16.7841   419
16.7941   400
16.8041   421
16.8141   438
16.8241   456
16.8341   418
16.8441   433
16.8541   428
16.8641   440
16.8741   443
16.8841   378
16.8941   385
16.9041   393
16.9141   425
16.9241   416
16.9341   415
16.9441   432
16.9541   431
16.9641   440
16.9741   436
16.9841   407
16.9941   411
17.0041   433
17.0141   425
17.0241   423
17.0341   446
17.0441   449
17.0541   430
17.0641   417
17.0741   416
17.0841   446
17.0941   442
17.1041   408
17.1141   441
17.1241   442
17.1341   427
17.1441   453
17.1541   454
17.1641   472
17.1741   427
17.1841   442
17.1941   436
17.2041   421
17.2141   435
17.2241   455
17.2341   447
17.2441   430
17.2541   459
17.2641   455
17.2741   448
17.2841   437
17.2941   459
17.3041   475
17.3141   452
17.3241   428
17.3341   445
17.3441   460
17.3541   455
17.3641   455
17.3741   462
17.3841   464
17.3941   457
17.4041   456
17.4141   449
17.4241   462
17.4341   461
17.4441   439
17.4541   463
17.4641   444
17.4741   436
17.4841   446
17.4941   465
17.5041   496
17.5141   478
17.5241   458
17.5341   454
17.5441   463
17.5541   472
17.5641   478
17.5741   518
17.5841   498
17.5941   491
17.6041   525
17.6141   508
17.6241   507
17.6341   509
17.6441   504
17.6541   485
17.6641   532
17.6741   557
17.6841   514
17.6941   531
17.7041   549
17.7141   517
17.7241   492
17.7341   498
17.7441   504
17.7541   518
17.7641   508
17.7741   514
17.7841   503
17.7941   482
17.8041   509
17.8141   508
17.8241   474
17.8341   472
17.8441   476
17.8541   477
17.8641   469
17.8741   459
17.8841   487
17.8941   515
17.9041   489
17.9141   494
17.9241   504
17.9341   507
17.9441   510
17.9541   498
17.9641   488
17.9741   494
17.9841   516
17.9941   490
18.0041   474
18.0141   457
18.0241   460
18.0341   486
18.0441   474
18.0541   497
18.0641   492
18.0741   490
18.0841   499
18.0941   508
18.1041   519
18.1141   529
18.1241   488
18.1341   489
18.1441   511
18.1541   522
18.1641   527
18.1741   499
18.1841   498
18.1941   486
18.2041   499
18.2141   492
18.2241   484
18.2341   490
18.2441   493
18.2541   514
18.2641   485
18.2741   503
18.2841   519
18.2941   475
18.3041   520
18.3141   522
18.3241   476
18.3341   513
18.3441   524
18.3541   544
18.3641   540
18.3741   512
18.3841   503
18.3941   527
18.4041   523
18.4141   499
18.4241   499
18.4341   496
18.4441   500
18.4541   505
18.4641   523
18.4741   545
18.4841   549
18.4941   550
18.5041   524
18.5141   536
18.5241   504
18.5341   515
18.5441   530
18.5541   559
18.5641   517
18.5741   511
18.5841   551
18.5941   548
18.6041   561
18.6141   539
18.6241   545
18.6341   561
18.6441   547
18.6541   536
18.6641   577
18.6741   547
18.6841   501
18.6941   513
18.7041   546
18.7141   566
18.7241   547
18.7341   557
18.7441   530
18.7541   525
18.7641   540
18.7741   500
18.7841   527
18.7941   518
18.8041   523
18.8141   518
18.8241   532
18.8341   516
18.8441   513
18.8541   530
18.8641   511
18.8741   544
18.8841   509
18.8941   542
18.9041   575
18.9141   563
18.9241   544
18.9341   558
18.9441   561
18.9541   548
18.9641   531
18.9741   563
18.9841   556
18.9941   526
19.0041   538
19.0141   555
19.0241   563
19.0341   569
19.0441   558
19.0541   526
19.0641   558
19.0741   567
19.0841   582
19.0941   545
19.1041   542
19.1141   555
19.1241   578
19.1341   563
19.1441   559
19.1541   563
19.1641   524
19.1741   548
19.1841   569
19.1941   570
19.2041   549
19.2141   545
19.2241   573
19.2341   581
19.2441   537
19.2541   534
19.2641   538
19.2741   562
19.2841   560
19.2941   570
19.3041   556
19.3141   544
19.3241   582
19.3341   567
19.3441   567
19.3541   523
19.3641   529
19.3741   548
19.3841   556
19.3941   551
19.4041   560
19.4141   501
19.4241   542
19.4341   556
19.4441   563
19.4541   555
19.4641   571
19.4741   568
19.4841   552
19.4941   552
19.5041   590
19.5141   577
19.5241   612
19.5341   577
19.5441   571
19.5541   565
19.5641   538
19.5741   580
19.5841   561
19.5941   565
19.6041   571
19.6141   561
19.6241   540
19.6341   558
19.6441   580
19.6541   568
19.6641   539
19.6741   630
19.6841   589
19.6941   573
19.7041   581
19.7141   532
19.7241   590
19.7341   589
19.7441   587
19.7541   591
19.7641   576
19.7741   558
19.7841   538
19.7941   602
19.8041   579
19.8141   557
19.8241   590
19.8341   565
19.8441   580
19.8541   592
19.8641   579
19.8741   575
19.8841   540
19.8941   592
19.9041   566
19.9141   601
19.9241   566
19.9341   567
19.9441   603
19.9541   550
19.9641   593
19.9741   579
19.9841   563
19.9941   557
20.0041   560
20.0141   592
20.0241   579
20.0341   579
20.0441   572
20.0541   581
20.0641   573
20.0741   585
20.0841   599
20.0941   578
20.1041   584
20.1141   605
20.1241   608
20.1341   618
20.1441   587
20.1541   574
20.1641   613
20.1741   585
20.1841   582
20.1941   597
20.2041   608
20.2141   634
20.2241   581
20.2341   576
20.2441   595
20.2541   624
20.2641   613
20.2741   584
20.2841   572
20.2941   625
20.3041   579
20.3141   587
20.3241   604
20.3341   591
20.3441   593
20.3541   582
20.3641   563
20.3741   569
20.3841   542
20.3941   596
20.4041   552
20.4141   596
20.4241   589
20.4341   583
20.4441   586
20.4541   615
20.4641   589
20.4741   591
20.4841   619
20.4941   566
20.5041   609
20.5141   610
20.5241   585
20.5341   601
20.5441   589
20.5541   571
20.5641   595
20.5741   605
20.5841   619
20.5941   595
20.6041   606
20.6141   549
20.6241   591
20.6341   603
20.6441   618
20.6541   599
20.6641   595
20.6741   614
20.6841   618
20.6941   605
20.7041   581
20.7141   619
20.7241   571
20.7341   590
20.7441   560
20.7541   631
20.7641   590
20.7741   627
20.7841   645
20.7941   622
20.8041   619
20.8141   624
20.8241   626
20.8341   645
20.8441   671
20.8541   632
20.8641   604
20.8741   668
20.8841   688
20.8941   680
20.9041   673
20.9141   696
20.9241   721
20.9341   677
20.9441   751
20.9541   763
20.9641   786
20.9741   788
20.9841   812
20.9941   815
21.0041   877
21.0141   823
21.0241   819
21.0341   909
21.0441   879
21.0541   914
21.0641   921
21.0741   854
21.0841   881
21.0941   964
21.1041   944
21.1141   918
21.1241   931
21.1341   924
21.1441   939
21.1541   961
21.1641   913
21.1741   954
21.1841   951
21.1941   868
21.2041   905
21.2141   915
21.2241   918
21.2341   859
21.2441   838
21.2541   863
21.2641   839
21.2741   799
21.2841   781
21.2941   825
21.3041   793
21.3141   732
21.3241   694
21.3341   674
21.3441   678
21.3541   658
21.3641   711
21.3741   637
21.3841   593
21.3941   720
21.4041   648
21.4141   640
21.4241   611
21.4341   673
21.4441   622
21.4541   613
21.4641   612
21.4741   610
21.4841   616
21.4941   614
21.5041   602
21.5141   604
21.5241   620
21.5341   645
21.5441   617
21.5541   644
21.5641   622
21.5741   621
21.5841   629
21.5941   597
21.6041   607
21.6141   583
21.6241   608
21.6341   618
21.6441   587
21.6541   623
21.6641   604
21.6741   607
21.6841   591
21.6941   618
21.7041   569
21.7141   593
21.7241   613
21.7341   605
21.7441   646
21.7541   651
21.7641   632
21.7741   626
21.7841   638
21.7941   632
21.8041   593
21.8141   604
21.8241   604
21.8341   623
21.8441   586
21.8541   573
21.8641   585
21.8741   636
21.8841   643
21.8941   562
21.9041   599
21.9141   613
21.9241   574
21.9341   605
21.9441   635
21.9541   629
21.9641   621
21.9741   572
21.9841   630
21.9941   646
22.0041   647
22.0141   592
22.0241   637
22.0341   587
22.0441   596
22.0541   626
22.0641   640
22.0741   662
22.0841   594
22.0941   628
22.1041   590
22.1141   667
22.1241   603
22.1341   615
22.1441   638
22.1541   601
22.1641   625
22.1741   598
22.1841   586
22.1941   553
22.2041   567
22.2141   650
22.2241   620
22.2341   635
22.2441   574
22.2541   582
22.2641   629
22.2741   615
22.2841   602
22.2941   577
22.3041   573
22.3141   593
22.3241   613
22.3341   637
22.3441   633
22.3541   597
22.3641   614
22.3741   623
22.3841   619
22.3941   642
22.4041   605
22.4141   645
22.4241   653
22.4341   645
22.4441   600
22.4541   608
22.4641   626
22.4741   619
22.4841   618
22.4941   595
22.5041   612
22.5141   599
22.5241   592
22.5341   603
22.5441   567
22.5541   604
22.5641   622
22.5741   585
22.5841   601
22.5941   587
22.6041   588
22.6141   603
22.6241   626
22.6341   657
22.6441   589
22.6541   590
22.6641   612
22.6741   596
22.6841   569
22.6941   593
22.7041   635
22.7141   620
22.7241   610
22.7341   580
22.7441   610
22.7541   630
22.7641   585
22.7741   624
22.7841   626
22.7941   623
22.8041   617
22.8141   608
22.8241   593
22.8341   614
22.8441   599
22.8541   625
22.8641   613
22.8741   605
22.8841   569
22.8941   616
22.9041   559
22.9141   619
22.9241   582
22.9341   627
22.9441   612
22.9541   563
22.9641   603
22.9741   607
22.9841   600
22.9941   619
23.0041   593
23.0141   568
23.0241   585
23.0341   609
23.0441   574
23.0541   608
23.0641   591
23.0741   671
23.0841   603
23.0941   602
23.1041   601
23.1141   626
23.1241   585
23.1341   592
23.1441   611
23.1541   617
23.1641   633
23.1741   625
23.1841   595
23.1941   605
23.2041   625
23.2141   621
23.2241   587
23.2341   595
23.2441   605
23.2541   609
23.2641   577
23.2741   586
23.2841   616
23.2941   639
23.3041   604
23.3141   595
23.3241   595
23.3341   621
23.3441   596
23.3541   610
23.3641   600
23.3741   632
23.3841   585
23.3941   551
23.4041   603
23.4141   598
23.4241   595
23.4341   610
23.4441   575
23.4541   558
23.4641   549
23.4741   625
23.4841   567
23.4941   576
23.5041   561
23.5141   581
23.5241   627
23.5341   596
23.5441   577
23.5541   605
23.5641   588
23.5741   591
23.5841   619
23.5941   607
23.6041   605
23.6141   575
23.6241   585
23.6341   595
23.6441   590
23.6541   577
23.6641   616
23.6741   655
23.6841   582
23.6941   611
23.7041   674
23.7141   614
23.7241   627
23.7341   686
23.7441   627
23.7541   631
23.7641   626
23.7741   661
23.7841   602
23.7941   620
23.8041   671
23.8141   668
23.8241   616
23.8341   638
23.8441   637
23.8541   612
23.8641   625
23.8741   609
23.8841   598
23.8941   658
23.9041   626
23.9141   656
23.9241   627
23.9341   595
23.9441   644
23.9541   617
23.9641   633
23.9741   569
23.9841   581
23.9941   610
24.0041   580
24.0141   620
24.0241   605
24.0341   560
24.0441   568
24.0541   605
24.0641   594
24.0741   608
24.0841   553
24.0941   620
24.1041   546
24.1141   552
24.1241   532
24.1341   603
24.1441   611
24.1541   607
24.1641   570
24.1741   583
24.1841   639
24.1941   569
24.2041   571
24.2141   578
24.2241   574
24.2341   602
24.2441   602
24.2541   573
24.2641   566
24.2741   558
24.2841   576
24.2941   577
24.3041   571
24.3141   598
24.3241   569
24.3341   574
24.3441   594
24.3541   569
24.3641   614
24.3741   598
24.3841   562
24.3941   556
24.4041   568
24.4141   541
24.4241   552
24.4341   568
24.4441   548
24.4541   554
24.4641   566
24.4741   511
24.4841   566
24.4941   538
24.5041   580
24.5141   546
24.5241   588
24.5341   608
24.5441   612
24.5541   537
24.5641   552
24.5741   532
24.5841   513
24.5941   535
24.6041   563
24.6141   542
24.6241   548
24.6341   521
24.6441   561
24.6541   567
24.6641   540
24.6741   579
24.6841   571
24.6941   576
24.7041   566
24.7141   537
24.7241   550
24.7341   549
24.7441   573
24.7541   534
24.7641   547
24.7741   519
24.7841   602
24.7941   552
24.8041   569
24.8141   560
24.8241   576
24.8341   562
24.8441   575
24.8541   549
24.8641   566
24.8741   560
24.8841   549
24.8941   570
24.9041   558
24.9141   543
24.9241   532
24.9341   537
24.9441   566
24.9541   569
24.9641   525
24.9741   561
24.9841   573
24.9941   598
25.0041   565
25.0141   544
25.0241   599
25.0341   565
25.0441   579
25.0541   552
25.0641   580
25.0741   539
25.0841   546
25.0941   579
25.1041   558
25.1141   584
25.1241   541
25.1341   549
25.1441   577
25.1541   586
25.1641   570
25.1741   532
25.1841   538
25.1941   614
25.2041   575
25.2141   519
25.2241   528
25.2341   542
25.2441   533
25.2541   564
25.2641   608
25.2741   559
25.2841   578
25.2941   570
25.3041   546
25.3141   555
25.3241   526
25.3341   521
25.3441   570
25.3541   548
25.3641   555
25.3741   554
25.3841   565
25.3941   539
25.4041   531
25.4141   577
25.4241   566
25.4341   524
25.4441   581
25.4541   548
25.4641   548
25.4741   487
25.4841   544
25.4941   518
25.5041   531
25.5141   546
25.5241   501
25.5341   519
25.5441   487
25.5541   528
25.5641   514
25.5741   539
25.5841   534
25.5941   508
25.6041   484
25.6141   518
25.6241   538
25.6341   530
25.6441   516
25.6541   550
25.6641   533
25.6741   517
25.6841   536
25.6941   494
25.7041   529
25.7141   555
25.7241   526
25.7341   531
25.7441   530
25.7541   528
25.7641   506
25.7741   498
25.7841   508
25.7941   496
25.8041   520
25.8141   491
25.8241   539
25.8341   490
25.8441   510
25.8541   484
25.8641   517
25.8741   484
25.8841   509
25.8941   524
25.9041   509
25.9141   514
25.9241   556
25.9341   523
25.9441   490
25.9541   515
25.9641   489
25.9741   506
25.9841   511
25.9941   517
26.0041   524
26.0141   507
26.0241   530
26.0341   491
26.0441   500
26.0541   501
26.0641   523
26.0741   532
26.0841   537
26.0941   498
26.1041   509
26.1141   481
26.1241   511
26.1341   539
26.1441   515
26.1541   511
26.1641   473
26.1741   489
26.1841   547
26.1941   515
26.2041   515
26.2141   503
26.2241   529
26.2341   505
26.2441   494
26.2541   517
26.2641   519
26.2741   512
26.2841   475
26.2941   494
26.3041   476
26.3141   471
26.3241   500
26.3341   474
26.3441   517
26.3541   470
26.3641   500
26.3741   494
26.3841   481
26.3941   510
26.4041   489
26.4141   455
26.4241   480
26.4341   501
26.4441   472
26.4541   477
26.4641   490
26.4741   488
26.4841   485
26.4941   467
26.5041   496
26.5141   488
26.5241   501
26.5341   472
26.5441   467
26.5541   526
26.5641   487
26.5741   471
26.5841   464
26.5941   481
26.6041   518
26.6141   491
26.6241   482
26.6341   470
26.6441   480
26.6541   479
26.6641   467
26.6741   474
26.6841   467
26.6941   455
26.7041   478
26.7141   500
26.7241   460
26.7341   474
26.7441   482
26.7541   478
26.7641   500
26.7741   501
26.7841   500
26.7941   443
26.8041   451
26.8141   444
26.8241   458
26.8341   478
26.8441   466
26.8541   460
26.8641   449
26.8741   443
26.8841   401
26.8941   449
26.9041   469
26.9141   459
26.9241   475
26.9341   513
26.9441   438
26.9541   457
26.9641   455
26.9741   463
26.9841   482
26.9941   432
27.0041   447
27.0141   441
27.0241   466
27.0341   437
27.0441   513
27.0541   454
27.0641   458
27.0741   480
27.0841   468
27.0941   470
27.1041   457
27.1141   453
27.1241   465
27.1341   437
27.1441   460
27.1541   464
27.1641   454
27.1741   439
27.1841   454
27.1941   461
27.2041   444
27.2141   464
27.2241   447
27.2341   482
27.2441   469
27.2541   426
27.2641   464
27.2741   467
27.2841   455
27.2941   448
27.3041   469
27.3141   461
27.3241   466
27.3341   449
27.3441   454
27.3541   443
27.3641   457
27.3741   438
27.3841   449
27.3941   428
27.4041   455
27.4141   461
27.4241   498
27.4341   461
27.4441   439
27.4541   458
27.4641   464
27.4741   457
27.4841   461
27.4941   466
27.5041   432
27.5141   444
27.5241   463
27.5341   444
27.5441   422
27.5541   444
27.5641   404
27.5741   435
27.5841   435
27.5941   428
27.6041   463
27.6141   460
27.6241   469
27.6341   465
27.6441   421
27.6541   422
27.6641   420
27.6741   424
27.6841   430
27.6941   422
27.7041   422
27.7141   440
27.7241   456
27.7341   426
27.7441   474
27.7541   450
27.7641   421
27.7741   405
27.7841   401
27.7941   428
27.8041   448
27.8141   424
27.8241   440
27.8341   392
27.8441   394
27.8541   427
27.8641   407
27.8741   452
27.8841   433
27.8941   430
27.9041   431
27.9141   406
27.9241   436
27.9341   423
27.9441   434
27.9541   376
27.9641   429
27.9741   429
27.9841   404
27.9941   408
28.0041   399
28.0141   400
28.0241   437
28.0341   376
28.0441   428
28.0541   408
28.0641   432
28.0741   473
28.0841   402
28.0941   415
28.1041   403
28.1141   376
28.1241   382
28.1341   410
28.1441   369
28.1541   437
28.1641   430
28.1741   404
28.1841   399
28.1941   406
28.2041   433
28.2141   426
28.2241   404
28.2341   430
28.2441   386
28.2541   417
28.2641   385
28.2741   390
28.2841   413
28.2941   398
28.3041   388
28.3141   379
28.3241   350
28.3341   385
28.3441   395
28.3541   385
28.3641   370
28.3741   405
28.3841   423
28.3941   401
28.4041   393
28.4141   382
28.4241   400
28.4341   426
28.4441   380
28.4541   389
28.4641   397
28.4741   361
28.4841   369
28.4941   416
28.5041   417
28.5141   390
28.5241   416
28.5341   388
28.5441   420
28.5541   397
28.5641   383
28.5741   400
28.5841   360
28.5941   385
28.6041   428
28.6141   387
28.6241   377
28.6341   386
28.6441   399
28.6541   412
28.6641   359
28.6741   379
28.6841   423
28.6941   414
28.7041   415
28.7141   388
28.7241   353
28.7341   400
28.7441   403
28.7541   412
28.7641   375
28.7741   367
28.7841   407
28.7941   369
28.8041   361
28.8141   413
28.8241   369
28.8341   357
28.8441   377
28.8541   367
28.8641   374
28.8741   372
28.8841   373
28.8941   364
28.9041   353
28.9141   402
28.9241   385
28.9341   351
28.9441   405
28.9541   332
28.9641   357
28.9741   355
28.9841   372
28.9941   365
29.0041   351
29.0141   378
29.0241   379
29.0341   358
29.0441   357
29.0541   359
29.0641   396
29.0741   374
29.0841   363
29.0941   349
29.1041   376
29.1141   343
29.1241   379
29.1341   358
29.1441   351
29.1541   346
29.1641   398
29.1741   378
29.1841   331
29.1941   361
29.2041   360
29.2141   337
29.2241   397
29.2341   377
29.2441   343
29.2541   319
29.2641   325
29.2741   384
29.2841   353
29.2941   337
29.3041   346
29.3141   381
29.3241   354
29.3341   327
29.3441   338
29.3541   369
29.3641   389
29.3741   345
29.3841   352
29.3941   364
29.4041   312
29.4141   332
29.4241   375
29.4341   335
29.4441   354
29.4541   335
29.4641   372
29.4741   367
29.4841   367
29.4941   306
29.5041   348
29.5141   336
29.5241   329
29.5341   348
29.5441   357
29.5541   368
29.5641   347
29.5741   349
29.5841   367
29.5941   318
29.6041   331
29.6141   351
29.6241   345
29.6341   350
29.6441   329
29.6541   374
29.6641   339
29.6741   296
29.6841   328
29.6941   310
29.7041   356
29.7141   353
29.7241   315
29.7341   330
29.7441   349
29.7541   324
29.7641   377
29.7741   329
29.7841   334
29.7941   319
29.8041   339
29.8141   361
29.8241   336
29.8341   314
29.8441   318
29.8541   317
29.8641   337
29.8741   327
29.8841   323
29.8941   317
29.9041   345
29.9141   348
29.9241   309
29.9341   339
29.9441   323
29.9541   312
29.9641   336
29.9741   299
29.9841   328
29.9941   341
30.0041   347
30.0141   323
30.0241   328
30.0341   336
30.0441   319
30.0541   299
30.0641   324
30.0741   327
30.0841   322
30.0941   339
30.1041   316
30.1141   286
30.1241   306
30.1341   281
30.1441   293
30.1541   311
30.1641   319
30.1741   302
30.1841   313
30.1941   314
30.2041   316
30.2141   289
30.2241   287
30.2341   304
30.2441   338
30.2541   318
30.2641   321
30.2741   309
30.2841   292
30.2941   319
30.3041   302
30.3141   320
30.3241   320
30.3341   278
30.3441   330
30.3541   287
30.3641   313
30.3741   334
30.3841   334
30.3941   295
30.4041   325
30.4141   322
30.4241   283
30.4341   303
30.4441   301
30.4541   302
30.4641   305
30.4741   323
30.4841   296
30.4941   282
30.5041   310
30.5141   344
30.5241   334
30.5341   332
30.5441   315
30.5541   302
30.5641   293
30.5741   340
30.5841   321
30.5941   315
30.6041   282
30.6141   306
30.6241   262
30.6341   303
30.6441   302
30.6541   276
30.6641   297
30.6741   294
30.6841   305
30.6941   262
30.7041   281
30.7141   276
30.7241   314
30.7341   304
30.7441   285
30.7541   294
30.7641   288
30.7741   281
30.7841   298
30.7941   291
30.8041   297
30.8141   281
30.8241   281
30.8341   282
30.8441   287
30.8541   289
30.8641   283
30.8741   314
30.8841   282
30.8941   280
30.9041   293
30.9141   264
30.9241   290
30.9341   300
30.9441   286
30.9541   286
30.9641   270
30.9741   288
30.9841   273
30.9941   291
31.0041   275
31.0141   293
31.0241   302
31.0341   299
31.0441   269
31.0541   258
31.0641   262
31.0741   281
31.0841   302
31.0941   293
31.1041   244
31.1141   270
31.1241   248
31.1341   283
31.1441   281
31.1541   259
31.1641   282
31.1741   275
31.1841   283
31.1941   271
31.2041   268
31.2141   275
31.2241   255
31.2341   302
31.2441   275
31.2541   267
31.2641   262
31.2741   269
31.2841   264
31.2941   263
31.3041   286
31.3141   251
31.3241   260
31.3341   238
31.3441   286
31.3541   284
31.3641   259
31.3741   289
31.3841   272
31.3941   286
31.4041   284
31.4141   268
31.4241   290
31.4341   262
31.4441   245
31.4541   250
31.4641   243
31.4741   260
31.4841   266
31.4941   255
31.5041   274
31.5141   248
31.5241   257
31.5341   279
31.5441   278
31.5541   231
31.5641   271
31.5741   252
31.5841   250
31.5941   273
31.6041   268
31.6141   251
31.6241   278
31.6341   268
31.6441   277
31.6541   233
31.6641   283
31.6741   252
31.6841   266
31.6941   268
31.7041   259
31.7141   284
31.7241   256
31.7341   270
31.7441   276
31.7541   280
31.7641   283
31.7741   301
31.7841   295
31.7941   262
31.8041   267
31.8141   237
31.8241   282
31.8341   277
31.8441   269
31.8541   266
31.8641   275
31.8741   285
31.8841   276
31.8941   305
31.9041   266
31.9141   277
31.9241   284
31.9341   289
31.9441   283
31.9541   243
31.9641   267
31.9741   276
31.9841   244
31.9941   276
32.0041   266
32.0141   225
32.0241   282
32.0341   270
32.0441   277
32.0541   264
32.0641   292
32.0741   260
32.0841   304
32.0941   291
32.1041   262
32.1141   255
32.1241   261
32.1341   244
32.1441   281
32.1541   259
32.1641   266
32.1741   279
32.1841   290
32.1941   288
32.2041   274
32.2141   285
32.2241   259
32.2341   259
32.2441   287
32.2541   268
32.2641   223
32.2741   227
32.2841   254
32.2941   266
32.3041   284
32.3141   264
32.3241   260
32.3341   268
32.3441   266
32.3541   244
32.3641   253
32.3741   247
32.3841   239
32.3941   261
32.4041   233
32.4141   251
32.4241   248
32.4341   236
32.4441   207
32.4541   217
32.4641   213
32.4741   248
32.4841   212
32.4941   192
32.5041   223
32.5141   234
32.5241   187
32.5341   223
32.5441   207
32.5541   206
32.5641   198
32.5741   234
32.5841   224
32.5941   216
32.6041   217
32.6141   228
32.6241   194
32.6341   196
32.6441   215
32.6541   223
32.6641   251
32.6741   221
32.6841   208
32.6941   238
32.7041   198
32.7141   227
32.7241   214
32.7341   233
32.7441   222
32.7541   210
32.7641   203
32.7741   207
32.7841   220
32.7941   236
32.8041   224
32.8141   219
32.8241   212
32.8341   228
32.8441   207
32.8541   230
32.8641   186
32.8741   205
32.8841   195
32.8941   225
32.9041   203
32.9141   194
32.9241   212
32.9341   218
32.9441   206
32.9541   204
32.9641   226
32.9741   215
32.9841   200
32.9941   191
33.0041   222
33.0141   195
33.0241   217
33.0341   190
33.0441   215
33.0541   202
33.0641   205
33.0741   208
33.0841   204
33.0941   185
33.1041   185
33.1141   173
33.1241   178
33.1341   209
33.1441   209
33.1541   194
33.1641   205
33.1741   196
33.1841   217
33.1941   187
33.2041   212
33.2141   207
33.2241   180
33.2341   174
33.2441   202
33.2541   197
33.2641   204
33.2741   167
33.2841   178
33.2941   184
33.3041   199
33.3141   198
33.3241   192
33.3341   176
33.3441   186
33.3541   201
33.3641   179
33.3741   201
33.3841   172
33.3941   218
33.4041   178
33.4141   194
33.4241   197
33.4341   175
33.4441   165
33.4541   177
33.4641   204
33.4741   181
33.4841   185
33.4941   176
33.5041   196
33.5141   184
33.5241   195
33.5341   215
33.5441   199
33.5541   184
33.5641   186
33.5741   180
33.5841   182
33.5941   180
33.6041   178
33.6141   190
33.6241   193
33.6341   191
33.6441   173
33.6541   167
33.6641   162
33.6741   187
33.6841   176
33.6941   197
33.7041   184
33.7141   178
33.7241   180
33.7341   196
33.7441   195
33.7541   174
33.7641   175
33.7741   185
33.7841   152
33.7941   169
33.8041   197
33.8141   156
33.8241   201
33.8341   190
33.8441   187
33.8541   192
33.8641   166
33.8741   164
33.8841   173
33.8941   180
33.9041   187
33.9141   193
33.9241   159
33.9341   157
33.9441   176
33.9541   182
33.9641   178
33.9741   150
33.9841   160
33.9941   178
34.0041   146
34.0141   164
34.0241   177
34.0341   169
34.0441   157
34.0541   178
34.0641   165
34.0741   168
34.0841   160
34.0941   171
34.1041   157
34.1141   163
34.1241   167
34.1341   167
34.1441   149
34.1541   157
34.1641   150
34.1741   165
34.1841   152
34.1941   150
34.2041   162
34.2141   160
34.2241   174
34.2341   180
34.2441   176
34.2541   164
34.2641   156
34.2741   166
34.2841   166
34.2941   150
34.3041   144
34.3141   156
34.3241   154
34.3341   182
34.3441   162
34.3541   160
34.3641   157
34.3741   147
34.3841   162
34.3941   159
34.4041   152
34.4141   174
34.4241   165
34.4341   156
34.4441   163
34.4541   160
34.4641   163
34.4741   175
34.4841   134
34.4941   146
34.5041   141
34.5141   155
34.5241   161
34.5341   158
34.5441   155
34.5541   172
34.5641   155
34.5741   173
34.5841   148
34.5941   155
34.6041   144
34.6141   166
34.6241   134
34.6341   150
34.6441   177
34.6541   136
34.6641   147
34.6741   167
34.6841   148
34.6941   174
34.7041   158
34.7141   141
34.7241   148
34.7341   146
34.7441   144
34.7541   142
34.7641   146
34.7741   147
34.7841   145
34.7941   146
34.8041   153
34.8141   146
34.8241   141
34.8341   170
34.8441   154
34.8541   150
34.8641   147
34.8741   141
34.8841   145
34.8941   160
34.9041   127
34.9141   150
34.9241   135
34.9341   132
34.9441   131
34.9541   143
34.9641   124
34.9741   155
34.9841   151
34.9941   147
35.0041   147
35.0141   140
35.0241   127
35.0341   127
35.0441   141
35.0541   133
35.0641   114
35.0741   132
35.0841   130
35.0941   136
35.1041   141
35.1141   132
35.1241   143
35.1341   140
35.1441   136
35.1541   133
35.1641   141
35.1741   132
35.1841   121
35.1941   126
35.2041   133
35.2141   119
35.2241   132
35.2341   139
35.2441   135
35.2541   132
35.2641   139
35.2741   135
35.2841   131
35.2941   143
35.3041   119
35.3141   112
35.3241   140
35.3341   113
35.3441   127
35.3541   118
35.3641   140
35.3741   151
35.3841   153
35.3941   132
35.4041   107
35.4141   117
35.4241   137
35.4341   125
35.4441   131
35.4541   125
35.4641   135
35.4741   140
35.4841   135
35.4941   123
35.5041   132
35.5141   128
35.5241   106
35.5341   123
35.5441   120
35.5541   133
35.5641   131
35.5741   124
35.5841   117
35.5941   120
35.6041   131
35.6141   141
35.6241   124
35.6341   116
35.6441   114
35.6541   123
35.6641   120
35.6741   130
35.6841   126
35.6941   138
35.7041   117
35.7141   121
35.7241   119
35.7341   118
35.7441   134
35.7541   126
35.7641   119
35.7741   120
35.7841   135
35.7941   108
35.8041   113
35.8141   127
35.8241   131
35.8341   122
35.8441   114
35.8541   116
35.8641   119
35.8741    97
35.8841   119
35.8941   111
35.9041   133
35.9141   115
35.9241   115
35.9341   120
35.9441   119
35.9541   134
35.9641   131
35.9741   126
35.9841   116
35.9941   131
36.0041   110
36.0141   133
36.0241   120
36.0341   109
36.0441   102
36.0541   117
36.0641   116
36.0741   101
36.0841   117
36.0941   121
36.1041    94
36.1141   115
36.1241   114
36.1341   120
36.1441   119
36.1541   123
36.1641   118
36.1741   120
36.1841   133
36.1941   106
36.2041   112
36.2141   130
36.2241   125
36.2341    96
36.2441   135
36.2541   115
36.2641   121
36.2741   122
36.2841   101
36.2941   109
36.3041   125
36.3141   105
36.3241   108
36.3341   104
36.3441   120
36.3541   117
36.3641   103
36.3741   114
36.3841   121
36.3941   122
36.4041   123
36.4141   120
36.4241   110
36.4341   105
36.4441   105
36.4541    97
36.4641   114
36.4741    91
36.4841   100
36.4941   114
36.5041   110
36.5141   102
36.5241    98
36.5341   111
36.5441    92
36.5541   104
36.5641   105
36.5741    94
36.5841    95
36.5941   102
36.6041   113
36.6141   114
36.6241   103
36.6341   105
36.6441   104
36.6541    86
36.6641    85
36.6741    89
36.6841   104
36.6941   103
36.7041    94
36.7141    98
36.7241   103
36.7341    95
36.7441    84
36.7541    90
36.7641    85
36.7741    81
36.7841    82
36.7941    83
36.8041    86
36.8141    93
36.8241   108
36.8341   120
36.8441    90
36.8541    97
36.8641    96
36.8741    96
36.8841    89
36.8941    98
36.9041    91
36.9141    92
36.9241   101
36.9341    86
36.9441    85
36.9541    90
36.9641    87
36.9741    81
36.9841    80
36.9941    79
37.0041    78
37.0141    91
37.0241   109
37.0341   117
37.0441   111
37.0541    78
37.0641    85
37.0741    93
37.0841    94
37.0941    90
37.1041    74
37.1141   101
37.1241    97
37.1341    94
37.1441    79
37.1541    88
37.1641    88
37.1741    87
37.1841    97
37.1941    90
37.2041    78
37.2141    97
37.2241    92
37.2341    82
37.2441    91
37.2541    90
37.2641    85
37.2741    81
37.2841    74
37.2941    72
37.3041    91
37.3141    97
37.3241    74
37.3341    98
37.3441    80
37.3541    89
37.3641    87
37.3741    71
37.3841    78
37.3941    98
37.4041    82
37.4141    91
37.4241    92
37.4341    79
37.4441    80
37.4541    83
37.4641    67
37.4741    88
37.4841    82
37.4941    67
37.5041    80
37.5141    84
37.5241    79
37.5341    84
37.5441    81
37.5541    82
37.5641    74
37.5741    79
37.5841    73
37.5941    91
37.6041    79
37.6141    69
37.6241    79
37.6341    85
37.6441    80
37.6541    78
37.6641    85
37.6741    85
37.6841    70
37.6941    66
37.7041    74
37.7141    73
37.7241    74
37.7341    69
37.7441    78
37.7541    66
37.7641    67
37.7741    80
37.7841    75
37.7941    68
37.8041    88
37.8141    85
37.8241    58
37.8341    73
37.8441    86
37.8541    52
37.8641    56
37.8741    71
37.8841    73
37.8941    75
37.9041    77
37.9141    51
37.9241    52
37.9341    80
37.9441    69
37.9541    65
37.9641    71
37.9741    63
37.9841    62
37.9941    58
38.0041    59
38.0141    70
38.0241    66
38.0341    58
38.0441    59
38.0541    70
38.0641    65
38.0741    71
38.0841    58
38.0941    64
38.1041    82
38.1141    57
38.1241    59
38.1341    53
38.1441    57
38.1541    74
38.1641    54
38.1741    75
38.1841    68
38.1941    75
38.2041    64
38.2141    57
38.2241    77
38.2341    67
38.2441    78
38.2541    68
38.2641    59
38.2741    60
38.2841    53
38.2941    55
38.3041    74
38.3141    66
38.3241    60
38.3341    70
38.3441    68
38.3541    61
38.3641    68
38.3741    62
38.3841    59
38.3941    59
38.4041    60
38.4141    72
38.4241    42
38.4341    61
38.4441    77
38.4541    68
38.4641    50
38.4741    55
38.4841    63
38.4941    63
38.5041    57
38.5141    58
38.5241    66
38.5341    65
38.5441    72
38.5541    52
38.5641    47
38.5741    54
38.5841    53
38.5941    53
38.6041    65
38.6141    50
38.6241    63
38.6341    63
38.6441    56
38.6541    58
38.6641    73
38.6741    52
38.6841    67
38.6941    50
38.7041    52
38.7141    64
38.7241    49
38.7341    62
38.7441    60
38.7541    55
38.7641    54
38.7741    48
38.7841    65
38.7941    69
38.8041    46
38.8141    59
38.8241    42
38.8341    52
38.8441    62
38.8541    49
38.8641    46
38.8741    56
38.8841    51
38.8941    52
38.9041    51
38.9141    56
38.9241    56
38.9341    52
38.9441    54
38.9541    57
38.9641    52
38.9741    43
38.9841    58
38.9941    56
39.0041    54
39.0141    58
39.0241    46
39.0341    39
39.0441    51
39.0541    52
39.0641    55
39.0741    51
39.0841    44
39.0941    48
39.1041    46
39.1141    68
39.1241    51
39.1341    54
39.1441    47
39.1541    48
39.1641    52
39.1741    48
39.1841    49
39.1941    40
39.2041    47
39.2141    50
39.2241    43
39.2341    46
39.2441    50
39.2541    41
39.2641    53
39.2741    43
39.2841    44
39.2941    48
39.3041    54
39.3141    46
39.3241    38
39.3341    53
39.3441    47
39.3541    46
39.3641    47
39.3741    60
39.3841    41
39.3941    35
39.4041    33
39.4141    40
39.4241    37
39.4341    41
39.4441    51
39.4541    50
39.4641    46
39.4741    39
39.4841    48
39.4941    42
39.5041    37
39.5141    42
39.5241    47
39.5341    36
39.5441    44
39.5541    34
39.5641    40
39.5741    52
39.5841    48
39.5941    47
39.6041    53
39.6141    33
39.6241    47
39.6341    40
39.6441    46
39.6541    40
39.6641    45
39.6741    43
39.6841    50
39.6941    57
39.7041    41
39.7141    40
39.7241    45
39.7341    39
39.7441    42
39.7541    42
39.7641    44
39.7741    49
39.7841    32
39.7941    41
39.8041    40
39.8141    42
39.8241    35
39.8341    33
39.8441    41
39.8541    41
39.8641    33
39.8741    32
39.8841    34
39.8941    35
39.9041    38
39.9141    34
39.9241    32
39.9341    41
39.9441    38
39.9541    44
39.9641    27
39.9741    34
39.9841    37
