Bruker Nano GmbH Berlin, Germany
Esprit 1.9

Date: 4/21/2021 2:25:45 PM
Real time: 17989
Life time: 16596
Pulse density: 114178


Detector type: XFlash 430
Window type: Custom type
Detector thickness: 0.45
Si dead layer:0.029

Calibration, lin.: 10
Calibration, abs.: -955.9
Mn FWHM: 137.05
Fano factor: 0.121
Channels: 4095

Energy Counts
-0.9559     0
-0.9459     0
-0.9359     0
-0.9259     0
-0.9159     0
-0.9059     0
-0.8959     0
-0.8859     0
-0.8759     0
-0.8659     0
-0.8559     0
-0.8459     0
-0.8359     0
-0.8259     0
-0.8159     0
-0.8059     0
-0.7959     0
-0.7859     0
-0.7759     0
-0.7659     0
-0.7559     0
-0.7459     0
-0.7359     0
-0.7259     0
-0.7159     0
-0.7059     0
-0.6959     0
-0.6859     0
-0.6759     0
-0.6659     0
-0.6559     0
-0.6459     0
-0.6359     0
-0.6259     0
-0.6159     0
-0.6059     0
-0.5959     0
-0.5859     0
-0.5759     0
-0.5659     0
-0.5559     0
-0.5459     0
-0.5359     0
-0.5259     0
-0.5159     0
-0.5059     0
-0.4959     0
-0.4859     0
-0.4759     0
-0.4659     0
-0.4559     0
-0.4459     0
-0.4359     0
-0.4259     0
-0.4159     0
-0.4059     0
-0.3959     0
-0.3859     0
-0.3759     0
-0.3659     0
-0.3559     0
-0.3459     0
-0.3359     0
-0.3259     0
-0.3159     0
-0.3059     0
-0.2959     0
-0.2859     0
-0.2759     0
-0.2659     0
-0.2559     0
-0.2459     0
-0.2359     0
-0.2259     0
-0.2159     0
-0.2059     0
-0.1959     0
-0.1859     0
-0.1759     0
-0.1659     0
-0.1559     0
-0.1459     0
-0.1359     0
-0.1259     0
-0.1159     5
-0.1059    14
-0.0959    54
-0.0859   196
-0.0759   621
-0.0659  1909
-0.0559  4924
-0.0459 10631
-0.0359 19536
-0.0259 31596
-0.0159 43422
-0.0059 50501
 0.0041 51034
 0.0141 44039
 0.0241 32692
 0.0341 20694
 0.0441 11388
 0.0541  5100
 0.0641  2121
 0.0741   742
 0.0841   214
 0.0941    57
 0.1041    24
 0.1141    11
 0.1241     9
 0.1341    10
 0.1441     7
 0.1541     3
 0.1641     4
 0.1741     0
 0.1841   178
 0.1941   351
 0.2041   298
 0.2141   291
 0.2241   260
 0.2341   301
 0.2441   287
 0.2541   307
 0.2641   311
 0.2741   297
 0.2841   306
 0.2941   276
 0.3041   288
 0.3141   286
 0.3241   287
 0.3341   283
 0.3441   277
 0.3541   261
 0.3641   273
 0.3741   256
 0.3841   266
 0.3941   277
 0.4041   273
 0.4141   264
 0.4241   256
 0.4341   239
 0.4441   267
 0.4541   269
 0.4641   264
 0.4741   240
 0.4841   267
 0.4941   257
 0.5041   239
 0.5141   228
 0.5241   248
 0.5341   245
 0.5441   262
 0.5541   257
 0.5641   228
 0.5741   230
 0.5841   239
 0.5941   234
 0.6041   229
 0.6141   237
 0.6241   229
 0.6341   228
 0.6441   231
 0.6541   220
 0.6641   202
 0.6741   206
 0.6841   225
 0.6941   214
 0.7041   208
 0.7141   220
 0.7241   238
 0.7341   231
 0.7441   232
 0.7541   237
 0.7641   213
 0.7741   207
 0.7841   213
 0.7941   207
 0.8041   219
 0.8141   213
 0.8241   201
 0.8341   196
 0.8441   200
 0.8541   214
 0.8641   229
 0.8741   213
 0.8841   219
 0.8941   210
 0.9041   209
 0.9141   199
 0.9241   193
 0.9341   195
 0.9441   210
 0.9541   197
 0.9641   199
 0.9741   201
 0.9841   227
 0.9941   204
 1.0041   203
 1.0141   209
 1.0241   209
 1.0341   209
 1.0441   182
 1.0541   178
 1.0641   182
 1.0741   186
 1.0841   185
 1.0941   182
 1.1041   179
 1.1141   182
 1.1241   182
 1.1341   177
 1.1441   203
 1.1541   175
 1.1641   189
 1.1741   176
 1.1841   179
 1.1941   174
 1.2041   161
 1.2141   158
 1.2241   181
 1.2341   198
 1.2441   188
 1.2541   187
 1.2641   169
 1.2741   169
 1.2841   165
 1.2941   187
 1.3041   177
 1.3141   180
 1.3241   179
 1.3341   182
 1.3441   157
 1.3541   177
 1.3641   173
 1.3741   184
 1.3841   168
 1.3941   182
 1.4041   175
 1.4141   172
 1.4241   178
 1.4341   158
 1.4441   165
 1.4541   182
 1.4641   191
 1.4741   160
 1.4841   182
 1.4941   193
 1.5041   164
 1.5141   176
 1.5241   174
 1.5341   187
 1.5441   179
 1.5541   155
 1.5641   167
 1.5741   159
 1.5841   167
 1.5941   170
 1.6041   147
 1.6141   145
 1.6241   172
 1.6341   187
 1.6441   186
 1.6541   199
 1.6641   248
 1.6741   282
 1.6841   315
 1.6941   415
 1.7041   498
 1.7141   563
 1.7241   617
 1.7341   635
 1.7441   631
 1.7541   634
 1.7641   585
 1.7741   480
 1.7841   427
 1.7941   341
 1.8041   292
 1.8141   254
 1.8241   241
 1.8341   232
 1.8441   194
 1.8541   196
 1.8641   195
 1.8741   209
 1.8841   205
 1.8941   170
 1.9041   178
 1.9141   158
 1.9241   155
 1.9341   176
 1.9441   162
 1.9541   159
 1.9641   180
 1.9741   188
 1.9841   183
 1.9941   199
 2.0041   224
 2.0141   198
 2.0241   194
 2.0341   190
 2.0441   198
 2.0541   194
 2.0641   187
 2.0741   156
 2.0841   163
 2.0941   172
 2.1041   176
 2.1141   174
 2.1241   158
 2.1341   167
 2.1441   155
 2.1541   174
 2.1641   153
 2.1741   157
 2.1841   144
 2.1941   138
 2.2041   173
 2.2141   142
 2.2241   131
 2.2341   157
 2.2441   164
 2.2541   150
 2.2641   168
 2.2741   129
 2.2841   142
 2.2941   174
 2.3041   133
 2.3141   115
 2.3241   129
 2.3341   140
 2.3441   133
 2.3541   143
 2.3641   123
 2.3741   135
 2.3841   125
 2.3941   120
 2.4041   137
 2.4141   144
 2.4241   142
 2.4341   135
 2.4441   125
 2.4541   131
 2.4641   140
 2.4741   170
 2.4841   131
 2.4941   140
 2.5041   123
 2.5141   123
 2.5241   133
 2.5341   126
 2.5441   118
 2.5541   121
 2.5641   129
 2.5741   137
 2.5841   124
 2.5941   147
 2.6041   130
 2.6141   127
 2.6241   114
 2.6341   138
 2.6441   130
 2.6541   125
 2.6641   140
 2.6741   137
 2.6841   105
 2.6941   118
 2.7041   115
 2.7141   119
 2.7241   115
 2.7341   113
 2.7441   113
 2.7541   121
 2.7641   144
 2.7741   110
 2.7841   120
 2.7941   127
 2.8041   130
 2.8141   130
 2.8241   154
 2.8341   114
 2.8441   126
 2.8541   113
 2.8641   121
 2.8741   138
 2.8841   126
 2.8941   122
 2.9041   117
 2.9141   103
 2.9241   118
 2.9341   129
 2.9441   101
 2.9541   117
 2.9641    92
 2.9741   133
 2.9841    98
 2.9941   122
 3.0041   119
 3.0141    99
 3.0241   109
 3.0341   106
 3.0441    93
 3.0541   109
 3.0641   110
 3.0741   118
 3.0841   117
 3.0941   101
 3.1041   115
 3.1141   100
 3.1241   102
 3.1341   112
 3.1441    99
 3.1541    95
 3.1641   110
 3.1741    97
 3.1841   107
 3.1941   110
 3.2041   115
 3.2141   114
 3.2241   127
 3.2341   140
 3.2441   158
 3.2541   141
 3.2641   198
 3.2741   210
 3.2841   208
 3.2941   223
 3.3041   242
 3.3141   232
 3.3241   241
 3.3341   233
 3.3441   206
 3.3541   189
 3.3641   186
 3.3741   138
 3.3841   132
 3.3941   121
 3.4041   117
 3.4141   121
 3.4241    90
 3.4341   108
 3.4441    97
 3.4541    91
 3.4641    98
 3.4741    94
 3.4841   110
 3.4941   101
 3.5041   115
 3.5141   108
 3.5241   110
 3.5341   117
 3.5441   143
 3.5541   152
 3.5641   179
 3.5741   186
 3.5841   233
 3.5941   321
 3.6041   364
 3.6141   495
 3.6241   575
 3.6341   719
 3.6441   871
 3.6541   996
 3.6641  1124
 3.6741  1205
 3.6841  1214
 3.6941  1287
 3.7041  1251
 3.7141  1187
 3.7241   976
 3.7341   906
 3.7441   693
 3.7541   566
 3.7641   483
 3.7741   352
 3.7841   272
 3.7941   194
 3.8041   149
 3.8141   135
 3.8241    97
 3.8341    88
 3.8441   112
 3.8541    87
 3.8641    87
 3.8741    87
 3.8841    77
 3.8941   105
 3.9041   109
 3.9141   112
 3.9241   120
 3.9341   137
 3.9441   154
 3.9541   170
 3.9641   186
 3.9741   220
 3.9841   214
 3.9941   235
 4.0041   252
 4.0141   279
 4.0241   230
 4.0341   214
 4.0441   212
 4.0541   211
 4.0641   187
 4.0741   181
 4.0841   141
 4.0941   124
 4.1041   109
 4.1141   107
 4.1241    91
 4.1341    86
 4.1441    90
 4.1541    74
 4.1641    73
 4.1741    88
 4.1841    74
 4.1941    67
 4.2041    73
 4.2141    76
 4.2241    67
 4.2341    69
 4.2441    62
 4.2541    66
 4.2641    64
 4.2741    72
 4.2841    88
 4.2941    66
 4.3041    77
 4.3141    72
 4.3241    86
 4.3341    84
 4.3441    77
 4.3541    81
 4.3641    70
 4.3741   104
 4.3841   121
 4.3941   137
 4.4041   158
 4.4141   187
 4.4241   235
 4.4341   287
 4.4441   341
 4.4541   421
 4.4641   474
 4.4741   518
 4.4841   546
 4.4941   609
 4.5041   633
 4.5141   621
 4.5241   588
 4.5341   553
 4.5441   472
 4.5541   421
 4.5641   377
 4.5741   290
 4.5841   252
 4.5941   198
 4.6041   180
 4.6141   145
 4.6241   133
 4.6341    97
 4.6441   115
 4.6541   109
 4.6641    76
 4.6741    84
 4.6841    96
 4.6941    71
 4.7041    96
 4.7141    81
 4.7241    79
 4.7341    80
 4.7441    89
 4.7541    94
 4.7641    84
 4.7741    89
 4.7841   119
 4.7941   106
 4.8041   110
 4.8141   117
 4.8241   118
 4.8341   131
 4.8441   127
 4.8541   143
 4.8641   154
 4.8741   169
 4.8841   173
 4.8941   185
 4.9041   185
 4.9141   211
 4.9241   205
 4.9341   203
 4.9441   229
 4.9541   205
 4.9641   185
 4.9741   169
 4.9841   176
 4.9941   143
 5.0041   122
 5.0141   122
 5.0241   128
 5.0341   103
 5.0441   102
 5.0541   110
 5.0641    86
 5.0741    94
 5.0841    90
 5.0941    98
 5.1041    88
 5.1141    75
 5.1241    90
 5.1341    88
 5.1441    90
 5.1541    95
 5.1641    74
 5.1741    85
 5.1841    87
 5.1941    85
 5.2041   101
 5.2141    93
 5.2241    80
 5.2341    80
 5.2441    90
 5.2541   104
 5.2641    92
 5.2741    97
 5.2841    87
 5.2941    93
 5.3041    89
 5.3141    92
 5.3241   105
 5.3341   110
 5.3441   100
 5.3541   118
 5.3641   114
 5.3741   116
 5.3841   129
 5.3941   162
 5.4041   150
 5.4141   123
 5.4241   125
 5.4341   143
 5.4441   132
 5.4541   124
 5.4641   116
 5.4741   108
 5.4841   125
 5.4941   124
 5.5041    86
 5.5141    93
 5.5241   115
 5.5341   113
 5.5441   103
 5.5541   109
 5.5641    90
 5.5741    97
 5.5841    97
 5.5941    85
 5.6041   103
 5.6141    81
 5.6241    82
 5.6341    84
 5.6441    83
 5.6541    90
 5.6641    81
 5.6741    94
 5.6841    98
 5.6941    88
 5.7041   101
 5.7141    94
 5.7241   112
 5.7341   108
 5.7441   134
 5.7541   140
 5.7641   168
 5.7741   179
 5.7841   228
 5.7941   267
 5.8041   298
 5.8141   381
 5.8241   431
 5.8341   478
 5.8441   516
 5.8541   571
 5.8641   640
 5.8741   718
 5.8841   710
 5.8941   767
 5.9041   771
 5.9141   732
 5.9241   667
 5.9341   611
 5.9441   563
 5.9541   524
 5.9641   432
 5.9741   385
 5.9841   300
 5.9941   299
 6.0041   216
 6.0141   206
 6.0241   180
 6.0341   175
 6.0441   146
 6.0541   148
 6.0641   147
 6.0741   143
 6.0841   151
 6.0941   136
 6.1041   141
 6.1141   134
 6.1241   155
 6.1341   166
 6.1441   182
 6.1541   199
 6.1641   208
 6.1741   226
 6.1841   255
 6.1941   310
 6.2041   369
 6.2141   548
 6.2241   711
 6.2341   904
 6.2441  1342
 6.2541  1764
 6.2641  2672
 6.2741  3466
 6.2841  4766
 6.2941  6153
 6.3041  8057
 6.3141 10299
 6.3241 12522
 6.3341 15054
 6.3441 17665
 6.3541 19981
 6.3641 22696
 6.3741 24615
 6.3841 25777
 6.3941 26483
 6.4041 26518
 6.4141 25693
 6.4241 24338
 6.4341 22722
 6.4441 19847
 6.4541 17396
 6.4641 14712
 6.4741 12036
 6.4841  9579
 6.4941  7646
 6.5041  5735
 6.5141  4248
 6.5241  3107
 6.5341  2311
 6.5441  1626
 6.5541  1085
 6.5641   762
 6.5741   565
 6.5841   408
 6.5941   326
 6.6041   263
 6.6141   212
 6.6241   172
 6.6341   174
 6.6441   170
 6.6541   151
 6.6641   159
 6.6741   186
 6.6841   166
 6.6941   172
 6.7041   165
 6.7141   180
 6.7241   153
 6.7341   160
 6.7441   179
 6.7541   172
 6.7641   170
 6.7741   202
 6.7841   197
 6.7941   186
 6.8041   196
 6.8141   243
 6.8241   223
 6.8341   223
 6.8441   258
 6.8541   257
 6.8641   275
 6.8741   339
 6.8841   375
 6.8941   456
 6.9041   581
 6.9141   689
 6.9241   860
 6.9341  1097
 6.9441  1240
 6.9541  1529
 6.9641  1792
 6.9741  2334
 6.9841  2685
 6.9941  3114
 7.0041  3444
 7.0141  3806
 7.0241  4307
 7.0341  4560
 7.0441  4613
 7.0541  4550
 7.0641  4514
 7.0741  4401
 7.0841  4155
 7.0941  3908
 7.1041  3481
 7.1141  3074
 7.1241  2630
 7.1341  2232
 7.1441  1791
 7.1541  1491
 7.1641  1133
 7.1741   899
 7.1841   724
 7.1941   562
 7.2041   440
 7.2141   345
 7.2241   318
 7.2341   288
 7.2441   235
 7.2541   232
 7.2641   205
 7.2741   210
 7.2841   171
 7.2941   212
 7.3041   225
 7.3141   217
 7.3241   230
 7.3341   206
 7.3441   228
 7.3541   255
 7.3641   228
 7.3741   253
 7.3841   270
 7.3941   285
 7.4041   309
 7.4141   296
 7.4241   305
 7.4341   272
 7.4441   271
 7.4541   314
 7.4641   293
 7.4741   281
 7.4841   289
 7.4941   241
 7.5041   225
 7.5141   239
 7.5241   206
 7.5341   245
 7.5441   242
 7.5541   195
 7.5641   188
 7.5741   195
 7.5841   217
 7.5941   192
 7.6041   179
 7.6141   162
 7.6241   187
 7.6341   181
 7.6441   191
 7.6541   191
 7.6641   182
 7.6741   172
 7.6841   200
 7.6941   196
 7.7041   204
 7.7141   194
 7.7241   200
 7.7341   218
 7.7441   193
 7.7541   212
 7.7641   203
 7.7741   211
 7.7841   263
 7.7941   226
 7.8041   222
 7.8141   215
 7.8241   266
 7.8341   265
 7.8441   293
 7.8541   293
 7.8641   287
 7.8741   286
 7.8841   295
 7.8941   299
 7.9041   303
 7.9141   317
 7.9241   352
 7.9341   365
 7.9441   353
 7.9541   401
 7.9641   473
 7.9741   456
 7.9841   498
 7.9941   508
 8.0041   538
 8.0141   614
 8.0241   682
 8.0341   731
 8.0441   724
 8.0541   787
 8.0641   801
 8.0741   868
 8.0841   952
 8.0941  1025
 8.1041  1025
 8.1141  1083
 8.1241  1137
 8.1341  1227
 8.1441  1179
 8.1541  1240
 8.1641  1226
 8.1741  1319
 8.1841  1313
 8.1941  1327
 8.2041  1305
 8.2141  1353
 8.2241  1391
 8.2341  1377
 8.2441  1368
 8.2541  1478
 8.2641  1531
 8.2741  1602
 8.2841  1745
 8.2941  1918
 8.3041  1910
 8.3141  2122
 8.3241  2265
 8.3341  2468
 8.3441  2553
 8.3541  2742
 8.3641  2916
 8.3741  3011
 8.3841  2992
 8.3941  2980
 8.4041  2941
 8.4141  2793
 8.4241  2662
 8.4341  2551
 8.4441  2367
 8.4541  2101
 8.4641  1831
 8.4741  1602
 8.4841  1425
 8.4941  1184
 8.5041   966
 8.5141   901
 8.5241   717
 8.5341   643
 8.5441   558
 8.5541   549
 8.5641   486
 8.5741   485
 8.5841   494
 8.5941   444
 8.6041   445
 8.6141   453
 8.6241   454
 8.6341   513
 8.6441   465
 8.6541   437
 8.6641   449
 8.6741   473
 8.6841   441
 8.6941   418
 8.7041   409
 8.7141   395
 8.7241   369
 8.7341   342
 8.7441   339
 8.7541   300
 8.7641   314
 8.7741   316
 8.7841   310
 8.7941   293
 8.8041   295
 8.8141   285
 8.8241   256
 8.8341   317
 8.8441   269
 8.8541   287
 8.8641   284
 8.8741   290
 8.8841   306
 8.8941   296
 8.9041   328
 8.9141   305
 8.9241   314
 8.9341   310
 8.9441   309
 8.9541   333
 8.9641   314
 8.9741   340
 8.9841   348
 8.9941   327
 9.0041   342
 9.0141   352
 9.0241   344
 9.0341   361
 9.0441   382
 9.0541   399
 9.0641   387
 9.0741   404
 9.0841   403
 9.0941   445
 9.1041   434
 9.1141   448
 9.1241   439
 9.1341   512
 9.1441   511
 9.1541   546
 9.1641   554
 9.1741   564
 9.1841   621
 9.1941   665
 9.2041   695
 9.2141   692
 9.2241   760
 9.2341   785
 9.2441   814
 9.2541   887
 9.2641   919
 9.2741   954
 9.2841   958
 9.2941  1004
 9.3041  1047
 9.3141  1092
 9.3241  1138
 9.3341  1174
 9.3441  1189
 9.3541  1244
 9.3641  1168
 9.3741  1285
 9.3841  1293
 9.3941  1351
 9.4041  1338
 9.4141  1260
 9.4241  1342
 9.4341  1388
 9.4441  1434
 9.4541  1438
 9.4641  1444
 9.4741  1399
 9.4841  1438
 9.4941  1501
 9.5041  1513
 9.5141  1556
 9.5241  1635
 9.5341  1685
 9.5441  1685
 9.5541  1746
 9.5641  1874
 9.5741  2069
 9.5841  2150
 9.5941  2299
 9.6041  2387
 9.6141  2552
 9.6241  2623
 9.6341  2708
 9.6441  2815
 9.6541  2859
 9.6641  2861
 9.6741  2901
 9.6841  2746
 9.6941  2735
 9.7041  2658
 9.7141  2430
 9.7241  2310
 9.7341  2187
 9.7441  2034
 9.7541  1931
 9.7641  1757
 9.7741  1627
 9.7841  1509
 9.7941  1409
 9.8041  1300
 9.8141  1278
 9.8241  1217
 9.8341  1142
 9.8441  1164
 9.8541  1136
 9.8641  1134
 9.8741  1164
 9.8841  1126
 9.8941  1186
 9.9041  1227
 9.9141  1233
 9.9241  1246
 9.9341  1271
 9.9441  1225
 9.9541  1204
 9.9641  1272
 9.9741  1269
 9.9841  1180
 9.9941  1097
10.0041  1060
10.0141   986
10.0241   912
10.0341   822
10.0441   772
10.0541   648
10.0641   600
10.0741   564
10.0841   512
10.0941   450
10.1041   391
10.1141   361
10.1241   321
10.1341   343
10.1441   308
10.1541   263
10.1641   262
10.1741   259
10.1841   250
10.1941   229
10.2041   234
10.2141   209
10.2241   220
10.2341   198
10.2441   215
10.2541   209
10.2641   202
10.2741   196
10.2841   173
10.2941   169
10.3041   180
10.3141   196
10.3241   174
10.3341   162
10.3441   162
10.3541   158
10.3641   169
10.3741   171
10.3841   167
10.3941   145
10.4041   163
10.4141   154
10.4241   164
10.4341   171
10.4441   159
10.4541   192
10.4641   179
10.4741   180
10.4841   182
10.4941   178
10.5041   183
10.5141   181
10.5241   172
10.5341   184
10.5441   200
10.5541   198
10.5641   211
10.5741   205
10.5841   203
10.5941   232
10.6041   232
10.6141   199
10.6241   195
10.6341   207
10.6441   208
10.6541   199
10.6641   204
10.6741   243
10.6841   213
10.6941   206
10.7041   222
10.7141   215
10.7241   242
10.7341   216
10.7441   229
10.7541   232
10.7641   245
10.7741   258
10.7841   246
10.7941   244
10.8041   260
10.8141   249
10.8241   262
10.8341   266
10.8441   284
10.8541   279
10.8641   293
10.8741   308
10.8841   288
10.8941   299
10.9041   311
10.9141   323
10.9241   297
10.9341   269
10.9441   301
10.9541   295
10.9641   282
10.9741   284
10.9841   274
10.9941   308
11.0041   308
11.0141   288
11.0241   281
11.0341   278
11.0441   246
11.0541   261
11.0641   287
11.0741   261
11.0841   241
11.0941   247
11.1041   255
11.1141   247
11.1241   249
11.1341   259
11.1441   257
11.1541   285
11.1641   299
11.1741   314
11.1841   322
11.1941   336
11.2041   334
11.2141   351
11.2241   395
11.2341   417
11.2441   424
11.2541   441
11.2641   443
11.2741   435
11.2841   424
11.2941   392
11.3041   388
11.3141   405
11.3241   397
11.3341   379
11.3441   382
11.3541   351
11.3641   333
11.3741   301
11.3841   295
11.3941   275
11.4041   271
11.4141   274
11.4241   237
11.4341   237
11.4441   220
11.4541   219
11.4641   215
11.4741   226
11.4841   225
11.4941   204
11.5041   191
11.5141   209
11.5241   220
11.5341   212
11.5441   218
11.5541   219
11.5641   208
11.5741   211
11.5841   220
11.5941   218
11.6041   194
11.6141   189
11.6241   218
11.6341   211
11.6441   222
11.6541   225
11.6641   227
11.6741   215
11.6841   221
11.6941   211
11.7041   191
11.7141   211
11.7241   205
11.7341   207
11.7441   181
11.7541   186
11.7641   181
11.7741   176
11.7841   194
11.7941   185
11.8041   179
11.8141   186
11.8241   166
11.8341   164
11.8441   177
11.8541   168
11.8641   163
11.8741   160
11.8841   171
11.8941   182
11.9041   158
11.9141   170
11.9241   166
11.9341   155
11.9441   176
11.9541   180
11.9641   167
11.9741   158
11.9841   168
11.9941   180
12.0041   176
12.0141   166
12.0241   179
12.0341   180
12.0441   166
12.0541   150
12.0641   151
12.0741   164
12.0841   170
12.0941   154
12.1041   156
12.1141   160
12.1241   173
12.1341   155
12.1441   145
12.1541   153
12.1641   157
12.1741   154
12.1841   146
12.1941   158
12.2041   156
12.2141   147
12.2241   151
12.2341   161
12.2441   160
12.2541   157
12.2641   159
12.2741   165
12.2841   160
12.2941   155
12.3041   163
12.3141   142
12.3241   136
12.3341   158
12.3441   163
12.3541   156
12.3641   143
12.3741   135
12.3841   158
12.3941   180
12.4041   168
12.4141   159
12.4241   159
12.4341   166
12.4441   171
12.4541   181
12.4641   185
12.4741   179
12.4841   167
12.4941   166
12.5041   172
12.5141   166
12.5241   181
12.5341   193
12.5441   169
12.5541   183
12.5641   187
12.5741   162
12.5841   180
12.5941   181
12.6041   175
12.6141   186
12.6241   178
12.6341   185
12.6441   190
12.6541   196
12.6641   202
12.6741   202
12.6841   200
12.6941   192
12.7041   188
12.7141   190
12.7241   187
12.7341   178
12.7441   170
12.7541   172
12.7641   182
12.7741   199
12.7841   213
12.7941   211
12.8041   203
12.8141   194
12.8241   182
12.8341   182
12.8441   195
12.8541   208
12.8641   210
12.8741   205
12.8841   202
12.8941   206
12.9041   207
12.9141   206
12.9241   207
12.9341   202
12.9441   194
12.9541   190
12.9641   192
12.9741   198
12.9841   201
12.9941   196
13.0041   193
13.0141   206
13.0241   205
13.0341   196
13.0441   204
13.0541   212
13.0641   204
13.0741   196
13.0841   197
13.0941   203
13.1041   185
13.1141   178
13.1241   195
13.1341   201
13.1441   209
13.1541   215
13.1641   212
13.1741   198
13.1841   203
13.1941   225
13.2041   229
13.2141   238
13.2241   231
13.2341   227
13.2441   237
13.2541   252
13.2641   273
13.2741   286
13.2841   286
13.2941   283
13.3041   286
13.3141   291
13.3241   323
13.3341   345
13.3441   336
13.3541   326
13.3641   331
13.3741   338
13.3841   335
13.3941   336
13.4041   338
13.4141   332
13.4241   325
13.4341   312
13.4441   303
13.4541   303
13.4641   298
13.4741   284
13.4841   271
13.4941   265
13.5041   266
13.5141   272
13.5241   272
13.5341   264
13.5441   257
13.5541   247
13.5641   236
13.5741   231
13.5841   229
13.5941   231
13.6041   234
13.6141   233
13.6241   233
13.6341   247
13.6441   246
13.6541   248
13.6641   247
13.6741   221
13.6841   208
13.6941   225
13.7041   255
13.7141   263
13.7241   254
13.7341   249
13.7441   249
13.7541   238
13.7641   234
13.7741   241
13.7841   250
13.7941   261
13.8041   258
13.8141   259
13.8241   252
13.8341   251
13.8441   267
13.8541   268
13.8641   263
13.8741   247
13.8841   246
13.8941   256
13.9041   261
13.9141   252
13.9241   247
13.9341   253
13.9441   254
13.9541   267
13.9641   282
13.9741   297
13.9841   306
13.9941   310
14.0041   312
14.0141   326
14.0241   347
14.0341   351
14.0441   350
14.0541   365
14.0641   388
14.0741   399
14.0841   401
14.0941   411
14.1041   423
14.1141   427
14.1241   429
14.1341   428
14.1441   421
14.1541   419
14.1641   421
14.1741   423
14.1841   424
14.1941   414
14.2041   401
14.2141   382
14.2241   383
14.2341   384
14.2441   369
14.2541   363
14.2641   363
14.2741   377
14.2841   360
14.2941   334
14.3041   321
14.3141   312
14.3241   296
14.3341   278
14.3441   285
14.3541   306
14.3641   292
14.3741   287
14.3841   286
14.3941   263
14.4041   277
14.4141   290
14.4241   282
14.4341   279
14.4441   288
14.4541   293
14.4641   279
14.4741   286
14.4841   308
14.4941   307
14.5041   282
14.5141   290
14.5241   287
14.5341   266
14.5441   284
14.5541   305
14.5641   309
14.5741   304
14.5841   294
14.5941   295
14.6041   290
14.6141   289
14.6241   306
14.6341   313
14.6441   319
14.6541   325
14.6641   333
14.6741   324
14.6841   310
14.6941   299
14.7041   301
14.7141   314
14.7241   306
14.7341   297
14.7441   313
14.7541   333
14.7641   328
14.7741   331
14.7841   337
14.7941   323
14.8041   329
14.8141   353
14.8241   334
14.8341   338
14.8441   364
14.8541   368
14.8641   375
14.8741   360
14.8841   341
14.8941   351
14.9041   368
14.9141   375
14.9241   382
14.9341   365
14.9441   385
14.9541   401
14.9641   390
14.9741   386
14.9841   365
14.9941   345
15.0041   344
15.0141   365
15.0241   382
15.0341   369
15.0441   374
15.0541   358
15.0641   347
15.0741   360
15.0841   348
15.0941   348
15.1041   362
15.1141   350
15.1241   351
15.1341   349
15.1441   344
15.1541   351
15.1641   363
15.1741   352
15.1841   329
15.1941   349
15.2041   350
15.2141   359
15.2241   366
15.2341   355
15.2441   363
15.2541   376
15.2641   355
15.2741   345
15.2841   350
15.2941   318
15.3041   341
15.3141   361
15.3241   381
15.3341   361
15.3441   335
15.3541   349
15.3641   367
15.3741   366
15.3841   367
15.3941   381
15.4041   364
15.4141   348
15.4241   345
15.4341   352
15.4441   373
15.4541   376
15.4641   369
15.4741   374
15.4841   387
15.4941   383
15.5041   387
15.5141   396
15.5241   427
15.5341   420
15.5441   417
15.5541   435
15.5641   442
15.5741   451
15.5841   471
15.5941   478
15.6041   515
15.6141   528
15.6241   537
15.6341   568
15.6441   612
15.6541   621
15.6641   634
15.6741   628
15.6841   685
15.6941   715
15.7041   707
15.7141   715
15.7241   724
15.7341   747
15.7441   751
15.7541   777
15.7641   798
15.7741   748
15.7841   751
15.7941   757
15.8041   735
15.8141   683
15.8241   675
15.8341   667
15.8441   663
15.8541   650
15.8641   625
15.8741   587
15.8841   553
15.8941   549
15.9041   515
15.9141   500
15.9241   494
15.9341   489
15.9441   456
15.9541   463
15.9641   483
15.9741   430
15.9841   425
15.9941   427
16.0041   453
16.0141   420
16.0241   422
16.0341   403
16.0441   401
16.0541   411
16.0641   410
16.0741   407
16.0841   432
16.0941   440
16.1041   434
16.1141   423
16.1241   414
16.1341   390
16.1441   403
16.1541   428
16.1641   444
16.1741   428
16.1841   400
16.1941   397
16.2041   426
16.2141   434
16.2241   418
16.2341   409
16.2441   395
16.2541   412
16.2641   428
16.2741   437
16.2841   438
16.2941   448
16.3041   451
16.3141   427
16.3241   418
16.3341   419
16.3441   423
16.3541   436
16.3641   427
16.3741   428
16.3841   428
16.3941   433
16.4041   448
16.4141   440
16.4241   416
16.4341   421
16.4441   421
16.4541   434
16.4641   453
16.4741   439
16.4841   474
16.4941   450
16.5041   454
16.5141   458
16.5241   436
16.5341   452
16.5441   457
16.5541   470
16.5641   481
16.5741   469
16.5841   468
16.5941   482
16.6041   471
16.6141   461
16.6241   456
16.6341   457
16.6441   474
16.6541   472
16.6641   469
16.6741   473
16.6841   480
16.6941   479
16.7041   465
16.7141   449
16.7241   476
16.7341   467
16.7441   471
16.7541   461
16.7641   471
16.7741   475
16.7841   477
16.7941   462
16.8041   464
16.8141   465
16.8241   477
16.8341   465
16.8441   479
16.8541   481
16.8641   489
16.8741   464
16.8841   474
16.8941   463
16.9041   464
16.9141   483
16.9241   473
16.9341   470
16.9441   456
16.9541   440
16.9641   480
16.9741   503
16.9841   498
16.9941   507
17.0041   508
17.0141   505
17.0241   481
17.0341   489
17.0441   476
17.0541   496
17.0641   509
17.0741   492
17.0841   481
17.0941   465
17.1041   481
17.1141   503
17.1241   520
17.1341   471
17.1441   480
17.1541   498
17.1641   468
17.1741   522
17.1841   540
17.1941   506
17.2041   481
17.2141   504
17.2241   532
17.2341   516
17.2441   501
17.2541   523
17.2641   500
17.2741   490
17.2841   497
17.2941   517
17.3041   527
17.3141   512
17.3241   507
17.3341   499
17.3441   513
17.3541   489
17.3641   476
17.3741   510
17.3841   519
17.3941   524
17.4041   518
17.4141   503
17.4241   535
17.4341   546
17.4441   535
17.4541   483
17.4641   515
17.4741   550
17.4841   557
17.4941   536
17.5041   538
17.5141   535
17.5241   514
17.5341   531
17.5441   562
17.5541   557
17.5641   566
17.5741   594
17.5841   554
17.5941   538
17.6041   572
17.6141   574
17.6241   583
17.6341   600
17.6441   570
17.6541   561
17.6641   576
17.6741   582
17.6841   586
17.6941   559
17.7041   566
17.7141   571
17.7241   598
17.7341   579
17.7441   615
17.7541   574
17.7641   582
17.7741   582
17.7841   537
17.7941   544
17.8041   567
17.8141   538
17.8241   546
17.8341   581
17.8441   562
17.8541   546
17.8641   555
17.8741   563
17.8841   542
17.8941   510
17.9041   507
17.9141   494
17.9241   529
17.9341   518
17.9441   495
17.9541   554
17.9641   540
17.9741   538
17.9841   577
17.9941   546
18.0041   552
18.0141   551
18.0241   545
18.0341   532
18.0441   537
18.0541   565
18.0641   552
18.0741   545
18.0841   531
18.0941   552
18.1041   525
18.1141   534
18.1241   550
18.1341   587
18.1441   560
18.1541   530
18.1641   545
18.1741   556
18.1841   571
18.1941   568
18.2041   564
18.2141   579
18.2241   555
18.2341   553
18.2441   546
18.2541   528
18.2641   529
18.2741   559
18.2841   558
18.2941   565
18.3041   544
18.3141   572
18.3241   560
18.3341   539
18.3441   526
18.3541   563
18.3641   574
18.3741   564
18.3841   545
18.3941   562
18.4041   559
18.4141   584
18.4241   555
18.4341   582
18.4441   596
18.4541   601
18.4641   593
18.4741   593
18.4841   566
18.4941   546
18.5041   575
18.5141   575
18.5241   567
18.5341   581
18.5441   563
18.5541   600
18.5641   586
18.5741   543
18.5841   551
18.5941   553
18.6041   582
18.6141   580
18.6241   562
18.6341   560
18.6441   630
18.6541   582
18.6641   554
18.6741   553
18.6841   532
18.6941   562
18.7041   596
18.7141   596
18.7241   575
18.7341   585
18.7441   604
18.7541   613
18.7641   593
18.7741   587
18.7841   600
18.7941   607
18.8041   608
18.8141   567
18.8241   623
18.8341   590
18.8441   577
18.8541   591
18.8641   617
18.8741   589
18.8841   591
18.8941   604
18.9041   602
18.9141   600
18.9241   563
18.9341   548
18.9441   633
18.9541   617
18.9641   605
18.9741   567
18.9841   602
18.9941   580
19.0041   597
19.0141   561
19.0241   614
19.0341   606
19.0441   619
19.0541   597
19.0641   580
19.0741   596
19.0841   590
19.0941   582
19.1041   600
19.1141   595
19.1241   538
19.1341   565
19.1441   613
19.1541   629
19.1641   588
19.1741   563
19.1841   584
19.1941   600
19.2041   641
19.2141   590
19.2241   590
19.2341   612
19.2441   557
19.2541   583
19.2641   588
19.2741   617
19.2841   624
19.2941   630
19.3041   614
19.3141   596
19.3241   577
19.3341   540
19.3441   588
19.3541   611
19.3641   608
19.3741   616
19.3841   582
19.3941   580
19.4041   576
19.4141   605
19.4241   587
19.4341   585
19.4441   602
19.4541   621
19.4641   599
19.4741   638
19.4841   632
19.4941   580
19.5041   606
19.5141   610
19.5241   625
19.5341   583
19.5441   588
19.5541   591
19.5641   596
19.5741   623
19.5841   628
19.5941   652
19.6041   598
19.6141   610
19.6241   618
19.6341   599
19.6441   586
19.6541   555
19.6641   627
19.6741   610
19.6841   607
19.6941   573
19.7041   631
19.7141   601
19.7241   604
19.7341   624
19.7441   618
19.7541   613
19.7641   621
19.7741   623
19.7841   604
19.7941   636
19.8041   623
19.8141   638
19.8241   605
19.8341   558
19.8441   627
19.8541   604
19.8641   603
19.8741   587
19.8841   609
19.8941   634
19.9041   610
19.9141   584
19.9241   606
19.9341   655
19.9441   624
19.9541   595
19.9641   600
19.9741   613
19.9841   609
19.9941   599
20.0041   631
20.0141   646
20.0241   628
20.0341   603
20.0441   607
20.0541   601
20.0641   617
20.0741   615
20.0841   632
20.0941   629
20.1041   602
20.1141   625
20.1241   616
20.1341   595
20.1441   596
20.1541   559
20.1641   606
20.1741   609
20.1841   584
20.1941   607
20.2041   648
20.2141   571
20.2241   615
20.2341   559
20.2441   603
20.2541   638
20.2641   600
20.2741   612
20.2841   628
20.2941   596
20.3041   609
20.3141   613
20.3241   609
20.3341   601
20.3441   615
20.3541   612
20.3641   616
20.3741   645
20.3841   609
20.3941   629
20.4041   649
20.4141   645
20.4241   652
20.4341   638
20.4441   589
20.4541   606
20.4641   603
20.4741   637
20.4841   585
20.4941   627
20.5041   595
20.5141   645
20.5241   611
20.5341   592
20.5441   562
20.5541   629
20.5641   626
20.5741   594
20.5841   606
20.5941   619
20.6041   633
20.6141   611
20.6241   611
20.6341   638
20.6441   622
20.6541   587
20.6641   639
20.6741   655
20.6841   616
20.6941   625
20.7041   608
20.7141   601
20.7241   629
20.7341   600
20.7441   607
20.7541   582
20.7641   618
20.7741   645
20.7841   619
20.7941   654
20.8041   618
20.8141   642
20.8241   660
20.8341   646
20.8441   729
20.8541   711
20.8641   667
20.8741   698
20.8841   678
20.8941   687
20.9041   698
20.9141   733
20.9241   688
20.9341   707
20.9441   695
20.9541   777
20.9641   782
20.9741   804
20.9841   768
20.9941   764
21.0041   798
21.0141   797
21.0241   845
21.0341   843
21.0441   813
21.0541   824
21.0641   836
21.0741   924
21.0841   885
21.0941   851
21.1041   877
21.1141   887
21.1241   889
21.1341   877
21.1441   862
21.1541   952
21.1641   901
21.1741   901
21.1841   894
21.1941   821
21.2041   865
21.2141   875
21.2241   837
21.2341   854
21.2441   867
21.2541   829
21.2641   811
21.2741   785
21.2841   715
21.2941   719
21.3041   727
21.3141   691
21.3241   725
21.3341   657
21.3441   689
21.3541   661
21.3641   682
21.3741   639
21.3841   653
21.3941   597
21.4041   668
21.4141   597
21.4241   634
21.4341   645
21.4441   599
21.4541   599
21.4641   588
21.4741   578
21.4841   664
21.4941   582
21.5041   616
21.5141   603
21.5241   631
21.5341   618
21.5441   610
21.5541   603
21.5641   618
21.5741   623
21.5841   612
21.5941   619
21.6041   639
21.6141   610
21.6241   600
21.6341   605
21.6441   637
21.6541   629
21.6641   598
21.6741   584
21.6841   623
21.6941   611
21.7041   616
21.7141   618
21.7241   594
21.7341   668
21.7441   629
21.7541   639
21.7641   638
21.7741   598
21.7841   641
21.7941   618
21.8041   628
21.8141   599
21.8241   647
21.8341   600
21.8441   635
21.8541   602
21.8641   593
21.8741   612
21.8841   646
21.8941   607
21.9041   601
21.9141   629
21.9241   602
21.9341   626
21.9441   658
21.9541   606
21.9641   544
21.9741   580
21.9841   576
21.9941   596
22.0041   605
22.0141   670
22.0241   611
22.0341   643
22.0441   586
22.0541   659
22.0641   565
22.0741   581
22.0841   568
22.0941   585
22.1041   602
22.1141   627
22.1241   625
22.1341   596
22.1441   596
22.1541   579
22.1641   603
22.1741   620
22.1841   589
22.1941   600
22.2041   606
22.2141   618
22.2241   573
22.2341   592
22.2441   607
22.2541   577
22.2641   631
22.2741   628
22.2841   616
22.2941   628
22.3041   610
22.3141   623
22.3241   587
22.3341   549
22.3441   593
22.3541   608
22.3641   589
22.3741   625
22.3841   609
22.3941   586
22.4041   587
22.4141   608
22.4241   598
22.4341   588
22.4441   625
22.4541   583
22.4641   615
22.4741   580
22.4841   612
22.4941   585
22.5041   589
22.5141   627
22.5241   597
22.5341   584
22.5441   620
22.5541   597
22.5641   638
22.5741   615
22.5841   575
22.5941   600
22.6041   617
22.6141   576
22.6241   597
22.6341   586
22.6441   598
22.6541   594
22.6641   601
22.6741   588
22.6841   577
22.6941   595
22.7041   579
22.7141   587
22.7241   637
22.7341   585
22.7441   572
22.7541   583
22.7641   574
22.7741   604
22.7841   572
22.7941   639
22.8041   552
22.8141   613
22.8241   619
22.8341   591
22.8441   588
22.8541   575
22.8641   627
22.8741   600
22.8841   617
22.8941   569
22.9041   565
22.9141   586
22.9241   635
22.9341   589
22.9441   571
22.9541   591
22.9641   556
22.9741   561
22.9841   598
22.9941   609
23.0041   602
23.0141   612
23.0241   573
23.0341   600
23.0441   554
23.0541   597
23.0641   551
23.0741   603
23.0841   580
23.0941   584
23.1041   586
23.1141   560
23.1241   586
23.1341   577
23.1441   587
23.1541   580
23.1641   547
23.1741   573
23.1841   577
23.1941   600
23.2041   595
23.2141   579
23.2241   551
23.2341   521
23.2441   537
23.2541   588
23.2641   577
23.2741   600
23.2841   590
23.2941   594
23.3041   564
23.3141   559
23.3241   611
23.3341   572
23.3441   561
23.3541   575
23.3641   558
23.3741   564
23.3841   548
23.3941   564
23.4041   563
23.4141   543
23.4241   544
23.4341   600
23.4441   579
23.4541   569
23.4641   546
23.4741   582
23.4841   563
23.4941   555
23.5041   529
23.5141   563
23.5241   553
23.5341   561
23.5441   605
23.5541   544
23.5641   527
23.5741   590
23.5841   581
23.5941   605
23.6041   572
23.6141   589
23.6241   579
23.6341   571
23.6441   559
23.6541   564
23.6641   551
23.6741   623
23.6841   560
23.6941   584
23.7041   580
23.7141   635
23.7241   621
23.7341   604
23.7441   603
23.7541   552
23.7641   603
23.7741   596
23.7841   568
23.7941   625
23.8041   576
23.8141   602
23.8241   646
23.8341   622
23.8441   562
23.8541   571
23.8641   601
23.8741   588
23.8841   640
23.8941   598
23.9041   548
23.9141   603
23.9241   582
23.9341   554
23.9441   555
23.9541   535
23.9641   553
23.9741   551
23.9841   546
23.9941   572
24.0041   555
24.0141   536
24.0241   538
24.0341   576
24.0441   593
24.0541   547
24.0641   605
24.0741   508
24.0841   540
24.0941   552
24.1041   549
24.1141   543
24.1241   517
24.1341   585
24.1441   518
24.1541   557
24.1641   546
24.1741   529
24.1841   513
24.1941   524
24.2041   573
24.2141   571
24.2241   568
24.2341   553
24.2441   533
24.2541   527
24.2641   532
24.2741   539
24.2841   558
24.2941   547
24.3041   572
24.3141   527
24.3241   497
24.3341   557
24.3441   542
24.3541   558
24.3641   557
24.3741   499
24.3841   509
24.3941   531
24.4041   505
24.4141   538
24.4241   515
24.4341   575
24.4441   523
24.4541   518
24.4641   568
24.4741   514
24.4841   536
24.4941   536
24.5041   493
24.5141   534
24.5241   527
24.5341   569
24.5441   535
24.5541   540
24.5641   506
24.5741   531
24.5841   530
24.5941   489
24.6041   487
24.6141   513
24.6241   511
24.6341   521
24.6441   506
24.6541   510
24.6641   493
24.6741   513
24.6841   502
24.6941   476
24.7041   523
24.7141   557
24.7241   490
24.7341   535
24.7441   512
24.7541   511
24.7641   516
24.7741   502
24.7841   550
24.7941   511
24.8041   507
24.8141   530
24.8241   494
24.8341   501
24.8441   518
24.8541   548
24.8641   502
24.8741   529
24.8841   536
24.8941   489
24.9041   458
24.9141   511
24.9241   515
24.9341   535
24.9441   491
24.9541   518
24.9641   492
24.9741   469
24.9841   489
24.9941   517
25.0041   494
25.0141   522
25.0241   504
25.0341   531
25.0441   520
25.0541   520
25.0641   573
25.0741   514
25.0841   499
25.0941   534
25.1041   533
25.1141   495
25.1241   501
25.1341   516
25.1441   493
25.1541   493
25.1641   525
25.1741   520
25.1841   516
25.1941   508
25.2041   526
25.2141   519
25.2241   512
25.2341   528
25.2441   518
25.2541   503
25.2641   489
25.2741   511
25.2841   531
25.2941   541
25.3041   524
25.3141   503
25.3241   494
25.3341   524
25.3441   485
25.3541   499
25.3641   513
25.3741   481
25.3841   506
25.3941   485
25.4041   489
25.4141   459
25.4241   480
25.4341   487
25.4441   506
25.4541   522
25.4641   481
25.4741   521
25.4841   506
25.4941   470
25.5041   491
25.5141   460
25.5241   508
25.5341   496
25.5441   490
25.5541   483
25.5641   479
25.5741   471
25.5841   467
25.5941   463
25.6041   473
25.6141   509
25.6241   484
25.6341   476
25.6441   465
25.6541   450
25.6641   485
25.6741   500
25.6841   459
25.6941   457
25.7041   433
25.7141   505
25.7241   481
25.7341   475
25.7441   429
25.7541   464
25.7641   486
25.7741   450
25.7841   463
25.7941   452
25.8041   455
25.8141   485
25.8241   469
25.8341   438
25.8441   483
25.8541   471
25.8641   432
25.8741   464
25.8841   478
25.8941   472
25.9041   433
25.9141   460
25.9241   477
25.9341   505
25.9441   461
25.9541   479
25.9641   459
25.9741   447
25.9841   453
25.9941   441
26.0041   459
26.0141   470
26.0241   423
26.0341   455
26.0441   454
26.0541   486
26.0641   462
26.0741   454
26.0841   479
26.0941   458
26.1041   459
26.1141   440
26.1241   466
26.1341   461
26.1441   475
26.1541   457
26.1641   438
26.1741   434
26.1841   424
26.1941   440
26.2041   484
26.2141   413
26.2241   456
26.2341   464
26.2441   427
26.2541   440
26.2641   455
26.2741   437
26.2841   445
26.2941   470
26.3041   481
26.3141   473
26.3241   449
26.3341   460
26.3441   461
26.3541   432
26.3641   452
26.3741   463
26.3841   464
26.3941   434
26.4041   475
26.4141   439
26.4241   460
26.4341   446
26.4441   444
26.4541   443
26.4641   417
26.4741   411
26.4841   443
26.4941   433
26.5041   419
26.5141   440
26.5241   429
26.5341   433
26.5441   424
26.5541   437
26.5641   419
26.5741   450
26.5841   413
26.5941   388
26.6041   416
26.6141   412
26.6241   463
26.6341   436
26.6441   433
26.6541   442
26.6641   448
26.6741   412
26.6841   437
26.6941   406
26.7041   434
26.7141   405
26.7241   407
26.7341   391
26.7441   417
26.7541   406
26.7641   458
26.7741   414
26.7841   442
26.7941   395
26.8041   389
26.8141   399
26.8241   441
26.8341   413
26.8441   439
26.8541   398
26.8641   389
26.8741   417
26.8841   394
26.8941   423
26.9041   415
26.9141   430
26.9241   423
26.9341   425
26.9441   368
26.9541   407
26.9641   420
26.9741   444
26.9841   403
26.9941   414
27.0041   394
27.0141   421
27.0241   408
27.0341   394
27.0441   388
27.0541   425
27.0641   428
27.0741   408
27.0841   425
27.0941   406
27.1041   408
27.1141   417
27.1241   403
27.1341   419
27.1441   419
27.1541   418
27.1641   402
27.1741   427
27.1841   414
27.1941   422
27.2041   418
27.2141   401
27.2241   399
27.2341   426
27.2441   435
27.2541   413
27.2641   378
27.2741   403
27.2841   405
27.2941   392
27.3041   391
27.3141   386
27.3241   377
27.3341   419
27.3441   411
27.3541   405
27.3641   411
27.3741   419
27.3841   408
27.3941   382
27.4041   382
27.4141   444
27.4241   378
27.4341   424
27.4441   421
27.4541   388
27.4641   389
27.4741   376
27.4841   388
27.4941   390
27.5041   407
27.5141   391
27.5241   389
27.5341   414
27.5441   411
27.5541   385
27.5641   407
27.5741   392
27.5841   397
27.5941   378
27.6041   392
27.6141   397
27.6241   409
27.6341   359
27.6441   415
27.6541   366
27.6641   377
27.6741   373
27.6841   373
27.6941   365
27.7041   383
27.7141   379
27.7241   394
27.7341   332
27.7441   363
27.7541   386
27.7641   374
27.7741   359
27.7841   375
27.7941   372
27.8041   354
27.8141   417
27.8241   385
27.8341   388
27.8441   367
27.8541   368
27.8641   345
27.8741   349
27.8841   355
27.8941   351
27.9041   365
27.9141   348
27.9241   333
27.9341   360
27.9441   344
27.9541   350
27.9641   358
27.9741   361
27.9841   363
27.9941   339
28.0041   387
28.0141   378
28.0241   345
28.0341   381
28.0441   374
28.0541   360
28.0641   342
28.0741   347
28.0841   348
28.0941   351
28.1041   370
28.1141   379
28.1241   363
28.1341   350
28.1441   338
28.1541   365
28.1641   385
28.1741   360
28.1841   361
28.1941   376
28.2041   338
28.2141   354
28.2241   365
28.2341   328
28.2441   351
28.2541   347
28.2641   375
28.2741   360
28.2841   359
28.2941   368
28.3041   384
28.3141   333
28.3241   358
28.3341   348
28.3441   352
28.3541   331
28.3641   355
28.3741   339
28.3841   358
28.3941   354
28.4041   359
28.4141   349
28.4241   355
28.4341   332
28.4441   390
28.4541   351
28.4641   350
28.4741   340
28.4841   351
28.4941   331
28.5041   362
28.5141   337
28.5241   361
28.5341   348
28.5441   334
28.5541   351
28.5641   343
28.5741   357
28.5841   356
28.5941   332
28.6041   329
28.6141   317
28.6241   346
28.6341   359
28.6441   355
28.6541   320
28.6641   334
28.6741   336
28.6841   318
28.6941   330
28.7041   332
28.7141   310
28.7241   310
28.7341   308
28.7441   325
28.7541   306
28.7641   339
28.7741   312
28.7841   345
28.7941   379
28.8041   352
28.8141   347
28.8241   327
28.8341   314
28.8441   321
28.8541   293
28.8641   293
28.8741   340
28.8841   330
28.8941   314
28.9041   338
28.9141   349
28.9241   326
28.9341   315
28.9441   326
28.9541   303
28.9641   324
28.9741   324
28.9841   334
28.9941   324
29.0041   348
29.0141   329
29.0241   320
29.0341   310
29.0441   329
29.0541   345
29.0641   320
29.0741   309
29.0841   317
29.0941   283
29.1041   301
29.1141   301
29.1241   300
29.1341   304
29.1441   299
29.1541   294
29.1641   330
29.1741   316
29.1841   302
29.1941   325
29.2041   302
29.2141   326
29.2241   291
29.2341   281
29.2441   311
29.2541   308
29.2641   303
29.2741   281
29.2841   287
29.2941   297
29.3041   280
29.3141   325
29.3241   287
29.3341   297
29.3441   281
29.3541   323
29.3641   281
29.3741   307
29.3841   328
29.3941   320
29.4041   300
29.4141   308
29.4241   305
29.4341   321
29.4441   280
29.4541   318
29.4641   298
29.4741   295
29.4841   299
29.4941   297
29.5041   299
29.5141   285
29.5241   329
29.5341   307
29.5441   312
29.5541   273
29.5641   282
29.5741   295
29.5841   290
29.5941   296
29.6041   271
29.6141   303
29.6241   303
29.6341   296
29.6441   289
29.6541   283
29.6641   302
29.6741   300
29.6841   263
29.6941   278
29.7041   261
29.7141   294
29.7241   277
29.7341   283
29.7441   292
29.7541   301
29.7641   297
29.7741   290
29.7841   297
29.7941   289
29.8041   279
29.8141   278
29.8241   258
29.8341   266
29.8441   284
29.8541   300
29.8641   284
29.8741   257
29.8841   290
29.8941   243
29.9041   261
29.9141   320
29.9241   271
29.9341   278
29.9441   257
29.9541   271
29.9641   282
29.9741   292
29.9841   297
29.9941   308
30.0041   256
30.0141   289
30.0241   275
30.0341   259
30.0441   273
30.0541   282
30.0641   296
30.0741   280
30.0841   278
30.0941   263
30.1041   282
30.1141   261
30.1241   250
30.1341   250
30.1441   236
30.1541   245
30.1641   264
30.1741   256
30.1841   278
30.1941   304
30.2041   278
30.2141   256
30.2241   252
30.2341   257
30.2441   249
30.2541   270
30.2641   245
30.2741   272
30.2841   267
30.2941   261
30.3041   251
30.3141   239
30.3241   264
30.3341   291
30.3441   245
30.3541   278
30.3641   279
30.3741   259
30.3841   250
30.3941   266
30.4041   276
30.4141   275
30.4241   271
30.4341   254
30.4441   265
30.4541   237
30.4641   253
30.4741   278
30.4841   266
30.4941   243
30.5041   242
30.5141   245
30.5241   257
30.5341   280
30.5441   256
30.5541   245
30.5641   255
30.5741   258
30.5841   252
30.5941   268
30.6041   244
30.6141   215
30.6241   250
30.6341   269
30.6441   256
30.6541   250
30.6641   240
30.6741   236
30.6841   250
30.6941   276
30.7041   255
30.7141   267
30.7241   266
30.7341   251
30.7441   272
30.7541   249
30.7641   256
30.7741   250
30.7841   252
30.7941   223
30.8041   262
30.8141   239
30.8241   251
30.8341   230
30.8441   238
30.8541   253
30.8641   229
30.8741   219
30.8841   251
30.8941   232
30.9041   239
30.9141   261
30.9241   242
30.9341   215
30.9441   248
30.9541   243
30.9641   226
30.9741   258
30.9841   227
30.9941   242
31.0041   215
31.0141   221
31.0241   243
31.0341   224
31.0441   222
31.0541   239
31.0641   225
31.0741   227
31.0841   201
31.0941   231
31.1041   226
31.1141   222
31.1241   230
31.1341   234
31.1441   241
31.1541   240
31.1641   231
31.1741   211
31.1841   238
31.1941   226
31.2041   218
31.2141   204
31.2241   195
31.2341   216
31.2441   229
31.2541   205
31.2641   239
31.2741   216
31.2841   208
31.2941   219
31.3041   220
31.3141   236
31.3241   223
31.3341   220
31.3441   234
31.3541   214
31.3641   254
31.3741   208
31.3841   217
31.3941   221
31.4041   220
31.4141   222
31.4241   208
31.4341   230
31.4441   233
31.4541   208
31.4641   200
31.4741   198
31.4841   218
31.4941   227
31.5041   238
31.5141   236
31.5241   245
31.5341   207
31.5441   195
31.5541   208
31.5641   222
31.5741   236
31.5841   203
31.5941   214
31.6041   220
31.6141   216
31.6241   206
31.6341   230
31.6441   235
31.6541   220
31.6641   225
31.6741   215
31.6841   228
31.6941   193
31.7041   200
31.7141   202
31.7241   216
31.7341   206
31.7441   196
31.7541   218
31.7641   201
31.7741   218
31.7841   208
31.7941   219
31.8041   225
31.8141   212
31.8241   219
31.8341   225
31.8441   200
31.8541   195
31.8641   208
31.8741   216
31.8841   229
31.8941   204
31.9041   228
31.9141   204
31.9241   216
31.9341   209
31.9441   219
31.9541   210
31.9641   189
31.9741   182
31.9841   202
31.9941   206
32.0041   212
32.0141   222
32.0241   184
32.0341   189
32.0441   213
32.0541   197
32.0641   200
32.0741   203
32.0841   201
32.0941   208
32.1041   209
32.1141   204
32.1241   206
32.1341   220
32.1441   205
32.1541   200
32.1641   206
32.1741   207
32.1841   197
32.1941   170
32.2041   204
32.2141   224
32.2241   205
32.2341   196
32.2441   201
32.2541   197
32.2641   208
32.2741   198
32.2841   190
32.2941   191
32.3041   183
32.3141   198
32.3241   198
32.3341   184
32.3441   179
32.3541   208
32.3641   189
32.3741   187
32.3841   161
32.3941   182
32.4041   190
32.4141   204
32.4241   181
32.4341   188
32.4441   189
32.4541   166
32.4641   168
32.4741   181
32.4841   174
32.4941   177
32.5041   201
32.5141   178
32.5241   169
32.5341   163
32.5441   183
32.5541   209
32.5641   183
32.5741   187
32.5841   168
32.5941   156
32.6041   171
32.6141   151
32.6241   177
32.6341   200
32.6441   163
32.6541   169
32.6641   182
32.6741   178
32.6841   172
32.6941   181
32.7041   173
32.7141   181
32.7241   159
32.7341   186
32.7441   174
32.7541   199
32.7641   175
32.7741   186
32.7841   177
32.7941   175
32.8041   176
32.8141   189
32.8241   203
32.8341   178
32.8441   156
32.8541   177
32.8641   180
32.8741   170
32.8841   184
32.8941   181
32.9041   195
32.9141   182
32.9241   190
32.9341   188
32.9441   184
32.9541   172
32.9641   161
32.9741   196
32.9841   171
32.9941   161
33.0041   162
33.0141   148
33.0241   174
33.0341   165
33.0441   167
33.0541   168
33.0641   157
33.0741   174
33.0841   162
33.0941   156
33.1041   171
33.1141   170
33.1241   151
33.1341   167
33.1441   163
33.1541   170
33.1641   140
33.1741   161
33.1841   150
33.1941   169
33.2041   170
33.2141   170
33.2241   168
33.2341   158
33.2441   155
33.2541   143
33.2641   161
33.2741   143
33.2841   185
33.2941   162
33.3041   176
33.3141   173
33.3241   196
33.3341   168
33.3441   154
33.3541   156
33.3641   153
33.3741   155
33.3841   167
33.3941   137
33.4041   163
33.4141   164
33.4241   161
33.4341   155
33.4441   164
33.4541   153
33.4641   140
33.4741   163
33.4841   160
33.4941   158
33.5041   138
33.5141   168
33.5241   153
33.5341   154
33.5441   160
33.5541   149
33.5641   141
33.5741   129
33.5841   136
33.5941   159
33.6041   155
33.6141   146
33.6241   147
33.6341   151
33.6441   123
33.6541   175
33.6641   144
33.6741   158
33.6841   151
33.6941   168
33.7041   157
33.7141   147
33.7241   138
33.7341   145
33.7441   150
33.7541   148
33.7641   145
33.7741   154
33.7841   154
33.7941   147
33.8041   150
33.8141   136
33.8241   154
33.8341   151
33.8441   134
33.8541   148
33.8641   139
33.8741   125
33.8841   141
33.8941   136
33.9041   159
33.9141   138
33.9241   128
33.9341   129
33.9441   132
33.9541   135
33.9641   140
33.9741   148
33.9841   127
33.9941   117
34.0041   148
34.0141   141
34.0241   121
34.0341   135
34.0441   128
34.0541   124
34.0641   129
34.0741   147
34.0841   140
34.0941   129
34.1041   161
34.1141   143
34.1241   160
34.1341   136
34.1441   138
34.1541   132
34.1641   132
34.1741   112
34.1841   128
34.1941   137
34.2041   133
34.2141   131
34.2241   124
34.2341   121
34.2441   138
34.2541   130
34.2641   139
34.2741   138
34.2841   142
34.2941   136
34.3041   119
34.3141   142
34.3241   126
34.3341   133
34.3441   139
34.3541   126
34.3641   122
34.3741   138
34.3841   131
34.3941   125
34.4041   126
34.4141   142
34.4241   121
34.4341   140
34.4441   123
34.4541   110
34.4641    99
34.4741   118
34.4841   132
34.4941   133
34.5041   123
34.5141   124
34.5241   125
34.5341   123
34.5441   128
34.5541   124
34.5641   124
34.5741    99
34.5841   102
34.5941   146
34.6041   119
34.6141   112
34.6241   124
34.6341   122
34.6441   111
34.6541   128
34.6641   117
34.6741   136
34.6841   147
34.6941   119
34.7041   113
34.7141   128
34.7241   114
34.7341   127
34.7441   102
34.7541   111
34.7641   132
34.7741   110
34.7841   116
34.7941   118
34.8041   110
34.8141   133
34.8241   119
34.8341   119
34.8441    99
34.8541   112
34.8641   134
34.8741   118
34.8841   122
34.8941   111
34.9041   100
34.9141   118
34.9241   116
34.9341   105
34.9441   125
34.9541   138
34.9641   110
34.9741   120
34.9841   111
34.9941   102
35.0041   112
35.0141   124
35.0241   104
35.0341   114
35.0441    95
35.0541   120
35.0641   110
35.0741    99
35.0841   117
35.0941   112
35.1041   107
35.1141   113
35.1241   120
35.1341   105
35.1441    97
35.1541   125
35.1641   115
35.1741   128
35.1841   107
35.1941    99
35.2041   102
35.2141   116
35.2241    95
35.2341   115
35.2441    94
35.2541   112
35.2641   119
35.2741   102
35.2841   114
35.2941   112
35.3041   102
35.3141   110
35.3241    95
35.3341    88
35.3441   103
35.3541   111
35.3641   116
35.3741   106
35.3841   119
35.3941   114
35.4041   127
35.4141   124
35.4241    97
35.4341    92
35.4441    97
35.4541   101
35.4641   118
35.4741   114
35.4841    98
35.4941    97
35.5041   110
35.5141    94
35.5241    86
35.5341    95
35.5441   114
35.5541   106
35.5641    99
35.5741    91
35.5841   104
35.5941    87
35.6041   112
35.6141   110
35.6241    90
35.6341   102
35.6441    99
35.6541   104
35.6641    94
35.6741    90
35.6841    92
35.6941    98
35.7041    84
35.7141    95
35.7241    96
35.7341    92
35.7441   110
35.7541   105
35.7641   103
35.7741   100
35.7841    94
35.7941    90
35.8041    99
35.8141    98
35.8241    89
35.8341    96
35.8441    87
35.8541    98
35.8641   101
35.8741   103
35.8841    99
35.8941    98
35.9041   112
35.9141   105
35.9241    91
35.9341    83
35.9441    96
35.9541    90
35.9641    97
35.9741    93
35.9841    97
35.9941    95
36.0041    86
36.0141   104
36.0241    84
36.0341    85
36.0441    94
36.0541    94
36.0641    85
36.0741    96
36.0841    96
36.0941    79
36.1041    82
36.1141   110
36.1241   104
36.1341   102
36.1441    94
36.1541    77
36.1641    96
36.1741    79
36.1841    94
36.1941   108
36.2041    69
36.2141    94
36.2241    93
36.2341    90
36.2441    92
36.2541    79
36.2641    79
36.2741   105
36.2841    90
36.2941    77
36.3041   101
36.3141    89
36.3241    74
36.3341    82
36.3441    75
36.3541    79
36.3641    91
36.3741    87
36.3841    84
36.3941    96
36.4041    89
36.4141    82
36.4241    80
36.4341    92
36.4441    93
36.4541    87
36.4641    75
36.4741    75
36.4841    72
36.4941    74
36.5041    83
36.5141    60
36.5241    79
36.5341    92
36.5441    89
36.5541    80
36.5641    88
36.5741    94
36.5841    71
36.5941    76
36.6041    64
36.6141    72
36.6241    85
36.6341    87
36.6441    81
36.6541    98
36.6641    74
36.6741    86
36.6841    88
36.6941    73
36.7041    78
36.7141    73
36.7241    69
36.7341    84
36.7441    89
36.7541    81
36.7641    73
36.7741    71
36.7841    65
36.7941    74
36.8041    85
36.8141    69
36.8241    75
36.8341    70
36.8441    61
36.8541    74
36.8641    70
36.8741    69
36.8841    83
36.8941    81
36.9041    82
36.9141    75
36.9241    79
36.9341    78
36.9441    68
36.9541    78
36.9641    65
36.9741    81
36.9841    79
36.9941    74
37.0041    64
37.0141    83
37.0241    77
37.0341    52
37.0441    61
37.0541    90
37.0641    74
37.0741    86
37.0841    55
37.0941    85
37.1041    77
37.1141    91
37.1241    59
37.1341    69
37.1441    76
37.1541    60
37.1641    60
37.1741    76
37.1841    71
37.1941    88
37.2041    71
37.2141    67
37.2241    75
37.2341    88
37.2441    68
37.2541    71
37.2641    73
37.2741    62
37.2841    70
37.2941    77
37.3041    71
37.3141    70
37.3241    64
37.3341    67
37.3441    75
37.3541    78
37.3641    65
37.3741    64
37.3841    59
37.3941    64
37.4041    61
37.4141    57
37.4241    64
37.4341    66
37.4441    73
37.4541    70
37.4641    75
37.4741    62
37.4841    59
37.4941    61
37.5041    75
37.5141    51
37.5241    70
37.5341    61
37.5441    56
37.5541    64
37.5641    68
37.5741    61
37.5841    63
37.5941    67
37.6041    68
37.6141    61
37.6241    67
37.6341    65
37.6441    59
37.6541    53
37.6641    66
37.6741    64
37.6841    59
37.6941    68
37.7041    59
37.7141    47
37.7241    58
37.7341    66
37.7441    56
37.7541    52
37.7641    66
37.7741    71
37.7841    51
37.7941    44
37.8041    56
37.8141    43
37.8241    63
37.8341    59
37.8441    64
37.8541    72
37.8641    61
37.8741    59
37.8841    53
37.8941    59
37.9041    51
37.9141    67
37.9241    60
37.9341    57
37.9441    67
37.9541    45
37.9641    57
37.9741    65
37.9841    57
37.9941    54
38.0041    47
38.0141    52
38.0241    55
38.0341    51
38.0441    51
38.0541    60
38.0641    56
38.0741    66
38.0841    43
38.0941    62
38.1041    51
38.1141    55
38.1241    62
38.1341    66
38.1441    64
38.1541    57
38.1641    42
38.1741    46
38.1841    44
38.1941    52
38.2041    54
38.2141    58
38.2241    58
38.2341    33
38.2441    50
38.2541    52
38.2641    52
38.2741    66
38.2841    54
38.2941    53
38.3041    49
38.3141    47
38.3241    46
38.3341    48
38.3441    63
38.3541    54
38.3641    50
38.3741    46
38.3841    51
38.3941    45
38.4041    49
38.4141    51
38.4241    42
38.4341    43
38.4441    44
38.4541    50
38.4641    47
38.4741    33
38.4841    45
38.4941    59
38.5041    44
38.5141    42
38.5241    54
38.5341    52
38.5441    44
38.5541    50
38.5641    54
38.5741    42
38.5841    58
38.5941    54
38.6041    42
38.6141    50
38.6241    60
38.6341    50
38.6441    40
38.6541    46
38.6641    38
38.6741    41
38.6841    49
38.6941    43
38.7041    39
38.7141    40
38.7241    51
38.7341    38
38.7441    46
38.7541    39
38.7641    56
38.7741    44
38.7841    43
38.7941    46
38.8041    54
38.8141    41
38.8241    50
38.8341    46
38.8441    42
38.8541    46
38.8641    43
38.8741    38
38.8841    39
38.8941    36
38.9041    43
38.9141    39
38.9241    47
38.9341    39
38.9441    55
38.9541    33
38.9641    43
38.9741    31
38.9841    41
38.9941    30
39.0041    45
39.0141    47
39.0241    34
39.0341    39
39.0441    37
39.0541    45
39.0641    41
39.0741    39
39.0841    36
39.0941    40
39.1041    52
39.1141    37
39.1241    28
39.1341    29
39.1441    42
39.1541    31
39.1641    40
39.1741    38
39.1841    34
39.1941    31
39.2041    40
39.2141    40
39.2241    38
39.2341    37
39.2441    34
39.2541    37
39.2641    51
39.2741    40
39.2841    32
39.2941    42
39.3041    40
39.3141    40
39.3241    42
39.3341    43
39.3441    38
39.3541    40
39.3641    29
39.3741    36
39.3841    34
39.3941    38
39.4041    27
39.4141    42
39.4241    39
39.4341    32
39.4441    36
39.4541    37
39.4641    27
39.4741    32
39.4841    39
39.4941    38
39.5041    36
39.5141    30
39.5241    42
39.5341    34
39.5441    33
39.5541    43
39.5641    31
39.5741    27
39.5841    30
39.5941    45
39.6041    34
39.6141    29
39.6241    37
39.6341    33
39.6441    40
39.6541    29
39.6641    34
39.6741    28
39.6841    33
39.6941    35
39.7041    37
39.7141    30
39.7241    31
39.7341    29
39.7441    39
39.7541    34
39.7641    32
39.7741    29
39.7841    31
39.7941    29
39.8041    24
39.8141    23
39.8241    23
39.8341    26
39.8441    26
39.8541    25
39.8641    30
39.8741    33
39.8841    27
39.8941    25
39.9041    30
39.9141    21
39.9241    25
39.9341    29
39.9441    32
39.9541    26
39.9641    28
39.9741    38
39.9841    41
