Bruker Nano GmbH Berlin, Germany
Esprit 1.9

Date: 5/14/2021 3:55:00 PM
Real time: 19531
Life time: 18316
Pulse density: 88726


Detector type: XFlash 430
Window type: Custom type
Detector thickness: 0.45
Si dead layer:0.029

Calibration, lin.: 10
Calibration, abs.: -955.9
Mn FWHM: 137.05
Fano factor: 0.121
Channels: 4096

Energy Counts
-0.9559     0
-0.9459     0
-0.9359     0
-0.9259     0
-0.9159     0
-0.9059     0
-0.8959     0
-0.8859     0
-0.8759     0
-0.8659     0
-0.8559     0
-0.8459     0
-0.8359     0
-0.8259     0
-0.8159     0
-0.8059     0
-0.7959     0
-0.7859     0
-0.7759     0
-0.7659     0
-0.7559     0
-0.7459     0
-0.7359     0
-0.7259     0
-0.7159     0
-0.7059     0
-0.6959     0
-0.6859     0
-0.6759     0
-0.6659     0
-0.6559     0
-0.6459     0
-0.6359     0
-0.6259     0
-0.6159     0
-0.6059     0
-0.5959     0
-0.5859     0
-0.5759     0
-0.5659     0
-0.5559     0
-0.5459     0
-0.5359     0
-0.5259     0
-0.5159     0
-0.5059     0
-0.4959     0
-0.4859     0
-0.4759     0
-0.4659     0
-0.4559     0
-0.4459     0
-0.4359     0
-0.4259     0
-0.4159     0
-0.4059     0
-0.3959     0
-0.3859     0
-0.3759     0
-0.3659     0
-0.3559     0
-0.3459     0
-0.3359     0
-0.3259     0
-0.3159     0
-0.3059     0
-0.2959     0
-0.2859     0
-0.2759     0
-0.2659     0
-0.2559     0
-0.2459     0
-0.2359     0
-0.2259     0
-0.2159     0
-0.2059     0
-0.1959     0
-0.1859     0
-0.1759     0
-0.1659     0
-0.1559     0
-0.1459     0
-0.1359     0
-0.1259     0
-0.1159     2
-0.1059    14
-0.0959    52
-0.0859   195
-0.0759   751
-0.0659  2087
-0.0559  5517
-0.0459 11839
-0.0359 21779
-0.0259 34787
-0.0159 48024
-0.0059 55839
 0.0041 56410
 0.0141 48565
 0.0241 35989
 0.0341 22507
 0.0441 12306
 0.0541  5709
 0.0641  2346
 0.0741   837
 0.0841   244
 0.0941    77
 0.1041    24
 0.1141    15
 0.1241    10
 0.1341    10
 0.1441     6
 0.1541     7
 0.1641     1
 0.1741    20
 0.1841   179
 0.1941   316
 0.2041   288
 0.2141   315
 0.2241   312
 0.2341   340
 0.2441   320
 0.2541   326
 0.2641   306
 0.2741   293
 0.2841   310
 0.2941   298
 0.3041   311
 0.3141   297
 0.3241   281
 0.3341   247
 0.3441   277
 0.3541   261
 0.3641   258
 0.3741   276
 0.3841   282
 0.3941   263
 0.4041   273
 0.4141   267
 0.4241   267
 0.4341   250
 0.4441   250
 0.4541   253
 0.4641   257
 0.4741   261
 0.4841   256
 0.4941   272
 0.5041   265
 0.5141   243
 0.5241   238
 0.5341   234
 0.5441   247
 0.5541   255
 0.5641   260
 0.5741   251
 0.5841   229
 0.5941   235
 0.6041   227
 0.6141   233
 0.6241   250
 0.6341   250
 0.6441   259
 0.6541   248
 0.6641   222
 0.6741   208
 0.6841   216
 0.6941   229
 0.7041   227
 0.7141   228
 0.7241   224
 0.7341   212
 0.7441   203
 0.7541   226
 0.7641   228
 0.7741   225
 0.7841   227
 0.7941   221
 0.8041   199
 0.8141   203
 0.8241   207
 0.8341   225
 0.8441   221
 0.8541   216
 0.8641   205
 0.8741   198
 0.8841   213
 0.8941   211
 0.9041   210
 0.9141   207
 0.9241   219
 0.9341   217
 0.9441   184
 0.9541   210
 0.9641   202
 0.9741   185
 0.9841   213
 0.9941   187
 1.0041   198
 1.0141   190
 1.0241   184
 1.0341   216
 1.0441   211
 1.0541   195
 1.0641   185
 1.0741   196
 1.0841   191
 1.0941   193
 1.1041   196
 1.1141   203
 1.1241   195
 1.1341   197
 1.1441   195
 1.1541   175
 1.1641   182
 1.1741   186
 1.1841   200
 1.1941   182
 1.2041   202
 1.2141   180
 1.2241   182
 1.2341   181
 1.2441   166
 1.2541   175
 1.2641   184
 1.2741   193
 1.2841   176
 1.2941   194
 1.3041   185
 1.3141   173
 1.3241   196
 1.3341   168
 1.3441   168
 1.3541   187
 1.3641   183
 1.3741   183
 1.3841   174
 1.3941   182
 1.4041   195
 1.4141   160
 1.4241   171
 1.4341   163
 1.4441   173
 1.4541   187
 1.4641   166
 1.4741   183
 1.4841   199
 1.4941   194
 1.5041   189
 1.5141   168
 1.5241   162
 1.5341   158
 1.5441   168
 1.5541   152
 1.5641   152
 1.5741   169
 1.5841   160
 1.5941   166
 1.6041   162
 1.6141   163
 1.6241   160
 1.6341   179
 1.6441   181
 1.6541   205
 1.6641   244
 1.6741   304
 1.6841   349
 1.6941   453
 1.7041   542
 1.7141   619
 1.7241   667
 1.7341   716
 1.7441   773
 1.7541   696
 1.7641   613
 1.7741   527
 1.7841   476
 1.7941   388
 1.8041   307
 1.8141   270
 1.8241   246
 1.8341   217
 1.8441   194
 1.8541   212
 1.8641   203
 1.8741   180
 1.8841   182
 1.8941   180
 1.9041   182
 1.9141   190
 1.9241   172
 1.9341   158
 1.9441   160
 1.9541   181
 1.9641   169
 1.9741   195
 1.9841   227
 1.9941   213
 2.0041   206
 2.0141   231
 2.0241   208
 2.0341   202
 2.0441   192
 2.0541   184
 2.0641   205
 2.0741   186
 2.0841   156
 2.0941   166
 2.1041   150
 2.1141   152
 2.1241   160
 2.1341   175
 2.1441   166
 2.1541   154
 2.1641   162
 2.1741   167
 2.1841   178
 2.1941   152
 2.2041   134
 2.2141   150
 2.2241   172
 2.2341   162
 2.2441   143
 2.2541   147
 2.2641   143
 2.2741   159
 2.2841   155
 2.2941   137
 2.3041   142
 2.3141   140
 2.3241   148
 2.3341   163
 2.3441   148
 2.3541   138
 2.3641   145
 2.3741   141
 2.3841   115
 2.3941   122
 2.4041   124
 2.4141   141
 2.4241   140
 2.4341   140
 2.4441   145
 2.4541   155
 2.4641   133
 2.4741   140
 2.4841   127
 2.4941   136
 2.5041   133
 2.5141   149
 2.5241   125
 2.5341   151
 2.5441   126
 2.5541   141
 2.5641   147
 2.5741   135
 2.5841   125
 2.5941   143
 2.6041   131
 2.6141   143
 2.6241   147
 2.6341   157
 2.6441   130
 2.6541   113
 2.6641   126
 2.6741   142
 2.6841   113
 2.6941   108
 2.7041   136
 2.7141   132
 2.7241   136
 2.7341   134
 2.7441   135
 2.7541   125
 2.7641   111
 2.7741   122
 2.7841   140
 2.7941   130
 2.8041   140
 2.8141   129
 2.8241   121
 2.8341   153
 2.8441   131
 2.8541   145
 2.8641   126
 2.8741   134
 2.8841   133
 2.8941   100
 2.9041   120
 2.9141   130
 2.9241   125
 2.9341   120
 2.9441   131
 2.9541   117
 2.9641   115
 2.9741   116
 2.9841   118
 2.9941   125
 3.0041   124
 3.0141   125
 3.0241   130
 3.0341   110
 3.0441   106
 3.0541   108
 3.0641    99
 3.0741   101
 3.0841    96
 3.0941   117
 3.1041   119
 3.1141   106
 3.1241   111
 3.1341   106
 3.1441    95
 3.1541   108
 3.1641    98
 3.1741   115
 3.1841   107
 3.1941   108
 3.2041   111
 3.2141   102
 3.2241   105
 3.2341    95
 3.2441   107
 3.2541   104
 3.2641   103
 3.2741   133
 3.2841   125
 3.2941   114
 3.3041   129
 3.3141   134
 3.3241   130
 3.3341   117
 3.3441   120
 3.3541   110
 3.3641   105
 3.3741    94
 3.3841    98
 3.3941   107
 3.4041   102
 3.4141    83
 3.4241    92
 3.4341    93
 3.4441    97
 3.4541    96
 3.4641    96
 3.4741    88
 3.4841   104
 3.4941    84
 3.5041    72
 3.5141    90
 3.5241    96
 3.5341   114
 3.5441   105
 3.5541   119
 3.5641   132
 3.5741   168
 3.5841   180
 3.5941   231
 3.6041   314
 3.6141   393
 3.6241   451
 3.6341   625
 3.6441   718
 3.6541   854
 3.6641   989
 3.6741  1013
 3.6841  1084
 3.6941  1138
 3.7041  1072
 3.7141   971
 3.7241   832
 3.7341   736
 3.7441   641
 3.7541   507
 3.7641   370
 3.7741   271
 3.7841   225
 3.7941   181
 3.8041   125
 3.8141   106
 3.8241   100
 3.8341    85
 3.8441    96
 3.8541    92
 3.8641    97
 3.8741   103
 3.8841   106
 3.8941   104
 3.9041   109
 3.9141   106
 3.9241   115
 3.9341   120
 3.9441   144
 3.9541   158
 3.9641   174
 3.9741   179
 3.9841   193
 3.9941   212
 4.0041   207
 4.0141   196
 4.0241   204
 4.0341   196
 4.0441   184
 4.0541   171
 4.0641   174
 4.0741   142
 4.0841   129
 4.0941   119
 4.1041   111
 4.1141    90
 4.1241    89
 4.1341    79
 4.1441    80
 4.1541    72
 4.1641    82
 4.1741    63
 4.1841    72
 4.1941    78
 4.2041    66
 4.2141    71
 4.2241    76
 4.2341    75
 4.2441    81
 4.2541    71
 4.2641    83
 4.2741    71
 4.2841    70
 4.2941    72
 4.3041    64
 4.3141    66
 4.3241    58
 4.3341    72
 4.3441    76
 4.3541    61
 4.3641    76
 4.3741    91
 4.3841    76
 4.3941    89
 4.4041    92
 4.4141    77
 4.4241    86
 4.4341   106
 4.4441   109
 4.4541   133
 4.4641   128
 4.4741   134
 4.4841   127
 4.4941   147
 4.5041   148
 4.5141   149
 4.5241   147
 4.5341   146
 4.5441   132
 4.5541   128
 4.5641   134
 4.5741   119
 4.5841   105
 4.5941    83
 4.6041    85
 4.6141    93
 4.6241    95
 4.6341    92
 4.6441    82
 4.6541   100
 4.6641    84
 4.6741    72
 4.6841    86
 4.6941    71
 4.7041    77
 4.7141    71
 4.7241    75
 4.7341    75
 4.7441    88
 4.7541    76
 4.7641    63
 4.7741    64
 4.7841    85
 4.7941    79
 4.8041    59
 4.8141    73
 4.8241    81
 4.8341    65
 4.8441    91
 4.8541    87
 4.8641    95
 4.8741    65
 4.8841    70
 4.8941    84
 4.9041   108
 4.9141    90
 4.9241    85
 4.9341    96
 4.9441   100
 4.9541    88
 4.9641   104
 4.9741    91
 4.9841   100
 4.9941    90
 5.0041    96
 5.0141    83
 5.0241    85
 5.0341    89
 5.0441    93
 5.0541    89
 5.0641    98
 5.0741    90
 5.0841    77
 5.0941    98
 5.1041    71
 5.1141    82
 5.1241    77
 5.1341    92
 5.1441    90
 5.1541    78
 5.1641    92
 5.1741    92
 5.1841    98
 5.1941    85
 5.2041   103
 5.2141    94
 5.2241    87
 5.2341   101
 5.2441   111
 5.2541   103
 5.2641   115
 5.2741   108
 5.2841   117
 5.2941   148
 5.3041   163
 5.3141   181
 5.3241   228
 5.3341   296
 5.3441   361
 5.3541   363
 5.3641   455
 5.3741   510
 5.3841   489
 5.3941   539
 5.4041   606
 5.4141   565
 5.4241   566
 5.4341   549
 5.4441   484
 5.4541   450
 5.4641   387
 5.4741   346
 5.4841   293
 5.4941   241
 5.5041   215
 5.5141   192
 5.5241   180
 5.5341   148
 5.5441   107
 5.5541   107
 5.5641   102
 5.5741   119
 5.5841   114
 5.5941    77
 5.6041    88
 5.6141    97
 5.6241   100
 5.6341    91
 5.6441    79
 5.6541   100
 5.6641   102
 5.6741   101
 5.6841   111
 5.6941   100
 5.7041    92
 5.7141   114
 5.7241   121
 5.7341   108
 5.7441   116
 5.7541   112
 5.7641   130
 5.7741   137
 5.7841   122
 5.7941   124
 5.8041   145
 5.8141   177
 5.8241   179
 5.8341   215
 5.8441   207
 5.8541   256
 5.8641   256
 5.8741   270
 5.8841   303
 5.8941   270
 5.9041   335
 5.9141   325
 5.9241   334
 5.9341   282
 5.9441   307
 5.9541   302
 5.9641   282
 5.9741   238
 5.9841   209
 5.9941   205
 6.0041   187
 6.0141   194
 6.0241   177
 6.0341   150
 6.0441   143
 6.0541   132
 6.0641   130
 6.0741   126
 6.0841   117
 6.0941   115
 6.1041   120
 6.1141   110
 6.1241   114
 6.1341   121
 6.1441   117
 6.1541   123
 6.1641   143
 6.1741   148
 6.1841   165
 6.1941   167
 6.2041   191
 6.2141   268
 6.2241   317
 6.2341   395
 6.2441   584
 6.2541   741
 6.2641  1002
 6.2741  1432
 6.2841  1805
 6.2941  2343
 6.3041  3031
 6.3141  3947
 6.3241  4764
 6.3341  5623
 6.3441  6731
 6.3541  7567
 6.3641  8482
 6.3741  9240
 6.3841  9706
 6.3941  9809
 6.4041  9843
 6.4141  9632
 6.4241  9131
 6.4341  8433
 6.4441  7434
 6.4541  6556
 6.4641  5553
 6.4741  4493
 6.4841  3537
 6.4941  2847
 6.5041  2226
 6.5141  1674
 6.5241  1184
 6.5341   915
 6.5441   639
 6.5541   499
 6.5641   373
 6.5741   263
 6.5841   220
 6.5941   229
 6.6041   181
 6.6141   156
 6.6241   155
 6.6341   148
 6.6441   139
 6.6541   149
 6.6641   151
 6.6741   137
 6.6841   145
 6.6941   136
 6.7041   157
 6.7141   151
 6.7241   137
 6.7341   167
 6.7441   153
 6.7541   161
 6.7641   154
 6.7741   162
 6.7841   180
 6.7941   167
 6.8041   152
 6.8141   170
 6.8241   166
 6.8341   186
 6.8441   204
 6.8541   206
 6.8641   240
 6.8741   231
 6.8841   248
 6.8941   293
 6.9041   320
 6.9141   371
 6.9241   422
 6.9341   455
 6.9441   559
 6.9541   663
 6.9641   780
 6.9741   969
 6.9841  1062
 6.9941  1255
 7.0041  1378
 7.0141  1473
 7.0241  1583
 7.0341  1764
 7.0441  1653
 7.0541  1765
 7.0641  1733
 7.0741  1675
 7.0841  1616
 7.0941  1524
 7.1041  1327
 7.1141  1223
 7.1241  1067
 7.1341   883
 7.1441   732
 7.1541   643
 7.1641   536
 7.1741   490
 7.1841   386
 7.1941   323
 7.2041   306
 7.2141   261
 7.2241   231
 7.2341   220
 7.2441   222
 7.2541   251
 7.2641   211
 7.2741   214
 7.2841   249
 7.2941   280
 7.3041   278
 7.3141   307
 7.3241   324
 7.3341   382
 7.3441   390
 7.3541   452
 7.3641   532
 7.3741   617
 7.3841   670
 7.3941   780
 7.4041   841
 7.4141   927
 7.4241  1060
 7.4341  1097
 7.4441  1273
 7.4541  1233
 7.4641  1233
 7.4741  1235
 7.4841  1173
 7.4941  1211
 7.5041  1094
 7.5141  1019
 7.5241   900
 7.5341   834
 7.5441   761
 7.5541   647
 7.5641   596
 7.5741   488
 7.5841   406
 7.5941   375
 7.6041   345
 7.6141   274
 7.6241   276
 7.6341   283
 7.6441   229
 7.6541   227
 7.6641   205
 7.6741   223
 7.6841   267
 7.6941   274
 7.7041   270
 7.7141   275
 7.7241   256
 7.7341   277
 7.7441   249
 7.7541   269
 7.7641   282
 7.7741   277
 7.7841   315
 7.7941   277
 7.8041   279
 7.8141   290
 7.8241   324
 7.8341   318
 7.8441   351
 7.8541   262
 7.8641   347
 7.8741   356
 7.8841   334
 7.8941   355
 7.9041   389
 7.9141   409
 7.9241   387
 7.9341   432
 7.9441   433
 7.9541   496
 7.9641   537
 7.9741   554
 7.9841   572
 7.9941   628
 8.0041   674
 8.0141   714
 8.0241   781
 8.0341   817
 8.0441   908
 8.0541   943
 8.0641   989
 8.0741  1107
 8.0841  1166
 8.0941  1197
 8.1041  1256
 8.1141  1286
 8.1241  1339
 8.1341  1414
 8.1441  1458
 8.1541  1493
 8.1641  1571
 8.1741  1506
 8.1841  1575
 8.1941  1646
 8.2041  1600
 8.2141  1620
 8.2241  1706
 8.2341  1749
 8.2441  1808
 8.2541  1862
 8.2641  1920
 8.2741  2003
 8.2841  2131
 8.2941  2287
 8.3041  2440
 8.3141  2629
 8.3241  2827
 8.3341  2897
 8.3441  3173
 8.3541  3246
 8.3641  3446
 8.3741  3428
 8.3841  3541
 8.3941  3558
 8.4041  3437
 8.4141  3266
 8.4241  3176
 8.4341  2964
 8.4441  2738
 8.4541  2476
 8.4641  2187
 8.4741  1833
 8.4841  1636
 8.4941  1424
 8.5041  1197
 8.5141  1038
 8.5241   868
 8.5341   788
 8.5441   647
 8.5541   605
 8.5641   529
 8.5741   514
 8.5841   466
 8.5941   438
 8.6041   434
 8.6141   435
 8.6241   407
 8.6341   421
 8.6441   457
 8.6541   425
 8.6641   448
 8.6741   466
 8.6841   443
 8.6941   450
 8.7041   400
 8.7141   393
 8.7241   397
 8.7341   392
 8.7441   388
 8.7541   383
 8.7641   380
 8.7741   376
 8.7841   377
 8.7941   381
 8.8041   386
 8.8141   357
 8.8241   332
 8.8341   382
 8.8441   355
 8.8541   376
 8.8641   370
 8.8741   365
 8.8841   380
 8.8941   381
 8.9041   371
 8.9141   369
 8.9241   390
 8.9341   388
 8.9441   386
 8.9541   395
 8.9641   371
 8.9741   387
 8.9841   403
 8.9941   417
 9.0041   420
 9.0141   444
 9.0241   472
 9.0341   445
 9.0441   438
 9.0541   480
 9.0641   481
 9.0741   490
 9.0841   506
 9.0941   525
 9.1041   531
 9.1141   561
 9.1241   585
 9.1341   597
 9.1441   671
 9.1541   677
 9.1641   663
 9.1741   682
 9.1841   739
 9.1941   769
 9.2041   818
 9.2141   862
 9.2241   963
 9.2341   979
 9.2441   957
 9.2541  1025
 9.2641  1054
 9.2741  1136
 9.2841  1174
 9.2941  1257
 9.3041  1251
 9.3141  1274
 9.3241  1269
 9.3341  1382
 9.3441  1377
 9.3541  1416
 9.3641  1454
 9.3741  1473
 9.3841  1499
 9.3941  1543
 9.4041  1513
 9.4141  1577
 9.4241  1548
 9.4341  1581
 9.4441  1610
 9.4541  1615
 9.4641  1633
 9.4741  1730
 9.4841  1779
 9.4941  1817
 9.5041  1891
 9.5141  1943
 9.5241  1984
 9.5341  1996
 9.5441  2154
 9.5541  2221
 9.5641  2356
 9.5741  2531
 9.5841  2774
 9.5941  2917
 9.6041  3045
 9.6141  3183
 9.6241  3348
 9.6341  3616
 9.6441  3754
 9.6541  3748
 9.6641  3770
 9.6741  3727
 9.6841  3656
 9.6941  3664
 9.7041  3499
 9.7141  3323
 9.7241  3146
 9.7341  2964
 9.7441  2816
 9.7541  2482
 9.7641  2304
 9.7741  2076
 9.7841  1921
 9.7941  1833
 9.8041  1685
 9.8141  1528
 9.8241  1449
 9.8341  1404
 9.8441  1374
 9.8541  1377
 9.8641  1364
 9.8741  1318
 9.8841  1293
 9.8941  1383
 9.9041  1433
 9.9141  1474
 9.9241  1486
 9.9341  1532
 9.9441  1528
 9.9541  1475
 9.9641  1443
 9.9741  1441
 9.9841  1420
 9.9941  1393
10.0041  1260
10.0141  1198
10.0241  1092
10.0341  1017
10.0441   878
10.0541   810
10.0641   728
10.0741   659
10.0841   584
10.0941   537
10.1041   503
10.1141   427
10.1241   379
10.1341   369
10.1441   364
10.1541   323
10.1641   317
10.1741   326
10.1841   275
10.1941   275
10.2041   250
10.2141   245
10.2241   251
10.2341   254
10.2441   243
10.2541   251
10.2641   246
10.2741   224
10.2841   214
10.2941   228
10.3041   208
10.3141   215
10.3241   216
10.3341   202
10.3441   193
10.3541   195
10.3641   190
10.3741   194
10.3841   203
10.3941   188
10.4041   183
10.4141   182
10.4241   196
10.4341   190
10.4441   201
10.4541   194
10.4641   199
10.4741   194
10.4841   195
10.4941   202
10.5041   207
10.5141   206
10.5241   212
10.5341   207
10.5441   198
10.5541   215
10.5641   242
10.5741   242
10.5841   234
10.5941   225
10.6041   238
10.6141   247
10.6241   246
10.6341   223
10.6441   226
10.6541   232
10.6641   268
10.6741   236
10.6841   228
10.6941   230
10.7041   261
10.7141   273
10.7241   264
10.7341   258
10.7441   263
10.7541   275
10.7641   294
10.7741   302
10.7841   318
10.7941   302
10.8041   298
10.8141   290
10.8241   323
10.8341   321
10.8441   324
10.8541   319
10.8641   334
10.8741   314
10.8841   334
10.8941   329
10.9041   355
10.9141   367
10.9241   364
10.9341   344
10.9441   360
10.9541   344
10.9641   365
10.9741   332
10.9841   335
10.9941   346
11.0041   323
11.0141   317
11.0241   316
11.0341   327
11.0441   310
11.0541   319
11.0641   311
11.0741   285
11.0841   294
11.0941   304
11.1041   286
11.1141   303
11.1241   317
11.1341   324
11.1441   338
11.1541   342
11.1641   351
11.1741   366
11.1841   375
11.1941   401
11.2041   434
11.2141   411
11.2241   402
11.2341   460
11.2441   461
11.2541   462
11.2641   464
11.2741   455
11.2841   435
11.2941   460
11.3041   473
11.3141   465
11.3241   441
11.3341   392
11.3441   387
11.3541   371
11.3641   356
11.3741   357
11.3841   340
11.3941   324
11.4041   284
11.4141   283
11.4241   287
11.4341   284
11.4441   254
11.4541   239
11.4641   259
11.4741   235
11.4841   237
11.4941   241
11.5041   230
11.5141   228
11.5241   218
11.5341   217
11.5441   231
11.5541   240
11.5641   226
11.5741   243
11.5841   247
11.5941   256
11.6041   240
11.6141   246
11.6241   240
11.6341   249
11.6441   258
11.6541   242
11.6641   259
11.6741   248
11.6841   239
11.6941   245
11.7041   236
11.7141   215
11.7241   239
11.7341   221
11.7441   220
11.7541   203
11.7641   208
11.7741   215
11.7841   196
11.7941   181
11.8041   196
11.8141   207
11.8241   205
11.8341   197
11.8441   173
11.8541   195
11.8641   194
11.8741   182
11.8841   195
11.8941   187
11.9041   181
11.9141   192
11.9241   195
11.9341   170
11.9441   172
11.9541   183
11.9641   178
11.9741   182
11.9841   185
11.9941   175
12.0041   169
12.0141   183
12.0241   171
12.0341   172
12.0441   195
12.0541   194
12.0641   185
12.0741   186
12.0841   186
12.0941   182
12.1041   173
12.1141   177
12.1241   178
12.1341   187
12.1441   179
12.1541   172
12.1641   178
12.1741   176
12.1841   165
12.1941   160
12.2041   170
12.2141   168
12.2241   169
12.2341   185
12.2441   170
12.2541   168
12.2641   186
12.2741   183
12.2841   169
12.2941   179
12.3041   188
12.3141   179
12.3241   178
12.3341   166
12.3441   158
12.3541   179
12.3641   181
12.3741   174
12.3841   172
12.3941   182
12.4041   171
12.4141   151
12.4241   159
12.4341   179
12.4441   173
12.4541   170
12.4641   172
12.4741   164
12.4841   172
12.4941   186
12.5041   181
12.5141   188
12.5241   193
12.5341   191
12.5441   186
12.5541   193
12.5641   181
12.5741   181
12.5841   184
12.5941   195
12.6041   205
12.6141   206
12.6241   200
12.6341   194
12.6441   191
12.6541   183
12.6641   188
12.6741   189
12.6841   189
12.6941   199
12.7041   202
12.7141   195
12.7241   206
12.7341   210
12.7441   197
12.7541   184
12.7641   193
12.7741   207
12.7841   220
12.7941   217
12.8041   208
12.8141   190
12.8241   197
12.8341   205
12.8441   211
12.8541   216
12.8641   212
12.8741   210
12.8841   196
12.8941   199
12.9041   214
12.9141   198
12.9241   199
12.9341   224
12.9441   209
12.9541   194
12.9641   217
12.9741   217
12.9841   208
12.9941   207
13.0041   201
13.0141   185
13.0241   201
13.0341   200
13.0441   201
13.0541   206
13.0641   196
13.0741   191
13.0841   207
13.0941   215
13.1041   217
13.1141   220
13.1241   216
13.1341   201
13.1441   218
13.1541   229
13.1641   225
13.1741   239
13.1841   244
13.1941   233
13.2041   231
13.2141   231
13.2241   228
13.2341   225
13.2441   208
13.2541   206
13.2641   228
13.2741   225
13.2841   214
13.2941   237
13.3041   256
13.3141   247
13.3241   237
13.3341   246
13.3441   248
13.3541   245
13.3641   238
13.3741   243
13.3841   255
13.3941   249
13.4041   235
13.4141   244
13.4241   251
13.4341   243
13.4441   246
13.4541   235
13.4641   227
13.4741   244
13.4841   252
13.4941   237
13.5041   239
13.5141   237
13.5241   224
13.5341   236
13.5441   242
13.5541   245
13.5641   237
13.5741   234
13.5841   231
13.5941   231
13.6041   243
13.6141   238
13.6241   227
13.6341   225
13.6441   241
13.6541   242
13.6641   246
13.6741   246
13.6841   237
13.6941   237
13.7041   234
13.7141   241
13.7241   246
13.7341   243
13.7441   242
13.7541   247
13.7641   256
13.7741   252
13.7841   258
13.7941   269
13.8041   263
13.8141   262
13.8241   255
13.8341   258
13.8441   248
13.8541   251
13.8641   274
13.8741   259
13.8841   263
13.8941   287
13.9041   292
13.9141   303
13.9241   291
13.9341   263
13.9441   270
13.9541   270
13.9641   262
13.9741   276
13.9841   283
13.9941   280
14.0041   292
14.0141   299
14.0241   298
14.0341   302
14.0441   313
14.0541   309
14.0641   302
14.0741   325
14.0841   324
14.0941   304
14.1041   285
14.1141   284
14.1241   308
14.1341   319
14.1441   315
14.1541   301
14.1641   307
14.1741   308
14.1841   308
14.1941   310
14.2041   294
14.2141   299
14.2241   297
14.2341   310
14.2441   316
14.2541   287
14.2641   281
14.2741   294
14.2841   314
14.2941   311
14.3041   304
14.3141   314
14.3241   325
14.3341   306
14.3441   298
14.3541   323
14.3641   305
14.3741   298
14.3841   311
14.3941   308
14.4041   293
14.4141   291
14.4241   303
14.4341   315
14.4441   308
14.4541   291
14.4641   307
14.4741   326
14.4841   316
14.4941   317
14.5041   316
14.5141   295
14.5241   311
14.5341   317
14.5441   310
14.5541   311
14.5641   315
14.5741   315
14.5841   311
14.5941   313
14.6041   312
14.6141   312
14.6241   312
14.6341   300
14.6441   292
14.6541   297
14.6641   308
14.6741   305
14.6841   295
14.6941   307
14.7041   300
14.7141   287
14.7241   309
14.7341   305
14.7441   309
14.7541   324
14.7641   332
14.7741   331
14.7841   318
14.7941   339
14.8041   332
14.8141   305
14.8241   319
14.8341   324
14.8441   341
14.8541   336
14.8641   309
14.8741   312
14.8841   314
14.8941   310
14.9041   309
14.9141   311
14.9241   325
14.9341   317
14.9441   321
14.9541   337
14.9641   333
14.9741   315
14.9841   314
14.9941   313
15.0041   322
15.0141   336
15.0241   330
15.0341   329
15.0441   322
15.0541   338
15.0641   340
15.0741   328
15.0841   332
15.0941   345
15.1041   323
15.1141   323
15.1241   339
15.1341   314
15.1441   324
15.1541   327
15.1641   339
15.1741   338
15.1841   333
15.1941   346
15.2041   346
15.2141   323
15.2241   323
15.2341   341
15.2441   328
15.2541   322
15.2641   329
15.2741   338
15.2841   333
15.2941   313
15.3041   337
15.3141   339
15.3241   325
15.3341   318
15.3441   320
15.3541   313
15.3641   317
15.3741   341
15.3841   333
15.3941   345
15.4041   361
15.4141   335
15.4241   326
15.4341   324
15.4441   328
15.4541   336
15.4641   322
15.4741   333
15.4841   356
15.4941   379
15.5041   361
15.5141   360
15.5241   355
15.5341   345
15.5441   346
15.5541   329
15.5641   360
15.5741   355
15.5841   378
15.5941   373
15.6041   375
15.6141   380
15.6241   368
15.6341   358
15.6441   368
15.6541   386
15.6641   422
15.6741   417
15.6841   416
15.6941   426
15.7041   436
15.7141   436
15.7241   414
15.7341   410
15.7441   419
15.7541   429
15.7641   429
15.7741   404
15.7841   406
15.7941   401
15.8041   419
15.8141   435
15.8241   397
15.8341   394
15.8441   406
15.8541   396
15.8641   383
15.8741   393
15.8841   401
15.8941   396
15.9041   380
15.9141   373
15.9241   374
15.9341   370
15.9441   365
15.9541   360
15.9641   364
15.9741   373
15.9841   388
15.9941   415
16.0041   402
16.0141   392
16.0241   384
16.0341   397
16.0441   388
16.0541   393
16.0641   400
16.0741   384
16.0841   388
16.0941   390
16.1041   373
16.1141   387
16.1241   403
16.1341   380
16.1441   382
16.1541   414
16.1641   410
16.1741   418
16.1841   395
16.1941   390
16.2041   405
16.2141   410
16.2241   400
16.2341   390
16.2441   412
16.2541   411
16.2641   408
16.2741   411
16.2841   425
16.2941   415
16.3041   389
16.3141   406
16.3241   441
16.3341   420
16.3441   400
16.3541   382
16.3641   393
16.3741   404
16.3841   430
16.3941   438
16.4041   419
16.4141   412
16.4241   416
16.4341   428
16.4441   403
16.4541   402
16.4641   409
16.4741   424
16.4841   423
16.4941   432
16.5041   413
16.5141   414
16.5241   409
16.5341   415
16.5441   437
16.5541   432
16.5641   425
16.5741   428
16.5841   418
16.5941   431
16.6041   425
16.6141   420
16.6241   423
16.6341   423
16.6441   426
16.6541   426
16.6641   419
16.6741   424
16.6841   426
16.6941   469
16.7041   484
16.7141   480
16.7241   439
16.7341   440
16.7441   413
16.7541   438
16.7641   438
16.7741   448
16.7841   435
16.7941   447
16.8041   463
16.8141   454
16.8241   457
16.8341   440
16.8441   464
16.8541   444
16.8641   446
16.8741   477
16.8841   467
16.8941   455
16.9041   462
16.9141   453
16.9241   454
16.9341   436
16.9441   448
16.9541   437
16.9641   448
16.9741   455
16.9841   466
16.9941   457
17.0041   460
17.0141   448
17.0241   458
17.0341   436
17.0441   442
17.0541   452
17.0641   455
17.0741   462
17.0841   458
17.0941   462
17.1041   456
17.1141   430
17.1241   431
17.1341   478
17.1441   461
17.1541   463
17.1641   474
17.1741   460
17.1841   474
17.1941   453
17.2041   440
17.2141   469
17.2241   460
17.2341   478
17.2441   489
17.2541   484
17.2641   483
17.2741   506
17.2841   493
17.2941   486
17.3041   476
17.3141   526
17.3241   532
17.3341   503
17.3441   489
17.3541   521
17.3641   527
17.3741   505
17.3841   518
17.3941   503
17.4041   515
17.4141   521
17.4241   519
17.4341   544
17.4441   531
17.4541   544
17.4641   547
17.4741   534
17.4841   509
17.4941   527
17.5041   525
17.5141   530
17.5241   539
17.5341   546
17.5441   543
17.5541   516
17.5641   510
17.5741   535
17.5841   516
17.5941   532
17.6041   564
17.6141   538
17.6241   514
17.6341   503
17.6441   528
17.6541   486
17.6641   530
17.6741   527
17.6841   495
17.6941   490
17.7041   501
17.7141   525
17.7241   504
17.7341   492
17.7441   510
17.7541   476
17.7641   454
17.7741   467
17.7841   469
17.7941   515
17.8041   526
17.8141   491
17.8241   499
17.8341   490
17.8441   483
17.8541   498
17.8641   480
17.8741   475
17.8841   497
17.8941   525
17.9041   509
17.9141   497
17.9241   499
17.9341   498
17.9441   499
17.9541   503
17.9641   540
17.9741   548
17.9841   555
17.9941   532
18.0041   519
18.0141   545
18.0241   500
18.0341   527
18.0441   529
18.0541   504
18.0641   527
18.0741   518
18.0841   531
18.0941   525
18.1041   508
18.1141   499
18.1241   503
18.1341   531
18.1441   503
18.1541   510
18.1641   527
18.1741   512
18.1841   504
18.1941   505
18.2041   514
18.2141   524
18.2241   505
18.2341   516
18.2441   527
18.2541   497
18.2641   541
18.2741   524
18.2841   563
18.2941   524
18.3041   519
18.3141   521
18.3241   520
18.3341   537
18.3441   528
18.3541   528
18.3641   564
18.3741   523
18.3841   507
18.3941   525
18.4041   517
18.4141   532
18.4241   525
18.4341   548
18.4441   556
18.4541   541
18.4641   520
18.4741   517
18.4841   533
18.4941   554
18.5041   541
18.5141   537
18.5241   553
18.5341   541
18.5441   539
18.5541   556
18.5641   549
18.5741   517
18.5841   533
18.5941   583
18.6041   548
18.6141   537
18.6241   532
18.6341   524
18.6441   549
18.6541   572
18.6641   564
18.6741   568
18.6841   573
18.6941   548
18.7041   574
18.7141   556
18.7241   541
18.7341   537
18.7441   551
18.7541   571
18.7641   565
18.7741   537
18.7841   515
18.7941   569
18.8041   553
18.8141   530
18.8241   542
18.8341   543
18.8441   567
18.8541   584
18.8641   558
18.8741   550
18.8841   551
18.8941   552
18.9041   551
18.9141   548
18.9241   516
18.9341   529
18.9441   511
18.9541   538
18.9641   528
18.9741   553
18.9841   579
18.9941   568
19.0041   574
19.0141   571
19.0241   560
19.0341   563
19.0441   535
19.0541   569
19.0641   557
19.0741   538
19.0841   550
19.0941   547
19.1041   577
19.1141   550
19.1241   558
19.1341   537
19.1441   556
19.1541   564
19.1641   575
19.1741   584
19.1841   567
19.1941   544
19.2041   528
19.2141   550
19.2241   530
19.2341   557
19.2441   538
19.2541   537
19.2641   569
19.2741   576
19.2841   573
19.2941   613
19.3041   615
19.3141   621
19.3241   574
19.3341   531
19.3441   551
19.3541   557
19.3641   579
19.3741   573
19.3841   561
19.3941   542
19.4041   560
19.4141   576
19.4241   562
19.4341   583
19.4441   568
19.4541   567
19.4641   568
19.4741   582
19.4841   605
19.4941   573
19.5041   576
19.5141   538
19.5241   585
19.5341   595
19.5441   581
19.5541   568
19.5641   568
19.5741   578
19.5841   581
19.5941   550
19.6041   561
19.6141   591
19.6241   573
19.6341   579
19.6441   587
19.6541   587
19.6641   579
19.6741   588
19.6841   564
19.6941   630
19.7041   578
19.7141   549
19.7241   587
19.7341   575
19.7441   569
19.7541   570
19.7641   571
19.7741   585
19.7841   599
19.7941   584
19.8041   580
19.8141   569
19.8241   566
19.8341   578
19.8441   566
19.8541   588
19.8641   600
19.8741   584
19.8841   569
19.8941   602
19.9041   599
19.9141   589
19.9241   587
19.9341   592
19.9441   592
19.9541   554
19.9641   578
19.9741   599
19.9841   555
19.9941   576
20.0041   573
20.0141   591
20.0241   598
20.0341   613
20.0441   594
20.0541   572
20.0641   566
20.0741   588
20.0841   588
20.0941   577
20.1041   589
20.1141   595
20.1241   613
20.1341   568
20.1441   587
20.1541   551
20.1641   585
20.1741   616
20.1841   569
20.1941   598
20.2041   568
20.2141   584
20.2241   581
20.2341   590
20.2441   577
20.2541   598
20.2641   588
20.2741   568
20.2841   609
20.2941   574
20.3041   567
20.3141   583
20.3241   614
20.3341   611
20.3441   614
20.3541   604
20.3641   555
20.3741   572
20.3841   570
20.3941   594
20.4041   632
20.4141   584
20.4241   579
20.4341   560
20.4441   589
20.4541   582
20.4641   632
20.4741   637
20.4841   593
20.4941   646
20.5041   627
20.5141   615
20.5241   596
20.5341   578
20.5441   545
20.5541   588
20.5641   587
20.5741   611
20.5841   568
20.5941   563
20.6041   557
20.6141   582
20.6241   608
20.6341   577
20.6441   595
20.6541   596
20.6641   607
20.6741   563
20.6841   609
20.6941   579
20.7041   569
20.7141   611
20.7241   578
20.7341   548
20.7441   608
20.7541   588
20.7641   617
20.7741   584
20.7841   584
20.7941   605
20.8041   622
20.8141   606
20.8241   587
20.8341   636
20.8441   678
20.8541   633
20.8641   678
20.8741   660
20.8841   688
20.8941   680
20.9041   659
20.9141   649
20.9241   708
20.9341   757
20.9441   731
20.9541   731
20.9641   747
20.9741   744
20.9841   727
20.9941   782
21.0041   784
21.0141   832
21.0241   837
21.0341   795
21.0441   786
21.0541   832
21.0641   821
21.0741   850
21.0841   914
21.0941   881
21.1041   872
21.1141   841
21.1241   871
21.1341   863
21.1441   884
21.1541   889
21.1641   898
21.1741   861
21.1841   830
21.1941   867
21.2041   831
21.2141   814
21.2241   818
21.2341   797
21.2441   775
21.2541   742
21.2641   757
21.2741   752
21.2841   727
21.2941   690
21.3041   711
21.3141   675
21.3241   691
21.3341   646
21.3441   637
21.3541   609
21.3641   618
21.3741   633
21.3841   619
21.3941   573
21.4041   637
21.4141   612
21.4241   597
21.4341   614
21.4441   661
21.4541   643
21.4641   574
21.4741   555
21.4841   576
21.4941   606
21.5041   630
21.5141   595
21.5241   596
21.5341   599
21.5441   627
21.5541   549
21.5641   585
21.5741   639
21.5841   629
21.5941   608
21.6041   612
21.6141   607
21.6241   622
21.6341   573
21.6441   592
21.6541   623
21.6641   613
21.6741   606
21.6841   597
21.6941   665
21.7041   581
21.7141   558
21.7241   548
21.7341   589
21.7441   588
21.7541   616
21.7641   609
21.7741   595
21.7841   600
21.7941   632
21.8041   608
21.8141   580
21.8241   595
21.8341   558
21.8441   632
21.8541   604
21.8641   609
21.8741   604
21.8841   552
21.8941   579
21.9041   620
21.9141   616
21.9241   603
21.9341   619
21.9441   574
21.9541   586
21.9641   595
21.9741   570
21.9841   606
21.9941   597
22.0041   594
22.0141   590
22.0241   607
22.0341   626
22.0441   561
22.0541   599
22.0641   582
22.0741   558
22.0841   605
22.0941   592
22.1041   531
22.1141   597
22.1241   625
22.1341   585
22.1441   548
22.1541   570
22.1641   558
22.1741   569
22.1841   616
22.1941   615
22.2041   567
22.2141   602
22.2241   600
22.2341   593
22.2441   617
22.2541   572
22.2641   562
22.2741   594
22.2841   565
22.2941   573
22.3041   602
22.3141   581
22.3241   600
22.3341   611
22.3441   552
22.3541   589
22.3641   586
22.3741   609
22.3841   583
22.3941   580
22.4041   595
22.4141   582
22.4241   529
22.4341   585
22.4441   594
22.4541   582
22.4641   577
22.4741   573
22.4841   634
22.4941   576
22.5041   575
22.5141   610
22.5241   564
22.5341   577
22.5441   607
22.5541   604
22.5641   624
22.5741   612
22.5841   574
22.5941   594
22.6041   587
22.6141   582
22.6241   588
22.6341   582
22.6441   605
22.6541   580
22.6641   590
22.6741   584
22.6841   575
22.6941   654
22.7041   574
22.7141   568
22.7241   589
22.7341   563
22.7441   575
22.7541   606
22.7641   598
22.7741   578
22.7841   603
22.7941   587
22.8041   582
22.8141   517
22.8241   567
22.8341   597
22.8441   601
22.8541   548
22.8641   594
22.8741   640
22.8841   608
22.8941   539
22.9041   553
22.9141   520
22.9241   572
22.9341   560
22.9441   582
22.9541   571
22.9641   618
22.9741   594
22.9841   593
22.9941   565
23.0041   572
23.0141   595
23.0241   619
23.0341   577
23.0441   569
23.0541   576
23.0641   592
23.0741   529
23.0841   548
23.0941   559
23.1041   552
23.1141   557
23.1241   557
23.1341   634
23.1441   557
23.1541   533
23.1641   580
23.1741   522
23.1841   564
23.1941   520
23.2041   534
23.2141   601
23.2241   520
23.2341   587
23.2441   599
23.2541   563
23.2641   562
23.2741   550
23.2841   577
23.2941   554
23.3041   593
23.3141   555
23.3241   535
23.3341   532
23.3441   549
23.3541   544
23.3641   545
23.3741   539
23.3841   565
23.3941   532
23.4041   554
23.4141   581
23.4241   550
23.4341   553
23.4441   539
23.4541   599
23.4641   555
23.4741   545
23.4841   577
23.4941   535
23.5041   583
23.5141   534
23.5241   569
23.5341   578
23.5441   556
23.5541   548
23.5641   569
23.5741   541
23.5841   525
23.5941   567
23.6041   575
23.6141   527
23.6241   598
23.6341   581
23.6441   577
23.6541   568
23.6641   556
23.6741   562
23.6841   568
23.6941   582
23.7041   582
23.7141   555
23.7241   595
23.7341   610
23.7441   585
23.7541   605
23.7641   613
23.7741   592
23.7841   588
23.7941   576
23.8041   617
23.8141   616
23.8241   607
23.8341   600
23.8441   581
23.8541   593
23.8641   573
23.8741   582
23.8841   592
23.8941   590
23.9041   594
23.9141   560
23.9241   561
23.9341   592
23.9441   570
23.9541   559
23.9641   549
23.9741   561
23.9841   548
23.9941   585
24.0041   556
24.0141   556
24.0241   533
24.0341   558
24.0441   560
24.0541   565
24.0641   513
24.0741   558
24.0841   557
24.0941   556
24.1041   576
24.1141   545
24.1241   550
24.1341   552
24.1441   523
24.1541   534
24.1641   510
24.1741   531
24.1841   535
24.1941   575
24.2041   553
24.2141   561
24.2241   530
24.2341   558
24.2441   548
24.2541   532
24.2641   538
24.2741   534
24.2841   543
24.2941   522
24.3041   561
24.3141   528
24.3241   520
24.3341   496
24.3441   526
24.3541   552
24.3641   527
24.3741   528
24.3841   564
24.3941   536
24.4041   578
24.4141   509
24.4241   522
24.4341   505
24.4441   522
24.4541   496
24.4641   527
24.4741   545
24.4841   519
24.4941   555
24.5041   567
24.5141   487
24.5241   521
24.5341   516
24.5441   557
24.5541   515
24.5641   494
24.5741   536
24.5841   561
24.5941   554
24.6041   520
24.6141   517
24.6241   532
24.6341   510
24.6441   487
24.6541   476
24.6641   535
24.6741   521
24.6841   526
24.6941   519
24.7041   494
24.7141   533
24.7241   524
24.7341   502
24.7441   486
24.7541   505
24.7641   506
24.7741   550
24.7841   510
24.7941   486
24.8041   498
24.8141   515
24.8241   469
24.8341   508
24.8441   512
24.8541   497
24.8641   512
24.8741   471
24.8841   497
24.8941   511
24.9041   508
24.9141   504
24.9241   503
24.9341   508
24.9441   502
24.9541   487
24.9641   445
24.9741   492
24.9841   511
24.9941   482
25.0041   500
25.0141   509
25.0241   514
25.0341   498
25.0441   498
25.0541   539
25.0641   507
25.0741   500
25.0841   503
25.0941   511
25.1041   507
25.1141   494
25.1241   475
25.1341   524
25.1441   506
25.1541   478
25.1641   508
25.1741   583
25.1841   531
25.1941   526
25.2041   493
25.2141   464
25.2241   520
25.2341   511
25.2441   551
25.2541   514
25.2641   522
25.2741   480
25.2841   524
25.2941   490
25.3041   547
25.3141   515
25.3241   530
25.3341   482
25.3441   508
25.3541   512
25.3641   522
25.3741   443
25.3841   497
25.3941   516
25.4041   490
25.4141   493
25.4241   521
25.4341   487
25.4441   490
25.4541   506
25.4641   497
25.4741   466
25.4841   477
25.4941   503
25.5041   465
25.5141   469
25.5241   539
25.5341   499
25.5441   501
25.5541   472
25.5641   466
25.5741   487
25.5841   459
25.5941   475
25.6041   474
25.6141   488
25.6241   481
25.6341   455
25.6441   505
25.6541   495
25.6641   472
25.6741   443
25.6841   464
25.6941   475
25.7041   462
25.7141   446
25.7241   482
25.7341   464
25.7441   465
25.7541   461
25.7641   482
25.7741   444
25.7841   484
25.7941   472
25.8041   499
25.8141   472
25.8241   466
25.8341   479
25.8441   466
25.8541   498
25.8641   461
25.8741   463
25.8841   490
25.8941   462
25.9041   432
25.9141   455
25.9241   459
25.9341   477
25.9441   500
25.9541   454
25.9641   501
25.9741   446
25.9841   449
25.9941   431
26.0041   434
26.0141   445
26.0241   489
26.0341   459
26.0441   438
26.0541   447
26.0641   447
26.0741   467
26.0841   435
26.0941   439
26.1041   454
26.1141   442
26.1241   465
26.1341   494
26.1441   456
26.1541   432
26.1641   435
26.1741   455
26.1841   446
26.1941   454
26.2041   441
26.2141   462
26.2241   462
26.2341   451
26.2441   439
26.2541   415
26.2641   454
26.2741   472
26.2841   466
26.2941   452
26.3041   458
26.3141   418
26.3241   443
26.3341   438
26.3441   430
26.3541   440
26.3641   431
26.3741   432
26.3841   451
26.3941   429
26.4041   424
26.4141   439
26.4241   452
26.4341   446
26.4441   446
26.4541   442
26.4641   441
26.4741   454
26.4841   401
26.4941   449
26.5041   454
26.5141   431
26.5241   439
26.5341   436
26.5441   408
26.5541   431
26.5641   402
26.5741   440
26.5841   427
26.5941   465
26.6041   461
26.6141   411
26.6241   417
26.6341   437
26.6441   455
26.6541   422
26.6641   407
26.6741   452
26.6841   448
26.6941   434
26.7041   465
26.7141   447
26.7241   430
26.7341   421
26.7441   436
26.7541   434
26.7641   400
26.7741   439
26.7841   436
26.7941   444
26.8041   448
26.8141   425
26.8241   438
26.8341   405
26.8441   410
26.8541   384
26.8641   438
26.8741   412
26.8841   424
26.8941   386
26.9041   406
26.9141   406
26.9241   421
26.9341   430
26.9441   412
26.9541   408
26.9641   414
26.9741   389
26.9841   424
26.9941   395
27.0041   443
27.0141   414
27.0241   421
27.0341   394
27.0441   396
27.0541   439
27.0641   434
27.0741   420
27.0841   414
27.0941   390
27.1041   422
27.1141   413
27.1241   400
27.1341   372
27.1441   414
27.1541   420
27.1641   414
27.1741   421
27.1841   408
27.1941   395
27.2041   408
27.2141   389
27.2241   370
27.2341   402
27.2441   387
27.2541   393
27.2641   408
27.2741   435
27.2841   392
27.2941   417
27.3041   367
27.3141   422
27.3241   412
27.3341   357
27.3441   431
27.3541   409
27.3641   384
27.3741   382
27.3841   399
27.3941   388
27.4041   412
27.4141   362
27.4241   411
27.4341   415
27.4441   413
27.4541   437
27.4641   393
27.4741   395
27.4841   420
27.4941   405
27.5041   401
27.5141   410
27.5241   385
27.5341   377
27.5441   421
27.5541   407
27.5641   403
27.5741   382
27.5841   387
27.5941   427
27.6041   403
27.6141   400
27.6241   356
27.6341   394
27.6441   395
27.6541   397
27.6641   392
27.6741   392
27.6841   360
27.6941   367
27.7041   396
27.7141   389
27.7241   383
27.7341   396
27.7441   397
27.7541   364
27.7641   375
27.7741   413
27.7841   334
27.7941   375
27.8041   381
27.8141   367
27.8241   345
27.8341   370
27.8441   369
27.8541   357
27.8641   363
27.8741   356
27.8841   382
27.8941   370
27.9041   381
27.9141   396
27.9241   366
27.9341   374
27.9441   327
27.9541   361
27.9641   377
27.9741   331
27.9841   362
27.9941   361
28.0041   348
28.0141   364
28.0241   360
28.0341   364
28.0441   380
28.0541   388
28.0641   373
28.0741   351
28.0841   362
28.0941   388
28.1041   340
28.1141   369
28.1241   338
28.1341   352
28.1441   320
28.1541   340
28.1641   371
28.1741   381
28.1841   368
28.1941   332
28.2041   346
28.2141   390
28.2241   359
28.2341   327
28.2441   338
28.2541   373
28.2641   364
28.2741   366
28.2841   388
28.2941   333
28.3041   351
28.3141   340
28.3241   361
28.3341   343
28.3441   339
28.3541   358
28.3641   328
28.3741   355
28.3841   336
28.3941   335
28.4041   330
28.4141   358
28.4241   337
28.4341   352
28.4441   350
28.4541   355
28.4641   347
28.4741   326
28.4841   358
28.4941   357
28.5041   349
28.5141   320
28.5241   335
28.5341   353
28.5441   356
28.5541   367
28.5641   380
28.5741   339
28.5841   339
28.5941   353
28.6041   318
28.6141   318
28.6241   323
28.6341   331
28.6441   373
28.6541   353
28.6641   341
28.6741   307
28.6841   311
28.6941   338
28.7041   340
28.7141   321
28.7241   326
28.7341   341
28.7441   332
28.7541   338
28.7641   351
28.7741   326
28.7841   325
28.7941   323
28.8041   347
28.8141   323
28.8241   301
28.8341   348
28.8441   336
28.8541   332
28.8641   340
28.8741   331
28.8841   319
28.8941   341
28.9041   338
28.9141   310
28.9241   322
28.9341   295
28.9441   339
28.9541   317
28.9641   353
28.9741   309
28.9841   314
28.9941   317
29.0041   310
29.0141   336
29.0241   343
29.0341   307
29.0441   343
29.0541   309
29.0641   305
29.0741   310
29.0841   313
29.0941   300
29.1041   311
29.1141   310
29.1241   301
29.1341   320
29.1441   342
29.1541   333
29.1641   326
29.1741   325
29.1841   323
29.1941   330
29.2041   338
29.2141   312
29.2241   310
29.2341   303
29.2441   320
29.2541   324
29.2641   353
29.2741   298
29.2841   311
29.2941   302
29.3041   301
29.3141   279
29.3241   288
29.3341   289
29.3441   299
29.3541   289
29.3641   315
29.3741   311
29.3841   331
29.3941   323
29.4041   323
29.4141   304
29.4241   345
29.4341   300
29.4441   271
29.4541   312
29.4641   296
29.4741   316
29.4841   336
29.4941   308
29.5041   295
29.5141   306
29.5241   312
29.5341   286
29.5441   265
29.5541   265
29.5641   283
29.5741   288
29.5841   288
29.5941   297
29.6041   342
29.6141   305
29.6241   280
29.6341   281
29.6441   300
29.6541   294
29.6641   288
29.6741   262
29.6841   287
29.6941   300
29.7041   305
29.7141   306
29.7241   280
29.7341   313
29.7441   313
29.7541   310
29.7641   276
29.7741   300
29.7841   264
29.7941   305
29.8041   277
29.8141   281
29.8241   295
29.8341   277
29.8441   281
29.8541   291
29.8641   277
29.8741   278
29.8841   274
29.8941   279
29.9041   315
29.9141   285
29.9241   248
29.9341   287
29.9441   275
29.9541   302
29.9641   276
29.9741   289
29.9841   285
29.9941   265
30.0041   303
30.0141   290
30.0241   297
30.0341   301
30.0441   290
30.0541   284
30.0641   311
30.0741   282
30.0841   297
30.0941   266
30.1041   285
30.1141   265
30.1241   265
30.1341   277
30.1441   297
30.1541   298
30.1641   259
30.1741   263
30.1841   296
30.1941   270
30.2041   283
30.2141   277
30.2241   322
30.2341   281
30.2441   283
30.2541   280
30.2641   280
30.2741   262
30.2841   272
30.2941   252
30.3041   276
30.3141   256
30.3241   270
30.3341   273
30.3441   267
30.3541   265
30.3641   284
30.3741   262
30.3841   267
30.3941   257
30.4041   299
30.4141   313
30.4241   278
30.4341   258
30.4441   268
30.4541   266
30.4641   261
30.4741   252
30.4841   254
30.4941   260
30.5041   243
30.5141   275
30.5241   261
30.5341   238
30.5441   246
30.5541   273
30.5641   290
30.5741   263
30.5841   233
30.5941   270
30.6041   241
30.6141   259
30.6241   255
30.6341   238
30.6441   255
30.6541   245
30.6641   249
30.6741   266
30.6841   294
30.6941   248
30.7041   263
30.7141   272
30.7241   252
30.7341   265
30.7441   257
30.7541   260
30.7641   256
30.7741   256
30.7841   272
30.7941   256
30.8041   246
30.8141   263
30.8241   258
30.8341   244
30.8441   238
30.8541   268
30.8641   250
30.8741   234
30.8841   249
30.8941   244
30.9041   265
30.9141   268
30.9241   251
30.9341   211
30.9441   245
30.9541   246
30.9641   252
30.9741   238
30.9841   228
30.9941   254
31.0041   232
31.0141   271
31.0241   254
31.0341   263
31.0441   251
31.0541   228
31.0641   227
31.0741   217
31.0841   254
31.0941   254
31.1041   241
31.1141   255
31.1241   236
31.1341   256
31.1441   241
31.1541   229
31.1641   240
31.1741   252
31.1841   228
31.1941   243
31.2041   226
31.2141   225
31.2241   232
31.2341   247
31.2441   233
31.2541   217
31.2641   238
31.2741   228
31.2841   244
31.2941   225
31.3041   262
31.3141   206
31.3241   231
31.3341   228
31.3441   248
31.3541   222
31.3641   222
31.3741   242
31.3841   207
31.3941   224
31.4041   217
31.4141   254
31.4241   239
31.4341   243
31.4441   229
31.4541   229
31.4641   201
31.4741   228
31.4841   208
31.4941   235
31.5041   203
31.5141   215
31.5241   199
31.5341   211
31.5441   240
31.5541   211
31.5641   218
31.5741   224
31.5841   230
31.5941   191
31.6041   231
31.6141   234
31.6241   202
31.6341   205
31.6441   210
31.6541   245
31.6641   205
31.6741   226
31.6841   233
31.6941   208
31.7041   209
31.7141   236
31.7241   234
31.7341   216
31.7441   235
31.7541   208
31.7641   226
31.7741   199
31.7841   223
31.7941   214
31.8041   224
31.8141   223
31.8241   203
31.8341   196
31.8441   215
31.8541   221
31.8641   237
31.8741   202
31.8841   200
31.8941   208
31.9041   201
31.9141   199
31.9241   230
31.9341   193
31.9441   209
31.9541   220
31.9641   218
31.9741   191
31.9841   159
31.9941   202
32.0041   198
32.0141   238
32.0241   187
32.0341   204
32.0441   203
32.0541   201
32.0641   192
32.0741   205
32.0841   215
32.0941   180
32.1041   198
32.1141   200
32.1241   235
32.1341   220
32.1441   202
32.1541   195
32.1641   174
32.1741   197
32.1841   199
32.1941   203
32.2041   200
32.2141   203
32.2241   207
32.2341   201
32.2441   209
32.2541   201
32.2641   179
32.2741   218
32.2841   198
32.2941   194
32.3041   210
32.3141   210
32.3241   187
32.3341   207
32.3441   184
32.3541   185
32.3641   177
32.3741   193
32.3841   188
32.3941   181
32.4041   199
32.4141   193
32.4241   172
32.4341   191
32.4441   174
32.4541   205
32.4641   182
32.4741   216
32.4841   215
32.4941   209
32.5041   206
32.5141   187
32.5241   182
32.5341   196
32.5441   179
32.5541   180
32.5641   189
32.5741   181
32.5841   199
32.5941   174
32.6041   193
32.6141   160
32.6241   192
32.6341   184
32.6441   178
32.6541   187
32.6641   191
32.6741   203
32.6841   175
32.6941   171
32.7041   195
32.7141   210
32.7241   168
32.7341   169
32.7441   201
32.7541   181
32.7641   176
32.7741   177
32.7841   202
32.7941   158
32.8041   167
32.8141   199
32.8241   184
32.8341   177
32.8441   180
32.8541   165
32.8641   166
32.8741   182
32.8841   167
32.8941   169
32.9041   157
32.9141   164
32.9241   199
32.9341   200
32.9441   153
32.9541   166
32.9641   175
32.9741   186
32.9841   175
32.9941   182
33.0041   171
33.0141   155
33.0241   166
33.0341   181
33.0441   152
33.0541   176
33.0641   158
33.0741   155
33.0841   187
33.0941   160
33.1041   157
33.1141   179
33.1241   180
33.1341   181
33.1441   131
33.1541   184
33.1641   170
33.1741   150
33.1841   164
33.1941   164
33.2041   183
33.2141   169
33.2241   147
33.2341   156
33.2441   168
33.2541   186
33.2641   178
33.2741   160
33.2841   167
33.2941   169
33.3041   158
33.3141   158
33.3241   156
33.3341   144
33.3441   132
33.3541   159
33.3641   165
33.3741   152
33.3841   164
33.3941   173
33.4041   150
33.4141   158
33.4241   149
33.4341   164
33.4441   164
33.4541   187
33.4641   150
33.4741   162
33.4841   178
33.4941   151
33.5041   152
33.5141   170
33.5241   166
33.5341   158
33.5441   175
33.5541   158
33.5641   161
33.5741   155
33.5841   161
33.5941   137
33.6041   150
33.6141   164
33.6241   168
33.6341   153
33.6441   148
33.6541   156
33.6641   156
33.6741   162
33.6841   145
33.6941   143
33.7041   151
33.7141   152
33.7241   146
33.7341   125
33.7441   148
33.7541   144
33.7641   138
33.7741   145
33.7841   150
33.7941   140
33.8041   147
33.8141   146
33.8241   141
33.8341   163
33.8441   135
33.8541   147
33.8641   123
33.8741   156
33.8841   156
33.8941   135
33.9041   142
33.9141   150
33.9241   129
33.9341   154
33.9441   129
33.9541   149
33.9641   145
33.9741   128
33.9841   137
33.9941   133
34.0041   155
34.0141   120
34.0241   150
34.0341   127
34.0441   142
34.0541   158
34.0641   150
34.0741   158
34.0841   167
34.0941   142
34.1041   138
34.1141   132
34.1241   144
34.1341   141
34.1441   140
34.1541   139
34.1641   143
34.1741   145
34.1841   140
34.1941   129
34.2041   141
34.2141   133
34.2241   152
34.2341   134
34.2441   141
34.2541   142
34.2641   139
34.2741   149
34.2841   133
34.2941   124
34.3041   142
34.3141   128
34.3241   133
34.3341   143
34.3441   138
34.3541   142
34.3641   128
34.3741   131
34.3841   122
34.3941   127
34.4041   144
34.4141   141
34.4241   128
34.4341   143
34.4441   125
34.4541   155
34.4641   135
34.4741   120
34.4841   114
34.4941   128
34.5041   146
34.5141   148
34.5241   140
34.5341   119
34.5441   128
34.5541   141
34.5641   130
34.5741   139
34.5841   110
34.5941   117
34.6041   124
34.6141   120
34.6241   125
34.6341   111
34.6441   131
34.6541   121
34.6641   125
34.6741   117
34.6841   128
34.6941   131
34.7041   126
34.7141   119
34.7241   104
34.7341   129
34.7441   123
34.7541   121
34.7641   115
34.7741   115
34.7841   108
34.7941   116
34.8041   117
34.8141   134
34.8241   127
34.8341   119
34.8441   135
34.8541   124
34.8641    99
34.8741   119
34.8841   119
34.8941   119
34.9041   120
34.9141   112
34.9241   120
34.9341   126
34.9441   124
34.9541   111
34.9641   118
34.9741   124
34.9841   120
34.9941   131
35.0041   125
35.0141   116
35.0241   115
35.0341   114
35.0441   125
35.0541   121
35.0641   115
35.0741   128
35.0841   114
35.0941   122
35.1041   121
35.1141   120
35.1241   117
35.1341   123
35.1441   111
35.1541   138
35.1641   100
35.1741   130
35.1841   102
35.1941   109
35.2041   106
35.2141    97
35.2241   121
35.2341   106
35.2441   100
35.2541   105
35.2641   119
35.2741   116
35.2841   102
35.2941   126
35.3041   118
35.3141   106
35.3241    80
35.3341   115
35.3441   112
35.3541   116
35.3641   110
35.3741   122
35.3841   118
35.3941   104
35.4041   123
35.4141    94
35.4241   101
35.4341   114
35.4441   102
35.4541   105
35.4641    99
35.4741    99
35.4841   113
35.4941   105
35.5041    98
35.5141   101
35.5241   110
35.5341   116
35.5441   110
35.5541    87
35.5641   101
35.5741   107
35.5841   109
35.5941   116
35.6041   102
35.6141    85
35.6241   101
35.6341   107
35.6441   103
35.6541    95
35.6641    89
35.6741    98
35.6841    99
35.6941   106
35.7041   107
35.7141   103
35.7241   102
35.7341   100
35.7441    97
35.7541    98
35.7641    94
35.7741   108
35.7841   107
35.7941    91
35.8041   116
35.8141    97
35.8241    73
35.8341   100
35.8441    94
35.8541   116
35.8641    90
35.8741    90
35.8841   102
35.8941    88
35.9041   111
35.9141    97
35.9241    89
35.9341   111
35.9441    95
35.9541    85
35.9641   105
35.9741    84
35.9841    92
35.9941   107
36.0041    76
36.0141    88
36.0241    95
36.0341    86
36.0441    80
36.0541    76
36.0641    95
36.0741    95
36.0841   104
36.0941   107
36.1041    94
36.1141    76
36.1241    99
36.1341    95
36.1441    92
36.1541    96
36.1641    86
36.1741    86
36.1841    94
36.1941    96
36.2041    94
36.2141    89
36.2241   112
36.2341    93
36.2441    98
36.2541    84
36.2641    97
36.2741   104
36.2841    95
36.2941    88
36.3041    88
36.3141    99
36.3241    86
36.3341    97
36.3441    95
36.3541    84
36.3641    89
36.3741    93
36.3841    82
36.3941   103
36.4041   108
36.4141    95
36.4241    93
36.4341    95
36.4441    80
36.4541    82
36.4641    83
36.4741    75
36.4841    83
36.4941    79
36.5041    85
36.5141    91
36.5241    85
36.5341   102
36.5441    90
36.5541    88
36.5641    71
36.5741    92
36.5841    73
36.5941    71
36.6041    81
36.6141    75
36.6241    85
36.6341    88
36.6441    83
36.6541    89
36.6641    83
36.6741    77
36.6841    83
36.6941    84
36.7041    86
36.7141    82
36.7241    78
36.7341    75
36.7441    80
36.7541    83
36.7641    83
36.7741    68
36.7841    69
36.7941    84
36.8041    77
36.8141    86
36.8241    88
36.8341    69
36.8441    81
36.8541    94
36.8641    99
36.8741    79
36.8841    90
36.8941    75
36.9041    80
36.9141    90
36.9241    82
36.9341    71
36.9441    76
36.9541    78
36.9641    73
36.9741    66
36.9841    80
36.9941    85
37.0041    80
37.0141    71
37.0241    79
37.0341    69
37.0441    84
37.0541    83
37.0641    74
37.0741    77
37.0841    87
37.0941    78
37.1041    69
37.1141    82
37.1241    75
37.1341    63
37.1441    80
37.1541    67
37.1641    69
37.1741    68
37.1841    74
37.1941    64
37.2041    80
37.2141    75
37.2241    83
37.2341    75
37.2441    86
37.2541    87
37.2641    73
37.2741    73
37.2841    69
37.2941    74
37.3041    85
37.3141    86
37.3241    66
37.3341    63
37.3441    78
37.3541    70
37.3641    68
37.3741    63
37.3841    59
37.3941    76
37.4041    74
37.4141    65
37.4241    72
37.4341    64
37.4441    74
37.4541    77
37.4641    83
37.4741    63
37.4841    66
37.4941    78
37.5041    58
37.5141    64
37.5241    71
37.5341    50
37.5441    59
37.5541    67
37.5641    65
37.5741    80
37.5841    63
37.5941    75
37.6041    61
37.6141    53
37.6241    58
37.6341    73
37.6441    70
37.6541    78
37.6641    48
37.6741    56
37.6841    56
37.6941    75
37.7041    74
37.7141    75
37.7241    56
37.7341    55
37.7441    69
37.7541    69
37.7641    51
37.7741    69
37.7841    61
37.7941    54
37.8041    51
37.8141    70
37.8241    61
37.8341    61
37.8441    71
37.8541    59
37.8641    57
37.8741    64
37.8841    69
37.8941    71
37.9041    50
37.9141    69
37.9241    50
37.9341    64
37.9441    47
37.9541    52
37.9641    56
37.9741    56
37.9841    60
37.9941    53
38.0041    62
38.0141    57
38.0241    65
38.0341    48
38.0441    69
38.0541    58
38.0641    60
38.0741    72
38.0841    66
38.0941    58
38.1041    44
38.1141    52
38.1241    63
38.1341    53
38.1441    58
38.1541    60
38.1641    49
38.1741    53
38.1841    57
38.1941    52
38.2041    72
38.2141    50
38.2241    56
38.2341    66
38.2441    62
38.2541    63
38.2641    57
38.2741    50
38.2841    50
38.2941    58
38.3041    49
38.3141    57
38.3241    50
38.3341    51
38.3441    38
38.3541    49
38.3641    53
38.3741    45
38.3841    61
38.3941    53
38.4041    48
38.4141    48
38.4241    45
38.4341    50
38.4441    38
38.4541    52
38.4641    44
38.4741    55
38.4841    71
38.4941    51
38.5041    46
38.5141    54
38.5241    49
38.5341    55
38.5441    47
38.5541    57
38.5641    52
38.5741    49
38.5841    58
38.5941    53
38.6041    52
38.6141    46
38.6241    52
38.6341    42
38.6441    47
38.6541    50
38.6641    62
38.6741    35
38.6841    42
38.6941    54
38.7041    47
38.7141    41
38.7241    59
38.7341    41
38.7441    46
38.7541    58
38.7641    57
38.7741    52
38.7841    42
38.7941    58
38.8041    48
38.8141    53
38.8241    47
38.8341    50
38.8441    40
38.8541    42
38.8641    44
38.8741    39
38.8841    38
38.8941    39
38.9041    46
38.9141    36
38.9241    35
38.9341    44
38.9441    42
38.9541    48
38.9641    42
38.9741    38
38.9841    50
38.9941    48
39.0041    38
39.0141    46
39.0241    49
39.0341    45
39.0441    39
39.0541    41
39.0641    46
39.0741    37
39.0841    39
39.0941    32
39.1041    46
39.1141    41
39.1241    55
39.1341    47
39.1441    44
39.1541    52
39.1641    41
39.1741    32
39.1841    43
39.1941    45
39.2041    52
39.2141    34
39.2241    34
39.2341    45
39.2441    39
39.2541    41
39.2641    34
39.2741    42
39.2841    32
39.2941    37
39.3041    44
39.3141    31
39.3241    37
39.3341    40
39.3441    42
39.3541    50
39.3641    49
39.3741    40
39.3841    42
39.3941    36
39.4041    40
39.4141    41
39.4241    37
39.4341    49
39.4441    34
39.4541    36
39.4641    37
39.4741    31
39.4841    31
39.4941    30
39.5041    36
39.5141    37
39.5241    41
39.5341    43
39.5441    39
39.5541    41
39.5641    38
39.5741    49
39.5841    37
39.5941    39
39.6041    41
39.6141    41
39.6241    31
39.6341    34
39.6441    36
39.6541    33
39.6641    37
39.6741    42
39.6841    43
39.6941    42
39.7041    38
39.7141    41
39.7241    30
39.7341    36
39.7441    33
39.7541    40
39.7641    32
39.7741    27
39.7841    35
39.7941    26
39.8041    39
39.8141    34
39.8241    32
39.8341    29
39.8441    29
39.8541    30
39.8641    35
39.8741    28
39.8841    37
39.8941    36
39.9041    33
39.9141    40
39.9241    34
39.9341    33
39.9441    31
39.9541    27
39.9641    20
39.9741    23
39.9841    30
39.9941    29
