Bruker Nano GmbH Berlin, Germany
Esprit 1.9

Date: 5/14/2021 3:47:45 PM
Real time: 16622
Life time: 15495
Pulse density: 99668


Detector type: XFlash 430
Window type: Custom type
Detector thickness: 0.45
Si dead layer:0.029

Calibration, lin.: 10
Calibration, abs.: -955.9
Mn FWHM: 137.05
Fano factor: 0.121
Channels: 4095

Energy Counts
-0.9559     0
-0.9459     0
-0.9359     0
-0.9259     0
-0.9159     0
-0.9059     0
-0.8959     0
-0.8859     0
-0.8759     0
-0.8659     0
-0.8559     0
-0.8459     0
-0.8359     0
-0.8259     0
-0.8159     0
-0.8059     0
-0.7959     0
-0.7859     0
-0.7759     0
-0.7659     0
-0.7559     0
-0.7459     0
-0.7359     0
-0.7259     0
-0.7159     0
-0.7059     0
-0.6959     0
-0.6859     0
-0.6759     0
-0.6659     0
-0.6559     0
-0.6459     0
-0.6359     0
-0.6259     0
-0.6159     0
-0.6059     0
-0.5959     0
-0.5859     0
-0.5759     0
-0.5659     0
-0.5559     0
-0.5459     0
-0.5359     0
-0.5259     0
-0.5159     0
-0.5059     0
-0.4959     0
-0.4859     0
-0.4759     0
-0.4659     0
-0.4559     0
-0.4459     0
-0.4359     0
-0.4259     0
-0.4159     0
-0.4059     0
-0.3959     0
-0.3859     0
-0.3759     0
-0.3659     0
-0.3559     0
-0.3459     0
-0.3359     0
-0.3259     0
-0.3159     0
-0.3059     0
-0.2959     0
-0.2859     0
-0.2759     0
-0.2659     0
-0.2559     0
-0.2459     0
-0.2359     0
-0.2259     0
-0.2159     0
-0.2059     0
-0.1959     0
-0.1859     0
-0.1759     0
-0.1659     0
-0.1559     0
-0.1459     2
-0.1359     0
-0.1259     1
-0.1159     0
-0.1059    14
-0.0959    33
-0.0859   188
-0.0759   593
-0.0659  1780
-0.0559  4568
-0.0459  9929
-0.0359 18432
-0.0259 29805
-0.0159 40579
-0.0059 47404
 0.0041 47425
 0.0141 41038
 0.0241 30401
 0.0341 19088
 0.0441 10449
 0.0541  4841
 0.0641  1952
 0.0741   685
 0.0841   199
 0.0941    70
 0.1041    13
 0.1141    12
 0.1241     9
 0.1341     5
 0.1441     7
 0.1541     3
 0.1641     0
 0.1741    21
 0.1841   174
 0.1941   273
 0.2041   272
 0.2141   245
 0.2241   259
 0.2341   254
 0.2441   252
 0.2541   269
 0.2641   289
 0.2741   273
 0.2841   274
 0.2941   264
 0.3041   256
 0.3141   256
 0.3241   254
 0.3341   234
 0.3441   241
 0.3541   210
 0.3641   246
 0.3741   251
 0.3841   244
 0.3941   235
 0.4041   227
 0.4141   231
 0.4241   231
 0.4341   253
 0.4441   245
 0.4541   220
 0.4641   227
 0.4741   210
 0.4841   217
 0.4941   216
 0.5041   229
 0.5141   237
 0.5241   240
 0.5341   221
 0.5441   216
 0.5541   217
 0.5641   197
 0.5741   209
 0.5841   201
 0.5941   209
 0.6041   202
 0.6141   197
 0.6241   199
 0.6341   193
 0.6441   197
 0.6541   192
 0.6641   189
 0.6741   206
 0.6841   206
 0.6941   203
 0.7041   207
 0.7141   209
 0.7241   198
 0.7341   191
 0.7441   183
 0.7541   184
 0.7641   192
 0.7741   179
 0.7841   185
 0.7941   190
 0.8041   199
 0.8141   189
 0.8241   180
 0.8341   177
 0.8441   169
 0.8541   166
 0.8641   178
 0.8741   190
 0.8841   188
 0.8941   182
 0.9041   186
 0.9141   182
 0.9241   176
 0.9341   163
 0.9441   160
 0.9541   161
 0.9641   184
 0.9741   189
 0.9841   175
 0.9941   162
 1.0041   163
 1.0141   168
 1.0241   164
 1.0341   182
 1.0441   164
 1.0541   152
 1.0641   159
 1.0741   166
 1.0841   170
 1.0941   177
 1.1041   158
 1.1141   157
 1.1241   159
 1.1341   148
 1.1441   156
 1.1541   163
 1.1641   172
 1.1741   161
 1.1841   163
 1.1941   166
 1.2041   166
 1.2141   164
 1.2241   157
 1.2341   143
 1.2441   153
 1.2541   152
 1.2641   156
 1.2741   163
 1.2841   155
 1.2941   171
 1.3041   150
 1.3141   161
 1.3241   167
 1.3341   173
 1.3441   158
 1.3541   165
 1.3641   143
 1.3741   132
 1.3841   119
 1.3941   160
 1.4041   161
 1.4141   147
 1.4241   155
 1.4341   140
 1.4441   153
 1.4541   145
 1.4641   156
 1.4741   161
 1.4841   170
 1.4941   141
 1.5041   135
 1.5141   160
 1.5241   146
 1.5341   129
 1.5441   147
 1.5541   137
 1.5641   177
 1.5741   145
 1.5841   149
 1.5941   154
 1.6041   136
 1.6141   150
 1.6241   141
 1.6341   145
 1.6441   167
 1.6541   195
 1.6641   223
 1.6741   259
 1.6841   337
 1.6941   403
 1.7041   457
 1.7141   534
 1.7241   544
 1.7341   599
 1.7441   616
 1.7541   598
 1.7641   524
 1.7741   441
 1.7841   398
 1.7941   330
 1.8041   275
 1.8141   224
 1.8241   186
 1.8341   193
 1.8441   191
 1.8541   172
 1.8641   172
 1.8741   156
 1.8841   180
 1.8941   179
 1.9041   160
 1.9141   139
 1.9241   137
 1.9341   157
 1.9441   176
 1.9541   170
 1.9641   154
 1.9741   177
 1.9841   176
 1.9941   171
 2.0041   197
 2.0141   186
 2.0241   181
 2.0341   186
 2.0441   159
 2.0541   193
 2.0641   165
 2.0741   157
 2.0841   159
 2.0941   137
 2.1041   159
 2.1141   142
 2.1241   128
 2.1341   142
 2.1441   123
 2.1541   155
 2.1641   131
 2.1741   142
 2.1841   143
 2.1941   128
 2.2041   121
 2.2141   130
 2.2241   110
 2.2341   114
 2.2441   129
 2.2541   134
 2.2641   145
 2.2741   136
 2.2841   138
 2.2941   147
 2.3041   119
 2.3141   133
 2.3241   122
 2.3341   139
 2.3441   114
 2.3541   142
 2.3641   119
 2.3741   123
 2.3841   126
 2.3941   127
 2.4041   127
 2.4141   125
 2.4241   121
 2.4341   126
 2.4441   120
 2.4541   115
 2.4641   131
 2.4741   114
 2.4841   114
 2.4941   133
 2.5041   125
 2.5141   124
 2.5241   110
 2.5341   112
 2.5441   125
 2.5541   124
 2.5641   112
 2.5741   116
 2.5841   119
 2.5941   115
 2.6041   128
 2.6141   111
 2.6241    97
 2.6341   130
 2.6441   111
 2.6541   121
 2.6641   111
 2.6741   100
 2.6841   109
 2.6941   117
 2.7041   122
 2.7141   107
 2.7241   102
 2.7341   113
 2.7441   123
 2.7541   100
 2.7641   111
 2.7741    99
 2.7841   110
 2.7941   119
 2.8041   125
 2.8141   111
 2.8241   124
 2.8341   123
 2.8441   120
 2.8541   124
 2.8641   111
 2.8741   122
 2.8841   108
 2.8941   116
 2.9041   128
 2.9141    96
 2.9241   106
 2.9341   113
 2.9441    98
 2.9541    93
 2.9641   116
 2.9741    94
 2.9841   106
 2.9941    99
 3.0041   109
 3.0141    99
 3.0241   101
 3.0341    99
 3.0441    91
 3.0541   104
 3.0641    92
 3.0741    90
 3.0841    76
 3.0941    85
 3.1041    92
 3.1141    89
 3.1241    92
 3.1341   113
 3.1441    85
 3.1541   100
 3.1641    91
 3.1741   103
 3.1841   100
 3.1941   100
 3.2041   110
 3.2141   124
 3.2241   131
 3.2341   146
 3.2441   144
 3.2541   164
 3.2641   168
 3.2741   204
 3.2841   242
 3.2941   222
 3.3041   242
 3.3141   294
 3.3241   272
 3.3341   235
 3.3441   225
 3.3541   202
 3.3641   183
 3.3741   151
 3.3841   136
 3.3941   136
 3.4041   107
 3.4141   102
 3.4241    96
 3.4341    82
 3.4441    95
 3.4541    71
 3.4641    88
 3.4741    80
 3.4841    81
 3.4941    99
 3.5041    92
 3.5141   106
 3.5241   133
 3.5341   130
 3.5441   162
 3.5541   187
 3.5641   216
 3.5741   278
 3.5841   351
 3.5941   448
 3.6041   603
 3.6141   757
 3.6241  1029
 3.6341  1270
 3.6441  1512
 3.6541  1819
 3.6641  2061
 3.6741  2217
 3.6841  2389
 3.6941  2358
 3.7041  2206
 3.7141  2138
 3.7241  1895
 3.7341  1599
 3.7441  1306
 3.7541  1041
 3.7641   759
 3.7741   525
 3.7841   416
 3.7941   291
 3.8041   224
 3.8141   157
 3.8241   127
 3.8341   109
 3.8441   104
 3.8541   109
 3.8641    93
 3.8741   114
 3.8841   109
 3.8941   132
 3.9041   124
 3.9141   134
 3.9241   168
 3.9341   206
 3.9441   232
 3.9541   264
 3.9641   333
 3.9741   396
 3.9841   422
 3.9941   424
 4.0041   492
 4.0141   475
 4.0241   468
 4.0341   433
 4.0441   400
 4.0541   381
 4.0641   306
 4.0741   267
 4.0841   224
 4.0941   172
 4.1041   161
 4.1141   138
 4.1241    96
 4.1341    94
 4.1441    82
 4.1541    79
 4.1641    63
 4.1741    61
 4.1841    79
 4.1941    70
 4.2041    58
 4.2141    59
 4.2241    66
 4.2341    73
 4.2441    72
 4.2541    65
 4.2641    65
 4.2741    52
 4.2841    54
 4.2941    68
 4.3041    55
 4.3141    68
 4.3241    67
 4.3341    63
 4.3441    66
 4.3541    62
 4.3641    67
 4.3741    92
 4.3841    95
 4.3941    82
 4.4041   109
 4.4141   107
 4.4241   149
 4.4341   191
 4.4441   190
 4.4541   226
 4.4641   275
 4.4741   263
 4.4841   296
 4.4941   311
 4.5041   342
 4.5141   360
 4.5241   336
 4.5341   331
 4.5441   278
 4.5541   255
 4.5641   189
 4.5741   174
 4.5841   154
 4.5941   159
 4.6041   130
 4.6141   107
 4.6241   107
 4.6341    74
 4.6441    76
 4.6541    67
 4.6641    69
 4.6741    70
 4.6841    75
 4.6941    80
 4.7041    87
 4.7141    68
 4.7241    79
 4.7341    67
 4.7441    74
 4.7541    64
 4.7641    71
 4.7741    82
 4.7841    83
 4.7941    77
 4.8041    74
 4.8141    82
 4.8241    91
 4.8341   100
 4.8441    91
 4.8541    86
 4.8641   104
 4.8741   113
 4.8841   101
 4.8941   140
 4.9041   118
 4.9141   119
 4.9241   132
 4.9341   124
 4.9441   142
 4.9541   126
 4.9641   108
 4.9741   123
 4.9841   127
 4.9941   101
 5.0041   103
 5.0141    82
 5.0241    76
 5.0341    84
 5.0441    76
 5.0541    88
 5.0641    84
 5.0741    74
 5.0841    78
 5.0941    68
 5.1041    75
 5.1141    68
 5.1241    72
 5.1341    68
 5.1441    75
 5.1541    70
 5.1641    77
 5.1741    77
 5.1841    77
 5.1941    84
 5.2041    67
 5.2141    67
 5.2241    72
 5.2341    84
 5.2441    81
 5.2541    69
 5.2641    81
 5.2741    71
 5.2841    79
 5.2941    86
 5.3041    93
 5.3141    93
 5.3241   103
 5.3341   114
 5.3441   120
 5.3541   111
 5.3641   153
 5.3741   147
 5.3841   141
 5.3941   148
 5.4041   141
 5.4141   159
 5.4241   155
 5.4341   147
 5.4441   144
 5.4541   137
 5.4641   133
 5.4741   119
 5.4841    97
 5.4941   102
 5.5041   123
 5.5141    93
 5.5241    95
 5.5341    74
 5.5441    66
 5.5541    78
 5.5641    69
 5.5741    79
 5.5841    73
 5.5941    86
 5.6041    73
 5.6141    87
 5.6241    76
 5.6341    81
 5.6441    93
 5.6541    78
 5.6641    85
 5.6741    74
 5.6841    93
 5.6941    87
 5.7041    98
 5.7141   101
 5.7241   101
 5.7341    98
 5.7441   108
 5.7541   100
 5.7641   114
 5.7741   113
 5.7841   139
 5.7941   156
 5.8041   183
 5.8141   216
 5.8241   237
 5.8341   300
 5.8441   314
 5.8541   309
 5.8641   349
 5.8741   381
 5.8841   376
 5.8941   387
 5.9041   396
 5.9141   379
 5.9241   360
 5.9341   334
 5.9441   287
 5.9541   256
 5.9641   263
 5.9741   215
 5.9841   176
 5.9941   180
 6.0041   130
 6.0141   158
 6.0241   119
 6.0341   115
 6.0441   127
 6.0541   109
 6.0641   131
 6.0741   127
 6.0841   104
 6.0941   118
 6.1041   106
 6.1141   138
 6.1241   121
 6.1341   146
 6.1441   146
 6.1541   161
 6.1641   162
 6.1741   201
 6.1841   212
 6.1941   260
 6.2041   329
 6.2141   394
 6.2241   557
 6.2341   741
 6.2441  1034
 6.2541  1438
 6.2641  2043
 6.2741  2743
 6.2841  3742
 6.2941  4948
 6.3041  6162
 6.3141  7883
 6.3241  9785
 6.3341 11913
 6.3441 13753
 6.3541 15620
 6.3641 17753
 6.3741 18989
 6.3841 19900
 6.3941 20444
 6.4041 20241
 6.4141 19839
 6.4241 18612
 6.4341 17289
 6.4441 15393
 6.4541 13279
 6.4641 11293
 6.4741  9243
 6.4841  7463
 6.4941  5824
 6.5041  4388
 6.5141  3285
 6.5241  2383
 6.5341  1685
 6.5441  1213
 6.5541   915
 6.5641   597
 6.5741   383
 6.5841   314
 6.5941   233
 6.6041   195
 6.6141   195
 6.6241   162
 6.6341   153
 6.6441   163
 6.6541   148
 6.6641   146
 6.6741   134
 6.6841   134
 6.6941   125
 6.7041   131
 6.7141   122
 6.7241   126
 6.7341   119
 6.7441   135
 6.7541   163
 6.7641   162
 6.7741   138
 6.7841   176
 6.7941   169
 6.8041   166
 6.8141   185
 6.8241   174
 6.8341   192
 6.8441   220
 6.8541   212
 6.8641   297
 6.8741   308
 6.8841   329
 6.8941   357
 6.9041   430
 6.9141   534
 6.9241   665
 6.9341   807
 6.9441   988
 6.9541  1265
 6.9641  1424
 6.9741  1717
 6.9841  1903
 6.9941  2232
 7.0041  2622
 7.0141  2830
 7.0241  3150
 7.0341  3377
 7.0441  3414
 7.0541  3338
 7.0641  3404
 7.0741  3245
 7.0841  3090
 7.0941  2856
 7.1041  2528
 7.1141  2171
 7.1241  1945
 7.1341  1618
 7.1441  1405
 7.1541  1121
 7.1641   855
 7.1741   753
 7.1841   546
 7.1941   417
 7.2041   335
 7.2141   295
 7.2241   219
 7.2341   195
 7.2441   172
 7.2541   162
 7.2641   187
 7.2741   170
 7.2841   169
 7.2941   159
 7.3041   164
 7.3141   189
 7.3241   197
 7.3341   200
 7.3441   220
 7.3541   235
 7.3641   213
 7.3741   227
 7.3841   253
 7.3941   276
 7.4041   286
 7.4141   307
 7.4241   283
 7.4341   314
 7.4441   291
 7.4541   284
 7.4641   300
 7.4741   291
 7.4841   273
 7.4941   294
 7.5041   267
 7.5141   278
 7.5241   245
 7.5341   207
 7.5441   204
 7.5541   221
 7.5641   173
 7.5741   169
 7.5841   174
 7.5941   176
 7.6041   151
 7.6141   157
 7.6241   161
 7.6341   164
 7.6441   136
 7.6541   153
 7.6641   157
 7.6741   172
 7.6841   158
 7.6941   169
 7.7041   171
 7.7141   160
 7.7241   167
 7.7341   194
 7.7441   186
 7.7541   170
 7.7641   176
 7.7741   200
 7.7841   207
 7.7941   197
 7.8041   206
 7.8141   216
 7.8241   199
 7.8341   192
 7.8441   227
 7.8541   207
 7.8641   240
 7.8741   250
 7.8841   219
 7.8941   263
 7.9041   264
 7.9141   281
 7.9241   291
 7.9341   285
 7.9441   319
 7.9541   331
 7.9641   367
 7.9741   358
 7.9841   411
 7.9941   443
 8.0041   455
 8.0141   524
 8.0241   547
 8.0341   587
 8.0441   617
 8.0541   626
 8.0641   665
 8.0741   734
 8.0841   781
 8.0941   889
 8.1041   849
 8.1141   960
 8.1241   939
 8.1341   964
 8.1441  1031
 8.1541  1016
 8.1641  1087
 8.1741  1005
 8.1841  1063
 8.1941  1084
 8.2041  1078
 8.2141  1111
 8.2241  1085
 8.2341  1180
 8.2441  1170
 8.2541  1165
 8.2641  1303
 8.2741  1329
 8.2841  1330
 8.2941  1487
 8.3041  1563
 8.3141  1680
 8.3241  1788
 8.3341  1900
 8.3441  1998
 8.3541  2079
 8.3641  2172
 8.3741  2294
 8.3841  2245
 8.3941  2251
 8.4041  2249
 8.4141  2110
 8.4241  1969
 8.4341  1853
 8.4441  1693
 8.4541  1464
 8.4641  1311
 8.4741  1206
 8.4841  1027
 8.4941   907
 8.5041   761
 8.5141   699
 8.5241   547
 8.5341   539
 8.5441   468
 8.5541   450
 8.5641   453
 8.5741   418
 8.5841   417
 8.5941   436
 8.6041   454
 8.6141   468
 8.6241   420
 8.6341   451
 8.6441   427
 8.6541   434
 8.6641   407
 8.6741   418
 8.6841   365
 8.6941   357
 8.7041   341
 8.7141   345
 8.7241   317
 8.7341   315
 8.7441   269
 8.7541   270
 8.7641   282
 8.7741   260
 8.7841   269
 8.7941   253
 8.8041   256
 8.8141   255
 8.8241   228
 8.8341   234
 8.8441   224
 8.8541   250
 8.8641   226
 8.8741   243
 8.8841   238
 8.8941   239
 8.9041   229
 8.9141   273
 8.9241   266
 8.9341   245
 8.9441   269
 8.9541   267
 8.9641   270
 8.9741   280
 8.9841   265
 8.9941   251
 9.0041   315
 9.0141   282
 9.0241   288
 9.0341   302
 9.0441   294
 9.0541   295
 9.0641   330
 9.0741   314
 9.0841   318
 9.0941   322
 9.1041   356
 9.1141   368
 9.1241   380
 9.1341   436
 9.1441   422
 9.1541   458
 9.1641   445
 9.1741   458
 9.1841   518
 9.1941   510
 9.2041   551
 9.2141   570
 9.2241   616
 9.2341   619
 9.2441   681
 9.2541   717
 9.2641   734
 9.2741   726
 9.2841   806
 9.2941   791
 9.3041   820
 9.3141   876
 9.3241   891
 9.3341   906
 9.3441   942
 9.3541  1012
 9.3641  1041
 9.3741  1010
 9.3841  1081
 9.3941  1054
 9.4041  1008
 9.4141  1067
 9.4241  1149
 9.4341  1152
 9.4441  1139
 9.4541  1224
 9.4641  1204
 9.4741  1188
 9.4841  1215
 9.4941  1190
 9.5041  1236
 9.5141  1277
 9.5241  1346
 9.5341  1369
 9.5441  1416
 9.5541  1491
 9.5641  1561
 9.5741  1624
 9.5841  1623
 9.5941  1731
 9.6041  1864
 9.6141  1986
 9.6241  1951
 9.6341  2047
 9.6441  2137
 9.6541  2196
 9.6641  2177
 9.6741  2180
 9.6841  2090
 9.6941  1989
 9.7041  1927
 9.7141  1917
 9.7241  1731
 9.7341  1622
 9.7441  1553
 9.7541  1445
 9.7641  1285
 9.7741  1176
 9.7841  1150
 9.7941  1007
 9.8041   967
 9.8141   978
 9.8241   924
 9.8341   894
 9.8441   885
 9.8541   847
 9.8641   828
 9.8741   885
 9.8841   884
 9.8941   929
 9.9041   951
 9.9141   966
 9.9241   973
 9.9341   937
 9.9441  1024
 9.9541  1029
 9.9641  1052
 9.9741   983
 9.9841   942
 9.9941   871
10.0041   848
10.0141   784
10.0241   706
10.0341   651
10.0441   631
10.0541   558
10.0641   473
10.0741   414
10.0841   402
10.0941   352
10.1041   313
10.1141   277
10.1241   248
10.1341   245
10.1441   243
10.1541   216
10.1641   204
10.1741   199
10.1841   181
10.1941   173
10.2041   174
10.2141   185
10.2241   178
10.2341   163
10.2441   158
10.2541   136
10.2641   133
10.2741   155
10.2841   145
10.2941   141
10.3041   133
10.3141   128
10.3241   124
10.3341   131
10.3441   128
10.3541   115
10.3641   119
10.3741   119
10.3841   124
10.3941   132
10.4041   136
10.4141   151
10.4241   137
10.4341   137
10.4441   155
10.4541   142
10.4641   137
10.4741   156
10.4841   141
10.4941   136
10.5041   147
10.5141   144
10.5241   146
10.5341   166
10.5441   158
10.5541   137
10.5641   154
10.5741   165
10.5841   154
10.5941   151
10.6041   162
10.6141   140
10.6241   158
10.6341   176
10.6441   166
10.6541   168
10.6641   160
10.6741   150
10.6841   181
10.6941   173
10.7041   172
10.7141   177
10.7241   164
10.7341   176
10.7441   183
10.7541   186
10.7641   188
10.7741   194
10.7841   213
10.7941   222
10.8041   211
10.8141   215
10.8241   213
10.8341   217
10.8441   246
10.8541   240
10.8641   240
10.8741   225
10.8841   218
10.8941   219
10.9041   237
10.9141   240
10.9241   228
10.9341   239
10.9441   253
10.9541   231
10.9641   248
10.9741   248
10.9841   238
10.9941   231
11.0041   224
11.0141   214
11.0241   204
11.0341   220
11.0441   234
11.0541   217
11.0641   202
11.0741   193
11.0841   207
11.0941   205
11.1041   223
11.1141   199
11.1241   205
11.1341   206
11.1441   228
11.1541   211
11.1641   230
11.1741   256
11.1841   240
11.1941   248
11.2041   263
11.2141   268
11.2241   292
11.2341   321
11.2441   317
11.2541   325
11.2641   331
11.2741   318
11.2841   320
11.2941   328
11.3041   332
11.3141   315
11.3241   293
11.3341   304
11.3441   278
11.3541   280
11.3641   264
11.3741   246
11.3841   232
11.3941   213
11.4041   208
11.4141   181
11.4241   187
11.4341   197
11.4441   190
11.4541   179
11.4641   172
11.4741   164
11.4841   171
11.4941   170
11.5041   172
11.5141   176
11.5241   165
11.5341   173
11.5441   178
11.5541   171
11.5641   175
11.5741   170
11.5841   176
11.5941   181
11.6041   199
11.6141   192
11.6241   190
11.6341   197
11.6441   195
11.6541   179
11.6641   184
11.6741   197
11.6841   177
11.6941   184
11.7041   183
11.7141   158
11.7241   140
11.7341   151
11.7441   161
11.7541   144
11.7641   152
11.7741   153
11.7841   140
11.7941   141
11.8041   153
11.8141   137
11.8241   146
11.8341   137
11.8441   122
11.8541   116
11.8641   129
11.8741   137
11.8841   131
11.8941   142
11.9041   127
11.9141   133
11.9241   139
11.9341   129
11.9441   121
11.9541   129
11.9641   140
11.9741   142
11.9841   128
11.9941   124
12.0041   120
12.0141   140
12.0241   147
12.0341   137
12.0441   125
12.0541   135
12.0641   124
12.0741   119
12.0841   116
12.0941   134
12.1041   129
12.1141   122
12.1241   125
12.1341   120
12.1441   136
12.1541   133
12.1641   125
12.1741   123
12.1841   123
12.1941   118
12.2041   126
12.2141   142
12.2241   124
12.2341   129
12.2441   131
12.2541   125
12.2641   114
12.2741   116
12.2841   123
12.2941   127
12.3041   136
12.3141   141
12.3241   133
12.3341   134
12.3441   142
12.3541   137
12.3641   134
12.3741   129
12.3841   133
12.3941   126
12.4041   119
12.4141   123
12.4241   133
12.4341   137
12.4441   135
12.4541   136
12.4641   138
12.4741   142
12.4841   140
12.4941   136
12.5041   135
12.5141   151
12.5241   146
12.5341   134
12.5441   136
12.5541   136
12.5641   145
12.5741   150
12.5841   148
12.5941   148
12.6041   152
12.6141   148
12.6241   139
12.6341   143
12.6441   143
12.6541   134
12.6641   134
12.6741   143
12.6841   154
12.6941   142
12.7041   147
12.7141   147
12.7241   136
12.7341   140
12.7441   150
12.7541   155
12.7641   153
12.7741   150
12.7841   149
12.7941   148
12.8041   145
12.8141   140
12.8241   134
12.8341   127
12.8441   127
12.8541   135
12.8641   141
12.8741   147
12.8841   152
12.8941   146
12.9041   138
12.9141   145
12.9241   151
12.9341   163
12.9441   162
12.9541   149
12.9641   144
12.9741   153
12.9841   145
12.9941   141
13.0041   156
13.0141   149
13.0241   143
13.0341   161
13.0441   176
13.0541   163
13.0641   153
13.0741   148
13.0841   144
13.0941   145
13.1041   136
13.1141   136
13.1241   147
13.1341   143
13.1441   144
13.1541   173
13.1641   174
13.1741   168
13.1841   171
13.1941   173
13.2041   160
13.2141   152
13.2241   167
13.2341   179
13.2441   199
13.2541   203
13.2641   184
13.2741   193
13.2841   205
13.2941   220
13.3041   223
13.3141   205
13.3241   210
13.3341   212
13.3441   211
13.3541   240
13.3641   228
13.3741   235
13.3841   233
13.3941   202
13.4041   201
13.4141   218
13.4241   227
13.4341   215
13.4441   204
13.4541   202
13.4641   192
13.4741   198
13.4841   202
13.4941   197
13.5041   185
13.5141   192
13.5241   210
13.5341   206
13.5441   197
13.5541   199
13.5641   196
13.5741   182
13.5841   175
13.5941   173
13.6041   174
13.6141   172
13.6241   177
13.6341   194
13.6441   190
13.6541   174
13.6641   173
13.6741   169
13.6841   181
13.6941   187
13.7041   185
13.7141   197
13.7241   204
13.7341   189
13.7441   173
13.7541   183
13.7641   194
13.7741   187
13.7841   189
13.7941   193
13.8041   190
13.8141   191
13.8241   185
13.8341   180
13.8441   186
13.8541   193
13.8641   197
13.8741   194
13.8841   190
13.8941   192
13.9041   200
13.9141   211
13.9241   218
13.9341   208
13.9441   210
13.9541   211
13.9641   205
13.9741   210
13.9841   223
13.9941   225
14.0041   208
14.0141   225
14.0241   258
14.0341   269
14.0441   264
14.0541   258
14.0641   272
14.0741   295
14.0841   296
14.0941   274
14.1041   268
14.1141   280
14.1241   287
14.1341   296
14.1441   299
14.1541   295
14.1641   298
14.1741   288
14.1841   283
14.1941   294
14.2041   289
14.2141   269
14.2241   277
14.2341   292
14.2441   276
14.2541   264
14.2641   258
14.2741   251
14.2841   242
14.2941   232
14.3041   231
14.3141   231
14.3241   210
14.3341   211
14.3441   241
14.3541   240
14.3641   211
14.3741   204
14.3841   222
14.3941   232
14.4041   236
14.4141   240
14.4241   242
14.4341   243
14.4441   231
14.4541   208
14.4641   206
14.4741   208
14.4841   212
14.4941   220
14.5041   230
14.5141   223
14.5241   214
14.5341   218
14.5441   219
14.5541   210
14.5641   205
14.5741   221
14.5841   235
14.5941   216
14.6041   203
14.6141   216
14.6241   228
14.6341   219
14.6441   205
14.6541   221
14.6641   238
14.6741   222
14.6841   209
14.6941   229
14.7041   235
14.7141   236
14.7241   234
14.7341   240
14.7441   246
14.7541   239
14.7641   254
14.7741   260
14.7841   228
14.7941   224
14.8041   251
14.8141   263
14.8241   254
14.8341   234
14.8441   243
14.8541   229
14.8641   247
14.8741   263
14.8841   256
14.8941   280
14.9041   283
14.9141   268
14.9241   276
14.9341   299
14.9441   278
14.9541   258
14.9641   248
14.9741   253
14.9841   272
14.9941   274
15.0041   280
15.0141   275
15.0241   275
15.0341   283
15.0441   259
15.0541   252
15.0641   256
15.0741   236
15.0841   248
15.0941   252
15.1041   257
15.1141   245
15.1241   237
15.1341   248
15.1441   258
15.1541   260
15.1641   248
15.1741   228
15.1841   239
15.1941   251
15.2041   257
15.2141   260
15.2241   258
15.2341   285
15.2441   269
15.2541   249
15.2641   266
15.2741   254
15.2841   263
15.2941   262
15.3041   273
15.3141   281
15.3241   265
15.3341   265
15.3441   259
15.3541   289
15.3641   282
15.3741   271
15.3841   265
15.3941   280
15.4041   270
15.4141   258
15.4241   256
15.4341   267
15.4441   281
15.4541   277
15.4641   285
15.4741   274
15.4841   263
15.4941   266
15.5041   282
15.5141   277
15.5241   278
15.5341   278
15.5441   282
15.5541   299
15.5641   306
15.5741   298
15.5841   304
15.5941   313
15.6041   310
15.6141   329
15.6241   329
15.6341   329
15.6441   346
15.6541   339
15.6641   365
15.6741   388
15.6841   393
15.6941   383
15.7041   373
15.7141   390
15.7241   420
15.7341   415
15.7441   405
15.7541   427
15.7641   438
15.7741   414
15.7841   367
15.7941   395
15.8041   405
15.8141   396
15.8241   407
15.8341   409
15.8441   393
15.8541   384
15.8641   375
15.8741   365
15.8841   362
15.8941   346
15.9041   337
15.9141   337
15.9241   325
15.9341   317
15.9441   329
15.9541   312
15.9641   305
15.9741   302
15.9841   297
15.9941   299
16.0041   315
16.0141   336
16.0241   337
16.0341   335
16.0441   329
16.0541   301
16.0641   302
16.0741   311
16.0841   313
16.0941   316
16.1041   327
16.1141   300
16.1241   303
16.1341   314
16.1441   316
16.1541   332
16.1641   321
16.1741   307
16.1841   321
16.1941   304
16.2041   318
16.2141   326
16.2241   331
16.2341   319
16.2441   325
16.2541   334
16.2641   321
16.2741   312
16.2841   321
16.2941   328
16.3041   320
16.3141   323
16.3241   304
16.3341   320
16.3441   318
16.3541   304
16.3641   308
16.3741   338
16.3841   364
16.3941   340
16.4041   330
16.4141   321
16.4241   331
16.4341   345
16.4441   350
16.4541   358
16.4641   363
16.4741   357
16.4841   345
16.4941   349
16.5041   344
16.5141   346
16.5241   338
16.5341   334
16.5441   329
16.5541   330
16.5641   346
16.5741   311
16.5841   302
16.5941   327
16.6041   343
16.6141   347
16.6241   336
16.6341   332
16.6441   325
16.6541   340
16.6641   358
16.6741   349
16.6841   319
16.6941   303
16.7041   320
16.7141   350
16.7241   346
16.7341   349
16.7441   347
16.7541   353
16.7641   337
16.7741   340
16.7841   363
16.7941   364
16.8041   344
16.8141   331
16.8241   366
16.8341   344
16.8441   329
16.8541   349
16.8641   376
16.8741   379
16.8841   338
16.8941   362
16.9041   364
16.9141   357
16.9241   370
16.9341   361
16.9441   359
16.9541   354
16.9641   356
16.9741   354
16.9841   362
16.9941   362
17.0041   352
17.0141   349
17.0241   360
17.0341   382
17.0441   350
17.0541   371
17.0641   365
17.0741   354
17.0841   384
17.0941   386
17.1041   362
17.1141   359
17.1241   356
17.1341   352
17.1441   368
17.1541   383
17.1641   377
17.1741   400
17.1841   396
17.1941   379
17.2041   360
17.2141   367
17.2241   361
17.2341   368
17.2441   371
17.2541   351
17.2641   369
17.2741   379
17.2841   400
17.2941   411
17.3041   407
17.3141   390
17.3241   368
17.3341   394
17.3441   413
17.3541   409
17.3641   392
17.3741   407
17.3841   387
17.3941   399
17.4041   405
17.4141   400
17.4241   388
17.4341   377
17.4441   394
17.4541   411
17.4641   407
17.4741   393
17.4841   397
17.4941   422
17.5041   422
17.5141   425
17.5241   421
17.5341   422
17.5441   383
17.5541   402
17.5641   421
17.5741   445
17.5841   432
17.5941   400
17.6041   431
17.6141   431
17.6241   423
17.6341   419
17.6441   419
17.6541   418
17.6641   406
17.6741   406
17.6841   442
17.6941   439
17.7041   395
17.7141   387
17.7241   423
17.7341   457
17.7441   415
17.7541   405
17.7641   406
17.7741   435
17.7841   416
17.7941   416
17.8041   432
17.8141   435
17.8241   427
17.8341   413
17.8441   422
17.8541   409
17.8641   419
17.8741   454
17.8841   415
17.8941   418
17.9041   418
17.9141   388
17.9241   410
17.9341   429
17.9441   440
17.9541   437
17.9641   401
17.9741   431
17.9841   428
17.9941   433
18.0041   411
18.0141   412
18.0241   431
18.0341   432
18.0441   406
18.0541   405
18.0641   421
18.0741   438
18.0841   433
18.0941   439
18.1041   462
18.1141   432
18.1241   428
18.1341   430
18.1441   453
18.1541   457
18.1641   448
18.1741   444
18.1841   444
18.1941   431
18.2041   425
18.2141   412
18.2241   451
18.2341   430
18.2441   447
18.2541   460
18.2641   450
18.2741   427
18.2841   411
18.2941   434
18.3041   435
18.3141   436
18.3241   455
18.3341   466
18.3441   449
18.3541   420
18.3641   434
18.3741   418
18.3841   403
18.3941   418
18.4041   431
18.4141   460
18.4241   446
18.4341   414
18.4441   478
18.4541   476
18.4641   451
18.4741   432
18.4841   445
18.4941   426
18.5041   462
18.5141   439
18.5241   448
18.5341   445
18.5441   460
18.5541   449
18.5641   429
18.5741   450
18.5841   460
18.5941   459
18.6041   463
18.6141   455
18.6241   481
18.6341   448
18.6441   425
18.6541   447
18.6641   439
18.6741   465
18.6841   444
18.6941   452
18.7041   467
18.7141   484
18.7241   463
18.7341   460
18.7441   479
18.7541   444
18.7641   428
18.7741   466
18.7841   475
18.7941   458
18.8041   461
18.8141   470
18.8241   465
18.8341   459
18.8441   455
18.8541   478
18.8641   461
18.8741   453
18.8841   474
18.8941   441
18.9041   490
18.9141   463
18.9241   478
18.9341   450
18.9441   469
18.9541   473
18.9641   466
18.9741   487
18.9841   462
18.9941   454
19.0041   456
19.0141   446
19.0241   477
19.0341   469
19.0441   483
19.0541   484
19.0641   453
19.0741   477
19.0841   483
19.0941   465
19.1041   504
19.1141   473
19.1241   479
19.1341   497
19.1441   484
19.1541   508
19.1641   461
19.1741   495
19.1841   459
19.1941   455
19.2041   500
19.2141   486
19.2241   484
19.2341   485
19.2441   446
19.2541   481
19.2641   485
19.2741   494
19.2841   509
19.2941   464
19.3041   473
19.3141   480
19.3241   457
19.3341   485
19.3441   462
19.3541   477
19.3641   464
19.3741   448
19.3841   489
19.3941   495
19.4041   482
19.4141   492
19.4241   479
19.4341   488
19.4441   459
19.4541   451
19.4641   491
19.4741   493
19.4841   483
19.4941   478
19.5041   488
19.5141   494
19.5241   485
19.5341   477
19.5441   475
19.5541   470
19.5641   482
19.5741   460
19.5841   489
19.5941   459
19.6041   468
19.6141   454
19.6241   456
19.6341   475
19.6441   489
19.6541   502
19.6641   496
19.6741   479
19.6841   505
19.6941   494
19.7041   510
19.7141   502
19.7241   496
19.7341   495
19.7441   501
19.7541   512
19.7641   441
19.7741   458
19.7841   491
19.7941   473
19.8041   457
19.8141   445
19.8241   456
19.8341   493
19.8441   493
19.8541   523
19.8641   489
19.8741   491
19.8841   485
19.8941   499
19.9041   493
19.9141   509
19.9241   475
19.9341   491
19.9441   498
19.9541   480
19.9641   505
19.9741   493
19.9841   484
19.9941   520
20.0041   505
20.0141   516
20.0241   497
20.0341   488
20.0441   481
20.0541   496
20.0641   466
20.0741   498
20.0841   471
20.0941   507
20.1041   526
20.1141   526
20.1241   501
20.1341   487
20.1441   485
20.1541   482
20.1641   504
20.1741   497
20.1841   493
20.1941   511
20.2041   493
20.2141   500
20.2241   507
20.2341   499
20.2441   518
20.2541   500
20.2641   513
20.2741   500
20.2841   514
20.2941   526
20.3041   519
20.3141   492
20.3241   461
20.3341   487
20.3441   492
20.3541   509
20.3641   534
20.3741   494
20.3841   523
20.3941   538
20.4041   499
20.4141   480
20.4241   502
20.4341   485
20.4441   500
20.4541   483
20.4641   491
20.4741   533
20.4841   532
20.4941   518
20.5041   471
20.5141   471
20.5241   487
20.5341   481
20.5441   531
20.5541   487
20.5641   497
20.5741   496
20.5841   483
20.5941   486
20.6041   502
20.6141   514
20.6241   496
20.6341   510
20.6441   491
20.6541   490
20.6641   530
20.6741   534
20.6841   506
20.6941   490
20.7041   503
20.7141   502
20.7241   508
20.7341   507
20.7441   502
20.7541   526
20.7641   508
20.7741   518
20.7841   550
20.7941   562
20.8041   527
20.8141   501
20.8241   519
20.8341   527
20.8441   534
20.8541   530
20.8641   494
20.8741   531
20.8841   555
20.8941   585
20.9041   591
20.9141   538
20.9241   563
20.9341   589
20.9441   566
20.9541   618
20.9641   604
20.9741   608
20.9841   643
20.9941   610
21.0041   652
21.0141   670
21.0241   652
21.0341   719
21.0441   720
21.0541   703
21.0641   716
21.0741   703
21.0841   754
21.0941   769
21.1041   756
21.1141   739
21.1241   772
21.1341   776
21.1441   720
21.1541   759
21.1641   733
21.1741   756
21.1841   745
21.1941   740
21.2041   717
21.2141   697
21.2241   682
21.2341   669
21.2441   715
21.2541   654
21.2641   638
21.2741   634
21.2841   618
21.2941   590
21.3041   621
21.3141   618
21.3241   595
21.3341   568
21.3441   561
21.3541   532
21.3641   524
21.3741   556
21.3841   528
21.3941   555
21.4041   567
21.4141   547
21.4241   556
21.4341   495
21.4441   516
21.4541   511
21.4641   481
21.4741   508
21.4841   526
21.4941   528
21.5041   479
21.5141   523
21.5241   533
21.5341   478
21.5441   504
21.5541   490
21.5641   508
21.5741   481
21.5841   510
21.5941   519
21.6041   501
21.6141   498
21.6241   487
21.6341   525
21.6441   548
21.6541   554
21.6641   490
21.6741   516
21.6841   499
21.6941   509
21.7041   546
21.7141   506
21.7241   480
21.7341   491
21.7441   488
21.7541   519
21.7641   543
21.7741   542
21.7841   518
21.7941   492
21.8041   507
21.8141   485
21.8241   529
21.8341   470
21.8441   475
21.8541   521
21.8641   562
21.8741   502
21.8841   530
21.8941   515
21.9041   505
21.9141   466
21.9241   494
21.9341   520
21.9441   485
21.9541   502
21.9641   500
21.9741   509
21.9841   511
21.9941   481
22.0041   523
22.0141   477
22.0241   534
22.0341   475
22.0441   533
22.0541   551
22.0641   485
22.0741   488
22.0841   482
22.0941   489
22.1041   503
22.1141   519
22.1241   501
22.1341   494
22.1441   536
22.1541   543
22.1641   504
22.1741   526
22.1841   494
22.1941   536
22.2041   539
22.2141   487
22.2241   469
22.2341   546
22.2441   497
22.2541   540
22.2641   461
22.2741   513
22.2841   465
22.2941   482
22.3041   524
22.3141   469
22.3241   511
22.3341   514
22.3441   523
22.3541   475
22.3641   480
22.3741   465
22.3841   468
22.3941   473
22.4041   518
22.4141   472
22.4241   492
22.4341   527
22.4441   517
22.4541   475
22.4641   459
22.4741   479
22.4841   473
22.4941   493
22.5041   489
22.5141   488
22.5241   481
22.5341   488
22.5441   492
22.5541   513
22.5641   530
22.5741   499
22.5841   515
22.5941   516
22.6041   498
22.6141   521
22.6241   469
22.6341   494
22.6441   518
22.6541   505
22.6641   545
22.6741   484
22.6841   482
22.6941   534
22.7041   526
22.7141   501
22.7241   518
22.7341   495
22.7441   509
22.7541   506
22.7641   506
22.7741   473
22.7841   507
22.7941   487
22.8041   484
22.8141   500
22.8241   473
22.8341   511
22.8441   538
22.8541   463
22.8641   462
22.8741   496
22.8841   531
22.8941   497
22.9041   484
22.9141   534
22.9241   525
22.9341   490
22.9441   514
22.9541   510
22.9641   520
22.9741   504
22.9841   513
22.9941   490
23.0041   465
23.0141   516
23.0241   482
23.0341   493
23.0441   448
23.0541   530
23.0641   487
23.0741   484
23.0841   495
23.0941   458
23.1041   477
23.1141   496
23.1241   461
23.1341   480
23.1441   490
23.1541   474
23.1641   523
23.1741   467
23.1841   485
23.1941   494
23.2041   489
23.2141   482
23.2241   498
23.2341   447
23.2441   485
23.2541   484
23.2641   431
23.2741   484
23.2841   489
23.2941   500
23.3041   489
23.3141   467
23.3241   477
23.3341   523
23.3441   510
23.3541   440
23.3641   459
23.3741   449
23.3841   438
23.3941   463
23.4041   457
23.4141   491
23.4241   491
23.4341   518
23.4441   502
23.4541   496
23.4641   494
23.4741   460
23.4841   462
23.4941   470
23.5041   465
23.5141   495
23.5241   482
23.5341   468
23.5441   517
23.5541   490
23.5641   486
23.5741   518
23.5841   472
23.5941   508
23.6041   482
23.6141   487
23.6241   469
23.6341   511
23.6441   495
23.6541   521
23.6641   525
23.6741   481
23.6841   526
23.6941   559
23.7041   518
23.7141   478
23.7241   522
23.7341   473
23.7441   458
23.7541   503
23.7641   517
23.7741   458
23.7841   507
23.7941   535
23.8041   537
23.8141   541
23.8241   516
23.8341   531
23.8441   510
23.8541   498
23.8641   516
23.8741   510
23.8841   514
23.8941   508
23.9041   510
23.9141   496
23.9241   476
23.9341   489
23.9441   444
23.9541   476
23.9641   485
23.9741   509
23.9841   476
23.9941   469
24.0041   495
24.0141   464
24.0241   459
24.0341   462
24.0441   480
24.0541   452
24.0641   479
24.0741   482
24.0841   490
24.0941   482
24.1041   500
24.1141   463
24.1241   462
24.1341   514
24.1441   456
24.1541   431
24.1641   493
24.1741   436
24.1841   443
24.1941   465
24.2041   455
24.2141   463
24.2241   504
24.2341   483
24.2441   466
24.2541   463
24.2641   469
24.2741   446
24.2841   459
24.2941   465
24.3041   456
24.3141   448
24.3241   479
24.3341   485
24.3441   453
24.3541   481
24.3641   469
24.3741   437
24.3841   490
24.3941   445
24.4041   490
24.4141   458
24.4241   466
24.4341   447
24.4441   493
24.4541   435
24.4641   412
24.4741   438
24.4841   482
24.4941   457
24.5041   437
24.5141   472
24.5241   454
24.5341   488
24.5441   458
24.5541   448
24.5641   433
24.5741   429
24.5841   441
24.5941   437
24.6041   428
24.6141   424
24.6241   434
24.6341   456
24.6441   422
24.6541   462
24.6641   480
24.6741   443
24.6841   447
24.6941   445
24.7041   421
24.7141   434
24.7241   449
24.7341   411
24.7441   443
24.7541   433
24.7641   443
24.7741   465
24.7841   448
24.7941   436
24.8041   437
24.8141   465
24.8241   435
24.8341   419
24.8441   450
24.8541   442
24.8641   475
24.8741   456
24.8841   450
24.8941   436
24.9041   501
24.9141   451
24.9241   459
24.9341   491
24.9441   457
24.9541   468
24.9641   444
24.9741   460
24.9841   445
24.9941   394
25.0041   440
25.0141   391
25.0241   477
25.0341   432
25.0441   446
25.0541   477
25.0641   451
25.0741   440
25.0841   494
25.0941   436
25.1041   488
25.1141   442
25.1241   459
25.1341   420
25.1441   433
25.1541   434
25.1641   425
25.1741   437
25.1841   422
25.1941   432
25.2041   447
25.2141   489
25.2241   433
25.2341   439
25.2441   415
25.2541   452
25.2641   467
25.2741   418
25.2841   484
25.2941   439
25.3041   477
25.3141   458
25.3241   412
25.3341   433
25.3441   467
25.3541   387
25.3641   443
25.3741   449
25.3841   442
25.3941   447
25.4041   455
25.4141   439
25.4241   444
25.4341   453
25.4441   435
25.4541   433
25.4641   453
25.4741   425
25.4841   398
25.4941   400
25.5041   433
25.5141   398
25.5241   422
25.5341   425
25.5441   432
25.5541   412
25.5641   408
25.5741   441
25.5841   416
25.5941   410
25.6041   436
25.6141   418
25.6241   398
25.6341   405
25.6441   422
25.6541   430
25.6641   418
25.6741   428
25.6841   416
25.6941   367
25.7041   398
25.7141   400
25.7241   433
25.7341   445
25.7441   385
25.7541   384
25.7641   438
25.7741   456
25.7841   433
25.7941   418
25.8041   416
25.8141   440
25.8241   415
25.8341   392
25.8441   407
25.8541   388
25.8641   383
25.8741   408
25.8841   378
25.8941   400
25.9041   401
25.9141   412
25.9241   374
25.9341   388
25.9441   412
25.9541   387
25.9641   438
25.9741   406
25.9841   382
25.9941   422
26.0041   405
26.0141   379
26.0241   398
26.0341   410
26.0441   407
26.0541   405
26.0641   393
26.0741   373
26.0841   388
26.0941   412
26.1041   372
26.1141   431
26.1241   410
26.1341   388
26.1441   384
26.1541   370
26.1641   404
26.1741   395
26.1841   402
26.1941   426
26.2041   382
26.2141   384
26.2241   398
26.2341   410
26.2441   389
26.2541   395
26.2641   358
26.2741   400
26.2841   351
26.2941   379
26.3041   401
26.3141   382
26.3241   392
26.3341   346
26.3441   393
26.3541   411
26.3641   374
26.3741   379
26.3841   402
26.3941   379
26.4041   364
26.4141   397
26.4241   352
26.4341   396
26.4441   376
26.4541   399
26.4641   370
26.4741   368
26.4841   423
26.4941   401
26.5041   361
26.5141   371
26.5241   372
26.5341   365
26.5441   374
26.5541   373
26.5641   383
26.5741   375
26.5841   391
26.5941   386
26.6041   376
26.6141   365
26.6241   390
26.6341   364
26.6441   338
26.6541   384
26.6641   348
26.6741   357
26.6841   351
26.6941   354
26.7041   386
26.7141   369
26.7241   384
26.7341   363
26.7441   396
26.7541   355
26.7641   338
26.7741   384
26.7841   390
26.7941   396
26.8041   393
26.8141   361
26.8241   371
26.8341   424
26.8441   387
26.8541   370
26.8641   353
26.8741   392
26.8841   364
26.8941   361
26.9041   363
26.9141   347
26.9241   369
26.9341   329
26.9441   337
26.9541   345
26.9641   372
26.9741   365
26.9841   352
26.9941   305
27.0041   360
27.0141   356
27.0241   362
27.0341   342
27.0441   351
27.0541   365
27.0641   361
27.0741   363
27.0841   376
27.0941   364
27.1041   388
27.1141   332
27.1241   361
27.1341   346
27.1441   346
27.1541   344
27.1641   360
27.1741   369
27.1841   351
27.1941   350
27.2041   377
27.2141   356
27.2241   329
27.2341   343
27.2441   353
27.2541   366
27.2641   347
27.2741   365
27.2841   334
27.2941   324
27.3041   333
27.3141   341
27.3241   337
27.3341   309
27.3441   350
27.3541   332
27.3641   351
27.3741   347
27.3841   336
27.3941   378
27.4041   343
27.4141   375
27.4241   360
27.4341   327
27.4441   348
27.4541   322
27.4641   358
27.4741   352
27.4841   318
27.4941   317
27.5041   380
27.5141   356
27.5241   346
27.5341   332
27.5441   343
27.5541   337
27.5641   323
27.5741   350
27.5841   345
27.5941   330
27.6041   339
27.6141   351
27.6241   318
27.6341   330
27.6441   297
27.6541   346
27.6641   346
27.6741   331
27.6841   325
27.6941   327
27.7041   329
27.7141   304
27.7241   341
27.7341   320
27.7441   344
27.7541   328
27.7641   354
27.7741   327
27.7841   336
27.7941   353
27.8041   316
27.8141   337
27.8241   334
27.8341   319
27.8441   339
27.8541   350
27.8641   303
27.8741   348
27.8841   301
27.8941   337
27.9041   316
27.9141   339
27.9241   326
27.9341   303
27.9441   319
27.9541   317
27.9641   333
27.9741   317
27.9841   319
27.9941   279
28.0041   322
28.0141   318
28.0241   304
28.0341   342
28.0441   341
28.0541   311
28.0641   321
28.0741   313
28.0841   319
28.0941   332
28.1041   313
28.1141   306
28.1241   300
28.1341   286
28.1441   322
28.1541   317
28.1641   311
28.1741   311
28.1841   296
28.1941   339
28.2041   327
28.2141   296
28.2241   317
28.2341   305
28.2441   310
28.2541   331
28.2641   297
28.2741   346
28.2841   293
28.2941   323
28.3041   301
28.3141   276
28.3241   297
28.3341   297
28.3441   316
28.3541   293
28.3641   318
28.3741   285
28.3841   321
28.3941   293
28.4041   291
28.4141   322
28.4241   296
28.4341   310
28.4441   317
28.4541   306
28.4641   315
28.4741   269
28.4841   305
28.4941   310
28.5041   314
28.5141   342
28.5241   293
28.5341   278
28.5441   298
28.5541   326
28.5641   287
28.5741   263
28.5841   281
28.5941   315
28.6041   262
28.6141   297
28.6241   327
28.6341   308
28.6441   314
28.6541   306
28.6641   273
28.6741   266
28.6841   313
28.6941   282
28.7041   271
28.7141   286
28.7241   296
28.7341   268
28.7441   297
28.7541   270
28.7641   284
28.7741   279
28.7841   270
28.7941   313
28.8041   281
28.8141   320
28.8241   288
28.8341   312
28.8441   290
28.8541   290
28.8641   297
28.8741   283
28.8841   307
28.8941   273
28.9041   289
28.9141   264
28.9241   280
28.9341   257
28.9441   278
28.9541   278
28.9641   312
28.9741   278
28.9841   304
28.9941   301
29.0041   256
29.0141   259
29.0241   276
29.0341   290
29.0441   290
29.0541   302
29.0641   291
29.0741   261
29.0841   294
29.0941   302
29.1041   285
29.1141   245
29.1241   293
29.1341   296
29.1441   272
29.1541   276
29.1641   287
29.1741   303
29.1841   290
29.1941   294
29.2041   288
29.2141   272
29.2241   279
29.2341   278
29.2441   275
29.2541   300
29.2641   273
29.2741   273
29.2841   258
29.2941   264
29.3041   263
29.3141   285
29.3241   269
29.3341   279
29.3441   252
29.3541   261
29.3641   259
29.3741   254
29.3841   250
29.3941   270
29.4041   259
29.4141   259
29.4241   255
29.4341   261
29.4441   250
29.4541   277
29.4641   284
29.4741   279
29.4841   251
29.4941   273
29.5041   271
29.5141   265
29.5241   271
29.5341   236
29.5441   259
29.5541   261
29.5641   252
29.5741   290
29.5841   248
29.5941   241
29.6041   231
29.6141   274
29.6241   240
29.6341   262
29.6441   263
29.6541   258
29.6641   261
29.6741   269
29.6841   252
29.6941   259
29.7041   275
29.7141   250
29.7241   262
29.7341   255
29.7441   245
29.7541   300
29.7641   270
29.7741   253
29.7841   246
29.7941   260
29.8041   261
29.8141   264
29.8241   259
29.8341   265
29.8441   240
29.8541   229
29.8641   271
29.8741   272
29.8841   235
29.8941   236
29.9041   259
29.9141   254
29.9241   255
29.9341   272
29.9441   249
29.9541   295
29.9641   238
29.9741   253
29.9841   246
29.9941   255
30.0041   245
30.0141   262
30.0241   264
30.0341   245
30.0441   242
30.0541   230
30.0641   246
30.0741   243
30.0841   253
30.0941   223
30.1041   271
30.1141   239
30.1241   254
30.1341   232
30.1441   215
30.1541   244
30.1641   228
30.1741   222
30.1841   238
30.1941   237
30.2041   250
30.2141   252
30.2241   253
30.2341   228
30.2441   236
30.2541   224
30.2641   223
30.2741   250
30.2841   255
30.2941   230
30.3041   221
30.3141   228
30.3241   223
30.3341   217
30.3441   216
30.3541   244
30.3641   241
30.3741   227
30.3841   252
30.3941   244
30.4041   231
30.4141   222
30.4241   203
30.4341   229
30.4441   196
30.4541   210
30.4641   209
30.4741   245
30.4841   235
30.4941   234
30.5041   215
30.5141   235
30.5241   221
30.5341   208
30.5441   218
30.5541   243
30.5641   238
30.5741   226
30.5841   232
30.5941   205
30.6041   222
30.6141   223
30.6241   266
30.6341   231
30.6441   198
30.6541   214
30.6641   257
30.6741   230
30.6841   219
30.6941   216
30.7041   226
30.7141   225
30.7241   237
30.7341   219
30.7441   233
30.7541   233
30.7641   220
30.7741   211
30.7841   218
30.7941   244
30.8041   228
30.8141   221
30.8241   229
30.8341   210
30.8441   238
30.8541   223
30.8641   239
30.8741   201
30.8841   185
30.8941   232
30.9041   209
30.9141   228
30.9241   224
30.9341   212
30.9441   214
30.9541   217
30.9641   202
30.9741   200
30.9841   220
30.9941   209
31.0041   213
31.0141   198
31.0241   214
31.0341   205
31.0441   213
31.0541   229
31.0641   219
31.0741   199
31.0841   211
31.0941   208
31.1041   241
31.1141   229
31.1241   190
31.1341   193
31.1441   215
31.1541   209
31.1641   206
31.1741   212
31.1841   206
31.1941   215
31.2041   223
31.2141   193
31.2241   196
31.2341   191
31.2441   205
31.2541   215
31.2641   195
31.2741   203
31.2841   161
31.2941   180
31.3041   209
31.3141   201
31.3241   193
31.3341   207
31.3441   188
31.3541   189
31.3641   175
31.3741   203
31.3841   183
31.3941   200
31.4041   203
31.4141   174
31.4241   187
31.4341   185
31.4441   196
31.4541   196
31.4641   204
31.4741   198
31.4841   206
31.4941   214
31.5041   208
31.5141   214
31.5241   187
31.5341   185
31.5441   185
31.5541   182
31.5641   199
31.5741   197
31.5841   218
31.5941   215
31.6041   192
31.6141   182
31.6241   209
31.6341   191
31.6441   187
31.6541   195
31.6641   197
31.6741   200
31.6841   172
31.6941   185
31.7041   205
31.7141   178
31.7241   181
31.7341   206
31.7441   185
31.7541   171
31.7641   171
31.7741   185
31.7841   176
31.7941   198
31.8041   184
31.8141   184
31.8241   197
31.8341   181
31.8441   200
31.8541   183
31.8641   206
31.8741   178
31.8841   184
31.8941   192
31.9041   193
31.9141   185
31.9241   196
31.9341   189
31.9441   186
31.9541   176
31.9641   189
31.9741   197
31.9841   177
31.9941   171
32.0041   189
32.0141   162
32.0241   180
32.0341   199
32.0441   180
32.0541   215
32.0641   177
32.0741   178
32.0841   208
32.0941   161
32.1041   186
32.1141   196
32.1241   172
32.1341   171
32.1441   182
32.1541   166
32.1641   184
32.1741   180
32.1841   181
32.1941   175
32.2041   202
32.2141   200
32.2241   170
32.2341   165
32.2441   169
32.2541   191
32.2641   185
32.2741   182
32.2841   173
32.2941   161
32.3041   164
32.3141   169
32.3241   152
32.3341   161
32.3441   180
32.3541   180
32.3641   162
32.3741   173
32.3841   171
32.3941   161
32.4041   164
32.4141   179
32.4241   180
32.4341   154
32.4441   180
32.4541   193
32.4641   172
32.4741   172
32.4841   158
32.4941   172
32.5041   179
32.5141   173
32.5241   141
32.5341   179
32.5441   166
32.5541   185
32.5641   177
32.5741   182
32.5841   170
32.5941   153
32.6041   159
32.6141   160
32.6241   183
32.6341   155
32.6441   162
32.6541   163
32.6641   152
32.6741   190
32.6841   150
32.6941   177
32.7041   160
32.7141   171
32.7241   166
32.7341   154
32.7441   154
32.7541   151
32.7641   147
32.7741   149
32.7841   146
32.7941   170
32.8041   172
32.8141   159
32.8241   156
32.8341   152
32.8441   151
32.8541   172
32.8641   147
32.8741   172
32.8841   161
32.8941   181
32.9041   146
32.9141   151
32.9241   148
32.9341   150
32.9441   154
32.9541   144
32.9641   170
32.9741   165
32.9841   144
32.9941   152
33.0041   174
33.0141   156
33.0241   155
33.0341   151
33.0441   168
33.0541   158
33.0641   168
33.0741   153
33.0841   147
33.0941   158
33.1041   143
33.1141   152
33.1241   142
33.1341   138
33.1441   150
33.1541   159
33.1641   148
33.1741   157
33.1841   155
33.1941   133
33.2041   145
33.2141   165
33.2241   162
33.2341   158
33.2441   127
33.2541   157
33.2641   155
33.2741   143
33.2841   145
33.2941   131
33.3041   154
33.3141   167
33.3241   145
33.3341   155
33.3441   163
33.3541   125
33.3641   143
33.3741   147
33.3841   160
33.3941   153
33.4041   164
33.4141   128
33.4241   145
33.4341   125
33.4441   133
33.4541   126
33.4641   153
33.4741   132
33.4841   129
33.4941   134
33.5041   136
33.5141   146
33.5241   149
33.5341   128
33.5441   132
33.5541   130
33.5641   127
33.5741   145
33.5841   124
33.5941   129
33.6041   152
33.6141   131
33.6241   129
33.6341   144
33.6441   149
33.6541   119
33.6641   140
33.6741   134
33.6841   131
33.6941   119
33.7041   134
33.7141   116
33.7241   112
33.7341   142
33.7441   128
33.7541   124
33.7641   141
33.7741   136
33.7841   144
33.7941   128
33.8041   131
33.8141   135
33.8241   147
33.8341   148
33.8441   147
33.8541   137
33.8641   139
33.8741   130
33.8841   131
33.8941   123
33.9041   150
33.9141   128
33.9241   123
33.9341   137
33.9441   133
33.9541   116
33.9641   126
33.9741   131
33.9841   124
33.9941   131
34.0041   116
34.0141   109
34.0241   118
34.0341   110
34.0441   114
34.0541   127
34.0641   123
34.0741   128
34.0841   119
34.0941   109
34.1041   121
34.1141   127
34.1241   116
34.1341   143
34.1441   120
34.1541   119
34.1641   117
34.1741   118
34.1841   102
34.1941   129
34.2041   132
34.2141   126
34.2241   130
34.2341   127
34.2441   123
34.2541   120
34.2641   138
34.2741   135
34.2841   125
34.2941   134
34.3041   128
34.3141   126
34.3241   114
34.3341   113
34.3441   121
34.3541   134
34.3641   126
34.3741   122
34.3841   127
34.3941   119
34.4041   116
34.4141   125
34.4241   125
34.4341   106
34.4441   118
34.4541   109
34.4641    98
34.4741   121
34.4841   114
34.4941   116
34.5041   109
34.5141   112
34.5241   135
34.5341   118
34.5441   130
34.5541   118
34.5641   119
34.5741   101
34.5841   115
34.5941   110
34.6041   120
34.6141   104
34.6241   118
34.6341   107
34.6441   123
34.6541   110
34.6641   109
34.6741   118
34.6841   107
34.6941   112
34.7041   118
34.7141   126
34.7241   113
34.7341   114
34.7441   114
34.7541    98
34.7641   108
34.7741    98
34.7841    98
34.7941   114
34.8041   115
34.8141    99
34.8241   116
34.8341    86
34.8441    92
34.8541    96
34.8641    93
34.8741   115
34.8841   106
34.8941   102
34.9041   110
34.9141    97
34.9241   120
34.9341   100
34.9441    98
34.9541    98
34.9641   103
34.9741   118
34.9841   119
34.9941    97
35.0041    95
35.0141    99
35.0241    95
35.0341    90
35.0441    97
35.0541   104
35.0641   110
35.0741   106
35.0841   113
35.0941   101
35.1041   116
35.1141   104
35.1241   111
35.1341    76
35.1441   101
35.1541   113
35.1641    93
35.1741   112
35.1841    98
35.1941    92
35.2041   115
35.2141    91
35.2241   118
35.2341   104
35.2441    98
35.2541    81
35.2641    97
35.2741   102
35.2841   100
35.2941   104
35.3041    89
35.3141   100
35.3241   100
35.3341    84
35.3441    83
35.3541    82
35.3641    86
35.3741    95
35.3841   112
35.3941   113
35.4041    83
35.4141   101
35.4241   110
35.4341    91
35.4441    99
35.4541    84
35.4641    99
35.4741    92
35.4841    96
35.4941    97
35.5041   104
35.5141    96
35.5241    97
35.5341    92
35.5441    79
35.5541    93
35.5641    95
35.5741    91
35.5841    85
35.5941    92
35.6041   112
35.6141    84
35.6241    92
35.6341    90
35.6441    89
35.6541    97
35.6641    85
35.6741    82
35.6841    85
35.6941    70
35.7041    80
35.7141    84
35.7241    92
35.7341    93
35.7441    90
35.7541    93
35.7641    78
35.7741    90
35.7841    75
35.7941    78
35.8041    99
35.8141    77
35.8241    77
35.8341    82
35.8441    86
35.8541    94
35.8641   100
35.8741    89
35.8841    73
35.8941    90
35.9041    84
35.9141    79
35.9241    94
35.9341    80
35.9441    95
35.9541    84
35.9641    86
35.9741    86
35.9841   100
35.9941    89
36.0041    86
36.0141    87
36.0241    92
36.0341    79
36.0441    85
36.0541    88
36.0641    88
36.0741    72
36.0841    76
36.0941    73
36.1041    90
36.1141    83
36.1241    85
36.1341    81
36.1441    93
36.1541    80
36.1641    95
36.1741    70
36.1841    81
36.1941    87
36.2041    74
36.2141    73
36.2241    73
36.2341    71
36.2441    77
36.2541    68
36.2641    79
36.2741    81
36.2841    71
36.2941    74
36.3041    61
36.3141    86
36.3241    70
36.3341    70
36.3441    89
36.3541    88
36.3641    69
36.3741    89
36.3841    87
36.3941    83
36.4041    66
36.4141    74
36.4241    70
36.4341    71
36.4441    85
36.4541    91
36.4641    77
36.4741    71
36.4841    75
36.4941    62
36.5041    64
36.5141    83
36.5241    72
36.5341    69
36.5441    65
36.5541    59
36.5641    63
36.5741    71
36.5841    64
36.5941    87
36.6041    78
36.6141    80
36.6241    88
36.6341    57
36.6441    75
36.6541    79
36.6641    73
36.6741    64
36.6841    74
36.6941    74
36.7041    65
36.7141    49
36.7241    65
36.7341    65
36.7441    63
36.7541    62
36.7641    64
36.7741    65
36.7841    69
36.7941    81
36.8041    75
36.8141    75
36.8241    54
36.8341    59
36.8441    76
36.8541    68
36.8641    64
36.8741    71
36.8841    63
36.8941    66
36.9041    77
36.9141    70
36.9241    56
36.9341    67
36.9441    62
36.9541    62
36.9641    59
36.9741    59
36.9841    55
36.9941    58
37.0041    67
37.0141    79
37.0241    61
37.0341    71
37.0441    64
37.0541    74
37.0641    60
37.0741    79
37.0841    70
37.0941    60
37.1041    60
37.1141    67
37.1241    59
37.1341    70
37.1441    70
37.1541    69
37.1641    73
37.1741    79
37.1841    66
37.1941    58
37.2041    57
37.2141    66
37.2241    56
37.2341    55
37.2441    58
37.2541    58
37.2641    50
37.2741    62
37.2841    65
37.2941    63
37.3041    60
37.3141    73
37.3241    65
37.3341    61
37.3441    83
37.3541    52
37.3641    65
37.3741    56
37.3841    54
37.3941    66
37.4041    58
37.4141    60
37.4241    62
37.4341    66
37.4441    52
37.4541    42
37.4641    54
37.4741    57
37.4841    54
37.4941    59
37.5041    63
37.5141    67
37.5241    64
37.5341    62
37.5441    53
37.5541    57
37.5641    46
37.5741    56
37.5841    52
37.5941    54
37.6041    50
37.6141    62
37.6241    62
37.6341    45
37.6441    60
37.6541    45
37.6641    49
37.6741    52
37.6841    62
37.6941    57
37.7041    59
37.7141    55
37.7241    52
37.7341    55
37.7441    53
37.7541    48
37.7641    52
37.7741    45
37.7841    53
37.7941    58
37.8041    79
37.8141    53
37.8241    51
37.8341    51
37.8441    49
37.8541    49
37.8641    48
37.8741    54
37.8841    44
37.8941    51
37.9041    53
37.9141    44
37.9241    60
37.9341    61
37.9441    41
37.9541    42
37.9641    47
37.9741    43
37.9841    55
37.9941    56
38.0041    41
38.0141    54
38.0241    30
38.0341    53
38.0441    52
38.0541    61
38.0641    41
38.0741    67
38.0841    49
38.0941    57
38.1041    39
38.1141    41
38.1241    55
38.1341    51
38.1441    56
38.1541    47
38.1641    54
38.1741    39
38.1841    47
38.1941    47
38.2041    50
38.2141    37
38.2241    53
38.2341    42
38.2441    39
38.2541    41
38.2641    61
38.2741    47
38.2841    55
38.2941    47
38.3041    41
38.3141    42
38.3241    43
38.3341    44
38.3441    48
38.3541    53
38.3641    42
38.3741    42
38.3841    55
38.3941    49
38.4041    39
38.4141    48
38.4241    42
38.4341    55
38.4441    47
38.4541    41
38.4641    50
38.4741    35
38.4841    43
38.4941    47
38.5041    40
38.5141    45
38.5241    51
38.5341    36
38.5441    40
38.5541    34
38.5641    33
38.5741    57
38.5841    38
38.5941    51
38.6041    53
38.6141    41
38.6241    40
38.6341    42
38.6441    44
38.6541    36
38.6641    41
38.6741    42
38.6841    31
38.6941    43
38.7041    41
38.7141    54
38.7241    44
38.7341    42
38.7441    39
38.7541    45
38.7641    47
38.7741    42
38.7841    33
38.7941    38
38.8041    38
38.8141    40
38.8241    34
38.8341    34
38.8441    41
38.8541    33
38.8641    42
38.8741    37
38.8841    39
38.8941    31
38.9041    41
38.9141    36
38.9241    44
38.9341    28
38.9441    41
38.9541    30
38.9641    38
38.9741    40
38.9841    32
38.9941    40
39.0041    38
39.0141    39
39.0241    43
39.0341    45
39.0441    35
39.0541    40
39.0641    45
39.0741    43
39.0841    31
39.0941    35
39.1041    21
39.1141    37
39.1241    48
39.1341    34
39.1441    34
39.1541    21
39.1641    33
39.1741    22
39.1841    35
39.1941    43
39.2041    23
39.2141    30
39.2241    37
39.2341    33
39.2441    36
39.2541    31
39.2641    30
39.2741    41
39.2841    44
39.2941    29
39.3041    35
39.3141    29
39.3241    25
39.3341    27
39.3441    27
39.3541    29
39.3641    35
39.3741    35
39.3841    37
39.3941    35
39.4041    26
39.4141    33
39.4241    37
39.4341    32
39.4441    42
39.4541    31
39.4641    30
39.4741    25
39.4841    24
39.4941    31
39.5041    39
39.5141    24
39.5241    25
39.5341    43
39.5441    32
39.5541    33
39.5641    36
39.5741    32
39.5841    26
39.5941    26
39.6041    33
39.6141    16
39.6241    21
39.6341    32
39.6441    26
39.6541    37
39.6641    28
39.6741    30
39.6841    34
39.6941    28
39.7041    35
39.7141    35
39.7241    33
39.7341    37
39.7441    26
39.7541    25
39.7641    23
39.7741    29
39.7841    33
39.7941    36
39.8041    37
39.8141    22
39.8241    28
39.8341    37
39.8441    34
39.8541    34
39.8641    24
39.8741    23
39.8841    20
39.8941    30
39.9041    28
39.9141    22
39.9241    24
39.9341    28
39.9441    28
39.9541    22
39.9641    35
39.9741    24
39.9841    20
