Bruker Nano GmbH Berlin, Germany
Esprit 1.9

Date: 4/21/2021 1:47:48 PM
Real time: 28867
Life time: 27203
Pulse density: 83402


Detector type: XFlash 430
Window type: Custom type
Detector thickness: 0.45
Si dead layer:0.029

Calibration, lin.: 10
Calibration, abs.: -955.9
Mn FWHM: 137.05
Fano factor: 0.121
Channels: 4096

Energy Counts
-0.9559     0
-0.9459     0
-0.9359     0
-0.9259     0
-0.9159     0
-0.9059     0
-0.8959     0
-0.8859     0
-0.8759     0
-0.8659     0
-0.8559     0
-0.8459     0
-0.8359     0
-0.8259     0
-0.8159     0
-0.8059     0
-0.7959     0
-0.7859     0
-0.7759     0
-0.7659     0
-0.7559     0
-0.7459     0
-0.7359     0
-0.7259     0
-0.7159     0
-0.7059     0
-0.6959     0
-0.6859     0
-0.6759     0
-0.6659     0
-0.6559     0
-0.6459     0
-0.6359     0
-0.6259     0
-0.6159     0
-0.6059     0
-0.5959     0
-0.5859     0
-0.5759     0
-0.5659     0
-0.5559     0
-0.5459     0
-0.5359     0
-0.5259     0
-0.5159     0
-0.5059     0
-0.4959     0
-0.4859     0
-0.4759     0
-0.4659     0
-0.4559     0
-0.4459     0
-0.4359     0
-0.4259     0
-0.4159     0
-0.4059     0
-0.3959     0
-0.3859     0
-0.3759     0
-0.3659     0
-0.3559     0
-0.3459     0
-0.3359     0
-0.3259     0
-0.3159     0
-0.3059     0
-0.2959     0
-0.2859     0
-0.2759     0
-0.2659     0
-0.2559     0
-0.2459     0
-0.2359     0
-0.2259     0
-0.2159     0
-0.2059     0
-0.1959     0
-0.1859     0
-0.1759     0
-0.1659     0
-0.1559     0
-0.1459     0
-0.1359     0
-0.1259     1
-0.1159     6
-0.1059    22
-0.0959    82
-0.0859   302
-0.0759  1050
-0.0659  3142
-0.0559  7873
-0.0459 17309
-0.0359 32290
-0.0259 51862
-0.0159 71164
-0.0059 83208
 0.0041 84244
 0.0141 72103
 0.0241 53650
 0.0341 33317
 0.0441 18111
 0.0541  8468
 0.0641  3427
 0.0741  1174
 0.0841   330
 0.0941   105
 0.1041    32
 0.1141    21
 0.1241    15
 0.1341    10
 0.1441     7
 0.1541    11
 0.1641    10
 0.1741     5
 0.1841   267
 0.1941   503
 0.2041   408
 0.2141   422
 0.2241   440
 0.2341   422
 0.2441   399
 0.2541   389
 0.2641   418
 0.2741   429
 0.2841   430
 0.2941   438
 0.3041   466
 0.3141   412
 0.3241   416
 0.3341   400
 0.3441   422
 0.3541   372
 0.3641   389
 0.3741   384
 0.3841   372
 0.3941   415
 0.4041   379
 0.4141   395
 0.4241   394
 0.4341   385
 0.4441   386
 0.4541   374
 0.4641   386
 0.4741   381
 0.4841   380
 0.4941   354
 0.5041   373
 0.5141   369
 0.5241   369
 0.5341   355
 0.5441   351
 0.5541   346
 0.5641   354
 0.5741   376
 0.5841   383
 0.5941   357
 0.6041   334
 0.6141   337
 0.6241   343
 0.6341   343
 0.6441   325
 0.6541   320
 0.6641   348
 0.6741   339
 0.6841   310
 0.6941   328
 0.7041   327
 0.7141   310
 0.7241   320
 0.7341   331
 0.7441   325
 0.7541   318
 0.7641   324
 0.7741   314
 0.7841   330
 0.7941   315
 0.8041   289
 0.8141   310
 0.8241   290
 0.8341   282
 0.8441   313
 0.8541   324
 0.8641   312
 0.8741   313
 0.8841   298
 0.8941   296
 0.9041   301
 0.9141   297
 0.9241   301
 0.9341   300
 0.9441   295
 0.9541   299
 0.9641   272
 0.9741   275
 0.9841   288
 0.9941   284
 1.0041   261
 1.0141   291
 1.0241   267
 1.0341   290
 1.0441   297
 1.0541   306
 1.0641   297
 1.0741   286
 1.0841   263
 1.0941   290
 1.1041   268
 1.1141   265
 1.1241   279
 1.1341   300
 1.1441   281
 1.1541   244
 1.1641   274
 1.1741   285
 1.1841   279
 1.1941   273
 1.2041   272
 1.2141   271
 1.2241   274
 1.2341   261
 1.2441   249
 1.2541   261
 1.2641   272
 1.2741   273
 1.2841   284
 1.2941   235
 1.3041   249
 1.3141   276
 1.3241   289
 1.3341   268
 1.3441   246
 1.3541   234
 1.3641   229
 1.3741   252
 1.3841   265
 1.3941   228
 1.4041   249
 1.4141   261
 1.4241   270
 1.4341   237
 1.4441   234
 1.4541   250
 1.4641   254
 1.4741   250
 1.4841   235
 1.4941   260
 1.5041   249
 1.5141   225
 1.5241   242
 1.5341   254
 1.5441   254
 1.5541   244
 1.5641   239
 1.5741   236
 1.5841   257
 1.5941   242
 1.6041   253
 1.6141   235
 1.6241   232
 1.6341   229
 1.6441   282
 1.6541   298
 1.6641   354
 1.6741   433
 1.6841   542
 1.6941   652
 1.7041   834
 1.7141   941
 1.7241  1016
 1.7341  1079
 1.7441  1107
 1.7541  1070
 1.7641   979
 1.7741   797
 1.7841   629
 1.7941   601
 1.8041   479
 1.8141   399
 1.8241   357
 1.8341   305
 1.8441   306
 1.8541   301
 1.8641   275
 1.8741   271
 1.8841   266
 1.8941   252
 1.9041   261
 1.9141   256
 1.9241   270
 1.9341   262
 1.9441   283
 1.9541   245
 1.9641   281
 1.9741   270
 1.9841   296
 1.9941   291
 2.0041   293
 2.0141   287
 2.0241   318
 2.0341   265
 2.0441   293
 2.0541   280
 2.0641   268
 2.0741   239
 2.0841   247
 2.0941   250
 2.1041   241
 2.1141   244
 2.1241   214
 2.1341   228
 2.1441   209
 2.1541   191
 2.1641   215
 2.1741   233
 2.1841   206
 2.1941   217
 2.2041   210
 2.2141   208
 2.2241   226
 2.2341   223
 2.2441   196
 2.2541   204
 2.2641   208
 2.2741   222
 2.2841   197
 2.2941   219
 2.3041   213
 2.3141   203
 2.3241   220
 2.3341   191
 2.3441   215
 2.3541   184
 2.3641   175
 2.3741   214
 2.3841   201
 2.3941   195
 2.4041   213
 2.4141   192
 2.4241   175
 2.4341   193
 2.4441   184
 2.4541   197
 2.4641   205
 2.4741   227
 2.4841   207
 2.4941   175
 2.5041   179
 2.5141   190
 2.5241   177
 2.5341   185
 2.5441   195
 2.5541   200
 2.5641   183
 2.5741   175
 2.5841   157
 2.5941   164
 2.6041   185
 2.6141   202
 2.6241   193
 2.6341   188
 2.6441   186
 2.6541   191
 2.6641   181
 2.6741   186
 2.6841   169
 2.6941   181
 2.7041   169
 2.7141   182
 2.7241   167
 2.7341   195
 2.7441   162
 2.7541   181
 2.7641   182
 2.7741   190
 2.7841   194
 2.7941   175
 2.8041   170
 2.8141   190
 2.8241   182
 2.8341   172
 2.8441   187
 2.8541   167
 2.8641   193
 2.8741   183
 2.8841   174
 2.8941   192
 2.9041   181
 2.9141   166
 2.9241   156
 2.9341   176
 2.9441   187
 2.9541   162
 2.9641   160
 2.9741   166
 2.9841   172
 2.9941   182
 3.0041   157
 3.0141   145
 3.0241   137
 3.0341   175
 3.0441   164
 3.0541   150
 3.0641   139
 3.0741   164
 3.0841   152
 3.0941   157
 3.1041   144
 3.1141   157
 3.1241   158
 3.1341   158
 3.1441   165
 3.1541   142
 3.1641   148
 3.1741   145
 3.1841   118
 3.1941   155
 3.2041   171
 3.2141   186
 3.2241   203
 3.2341   203
 3.2441   239
 3.2541   302
 3.2641   322
 3.2741   350
 3.2841   361
 3.2941   405
 3.3041   399
 3.3141   364
 3.3241   384
 3.3341   373
 3.3441   369
 3.3541   317
 3.3641   286
 3.3741   257
 3.3841   254
 3.3941   196
 3.4041   165
 3.4141   143
 3.4241   146
 3.4341   161
 3.4441   140
 3.4541   136
 3.4641   145
 3.4741   140
 3.4841   154
 3.4941   150
 3.5041   154
 3.5141   154
 3.5241   181
 3.5341   172
 3.5441   193
 3.5541   221
 3.5641   246
 3.5741   281
 3.5841   344
 3.5941   423
 3.6041   522
 3.6141   666
 3.6241   834
 3.6341  1025
 3.6441  1209
 3.6541  1469
 3.6641  1585
 3.6741  1670
 3.6841  1743
 3.6941  1736
 3.7041  1650
 3.7141  1513
 3.7241  1381
 3.7341  1174
 3.7441   993
 3.7541   783
 3.7641   615
 3.7741   496
 3.7841   381
 3.7941   284
 3.8041   241
 3.8141   169
 3.8241   152
 3.8341   152
 3.8441   132
 3.8541   112
 3.8641   115
 3.8741   132
 3.8841   130
 3.8941   112
 3.9041   124
 3.9141   149
 3.9241   167
 3.9341   194
 3.9441   221
 3.9541   234
 3.9641   253
 3.9741   283
 3.9841   322
 3.9941   339
 4.0041   327
 4.0141   352
 4.0241   329
 4.0341   347
 4.0441   319
 4.0541   286
 4.0641   248
 4.0741   226
 4.0841   216
 4.0941   189
 4.1041   155
 4.1141   134
 4.1241   123
 4.1341   111
 4.1441   110
 4.1541   106
 4.1641   102
 4.1741    96
 4.1841   110
 4.1941   119
 4.2041   123
 4.2141   105
 4.2241   103
 4.2341   102
 4.2441   106
 4.2541    88
 4.2641   117
 4.2741    99
 4.2841    96
 4.2941   106
 4.3041   100
 4.3141   116
 4.3241   123
 4.3341   101
 4.3441   113
 4.3541   139
 4.3641   140
 4.3741   121
 4.3841   144
 4.3941   153
 4.4041   191
 4.4141   234
 4.4241   265
 4.4341   318
 4.4441   392
 4.4541   453
 4.4641   483
 4.4741   571
 4.4841   585
 4.4941   651
 4.5041   673
 4.5141   617
 4.5241   608
 4.5341   588
 4.5441   525
 4.5541   473
 4.5641   420
 4.5741   348
 4.5841   259
 4.5941   230
 4.6041   229
 4.6141   171
 4.6241   164
 4.6341   139
 4.6441   147
 4.6541   134
 4.6641   120
 4.6741   111
 4.6841   110
 4.6941   132
 4.7041   126
 4.7141   116
 4.7241   127
 4.7341   114
 4.7441   118
 4.7541    97
 4.7641   121
 4.7741   142
 4.7841   141
 4.7941   127
 4.8041   129
 4.8141   129
 4.8241   151
 4.8341   169
 4.8441   154
 4.8541   147
 4.8641   172
 4.8741   195
 4.8841   201
 4.8941   223
 4.9041   224
 4.9141   216
 4.9241   208
 4.9341   235
 4.9441   213
 4.9541   196
 4.9641   222
 4.9741   188
 4.9841   171
 4.9941   173
 5.0041   174
 5.0141   138
 5.0241   151
 5.0341   128
 5.0441   159
 5.0541   138
 5.0641   130
 5.0741   124
 5.0841   134
 5.0941   137
 5.1041   116
 5.1141   123
 5.1241   131
 5.1341   132
 5.1441   124
 5.1541   118
 5.1641   127
 5.1741   140
 5.1841   121
 5.1941   114
 5.2041   128
 5.2141   111
 5.2241   130
 5.2341   128
 5.2441   128
 5.2541   138
 5.2641   118
 5.2741   135
 5.2841   125
 5.2941   144
 5.3041   140
 5.3141   161
 5.3241   204
 5.3341   178
 5.3441   216
 5.3541   245
 5.3641   238
 5.3741   262
 5.3841   313
 5.3941   336
 5.4041   323
 5.4141   323
 5.4241   318
 5.4341   288
 5.4441   279
 5.4541   276
 5.4641   248
 5.4741   222
 5.4841   199
 5.4941   183
 5.5041   183
 5.5141   151
 5.5241   142
 5.5341   134
 5.5441   148
 5.5541   147
 5.5641   128
 5.5741   142
 5.5841   139
 5.5941   127
 5.6041   130
 5.6141   130
 5.6241   132
 5.6341   126
 5.6441   140
 5.6541   161
 5.6641   149
 5.6741   143
 5.6841   123
 5.6941   143
 5.7041   159
 5.7141   154
 5.7241   136
 5.7341   146
 5.7441   135
 5.7541   146
 5.7641   176
 5.7741   180
 5.7841   174
 5.7941   184
 5.8041   213
 5.8141   238
 5.8241   263
 5.8341   296
 5.8441   269
 5.8541   333
 5.8641   384
 5.8741   384
 5.8841   407
 5.8941   411
 5.9041   423
 5.9141   369
 5.9241   370
 5.9341   373
 5.9441   344
 5.9541   336
 5.9641   297
 5.9741   271
 5.9841   273
 5.9941   225
 6.0041   231
 6.0141   198
 6.0241   209
 6.0341   182
 6.0441   178
 6.0541   215
 6.0641   180
 6.0741   178
 6.0841   168
 6.0941   166
 6.1041   178
 6.1141   198
 6.1241   170
 6.1341   184
 6.1441   197
 6.1541   208
 6.1641   189
 6.1741   217
 6.1841   215
 6.1941   233
 6.2041   258
 6.2141   320
 6.2241   400
 6.2341   505
 6.2441   707
 6.2541   918
 6.2641  1128
 6.2741  1625
 6.2841  2215
 6.2941  2870
 6.3041  3541
 6.3141  4645
 6.3241  5594
 6.3341  6774
 6.3441  7945
 6.3541  8903
 6.3641 10039
 6.3741 10804
 6.3841 11691
 6.3941 11818
 6.4041 11677
 6.4141 11480
 6.4241 10746
 6.4341  9899
 6.4441  8894
 6.4541  7747
 6.4641  6665
 6.4741  5509
 6.4841  4420
 6.4941  3462
 6.5041  2747
 6.5141  2035
 6.5241  1478
 6.5341  1141
 6.5441   791
 6.5541   601
 6.5641   454
 6.5741   346
 6.5841   327
 6.5941   295
 6.6041   247
 6.6141   199
 6.6241   207
 6.6341   216
 6.6441   208
 6.6541   199
 6.6641   223
 6.6741   216
 6.6841   199
 6.6941   204
 6.7041   208
 6.7141   206
 6.7241   236
 6.7341   217
 6.7441   197
 6.7541   205
 6.7641   195
 6.7741   222
 6.7841   194
 6.7941   220
 6.8041   232
 6.8141   244
 6.8241   235
 6.8341   248
 6.8441   238
 6.8541   256
 6.8641   291
 6.8741   274
 6.8841   329
 6.8941   375
 6.9041   366
 6.9141   440
 6.9241   519
 6.9341   574
 6.9441   632
 6.9541   727
 6.9641   949
 6.9741  1043
 6.9841  1174
 6.9941  1373
 7.0041  1511
 7.0141  1732
 7.0241  1837
 7.0341  1946
 7.0441  1904
 7.0541  2014
 7.0641  1982
 7.0741  1792
 7.0841  1807
 7.0941  1739
 7.1041  1478
 7.1141  1368
 7.1241  1238
 7.1341   998
 7.1441   886
 7.1541   755
 7.1641   663
 7.1741   509
 7.1841   438
 7.1941   412
 7.2041   375
 7.2141   331
 7.2241   300
 7.2341   307
 7.2441   262
 7.2541   279
 7.2641   310
 7.2741   286
 7.2841   312
 7.2941   310
 7.3041   359
 7.3141   376
 7.3241   364
 7.3341   399
 7.3441   428
 7.3541   448
 7.3641   454
 7.3741   495
 7.3841   531
 7.3941   540
 7.4041   594
 7.4141   560
 7.4241   601
 7.4341   626
 7.4441   618
 7.4541   661
 7.4641   677
 7.4741   629
 7.4841   587
 7.4941   605
 7.5041   585
 7.5141   534
 7.5241   504
 7.5341   456
 7.5441   429
 7.5541   427
 7.5641   387
 7.5741   383
 7.5841   366
 7.5941   335
 7.6041   324
 7.6141   342
 7.6241   287
 7.6341   309
 7.6441   324
 7.6541   326
 7.6641   323
 7.6741   323
 7.6841   325
 7.6941   339
 7.7041   342
 7.7141   353
 7.7241   324
 7.7341   380
 7.7441   384
 7.7541   356
 7.7641   368
 7.7741   373
 7.7841   390
 7.7941   386
 7.8041   406
 7.8141   379
 7.8241   382
 7.8341   409
 7.8441   422
 7.8541   432
 7.8641   453
 7.8741   435
 7.8841   463
 7.8941   498
 7.9041   496
 7.9141   507
 7.9241   538
 7.9341   606
 7.9441   581
 7.9541   605
 7.9641   671
 7.9741   723
 7.9841   774
 7.9941   810
 8.0041   906
 8.0141   924
 8.0241  1078
 8.0341  1133
 8.0441  1182
 8.0541  1291
 8.0641  1367
 8.0741  1430
 8.0841  1503
 8.0941  1562
 8.1041  1675
 8.1141  1725
 8.1241  1795
 8.1341  1946
 8.1441  2023
 8.1541  1968
 8.1641  2052
 8.1741  2046
 8.1841  2058
 8.1941  2134
 8.2041  2104
 8.2141  2081
 8.2241  2145
 8.2341  2150
 8.2441  2196
 8.2541  2250
 8.2641  2500
 8.2741  2551
 8.2841  2678
 8.2941  2903
 8.3041  3075
 8.3141  3222
 8.3241  3485
 8.3341  3793
 8.3441  4005
 8.3541  4131
 8.3641  4321
 8.3741  4389
 8.3841  4572
 8.3941  4469
 8.4041  4357
 8.4141  4199
 8.4241  3939
 8.4341  3625
 8.4441  3301
 8.4541  3049
 8.4641  2709
 8.4741  2349
 8.4841  2050
 8.4941  1736
 8.5041  1489
 8.5141  1197
 8.5241  1036
 8.5341   883
 8.5441   764
 8.5541   707
 8.5641   641
 8.5741   607
 8.5841   575
 8.5941   536
 8.6041   551
 8.6141   542
 8.6241   537
 8.6341   504
 8.6441   518
 8.6541   554
 8.6641   526
 8.6741   499
 8.6841   500
 8.6941   484
 8.7041   481
 8.7141   520
 8.7241   494
 8.7341   481
 8.7441   458
 8.7541   462
 8.7641   492
 8.7741   470
 8.7841   436
 8.7941   434
 8.8041   448
 8.8141   501
 8.8241   486
 8.8341   502
 8.8441   448
 8.8541   464
 8.8641   544
 8.8741   508
 8.8841   501
 8.8941   536
 8.9041   542
 8.9141   523
 8.9241   553
 8.9341   583
 8.9441   555
 8.9541   536
 8.9641   597
 8.9741   598
 8.9841   611
 8.9941   620
 9.0041   606
 9.0141   602
 9.0241   626
 9.0341   667
 9.0441   661
 9.0541   667
 9.0641   655
 9.0741   676
 9.0841   704
 9.0941   774
 9.1041   805
 9.1141   771
 9.1241   810
 9.1341   817
 9.1441   852
 9.1541   943
 9.1641   941
 9.1741   962
 9.1841  1016
 9.1941  1107
 9.2041  1142
 9.2141  1187
 9.2241  1195
 9.2341  1244
 9.2441  1384
 9.2541  1420
 9.2641  1451
 9.2741  1535
 9.2841  1611
 9.2941  1657
 9.3041  1679
 9.3141  1812
 9.3241  1789
 9.3341  1899
 9.3441  1917
 9.3541  2008
 9.3641  2047
 9.3741  2048
 9.3841  2112
 9.3941  2077
 9.4041  2113
 9.4141  2115
 9.4241  2231
 9.4341  2230
 9.4441  2205
 9.4541  2283
 9.4641  2270
 9.4741  2328
 9.4841  2368
 9.4941  2499
 9.5041  2487
 9.5141  2587
 9.5241  2678
 9.5341  2749
 9.5441  2862
 9.5541  2976
 9.5641  3084
 9.5741  3255
 9.5841  3418
 9.5941  3647
 9.6041  3858
 9.6141  4024
 9.6241  4234
 9.6341  4322
 9.6441  4440
 9.6541  4626
 9.6641  4583
 9.6741  4508
 9.6841  4459
 9.6941  4261
 9.7041  4126
 9.7141  3980
 9.7241  3845
 9.7341  3542
 9.7441  3273
 9.7541  3002
 9.7641  2820
 9.7741  2593
 9.7841  2435
 9.7941  2245
 9.8041  2050
 9.8141  2023
 9.8241  2019
 9.8341  1839
 9.8441  1787
 9.8541  1891
 9.8641  1809
 9.8741  1837
 9.8841  1781
 9.8941  1859
 9.9041  1922
 9.9141  1959
 9.9241  1958
 9.9341  1938
 9.9441  1993
 9.9541  1969
 9.9641  1915
 9.9741  1858
 9.9841  1827
 9.9941  1722
10.0041  1696
10.0141  1499
10.0241  1365
10.0341  1247
10.0441  1139
10.0541  1055
10.0641   927
10.0741   827
10.0841   752
10.0941   652
10.1041   607
10.1141   537
10.1241   518
10.1341   470
10.1441   420
10.1541   434
10.1641   395
10.1741   357
10.1841   366
10.1941   373
10.2041   348
10.2141   322
10.2241   334
10.2341   320
10.2441   310
10.2541   286
10.2641   298
10.2741   308
10.2841   274
10.2941   289
10.3041   293
10.3141   259
10.3241   264
10.3341   270
10.3441   280
10.3541   288
10.3641   272
10.3741   295
10.3841   285
10.3941   282
10.4041   268
10.4141   268
10.4241   303
10.4341   287
10.4441   299
10.4541   294
10.4641   284
10.4741   283
10.4841   302
10.4941   293
10.5041   290
10.5141   302
10.5241   309
10.5341   302
10.5441   304
10.5541   280
10.5641   315
10.5741   312
10.5841   337
10.5941   342
10.6041   307
10.6141   303
10.6241   298
10.6341   319
10.6441   354
10.6541   348
10.6641   334
10.6741   318
10.6841   317
10.6941   336
10.7041   363
10.7141   347
10.7241   359
10.7341   371
10.7441   377
10.7541   401
10.7641   382
10.7741   415
10.7841   413
10.7941   420
10.8041   430
10.8141   452
10.8241   469
10.8341   451
10.8441   444
10.8541   476
10.8641   491
10.8741   467
10.8841   478
10.8941   482
10.9041   475
10.9141   463
10.9241   465
10.9341   488
10.9441   496
10.9541   479
10.9641   453
10.9741   490
10.9841   473
10.9941   441
11.0041   430
11.0141   423
11.0241   432
11.0341   441
11.0441   419
11.0541   456
11.0641   411
11.0741   406
11.0841   413
11.0941   419
11.1041   392
11.1141   414
11.1241   431
11.1341   448
11.1441   443
11.1541   461
11.1641   474
11.1741   488
11.1841   514
11.1941   526
11.2041   550
11.2141   592
11.2241   630
11.2341   643
11.2441   696
11.2541   685
11.2641   679
11.2741   700
11.2841   707
11.2941   672
11.3041   678
11.3141   677
11.3241   662
11.3341   621
11.3441   577
11.3541   545
11.3641   539
11.3741   529
11.3841   476
11.3941   461
11.4041   426
11.4141   395
11.4241   392
11.4341   364
11.4441   360
11.4541   352
11.4641   368
11.4741   335
11.4841   306
11.4941   315
11.5041   320
11.5141   333
11.5241   336
11.5341   326
11.5441   323
11.5541   323
11.5641   327
11.5741   326
11.5841   370
11.5941   360
11.6041   344
11.6141   337
11.6241   346
11.6341   339
11.6441   337
11.6541   345
11.6641   357
11.6741   329
11.6841   325
11.6941   322
11.7041   318
11.7141   319
11.7241   321
11.7341   310
11.7441   291
11.7541   274
11.7641   264
11.7741   264
11.7841   270
11.7941   269
11.8041   266
11.8141   263
11.8241   241
11.8341   269
11.8441   266
11.8541   243
11.8641   243
11.8741   247
11.8841   248
11.8941   249
11.9041   254
11.9141   250
11.9241   242
11.9341   238
11.9441   251
11.9541   253
11.9641   228
11.9741   237
11.9841   273
11.9941   273
12.0041   275
12.0141   268
12.0241   255
12.0341   260
12.0441   257
12.0541   283
12.0641   299
12.0741   291
12.0841   275
12.0941   278
12.1041   274
12.1141   257
12.1241   246
12.1341   244
12.1441   255
12.1541   252
12.1641   247
12.1741   257
12.1841   251
12.1941   244
12.2041   258
12.2141   244
12.2241   245
12.2341   249
12.2441   252
12.2541   243
12.2641   242
12.2741   240
12.2841   236
12.2941   255
12.3041   266
12.3141   261
12.3241   255
12.3341   264
12.3441   264
12.3541   254
12.3641   249
12.3741   245
12.3841   250
12.3941   259
12.4041   253
12.4141   248
12.4241   256
12.4341   268
12.4441   267
12.4541   260
12.4641   269
12.4741   264
12.4841   266
12.4941   269
12.5041   288
12.5141   269
12.5241   257
12.5341   258
12.5441   267
12.5541   286
12.5641   291
12.5741   290
12.5841   282
12.5941   278
12.6041   277
12.6141   297
12.6241   309
12.6341   297
12.6441   291
12.6541   299
12.6641   312
12.6741   307
12.6841   307
12.6941   288
12.7041   293
12.7141   314
12.7241   300
12.7341   311
12.7441   312
12.7541   294
12.7641   279
12.7741   284
12.7841   313
12.7941   317
12.8041   314
12.8141   295
12.8241   277
12.8341   298
12.8441   294
12.8541   290
12.8641   291
12.8741   303
12.8841   310
12.8941   303
12.9041   291
12.9141   316
12.9241   309
12.9341   309
12.9441   313
12.9541   301
12.9641   289
12.9741   293
12.9841   300
12.9941   301
13.0041   289
13.0141   284
13.0241   304
13.0341   313
13.0441   297
13.0541   308
13.0641   316
13.0741   315
13.0841   296
13.0941   306
13.1041   305
13.1141   298
13.1241   324
13.1341   350
13.1441   334
13.1541   329
13.1641   337
13.1741   344
13.1841   352
13.1941   363
13.2041   379
13.2141   379
13.2241   373
13.2341   369
13.2441   389
13.2541   435
13.2641   456
13.2741   443
13.2841   467
13.2941   474
13.3041   476
13.3141   505
13.3241   523
13.3341   555
13.3441   587
13.3541   601
13.3641   588
13.3741   582
13.3841   574
13.3941   569
13.4041   582
13.4141   581
13.4241   557
13.4341   536
13.4441   538
13.4541   509
13.4641   479
13.4741   480
13.4841   449
13.4941   429
13.5041   423
13.5141   422
13.5241   401
13.5341   398
13.5441   414
13.5541   411
13.5641   395
13.5741   376
13.5841   369
13.5941   366
13.6041   364
13.6141   348
13.6241   342
13.6341   349
13.6441   357
13.6541   362
13.6641   363
13.6741   379
13.6841   383
13.6941   343
13.7041   339
13.7141   363
13.7241   378
13.7341   368
13.7441   364
13.7541   376
13.7641   368
13.7741   371
13.7841   376
13.7941   381
13.8041   385
13.8141   388
13.8241   369
13.8341   358
13.8441   377
13.8541   384
13.8641   385
13.8741   383
13.8841   355
13.8941   360
13.9041   399
13.9141   412
13.9241   429
13.9341   432
13.9441   428
13.9541   467
13.9641   481
13.9741   472
13.9841   486
13.9941   513
14.0041   532
14.0141   542
14.0241   569
14.0341   602
14.0441   620
14.0541   643
14.0641   667
14.0741   691
14.0841   732
14.0941   750
14.1041   751
14.1141   791
14.1241   814
14.1341   804
14.1441   822
14.1541   841
14.1641   844
14.1741   821
14.1841   809
14.1941   792
14.2041   755
14.2141   734
14.2241   732
14.2341   695
14.2441   654
14.2541   643
14.2641   598
14.2741   566
14.2841   564
14.2941   541
14.3041   518
14.3141   514
14.3241   497
14.3341   485
14.3441   483
14.3541   476
14.3641   474
14.3741   450
14.3841   427
14.3941   445
14.4041   424
14.4141   420
14.4241   428
14.4341   421
14.4441   442
14.4541   459
14.4641   440
14.4741   416
14.4841   425
14.4941   417
14.5041   392
14.5141   409
14.5241   433
14.5341   433
14.5441   430
14.5541   431
14.5641   444
14.5741   452
14.5841   430
14.5941   424
14.6041   429
14.6141   425
14.6241   448
14.6341   468
14.6441   447
14.6541   445
14.6641   460
14.6741   433
14.6841   416
14.6941   465
14.7041   489
14.7141   448
14.7241   451
14.7341   459
14.7441   463
14.7541   472
14.7641   467
14.7741   469
14.7841   464
14.7941   453
14.8041   449
14.8141   478
14.8241   503
14.8341   482
14.8441   466
14.8541   468
14.8641   507
14.8741   526
14.8841   535
14.8941   532
14.9041   504
14.9141   518
14.9241   563
14.9341   575
14.9441   554
14.9541   528
14.9641   523
14.9741   532
14.9841   552
14.9941   550
15.0041   550
15.0141   536
15.0241   498
15.0341   501
15.0441   516
15.0541   535
15.0641   502
15.0741   483
15.0841   493
15.0941   511
15.1041   520
15.1141   499
15.1241   480
15.1341   486
15.1441   498
15.1541   505
15.1641   499
15.1741   495
15.1841   495
15.1941   499
15.2041   488
15.2141   487
15.2241   499
15.2341   517
15.2441   523
15.2541   489
15.2641   527
15.2741   545
15.2841   516
15.2941   493
15.3041   498
15.3141   495
15.3241   523
15.3341   539
15.3441   544
15.3541   514
15.3641   493
15.3741   493
15.3841   487
15.3941   502
15.4041   509
15.4141   527
15.4241   489
15.4341   486
15.4441   505
15.4541   508
15.4641   526
15.4741   533
15.4841   529
15.4941   525
15.5041   522
15.5141   553
15.5241   548
15.5341   546
15.5441   572
15.5541   552
15.5641   519
15.5741   554
15.5841   578
15.5941   584
15.6041   577
15.6141   606
15.6241   614
15.6341   644
15.6441   647
15.6541   653
15.6641   668
15.6741   680
15.6841   707
15.6941   709
15.7041   724
15.7141   737
15.7241   729
15.7341   728
15.7441   720
15.7541   777
15.7641   807
15.7741   773
15.7841   787
15.7941   784
15.8041   776
15.8141   754
15.8241   748
15.8341   759
15.8441   760
15.8541   747
15.8641   705
15.8741   687
15.8841   680
15.8941   670
15.9041   636
15.9141   656
15.9241   650
15.9341   619
15.9441   629
15.9541   642
15.9641   605
15.9741   599
15.9841   592
15.9941   584
16.0041   603
16.0141   583
16.0241   566
16.0341   581
16.0441   583
16.0541   594
16.0641   597
16.0741   623
16.0841   615
16.0941   593
16.1041   589
16.1141   603
16.1241   629
16.1341   597
16.1441   602
16.1541   601
16.1641   593
16.1741   580
16.1841   588
16.1941   611
16.2041   612
16.2141   591
16.2241   603
16.2341   591
16.2441   569
16.2541   586
16.2641   575
16.2741   612
16.2841   606
16.2941   616
16.3041   605
16.3141   597
16.3241   616
16.3341   610
16.3441   624
16.3541   614
16.3641   633
16.3741   606
16.3841   595
16.3941   593
16.4041   624
16.4141   616
16.4241   621
16.4341   625
16.4441   602
16.4541   595
16.4641   609
16.4741   616
16.4841   627
16.4941   636
16.5041   641
16.5141   642
16.5241   628
16.5341   657
16.5441   668
16.5541   656
16.5641   649
16.5741   635
16.5841   640
16.5941   650
16.6041   658
16.6141   652
16.6241   621
16.6341   665
16.6441   625
16.6541   613
16.6641   622
16.6741   637
16.6841   664
16.6941   644
16.7041   651
16.7141   656
16.7241   649
16.7341   651
16.7441   657
16.7541   631
16.7641   643
16.7741   659
16.7841   648
16.7941   684
16.8041   680
16.8141   652
16.8241   651
16.8341   637
16.8441   662
16.8541   647
16.8641   636
16.8741   606
16.8841   669
16.8941   665
16.9041   655
16.9141   693
16.9241   690
16.9341   654
16.9441   644
16.9541   651
16.9641   647
16.9741   660
16.9841   659
16.9941   662
17.0041   633
17.0141   638
17.0241   676
17.0341   699
17.0441   656
17.0541   663
17.0641   674
17.0741   714
17.0841   732
17.0941   737
17.1041   706
17.1141   660
17.1241   665
17.1341   679
17.1441   650
17.1541   668
17.1641   682
17.1741   695
17.1841   696
17.1941   684
17.2041   690
17.2141   697
17.2241   675
17.2341   670
17.2441   693
17.2541   734
17.2641   703
17.2741   680
17.2841   681
17.2941   664
17.3041   673
17.3141   720
17.3241   716
17.3341   709
17.3441   745
17.3541   723
17.3641   667
17.3741   695
17.3841   743
17.3941   737
17.4041   732
17.4141   761
17.4241   751
17.4341   750
17.4441   714
17.4541   690
17.4641   705
17.4741   737
17.4841   765
17.4941   738
17.5041   711
17.5141   682
17.5241   699
17.5341   747
17.5441   737
17.5541   768
17.5641   734
17.5741   720
17.5841   749
17.5941   764
17.6041   760
17.6141   766
17.6241   780
17.6341   731
17.6441   782
17.6541   804
17.6641   778
17.6741   747
17.6841   746
17.6941   771
17.7041   763
17.7141   788
17.7241   745
17.7341   755
17.7441   796
17.7541   770
17.7641   760
17.7741   764
17.7841   773
17.7941   785
17.8041   748
17.8141   758
17.8241   763
17.8341   749
17.8441   766
17.8541   785
17.8641   772
17.8741   796
17.8841   733
17.8941   756
17.9041   763
17.9141   766
17.9241   792
17.9341   754
17.9441   780
17.9541   801
17.9641   794
17.9741   801
17.9841   787
17.9941   829
18.0041   825
18.0141   811
18.0241   785
18.0341   762
18.0441   785
18.0541   785
18.0641   792
18.0741   794
18.0841   768
18.0941   790
18.1041   800
18.1141   775
18.1241   774
18.1341   799
18.1441   805
18.1541   771
18.1641   775
18.1741   771
18.1841   790
18.1941   805
18.2041   824
18.2141   783
18.2241   760
18.2341   775
18.2441   760
18.2541   774
18.2641   774
18.2741   760
18.2841   788
18.2941   755
18.3041   804
18.3141   811
18.3241   799
18.3341   779
18.3441   792
18.3541   778
18.3641   784
18.3741   756
18.3841   760
18.3941   784
18.4041   771
18.4141   811
18.4241   810
18.4341   842
18.4441   804
18.4541   776
18.4641   780
18.4741   775
18.4841   785
18.4941   797
18.5041   757
18.5141   784
18.5241   812
18.5341   808
18.5441   802
18.5541   823
18.5641   837
18.5741   824
18.5841   843
18.5941   828
18.6041   822
18.6141   784
18.6241   849
18.6341   825
18.6441   833
18.6541   818
18.6641   829
18.6741   815
18.6841   861
18.6941   846
18.7041   799
18.7141   796
18.7241   799
18.7341   810
18.7441   837
18.7541   805
18.7641   785
18.7741   799
18.7841   803
18.7941   785
18.8041   832
18.8141   826
18.8241   851
18.8341   836
18.8441   785
18.8541   823
18.8641   827
18.8741   843
18.8841   854
18.8941   815
18.9041   818
18.9141   838
18.9241   814
18.9341   799
18.9441   778
18.9541   782
18.9641   821
18.9741   813
18.9841   826
18.9941   831
19.0041   856
19.0141   800
19.0241   801
19.0341   854
19.0441   830
19.0541   835
19.0641   807
19.0741   827
19.0841   825
19.0941   805
19.1041   821
19.1141   842
19.1241   855
19.1341   820
19.1441   841
19.1541   849
19.1641   809
19.1741   853
19.1841   897
19.1941   867
19.2041   832
19.2141   862
19.2241   837
19.2341   829
19.2441   832
19.2541   837
19.2641   873
19.2741   836
19.2841   849
19.2941   852
19.3041   822
19.3141   832
19.3241   868
19.3341   858
19.3441   821
19.3541   857
19.3641   867
19.3741   829
19.3841   914
19.3941   877
19.4041   837
19.4141   887
19.4241   847
19.4341   853
19.4441   882
19.4541   899
19.4641   824
19.4741   819
19.4841   838
19.4941   870
19.5041   859
19.5141   866
19.5241   837
19.5341   898
19.5441   882
19.5541   855
19.5641   887
19.5741   867
19.5841   845
19.5941   849
19.6041   835
19.6141   861
19.6241   844
19.6341   819
19.6441   850
19.6541   863
19.6641   860
19.6741   850
19.6841   879
19.6941   868
19.7041   863
19.7141   878
19.7241   855
19.7341   848
19.7441   901
19.7541   889
19.7641   898
19.7741   847
19.7841   862
19.7941   874
19.8041   867
19.8141   836
19.8241   822
19.8341   878
19.8441   851
19.8541   856
19.8641   863
19.8741   879
19.8841   884
19.8941   864
19.9041   841
19.9141   913
19.9241   896
19.9341   880
19.9441   858
19.9541   902
19.9641   925
19.9741   904
19.9841   896
19.9941   845
20.0041   878
20.0141   855
20.0241   850
20.0341   891
20.0441   848
20.0541   871
20.0641   896
20.0741   922
20.0841   902
20.0941   917
20.1041   887
20.1141   876
20.1241   866
20.1341   885
20.1441   868
20.1541   841
20.1641   875
20.1741   872
20.1841   862
20.1941   878
20.2041   896
20.2141   892
20.2241   846
20.2341   832
20.2441   883
20.2541   876
20.2641   888
20.2741   885
20.2841   870
20.2941   928
20.3041   899
20.3141   870
20.3241   868
20.3341   892
20.3441   881
20.3541   853
20.3641   864
20.3741   952
20.3841   856
20.3941   830
20.4041   844
20.4141   930
20.4241   835
20.4341   871
20.4441   902
20.4541   863
20.4641   875
20.4741   911
20.4841   859
20.4941   857
20.5041   872
20.5141   887
20.5241   894
20.5341   832
20.5441   823
20.5541   828
20.5641   869
20.5741   881
20.5841   851
20.5941   896
20.6041   883
20.6141   854
20.6241   828
20.6341   931
20.6441   934
20.6541   835
20.6641   853
20.6741   858
20.6841   850
20.6941   908
20.7041   895
20.7141   871
20.7241   923
20.7341   875
20.7441   861
20.7541   868
20.7641   899
20.7741   911
20.7841   928
20.7941   881
20.8041   952
20.8141   890
20.8241   974
20.8341   917
20.8441   926
20.8541   945
20.8641   958
20.8741   988
20.8841   995
20.8941   966
20.9041   994
20.9141   988
20.9241  1010
20.9341  1037
20.9441  1063
20.9541  1062
20.9641  1086
20.9741  1076
20.9841  1127
20.9941  1121
21.0041  1128
21.0141  1214
21.0241  1231
21.0341  1198
21.0441  1221
21.0541  1213
21.0641  1302
21.0741  1268
21.0841  1210
21.0941  1200
21.1041  1267
21.1141  1302
21.1241  1281
21.1341  1310
21.1441  1279
21.1541  1301
21.1641  1285
21.1741  1266
21.1841  1236
21.1941  1192
21.2041  1189
21.2141  1216
21.2241  1199
21.2341  1156
21.2441  1176
21.2541  1156
21.2641  1123
21.2741  1109
21.2841  1082
21.2941  1073
21.3041  1034
21.3141  1009
21.3241   928
21.3341   967
21.3441  1002
21.3541   986
21.3641   948
21.3741  1018
21.3841   903
21.3941   926
21.4041   881
21.4141   886
21.4241   902
21.4341   919
21.4441   899
21.4541   926
21.4641   908
21.4741   854
21.4841   912
21.4941   871
21.5041   917
21.5141   865
21.5241   919
21.5341   906
21.5441   858
21.5541   870
21.5641   916
21.5741   870
21.5841   949
21.5941   873
21.6041   898
21.6141   891
21.6241   954
21.6341   899
21.6441   844
21.6541   910
21.6641   895
21.6741   836
21.6841   886
21.6941   891
21.7041   878
21.7141   881
21.7241   809
21.7341   864
21.7441   909
21.7541   969
21.7641   835
21.7741   880
21.7841   898
21.7941   931
21.8041   912
21.8141   840
21.8241   841
21.8341   911
21.8441   848
21.8541   866
21.8641   864
21.8741   893
21.8841   871
21.8941   916
21.9041   893
21.9141   860
21.9241   852
21.9341   873
21.9441   885
21.9541   878
21.9641   879
21.9741   898
21.9841   919
21.9941   871
22.0041   916
22.0141   908
22.0241   860
22.0341   890
22.0441   900
22.0541   891
22.0641   924
22.0741   912
22.0841   870
22.0941   862
22.1041   858
22.1141   878
22.1241   869
22.1341   847
22.1441   885
22.1541   883
22.1641   840
22.1741   864
22.1841   883
22.1941   879
22.2041   874
22.2141   905
22.2241   846
22.2341   851
22.2441   912
22.2541   915
22.2641   834
22.2741   869
22.2841   866
22.2941   888
22.3041   854
22.3141   850
22.3241   884
22.3341   849
22.3441   890
22.3541   820
22.3641   858
22.3741   818
22.3841   889
22.3941   850
22.4041   890
22.4141   857
22.4241   872
22.4341   876
22.4441   845
22.4541   844
22.4641   909
22.4741   878
22.4841   897
22.4941   907
22.5041   914
22.5141   871
22.5241   848
22.5341   895
22.5441   844
22.5541   848
22.5641   884
22.5741   832
22.5841   834
22.5941   825
22.6041   908
22.6141   839
22.6241   799
22.6341   869
22.6441   836
22.6541   851
22.6641   849
22.6741   822
22.6841   909
22.6941   854
22.7041   857
22.7141   871
22.7241   867
22.7341   888
22.7441   846
22.7541   879
22.7641   851
22.7741   900
22.7841   883
22.7941   807
22.8041   862
22.8141   855
22.8241   829
22.8341   859
22.8441   813
22.8541   881
22.8641   843
22.8741   836
22.8841   818
22.8941   831
22.9041   786
22.9141   886
22.9241   807
22.9341   856
22.9441   837
22.9541   841
22.9641   870
22.9741   808
22.9841   830
22.9941   782
23.0041   873
23.0141   797
23.0241   825
23.0341   874
23.0441   887
23.0541   848
23.0641   820
23.0741   808
23.0841   869
23.0941   859
23.1041   807
23.1141   846
23.1241   805
23.1341   824
23.1441   831
23.1541   807
23.1641   839
23.1741   816
23.1841   832
23.1941   833
23.2041   823
23.2141   834
23.2241   884
23.2341   849
23.2441   755
23.2541   837
23.2641   878
23.2741   819
23.2841   843
23.2941   808
23.3041   806
23.3141   832
23.3241   829
23.3341   842
23.3441   845
23.3541   803
23.3641   818
23.3741   812
23.3841   807
23.3941   780
23.4041   785
23.4141   801
23.4241   825
23.4341   815
23.4441   819
23.4541   810
23.4641   820
23.4741   805
23.4841   830
23.4941   806
23.5041   854
23.5141   852
23.5241   772
23.5341   832
23.5441   802
23.5541   820
23.5641   789
23.5741   838
23.5841   839
23.5941   836
23.6041   847
23.6141   809
23.6241   835
23.6341   849
23.6441   827
23.6541   828
23.6641   916
23.6741   847
23.6841   874
23.6941   871
23.7041   812
23.7141   802
23.7241   882
23.7341   907
23.7441   885
23.7541   862
23.7641   888
23.7741   867
23.7841   872
23.7941   923
23.8041   897
23.8141   871
23.8241   845
23.8341   833
23.8441   910
23.8541   831
23.8641   862
23.8741   865
23.8841   870
23.8941   842
23.9041   817
23.9141   855
23.9241   860
23.9341   839
23.9441   789
23.9541   828
23.9641   800
23.9741   833
23.9841   829
23.9941   855
24.0041   821
24.0141   814
24.0241   803
24.0341   762
24.0441   740
24.0541   770
24.0641   790
24.0741   797
24.0841   831
24.0941   787
24.1041   838
24.1141   819
24.1241   812
24.1341   777
24.1441   822
24.1541   762
24.1641   741
24.1741   784
24.1841   791
24.1941   761
24.2041   818
24.2141   784
24.2241   777
24.2341   825
24.2441   832
24.2541   794
24.2641   782
24.2741   749
24.2841   798
24.2941   787
24.3041   739
24.3141   794
24.3241   766
24.3341   767
24.3441   788
24.3541   773
24.3641   787
24.3741   762
24.3841   758
24.3941   797
24.4041   796
24.4141   771
24.4241   769
24.4341   766
24.4441   740
24.4541   767
24.4641   785
24.4741   788
24.4841   751
24.4941   808
24.5041   754
24.5141   779
24.5241   764
24.5341   736
24.5441   733
24.5541   782
24.5641   766
24.5741   751
24.5841   769
24.5941   760
24.6041   770
24.6141   723
24.6241   769
24.6341   742
24.6441   721
24.6541   738
24.6641   759
24.6741   741
24.6841   764
24.6941   750
24.7041   766
24.7141   763
24.7241   738
24.7341   741
24.7441   773
24.7541   738
24.7641   737
24.7741   753
24.7841   772
24.7941   752
24.8041   718
24.8141   714
24.8241   729
24.8341   730
24.8441   768
24.8541   744
24.8641   741
24.8741   773
24.8841   759
24.8941   713
24.9041   731
24.9141   708
24.9241   755
24.9341   696
24.9441   748
24.9541   717
24.9641   772
24.9741   713
24.9841   746
24.9941   759
25.0041   787
25.0141   751
25.0241   739
25.0341   695
25.0441   696
25.0541   697
25.0641   748
25.0741   767
25.0841   790
25.0941   744
25.1041   776
25.1141   741
25.1241   740
25.1341   761
25.1441   744
25.1541   702
25.1641   751
25.1741   704
25.1841   795
25.1941   721
25.2041   743
25.2141   702
25.2241   767
25.2341   794
25.2441   719
25.2541   718
25.2641   782
25.2741   747
25.2841   771
25.2941   717
25.3041   753
25.3141   748
25.3241   736
25.3341   741
25.3441   763
25.3541   733
25.3641   741
25.3741   699
25.3841   721
25.3941   710
25.4041   742
25.4141   763
25.4241   695
25.4341   677
25.4441   700
25.4541   683
25.4641   678
25.4741   715
25.4841   703
25.4941   710
25.5041   735
25.5141   678
25.5241   722
25.5341   668
25.5441   672
25.5541   686
25.5641   685
25.5741   710
25.5841   704
25.5941   714
25.6041   704
25.6141   677
25.6241   663
25.6341   641
25.6441   689
25.6541   670
25.6641   688
25.6741   711
25.6841   678
25.6941   693
25.7041   717
25.7141   700
25.7241   726
25.7341   682
25.7441   684
25.7541   700
25.7641   714
25.7741   700
25.7841   683
25.7941   693
25.8041   657
25.8141   664
25.8241   705
25.8341   648
25.8441   687
25.8541   646
25.8641   657
25.8741   702
25.8841   705
25.8941   662
25.9041   658
25.9141   683
25.9241   677
25.9341   685
25.9441   692
25.9541   653
25.9641   688
25.9741   694
25.9841   673
25.9941   698
26.0041   689
26.0141   698
26.0241   679
26.0341   662
26.0441   671
26.0541   641
26.0641   652
26.0741   662
26.0841   677
26.0941   664
26.1041   671
26.1141   631
26.1241   668
26.1341   708
26.1441   661
26.1541   700
26.1641   642
26.1741   662
26.1841   740
26.1941   646
26.2041   603
26.2141   628
26.2241   702
26.2341   665
26.2441   648
26.2541   627
26.2641   633
26.2741   612
26.2841   632
26.2941   602
26.3041   604
26.3141   698
26.3241   613
26.3341   629
26.3441   610
26.3541   624
26.3641   596
26.3741   639
26.3841   611
26.3941   650
26.4041   648
26.4141   647
26.4241   636
26.4341   606
26.4441   618
26.4541   645
26.4641   642
26.4741   627
26.4841   675
26.4941   626
26.5041   616
26.5141   614
26.5241   591
26.5341   595
26.5441   628
26.5541   639
26.5641   622
26.5741   673
26.5841   622
26.5941   603
26.6041   664
26.6141   621
26.6241   610
26.6341   571
26.6441   641
26.6541   601
26.6641   602
26.6741   594
26.6841   623
26.6941   634
26.7041   608
26.7141   574
26.7241   584
26.7341   581
26.7441   610
26.7541   600
26.7641   608
26.7741   580
26.7841   623
26.7941   633
26.8041   611
26.8141   593
26.8241   607
26.8341   588
26.8441   558
26.8541   544
26.8641   583
26.8741   595
26.8841   603
26.8941   616
26.9041   609
26.9141   608
26.9241   605
26.9341   654
26.9441   589
26.9541   586
26.9641   593
26.9741   586
26.9841   577
26.9941   579
27.0041   568
27.0141   574
27.0241   587
27.0341   598
27.0441   566
27.0541   559
27.0641   590
27.0741   551
27.0841   572
27.0941   592
27.1041   620
27.1141   610
27.1241   603
27.1341   570
27.1441   566
27.1541   578
27.1641   592
27.1741   592
27.1841   615
27.1941   590
27.2041   583
27.2141   550
27.2241   574
27.2341   590
27.2441   591
27.2541   545
27.2641   547
27.2741   576
27.2841   592
27.2941   601
27.3041   546
27.3141   606
27.3241   597
27.3341   567
27.3441   512
27.3541   556
27.3641   601
27.3741   573
27.3841   570
27.3941   608
27.4041   604
27.4141   570
27.4241   557
27.4341   546
27.4441   567
27.4541   555
27.4641   592
27.4741   567
27.4841   592
27.4941   567
27.5041   542
27.5141   587
27.5241   602
27.5341   576
27.5441   548
27.5541   545
27.5641   582
27.5741   551
27.5841   540
27.5941   525
27.6041   551
27.6141   545
27.6241   541
27.6341   564
27.6441   587
27.6541   565
27.6641   553
27.6741   555
27.6841   553
27.6941   539
27.7041   527
27.7141   528
27.7241   546
27.7341   509
27.7441   522
27.7541   529
27.7641   536
27.7741   550
27.7841   558
27.7941   553
27.8041   559
27.8141   548
27.8241   544
27.8341   536
27.8441   540
27.8541   515
27.8641   542
27.8741   536
27.8841   507
27.8941   514
27.9041   540
27.9141   489
27.9241   525
27.9341   544
27.9441   566
27.9541   499
27.9641   535
27.9741   578
27.9841   550
27.9941   518
28.0041   490
28.0141   499
28.0241   541
28.0341   544
28.0441   524
28.0541   513
28.0641   552
28.0741   503
28.0841   513
28.0941   543
28.1041   533
28.1141   491
28.1241   528
28.1341   525
28.1441   518
28.1541   517
28.1641   500
28.1741   560
28.1841   508
28.1941   511
28.2041   519
28.2141   510
28.2241   497
28.2341   486
28.2441   517
28.2541   476
28.2641   532
28.2741   537
28.2841   524
28.2941   536
28.3041   502
28.3141   505
28.3241   523
28.3341   502
28.3441   503
28.3541   523
28.3641   512
28.3741   507
28.3841   515
28.3941   503
28.4041   508
28.4141   466
28.4241   479
28.4341   482
28.4441   488
28.4541   515
28.4641   493
28.4741   450
28.4841   526
28.4941   535
28.5041   481
28.5141   487
28.5241   489
28.5341   489
28.5441   512
28.5541   479
28.5641   500
28.5741   522
28.5841   525
28.5941   509
28.6041   505
28.6141   487
28.6241   455
28.6341   517
28.6441   473
28.6541   492
28.6641   542
28.6741   480
28.6841   492
28.6941   469
28.7041   501
28.7141   484
28.7241   476
28.7341   493
28.7441   468
28.7541   470
28.7641   470
28.7741   469
28.7841   482
28.7941   470
28.8041   480
28.8141   454
28.8241   458
28.8341   449
28.8441   474
28.8541   462
28.8641   444
28.8741   466
28.8841   434
28.8941   441
28.9041   468
28.9141   454
28.9241   459
28.9341   463
28.9441   450
28.9541   496
28.9641   464
28.9741   461
28.9841   442
28.9941   470
29.0041   468
29.0141   441
29.0241   418
29.0341   453
29.0441   463
29.0541   469
29.0641   505
29.0741   456
29.0841   482
29.0941   446
29.1041   484
29.1141   452
29.1241   477
29.1341   452
29.1441   476
29.1541   484
29.1641   440
29.1741   469
29.1841   479
29.1941   460
29.2041   460
29.2141   435
29.2241   459
29.2341   486
29.2441   460
29.2541   437
29.2641   479
29.2741   471
29.2841   450
29.2941   444
29.3041   453
29.3141   394
29.3241   450
29.3341   442
29.3441   417
29.3541   444
29.3641   436
29.3741   439
29.3841   430
29.3941   436
29.4041   435
29.4141   402
29.4241   444
29.4341   434
29.4441   435
29.4541   403
29.4641   430
29.4741   459
29.4841   458
29.4941   434
29.5041   414
29.5141   435
29.5241   421
29.5341   447
29.5441   436
29.5541   424
29.5641   440
29.5741   428
29.5841   406
29.5941   424
29.6041   411
29.6141   380
29.6241   398
29.6341   462
29.6441   393
29.6541   387
29.6641   446
29.6741   425
29.6841   454
29.6941   442
29.7041   452
29.7141   448
29.7241   427
29.7341   425
29.7441   399
29.7541   402
29.7641   409
29.7741   401
29.7841   391
29.7941   411
29.8041   367
29.8141   406
29.8241   429
29.8341   414
29.8441   405
29.8541   388
29.8641   422
29.8741   411
29.8841   405
29.8941   418
29.9041   420
29.9141   420
29.9241   397
29.9341   409
29.9441   385
29.9541   418
29.9641   453
29.9741   414
29.9841   389
29.9941   397
30.0041   417
30.0141   405
30.0241   390
30.0341   424
30.0441   390
30.0541   383
30.0641   404
30.0741   436
30.0841   387
30.0941   411
30.1041   424
30.1141   428
30.1241   419
30.1341   402
30.1441   397
30.1541   367
30.1641   406
30.1741   376
30.1841   407
30.1941   406
30.2041   400
30.2141   379
30.2241   403
30.2341   373
30.2441   403
30.2541   407
30.2641   382
30.2741   389
30.2841   376
30.2941   399
30.3041   352
30.3141   371
30.3241   390
30.3341   375
30.3441   362
30.3541   381
30.3641   409
30.3741   376
30.3841   385
30.3941   389
30.4041   378
30.4141   368
30.4241   361
30.4341   355
30.4441   347
30.4541   369
30.4641   428
30.4741   356
30.4841   360
30.4941   364
30.5041   378
30.5141   363
30.5241   426
30.5341   381
30.5441   380
30.5541   364
30.5641   350
30.5741   361
30.5841   372
30.5941   363
30.6041   350
30.6141   336
30.6241   341
30.6341   369
30.6441   376
30.6541   356
30.6641   354
30.6741   361
30.6841   368
30.6941   376
30.7041   376
30.7141   396
30.7241   371
30.7341   373
30.7441   348
30.7541   367
30.7641   389
30.7741   357
30.7841   375
30.7941   348
30.8041   343
30.8141   357
30.8241   363
30.8341   373
30.8441   379
30.8541   348
30.8641   328
30.8741   345
30.8841   356
30.8941   354
30.9041   327
30.9141   374
30.9241   353
30.9341   320
30.9441   354
30.9541   401
30.9641   328
30.9741   358
30.9841   376
30.9941   316
31.0041   339
31.0141   357
31.0241   340
31.0341   335
31.0441   335
31.0541   342
31.0641   300
31.0741   334
31.0841   343
31.0941   332
31.1041   338
31.1141   352
31.1241   377
31.1341   336
31.1441   340
31.1541   374
31.1641   322
31.1741   357
31.1841   324
31.1941   341
31.2041   350
31.2141   333
31.2241   320
31.2341   332
31.2441   344
31.2541   320
31.2641   321
31.2741   341
31.2841   339
31.2941   309
31.3041   335
31.3141   332
31.3241   329
31.3341   353
31.3441   339
31.3541   308
31.3641   307
31.3741   340
31.3841   356
31.3941   335
31.4041   304
31.4141   320
31.4241   329
31.4341   348
31.4441   312
31.4541   338
31.4641   342
31.4741   313
31.4841   313
31.4941   330
31.5041   323
31.5141   351
31.5241   319
31.5341   345
31.5441   304
31.5541   309
31.5641   310
31.5741   343
31.5841   311
31.5941   303
31.6041   315
31.6141   326
31.6241   309
31.6341   311
31.6441   302
31.6541   310
31.6641   319
31.6741   302
31.6841   311
31.6941   316
31.7041   322
31.7141   325
31.7241   301
31.7341   294
31.7441   299
31.7541   320
31.7641   323
31.7741   314
31.7841   317
31.7941   308
31.8041   284
31.8141   292
31.8241   313
31.8341   295
31.8441   313
31.8541   308
31.8641   290
31.8741   295
31.8841   325
31.8941   312
31.9041   310
31.9141   312
31.9241   294
31.9341   316
31.9441   277
31.9541   327
31.9641   284
31.9741   299
31.9841   305
31.9941   332
32.0041   304
32.0141   291
32.0241   296
32.0341   268
32.0441   287
32.0541   275
32.0641   302
32.0741   312
32.0841   316
32.0941   285
32.1041   295
32.1141   287
32.1241   306
32.1341   298
32.1441   305
32.1541   284
32.1641   315
32.1741   299
32.1841   303
32.1941   270
32.2041   282
32.2141   269
32.2241   315
32.2341   301
32.2441   281
32.2541   285
32.2641   279
32.2741   283
32.2841   289
32.2941   310
32.3041   273
32.3141   245
32.3241   278
32.3341   263
32.3441   273
32.3541   275
32.3641   297
32.3741   283
32.3841   284
32.3941   301
32.4041   256
32.4141   291
32.4241   263
32.4341   269
32.4441   261
32.4541   267
32.4641   278
32.4741   291
32.4841   280
32.4941   274
32.5041   276
32.5141   250
32.5241   282
32.5341   277
32.5441   273
32.5541   283
32.5641   217
32.5741   268
32.5841   269
32.5941   263
32.6041   286
32.6141   280
32.6241   258
32.6341   284
32.6441   252
32.6541   263
32.6641   256
32.6741   284
32.6841   257
32.6941   259
32.7041   264
32.7141   272
32.7241   257
32.7341   259
32.7441   240
32.7541   273
32.7641   262
32.7741   255
32.7841   263
32.7941   253
32.8041   256
32.8141   258
32.8241   252
32.8341   270
32.8441   232
32.8541   239
32.8641   236
32.8741   219
32.8841   255
32.8941   232
32.9041   232
32.9141   238
32.9241   257
32.9341   260
32.9441   287
32.9541   231
32.9641   265
32.9741   231
32.9841   215
32.9941   223
33.0041   233
33.0141   233
33.0241   243
33.0341   271
33.0441   273
33.0541   258
33.0641   233
33.0741   232
33.0841   229
33.0941   219
33.1041   259
33.1141   215
33.1241   230
33.1341   238
33.1441   239
33.1541   240
33.1641   231
33.1741   260
33.1841   256
33.1941   256
33.2041   235
33.2141   242
33.2241   237
33.2341   225
33.2441   244
33.2541   238
33.2641   240
33.2741   224
33.2841   232
33.2941   251
33.3041   235
33.3141   260
33.3241   253
33.3341   220
33.3441   245
33.3541   228
33.3641   234
33.3741   243
33.3841   216
33.3941   227
33.4041   201
33.4141   223
33.4241   227
33.4341   203
33.4441   213
33.4541   237
33.4641   219
33.4741   212
33.4841   253
33.4941   211
33.5041   236
33.5141   228
33.5241   217
33.5341   223
33.5441   232
33.5541   221
33.5641   219
33.5741   208
33.5841   249
33.5941   244
33.6041   212
33.6141   233
33.6241   237
33.6341   199
33.6441   228
33.6541   236
33.6641   217
33.6741   198
33.6841   223
33.6941   225
33.7041   226
33.7141   225
33.7241   222
33.7341   208
33.7441   218
33.7541   219
33.7641   229
33.7741   197
33.7841   183
33.7941   204
33.8041   225
33.8141   223
33.8241   201
33.8341   217
33.8441   219
33.8541   213
33.8641   218
33.8741   220
33.8841   224
33.8941   208
33.9041   198
33.9141   225
33.9241   205
33.9341   206
33.9441   204
33.9541   181
33.9641   187
33.9741   215
33.9841   213
33.9941   209
34.0041   198
34.0141   151
34.0241   191
34.0341   202
34.0441   206
34.0541   205
34.0641   202
34.0741   186
34.0841   201
34.0941   209
34.1041   235
34.1141   201
34.1241   206
34.1341   215
34.1441   217
34.1541   179
34.1641   188
34.1741   199
34.1841   180
34.1941   204
34.2041   231
34.2141   195
34.2241   219
34.2341   208
34.2441   182
34.2541   180
34.2641   183
34.2741   194
34.2841   185
34.2941   169
34.3041   207
34.3141   174
34.3241   203
34.3341   197
34.3441   204
34.3541   184
34.3641   187
34.3741   170
34.3841   191
34.3941   228
34.4041   188
34.4141   203
34.4241   208
34.4341   213
34.4441   183
34.4541   201
34.4641   191
34.4741   210
34.4841   204
34.4941   178
34.5041   170
34.5141   198
34.5241   206
34.5341   195
34.5441   191
34.5541   173
34.5641   182
34.5741   163
34.5841   188
34.5941   191
34.6041   183
34.6141   169
34.6241   177
34.6341   184
34.6441   191
34.6541   180
34.6641   186
34.6741   177
34.6841   177
34.6941   170
34.7041   180
34.7141   168
34.7241   182
34.7341   168
34.7441   167
34.7541   189
34.7641   180
34.7741   189
34.7841   170
34.7941   170
34.8041   184
34.8141   178
34.8241   176
34.8341   163
34.8441   174
34.8541   165
34.8641   184
34.8741   177
34.8841   165
34.8941   185
34.9041   168
34.9141   161
34.9241   186
34.9341   149
34.9441   186
34.9541   153
34.9641   160
34.9741   190
34.9841   172
34.9941   174
35.0041   175
35.0141   159
35.0241   175
35.0341   178
35.0441   188
35.0541   165
35.0641   182
35.0741   164
35.0841   158
35.0941   170
35.1041   164
35.1141   138
35.1241   149
35.1341   177
35.1441   171
35.1541   170
35.1641   173
35.1741   149
35.1841   163
35.1941   173
35.2041   167
35.2141   174
35.2241   170
35.2341   157
35.2441   161
35.2541   165
35.2641   163
35.2741   151
35.2841   161
35.2941   158
35.3041   156
35.3141   163
35.3241   148
35.3341   175
35.3441   165
35.3541   153
35.3641   150
35.3741   131
35.3841   171
35.3941   138
35.4041   158
35.4141   174
35.4241   163
35.4341   168
35.4441   174
35.4541   156
35.4641   160
35.4741   153
35.4841   143
35.4941   166
35.5041   163
35.5141   150
35.5241   148
35.5341   123
35.5441   146
35.5541   125
35.5641   174
35.5741   160
35.5841   167
35.5941   129
35.6041   154
35.6141   132
35.6241   155
35.6341   160
35.6441   134
35.6541   160
35.6641   150
35.6741   175
35.6841   142
35.6941   159
35.7041   146
35.7141   132
35.7241   141
35.7341   128
35.7441   142
35.7541   156
35.7641   139
35.7741   140
35.7841   142
35.7941   145
35.8041   123
35.8141   126
35.8241   133
35.8341   142
35.8441   145
35.8541   134
35.8641   138
35.8741   134
35.8841   145
35.8941   151
35.9041   127
35.9141   134
35.9241   135
35.9341   158
35.9441   129
35.9541   168
35.9641   132
35.9741   136
35.9841   142
35.9941   126
36.0041   123
36.0141   137
36.0241   131
36.0341   139
36.0441   139
36.0541   122
36.0641   123
36.0741   138
36.0841   131
36.0941   140
36.1041   140
36.1141   126
36.1241   124
36.1341   140
36.1441   130
36.1541   134
36.1641   123
36.1741   135
36.1841   124
36.1941   119
36.2041   142
36.2141   145
36.2241   156
36.2341   124
36.2441   134
36.2541   118
36.2641   119
36.2741   141
36.2841   134
36.2941   142
36.3041   144
36.3141   130
36.3241   137
36.3341   120
36.3441   147
36.3541   126
36.3641   123
36.3741   107
36.3841   131
36.3941   127
36.4041   127
36.4141   111
36.4241   133
36.4341   120
36.4441   121
36.4541   118
36.4641   117
36.4741   116
36.4841   149
36.4941   119
36.5041   109
36.5141   118
36.5241   125
36.5341   115
36.5441   124
36.5541   130
36.5641   121
36.5741   117
36.5841   109
36.5941   125
36.6041   119
36.6141   122
36.6241   126
36.6341   122
36.6441   136
36.6541   128
36.6641   103
36.6741   116
36.6841   116
36.6941   113
36.7041   111
36.7141   115
36.7241   115
36.7341   128
36.7441   101
36.7541   120
36.7641   113
36.7741    87
36.7841   119
36.7941   122
36.8041   109
36.8141   124
36.8241   117
36.8341   135
36.8441   111
36.8541   108
36.8641   105
36.8741   112
36.8841   107
36.8941    96
36.9041   128
36.9141   104
36.9241   118
36.9341   106
36.9441   103
36.9541   112
36.9641   125
36.9741   109
36.9841   118
36.9941   128
37.0041   108
37.0141   100
37.0241    80
37.0341   104
37.0441   107
37.0541   129
37.0641   100
37.0741   122
37.0841   108
37.0941   119
37.1041   123
37.1141    97
37.1241   106
37.1341    95
37.1441    97
37.1541    81
37.1641    91
37.1741    94
37.1841    90
37.1941    88
37.2041   100
37.2141   100
37.2241   100
37.2341   102
37.2441   119
37.2541   122
37.2641    96
37.2741   105
37.2841   102
37.2941   104
37.3041    99
37.3141   104
37.3241    89
37.3341    90
37.3441    88
37.3541    86
37.3641   112
37.3741    90
37.3841    97
37.3941    97
37.4041   106
37.4141   102
37.4241    81
37.4341    89
37.4441    86
37.4541   117
37.4641    84
37.4741    90
37.4841   108
37.4941    98
37.5041    80
37.5141   110
37.5241   101
37.5341    89
37.5441   101
37.5541   111
37.5641    81
37.5741   103
37.5841    93
37.5941    98
37.6041    82
37.6141   101
37.6241    91
37.6341    89
37.6441    87
37.6541    84
37.6641    86
37.6741    86
37.6841   101
37.6941    99
37.7041    90
37.7141    78
37.7241   104
37.7341   106
37.7441    83
37.7541    87
37.7641    92
37.7741    79
37.7841    92
37.7941   118
37.8041    75
37.8141    87
37.8241    86
37.8341   100
37.8441    89
37.8541   109
37.8641   100
37.8741    82
37.8841    70
37.8941    81
37.9041    89
37.9141    96
37.9241    85
37.9341    92
37.9441    86
37.9541    79
37.9641    95
37.9741    87
37.9841   102
37.9941    82
38.0041    81
38.0141    79
38.0241    94
38.0341    76
38.0441    70
38.0541    81
38.0641    77
38.0741    88
38.0841    72
38.0941    82
38.1041    79
38.1141    78
38.1241    80
38.1341    72
38.1441    63
38.1541    87
38.1641    79
38.1741    76
38.1841    75
38.1941    72
38.2041    74
38.2141    86
38.2241    82
38.2341    66
38.2441    85
38.2541    71
38.2641    80
38.2741    79
38.2841    67
38.2941    58
38.3041    76
38.3141    74
38.3241    66
38.3341    82
38.3441    72
38.3541    63
38.3641    76
38.3741    77
38.3841    72
38.3941    63
38.4041    83
38.4141    71
38.4241    98
38.4341    66
38.4441    77
38.4541    81
38.4641    60
38.4741    73
38.4841    73
38.4941    62
38.5041    66
38.5141    83
38.5241    56
38.5341    82
38.5441    75
38.5541    66
38.5641    80
38.5741    82
38.5841    71
38.5941    79
38.6041    72
38.6141    51
38.6241    69
38.6341    67
38.6441    85
38.6541    66
38.6641    63
38.6741    71
38.6841    72
38.6941    61
38.7041    64
38.7141    63
38.7241    73
38.7341    50
38.7441    69
38.7541    69
38.7641    56
38.7741    68
38.7841    58
38.7941    75
38.8041    65
38.8141    59
38.8241    62
38.8341    53
38.8441    64
38.8541    67
38.8641    64
38.8741    57
38.8841    65
38.8941    52
38.9041    56
38.9141    56
38.9241    50
38.9341    64
38.9441    66
38.9541    66
38.9641    51
38.9741    75
38.9841    54
38.9941    77
39.0041    65
39.0141    63
39.0241    65
39.0341    68
39.0441    55
39.0541    58
39.0641    51
39.0741    74
39.0841    59
39.0941    54
39.1041    59
39.1141    58
39.1241    56
39.1341    73
39.1441    63
39.1541    60
39.1641    64
39.1741    49
39.1841    61
39.1941    49
39.2041    55
39.2141    63
39.2241    67
39.2341    45
39.2441    55
39.2541    60
39.2641    53
39.2741    50
39.2841    48
39.2941    55
39.3041    67
39.3141    51
39.3241    50
39.3341    58
39.3441    49
39.3541    62
39.3641    56
39.3741    61
39.3841    58
39.3941    59
39.4041    53
39.4141    48
39.4241    54
39.4341    56
39.4441    58
39.4541    47
39.4641    66
39.4741    60
39.4841    58
39.4941    50
39.5041    52
39.5141    59
39.5241    44
39.5341    45
39.5441    54
39.5541    54
39.5641    49
39.5741    40
39.5841    50
39.5941    49
39.6041    35
39.6141    54
39.6241    49
39.6341    52
39.6441    56
39.6541    47
39.6641    44
39.6741    43
39.6841    53
39.6941    46
39.7041    36
39.7141    44
39.7241    49
39.7341    69
39.7441    50
39.7541    43
39.7641    44
39.7741    44
39.7841    51
39.7941    48
39.8041    54
39.8141    46
39.8241    47
39.8341    48
39.8441    46
39.8541    59
39.8641    41
39.8741    50
39.8841    37
39.8941    40
39.9041    54
39.9141    49
39.9241    58
39.9341    52
39.9441    50
39.9541    32
39.9641    43
39.9741    46
39.9841    45
39.9941    49
