Bruker Nano GmbH Berlin, Germany
Esprit 1.9

Date: 4/1/2021 4:47:02 PM
Real time: 31329
Life time: 29425
Pulse density: 85709


Detector type: XFlash 430
Window type: Custom type
Detector thickness: 0.45
Si dead layer:0.029

Calibration, lin.: 10
Calibration, abs.: -955.9
Mn FWHM: 137.05
Fano factor: 0.121
Channels: 4096

Energy Counts
-0.9559     0
-0.9459     0
-0.9359     0
-0.9259     0
-0.9159     0
-0.9059     0
-0.8959     0
-0.8859     0
-0.8759     0
-0.8659     0
-0.8559     0
-0.8459     0
-0.8359     0
-0.8259     0
-0.8159     0
-0.8059     0
-0.7959     0
-0.7859     0
-0.7759     0
-0.7659     0
-0.7559     0
-0.7459     0
-0.7359     0
-0.7259     0
-0.7159     0
-0.7059     0
-0.6959     0
-0.6859     0
-0.6759     0
-0.6659     0
-0.6559     0
-0.6459     0
-0.6359     0
-0.6259     0
-0.6159     0
-0.6059     0
-0.5959     0
-0.5859     0
-0.5759     0
-0.5659     0
-0.5559     0
-0.5459     0
-0.5359     0
-0.5259     0
-0.5159     0
-0.5059     0
-0.4959     0
-0.4859     0
-0.4759     0
-0.4659     0
-0.4559     0
-0.4459     0
-0.4359     0
-0.4259     0
-0.4159     0
-0.4059     0
-0.3959     0
-0.3859     0
-0.3759     0
-0.3659     0
-0.3559     0
-0.3459     0
-0.3359     0
-0.3259     0
-0.3159     0
-0.3059     0
-0.2959     0
-0.2859     0
-0.2759     0
-0.2659     0
-0.2559     0
-0.2459     0
-0.2359     0
-0.2259     0
-0.2159     0
-0.2059     0
-0.1959     0
-0.1859     0
-0.1759     0
-0.1659     0
-0.1559     0
-0.1459     0
-0.1359     0
-0.1259     1
-0.1159     5
-0.1059    18
-0.0959    99
-0.0859   360
-0.0759  1064
-0.0659  3427
-0.0559  8553
-0.0459 18529
-0.0359 35206
-0.0259 55853
-0.0159 76991
-0.0059 90174
 0.0041 90715
 0.0141 78081
 0.0241 57828
 0.0341 36178
 0.0441 19881
 0.0541  9199
 0.0641  3628
 0.0741  1292
 0.0841   366
 0.0941   126
 0.1041    44
 0.1141    15
 0.1241    12
 0.1341    15
 0.1441    10
 0.1541     7
 0.1641     7
 0.1741     6
 0.1841   314
 0.1941   605
 0.2041   534
 0.2141   502
 0.2241   509
 0.2341   577
 0.2441   607
 0.2541   554
 0.2641   571
 0.2741   543
 0.2841   549
 0.2941   564
 0.3041   514
 0.3141   509
 0.3241   504
 0.3341   553
 0.3441   555
 0.3541   545
 0.3641   495
 0.3741   499
 0.3841   557
 0.3941   505
 0.4041   504
 0.4141   497
 0.4241   501
 0.4341   516
 0.4441   463
 0.4541   463
 0.4641   459
 0.4741   484
 0.4841   482
 0.4941   481
 0.5041   494
 0.5141   445
 0.5241   467
 0.5341   501
 0.5441   477
 0.5541   437
 0.5641   436
 0.5741   434
 0.5841   443
 0.5941   449
 0.6041   454
 0.6141   450
 0.6241   437
 0.6341   413
 0.6441   389
 0.6541   412
 0.6641   418
 0.6741   401
 0.6841   409
 0.6941   415
 0.7041   416
 0.7141   424
 0.7241   422
 0.7341   424
 0.7441   421
 0.7541   422
 0.7641   426
 0.7741   426
 0.7841   435
 0.7941   404
 0.8041   404
 0.8141   411
 0.8241   406
 0.8341   424
 0.8441   383
 0.8541   371
 0.8641   393
 0.8741   388
 0.8841   399
 0.8941   380
 0.9041   385
 0.9141   369
 0.9241   363
 0.9341   369
 0.9441   397
 0.9541   382
 0.9641   368
 0.9741   392
 0.9841   382
 0.9941   374
 1.0041   345
 1.0141   362
 1.0241   378
 1.0341   366
 1.0441   340
 1.0541   345
 1.0641   344
 1.0741   365
 1.0841   373
 1.0941   326
 1.1041   385
 1.1141   355
 1.1241   359
 1.1341   366
 1.1441   371
 1.1541   348
 1.1641   347
 1.1741   352
 1.1841   365
 1.1941   368
 1.2041   353
 1.2141   364
 1.2241   359
 1.2341   362
 1.2441   331
 1.2541   347
 1.2641   304
 1.2741   334
 1.2841   347
 1.2941   335
 1.3041   327
 1.3141   314
 1.3241   314
 1.3341   335
 1.3441   348
 1.3541   352
 1.3641   339
 1.3741   330
 1.3841   310
 1.3941   322
 1.4041   322
 1.4141   324
 1.4241   308
 1.4341   329
 1.4441   304
 1.4541   300
 1.4641   299
 1.4741   318
 1.4841   329
 1.4941   346
 1.5041   353
 1.5141   325
 1.5241   309
 1.5341   332
 1.5441   312
 1.5541   292
 1.5641   302
 1.5741   362
 1.5841   325
 1.5941   300
 1.6041   294
 1.6141   291
 1.6241   299
 1.6341   325
 1.6441   358
 1.6541   373
 1.6641   428
 1.6741   518
 1.6841   583
 1.6941   735
 1.7041   888
 1.7141  1022
 1.7241  1036
 1.7341  1114
 1.7441  1130
 1.7541  1091
 1.7641  1006
 1.7741   890
 1.7841   731
 1.7941   581
 1.8041   531
 1.8141   469
 1.8241   414
 1.8341   399
 1.8441   374
 1.8541   395
 1.8641   376
 1.8741   331
 1.8841   344
 1.8941   344
 1.9041   354
 1.9141   297
 1.9241   300
 1.9341   299
 1.9441   360
 1.9541   348
 1.9641   345
 1.9741   353
 1.9841   400
 1.9941   377
 2.0041   375
 2.0141   387
 2.0241   334
 2.0341   349
 2.0441   350
 2.0541   340
 2.0641   332
 2.0741   287
 2.0841   298
 2.0941   319
 2.1041   312
 2.1141   281
 2.1241   293
 2.1341   285
 2.1441   331
 2.1541   289
 2.1641   286
 2.1741   246
 2.1841   286
 2.1941   274
 2.2041   286
 2.2141   279
 2.2241   279
 2.2341   262
 2.2441   269
 2.2541   301
 2.2641   291
 2.2741   253
 2.2841   272
 2.2941   288
 2.3041   318
 2.3141   259
 2.3241   266
 2.3341   274
 2.3441   268
 2.3541   301
 2.3641   260
 2.3741   307
 2.3841   296
 2.3941   243
 2.4041   283
 2.4141   284
 2.4241   277
 2.4341   271
 2.4441   241
 2.4541   244
 2.4641   261
 2.4741   260
 2.4841   202
 2.4941   285
 2.5041   271
 2.5141   236
 2.5241   223
 2.5341   254
 2.5441   235
 2.5541   247
 2.5641   277
 2.5741   230
 2.5841   247
 2.5941   284
 2.6041   251
 2.6141   248
 2.6241   239
 2.6341   247
 2.6441   257
 2.6541   242
 2.6641   243
 2.6741   231
 2.6841   250
 2.6941   222
 2.7041   237
 2.7141   212
 2.7241   209
 2.7341   242
 2.7441   233
 2.7541   274
 2.7641   241
 2.7741   237
 2.7841   258
 2.7941   237
 2.8041   246
 2.8141   252
 2.8241   255
 2.8341   250
 2.8441   260
 2.8541   258
 2.8641   241
 2.8741   272
 2.8841   228
 2.8941   235
 2.9041   217
 2.9141   216
 2.9241   218
 2.9341   245
 2.9441   221
 2.9541   212
 2.9641   230
 2.9741   228
 2.9841   210
 2.9941   209
 3.0041   242
 3.0141   217
 3.0241   213
 3.0341   216
 3.0441   214
 3.0541   177
 3.0641   196
 3.0741   229
 3.0841   233
 3.0941   203
 3.1041   187
 3.1141   211
 3.1241   208
 3.1341   207
 3.1441   191
 3.1541   205
 3.1641   201
 3.1741   196
 3.1841   199
 3.1941   182
 3.2041   182
 3.2141   208
 3.2241   177
 3.2341   195
 3.2441   189
 3.2541   187
 3.2641   200
 3.2741   187
 3.2841   203
 3.2941   203
 3.3041   210
 3.3141   208
 3.3241   189
 3.3341   207
 3.3441   222
 3.3541   200
 3.3641   217
 3.3741   189
 3.3841   182
 3.3941   193
 3.4041   189
 3.4141   184
 3.4241   159
 3.4341   155
 3.4441   177
 3.4541   173
 3.4641   177
 3.4741   174
 3.4841   186
 3.4941   175
 3.5041   201
 3.5141   176
 3.5241   166
 3.5341   204
 3.5441   201
 3.5541   221
 3.5641   246
 3.5741   264
 3.5841   320
 3.5941   396
 3.6041   464
 3.6141   589
 3.6241   779
 3.6341   903
 3.6441  1067
 3.6541  1238
 3.6641  1415
 3.6741  1497
 3.6841  1571
 3.6941  1589
 3.7041  1493
 3.7141  1384
 3.7241  1288
 3.7341  1106
 3.7441   918
 3.7541   754
 3.7641   556
 3.7741   466
 3.7841   359
 3.7941   297
 3.8041   249
 3.8141   226
 3.8241   170
 3.8341   154
 3.8441   145
 3.8541   166
 3.8641   173
 3.8741   158
 3.8841   183
 3.8941   147
 3.9041   178
 3.9141   184
 3.9241   174
 3.9341   173
 3.9441   217
 3.9541   269
 3.9641   247
 3.9741   267
 3.9841   295
 3.9941   310
 4.0041   315
 4.0141   312
 4.0241   335
 4.0341   307
 4.0441   270
 4.0541   262
 4.0641   252
 4.0741   223
 4.0841   237
 4.0941   186
 4.1041   168
 4.1141   142
 4.1241   157
 4.1341   158
 4.1441   140
 4.1541   134
 4.1641   146
 4.1741   133
 4.1841   133
 4.1941   142
 4.2041   123
 4.2141   134
 4.2241   129
 4.2341   138
 4.2441   107
 4.2541   132
 4.2641   129
 4.2741   124
 4.2841   157
 4.2941   133
 4.3041   129
 4.3141   128
 4.3241   120
 4.3341   141
 4.3441   137
 4.3541   148
 4.3641   118
 4.3741   123
 4.3841   133
 4.3941   143
 4.4041   158
 4.4141   183
 4.4241   158
 4.4341   173
 4.4441   198
 4.4541   193
 4.4641   190
 4.4741   222
 4.4841   208
 4.4941   203
 4.5041   205
 4.5141   206
 4.5241   221
 4.5341   225
 4.5441   215
 4.5541   180
 4.5641   187
 4.5741   183
 4.5841   161
 4.5941   144
 4.6041   157
 4.6141   157
 4.6241   142
 4.6341   121
 4.6441   140
 4.6541   154
 4.6641   155
 4.6741   143
 4.6841   137
 4.6941   155
 4.7041   154
 4.7141   144
 4.7241   137
 4.7341   106
 4.7441   117
 4.7541   130
 4.7641   129
 4.7741   128
 4.7841   125
 4.7941   115
 4.8041   127
 4.8141   131
 4.8241   141
 4.8341   144
 4.8441   130
 4.8541   119
 4.8641   105
 4.8741   150
 4.8841   141
 4.8941   140
 4.9041   132
 4.9141   138
 4.9241   128
 4.9341   149
 4.9441   155
 4.9541   162
 4.9641   170
 4.9741   178
 4.9841   149
 4.9941   163
 5.0041   167
 5.0141   157
 5.0241   171
 5.0341   172
 5.0441   195
 5.0541   185
 5.0641   189
 5.0741   168
 5.0841   158
 5.0941   137
 5.1041   140
 5.1141   142
 5.1241   146
 5.1341   135
 5.1441   112
 5.1541   140
 5.1641   125
 5.1741   132
 5.1841   150
 5.1941   138
 5.2041   151
 5.2141   144
 5.2241   115
 5.2341   141
 5.2441   124
 5.2541   138
 5.2641   134
 5.2741   149
 5.2841   160
 5.2941   146
 5.3041   143
 5.3141   141
 5.3241   149
 5.3341   124
 5.3441   155
 5.3541   152
 5.3641   167
 5.3741   172
 5.3841   145
 5.3941   157
 5.4041   168
 5.4141   168
 5.4241   180
 5.4341   177
 5.4441   155
 5.4541   175
 5.4641   145
 5.4741   147
 5.4841   131
 5.4941   144
 5.5041   124
 5.5141   158
 5.5241   140
 5.5341   127
 5.5441   117
 5.5541   119
 5.5641   138
 5.5741   130
 5.5841   126
 5.5941   135
 5.6041   146
 5.6141   133
 5.6241   137
 5.6341   142
 5.6441   139
 5.6541   130
 5.6641   147
 5.6741   166
 5.6841   136
 5.6941   145
 5.7041   150
 5.7141   170
 5.7241   147
 5.7341   160
 5.7441   167
 5.7541   158
 5.7641   170
 5.7741   202
 5.7841   156
 5.7941   164
 5.8041   179
 5.8141   202
 5.8241   193
 5.8341   195
 5.8441   209
 5.8541   192
 5.8641   202
 5.8741   209
 5.8841   183
 5.8941   215
 5.9041   220
 5.9141   219
 5.9241   213
 5.9341   186
 5.9441   215
 5.9541   205
 5.9641   183
 5.9741   207
 5.9841   194
 5.9941   207
 6.0041   186
 6.0141   196
 6.0241   195
 6.0341   171
 6.0441   201
 6.0541   197
 6.0641   193
 6.0741   204
 6.0841   191
 6.0941   199
 6.1041   189
 6.1141   208
 6.1241   212
 6.1341   209
 6.1441   191
 6.1541   215
 6.1641   248
 6.1741   250
 6.1841   226
 6.1941   256
 6.2041   263
 6.2141   319
 6.2241   352
 6.2341   440
 6.2441   551
 6.2541   647
 6.2641   854
 6.2741  1111
 6.2841  1420
 6.2941  1886
 6.3041  2319
 6.3141  2794
 6.3241  3470
 6.3341  4218
 6.3441  4791
 6.3541  5596
 6.3641  6167
 6.3741  6621
 6.3841  7100
 6.3941  7102
 6.4041  7141
 6.4141  6912
 6.4241  6533
 6.4341  5863
 6.4441  5430
 6.4541  4704
 6.4641  3919
 6.4741  3360
 6.4841  2729
 6.4941  2105
 6.5041  1568
 6.5141  1221
 6.5241   899
 6.5341   763
 6.5441   579
 6.5541   448
 6.5641   330
 6.5741   273
 6.5841   237
 6.5941   220
 6.6041   198
 6.6141   197
 6.6241   190
 6.6341   170
 6.6441   176
 6.6541   191
 6.6641   183
 6.6741   191
 6.6841   167
 6.6941   212
 6.7041   178
 6.7141   184
 6.7241   192
 6.7341   190
 6.7441   190
 6.7541   211
 6.7641   180
 6.7741   176
 6.7841   210
 6.7941   191
 6.8041   216
 6.8141   194
 6.8241   185
 6.8341   219
 6.8441   209
 6.8541   225
 6.8641   204
 6.8741   220
 6.8841   258
 6.8941   288
 6.9041   271
 6.9141   306
 6.9241   352
 6.9341   415
 6.9441   452
 6.9541   562
 6.9641   629
 6.9741   731
 6.9841   751
 6.9941   919
 7.0041  1038
 7.0141  1042
 7.0241  1125
 7.0341  1245
 7.0441  1233
 7.0541  1201
 7.0641  1290
 7.0741  1258
 7.0841  1187
 7.0941  1086
 7.1041   957
 7.1141   860
 7.1241   797
 7.1341   719
 7.1441   633
 7.1541   514
 7.1641   503
 7.1741   452
 7.1841   384
 7.1941   370
 7.2041   345
 7.2141   347
 7.2241   330
 7.2341   310
 7.2441   296
 7.2541   300
 7.2641   319
 7.2741   343
 7.2841   327
 7.2941   347
 7.3041   402
 7.3141   374
 7.3241   398
 7.3341   391
 7.3441   391
 7.3541   452
 7.3641   456
 7.3741   410
 7.3841   462
 7.3941   453
 7.4041   445
 7.4141   429
 7.4241   471
 7.4341   409
 7.4441   407
 7.4541   456
 7.4641   415
 7.4741   432
 7.4841   390
 7.4941   375
 7.5041   351
 7.5141   359
 7.5241   355
 7.5341   339
 7.5441   325
 7.5541   352
 7.5641   327
 7.5741   347
 7.5841   296
 7.5941   298
 7.6041   316
 7.6141   312
 7.6241   327
 7.6341   337
 7.6441   361
 7.6541   332
 7.6641   300
 7.6741   363
 7.6841   323
 7.6941   366
 7.7041   345
 7.7141   350
 7.7241   353
 7.7341   402
 7.7441   368
 7.7541   417
 7.7641   409
 7.7741   418
 7.7841   404
 7.7941   437
 7.8041   431
 7.8141   448
 7.8241   447
 7.8341   426
 7.8441   434
 7.8541   476
 7.8641   512
 7.8741   514
 7.8841   473
 7.8941   505
 7.9041   502
 7.9141   540
 7.9241   578
 7.9341   615
 7.9441   652
 7.9541   718
 7.9641   720
 7.9741   778
 7.9841   778
 7.9941   863
 8.0041   882
 8.0141   996
 8.0241  1114
 8.0341  1244
 8.0441  1240
 8.0541  1361
 8.0641  1456
 8.0741  1539
 8.0841  1594
 8.0941  1755
 8.1041  1858
 8.1141  1896
 8.1241  1954
 8.1341  2047
 8.1441  2181
 8.1541  2165
 8.1641  2204
 8.1741  2247
 8.1841  2300
 8.1941  2266
 8.2041  2356
 8.2141  2344
 8.2241  2329
 8.2341  2429
 8.2441  2537
 8.2541  2604
 8.2641  2701
 8.2741  2901
 8.2841  3036
 8.2941  3331
 8.3041  3631
 8.3141  3940
 8.3241  4483
 8.3341  4820
 8.3441  5264
 8.3541  5664
 8.3641  6048
 8.3741  6270
 8.3841  6398
 8.3941  6443
 8.4041  6579
 8.4141  6328
 8.4241  6027
 8.4341  5691
 8.4441  5254
 8.4541  4792
 8.4641  4304
 8.4741  3812
 8.4841  3233
 8.4941  2810
 8.5041  2319
 8.5141  1994
 8.5241  1579
 8.5341  1320
 8.5441  1047
 8.5541   850
 8.5641   804
 8.5741   715
 8.5841   676
 8.5941   624
 8.6041   578
 8.6141   606
 8.6241   605
 8.6341   599
 8.6441   600
 8.6541   615
 8.6641   643
 8.6741   625
 8.6841   629
 8.6941   648
 8.7041   698
 8.7141   628
 8.7241   632
 8.7341   603
 8.7441   582
 8.7541   585
 8.7641   604
 8.7741   586
 8.7841   565
 8.7941   549
 8.8041   553
 8.8141   541
 8.8241   554
 8.8341   538
 8.8441   523
 8.8541   492
 8.8641   509
 8.8741   534
 8.8841   527
 8.8941   547
 8.9041   532
 8.9141   550
 8.9241   545
 8.9341   555
 8.9441   581
 8.9541   612
 8.9641   589
 8.9741   641
 8.9841   613
 8.9941   632
 9.0041   646
 9.0141   670
 9.0241   665
 9.0341   630
 9.0441   697
 9.0541   730
 9.0641   818
 9.0741   735
 9.0841   767
 9.0941   780
 9.1041   853
 9.1141   897
 9.1241   875
 9.1341   894
 9.1441   950
 9.1541   949
 9.1641  1035
 9.1741  1049
 9.1841  1087
 9.1941  1173
 9.2041  1253
 9.2141  1301
 9.2241  1320
 9.2341  1425
 9.2441  1454
 9.2541  1487
 9.2641  1565
 9.2741  1639
 9.2841  1732
 9.2941  1835
 9.3041  1948
 9.3141  1960
 9.3241  1998
 9.3341  2072
 9.3441  2075
 9.3541  2207
 9.3641  2326
 9.3741  2362
 9.3841  2456
 9.3941  2366
 9.4041  2349
 9.4141  2333
 9.4241  2520
 9.4341  2452
 9.4441  2459
 9.4541  2515
 9.4641  2510
 9.4741  2578
 9.4841  2663
 9.4941  2697
 9.5041  2694
 9.5141  2744
 9.5241  2848
 9.5341  2971
 9.5441  3143
 9.5541  3262
 9.5641  3378
 9.5741  3592
 9.5841  3810
 9.5941  4157
 9.6041  4286
 9.6141  4449
 9.6241  4800
 9.6341  4930
 9.6441  4868
 9.6541  5025
 9.6641  5110
 9.6741  5234
 9.6841  5088
 9.6941  4898
 9.7041  4787
 9.7141  4416
 9.7241  4220
 9.7341  4026
 9.7441  3708
 9.7541  3396
 9.7641  3151
 9.7741  2954
 9.7841  2667
 9.7941  2576
 9.8041  2379
 9.8141  2337
 9.8241  2139
 9.8341  2078
 9.8441  2062
 9.8541  2013
 9.8641  2060
 9.8741  2115
 9.8841  2186
 9.8941  2227
 9.9041  2262
 9.9141  2287
 9.9241  2377
 9.9341  2378
 9.9441  2296
 9.9541  2311
 9.9641  2346
 9.9741  2322
 9.9841  2230
 9.9941  2148
10.0041  1968
10.0141  1772
10.0241  1651
10.0341  1536
10.0441  1364
10.0541  1260
10.0641  1083
10.0741  1003
10.0841   878
10.0941   781
10.1041   730
10.1141   656
10.1241   632
10.1341   555
10.1441   543
10.1541   508
10.1641   483
10.1741   477
10.1841   432
10.1941   404
10.2041   391
10.2141   399
10.2241   381
10.2341   373
10.2441   347
10.2541   363
10.2641   347
10.2741   336
10.2841   336
10.2941   302
10.3041   298
10.3141   311
10.3241   331
10.3341   318
10.3441   323
10.3541   315
10.3641   315
10.3741   319
10.3841   312
10.3941   322
10.4041   323
10.4141   308
10.4241   318
10.4341   330
10.4441   333
10.4541   328
10.4641   337
10.4741   367
10.4841   365
10.4941   363
10.5041   351
10.5141   348
10.5241   367
10.5341   362
10.5441   368
10.5541   374
10.5641   382
10.5741   370
10.5841   354
10.5941   343
10.6041   377
10.6141   383
10.6241   364
10.6341   363
10.6441   367
10.6541   381
10.6641   353
10.6741   380
10.6841   367
10.6941   384
10.7041   415
10.7141   416
10.7241   429
10.7341   404
10.7441   400
10.7541   419
10.7641   428
10.7741   427
10.7841   465
10.7941   460
10.8041   455
10.8141   464
10.8241   514
10.8341   487
10.8441   518
10.8541   526
10.8641   501
10.8741   548
10.8841   538
10.8941   557
10.9041   562
10.9141   544
10.9241   568
10.9341   559
10.9441   557
10.9541   550
10.9641   548
10.9741   550
10.9841   549
10.9941   545
11.0041   531
11.0141   540
11.0241   531
11.0341   532
11.0441   496
11.0541   503
11.0641   497
11.0741   485
11.0841   482
11.0941   505
11.1041   521
11.1141   518
11.1241   530
11.1341   532
11.1441   548
11.1541   586
11.1641   582
11.1741   583
11.1841   580
11.1941   607
11.2041   645
11.2141   660
11.2241   674
11.2341   685
11.2441   700
11.2541   706
11.2641   725
11.2741   746
11.2841   761
11.2941   744
11.3041   687
11.3141   700
11.3241   684
11.3341   665
11.3441   639
11.3541   611
11.3641   564
11.3741   566
11.3841   536
11.3941   499
11.4041   447
11.4141   423
11.4241   427
11.4341   390
11.4441   379
11.4541   405
11.4641   395
11.4741   382
11.4841   375
11.4941   375
11.5041   362
11.5141   368
11.5241   406
11.5341   388
11.5441   362
11.5541   388
11.5641   405
11.5741   396
11.5841   393
11.5941   387
11.6041   414
11.6141   412
11.6241   403
11.6341   395
11.6441   407
11.6541   405
11.6641   382
11.6741   381
11.6841   368
11.6941   367
11.7041   373
11.7141   361
11.7241   335
11.7341   321
11.7441   329
11.7541   328
11.7641   306
11.7741   306
11.7841   288
11.7941   307
11.8041   295
11.8141   279
11.8241   291
11.8341   287
11.8441   281
11.8541   281
11.8641   294
11.8741   304
11.8841   281
11.8941   292
11.9041   280
11.9141   268
11.9241   267
11.9341   274
11.9441   274
11.9541   276
11.9641   274
11.9741   293
11.9841   296
11.9941   294
12.0041   284
12.0141   278
12.0241   293
12.0341   287
12.0441   274
12.0541   286
12.0641   290
12.0741   286
12.0841   296
12.0941   306
12.1041   301
12.1141   286
12.1241   297
12.1341   292
12.1441   277
12.1541   276
12.1641   282
12.1741   278
12.1841   275
12.1941   286
12.2041   278
12.2141   268
12.2241   272
12.2341   300
12.2441   299
12.2541   293
12.2641   280
12.2741   292
12.2841   292
12.2941   295
12.3041   300
12.3141   295
12.3241   274
12.3341   283
12.3441   280
12.3541   290
12.3641   306
12.3741   286
12.3841   281
12.3941   285
12.4041   285
12.4141   280
12.4241   290
12.4341   299
12.4441   311
12.4541   309
12.4641   311
12.4741   305
12.4841   285
12.4941   280
12.5041   293
12.5141   296
12.5241   296
12.5341   296
12.5441   289
12.5541   275
12.5641   297
12.5741   308
12.5841   319
12.5941   307
12.6041   312
12.6141   316
12.6241   326
12.6341   342
12.6441   321
12.6541   305
12.6641   297
12.6741   302
12.6841   316
12.6941   311
12.7041   314
12.7141   307
12.7241   299
12.7341   302
12.7441   322
12.7541   306
12.7641   309
12.7741   313
12.7841   302
12.7941   317
12.8041   310
12.8141   319
12.8241   309
12.8341   304
12.8441   308
12.8541   306
12.8641   329
12.8741   336
12.8841   331
12.8941   323
12.9041   320
12.9141   322
12.9241   334
12.9341   329
12.9441   334
12.9541   342
12.9641   312
12.9741   315
12.9841   333
12.9941   332
13.0041   356
13.0141   336
13.0241   306
13.0341   341
13.0441   363
13.0541   340
13.0641   318
13.0741   315
13.0841   321
13.0941   318
13.1041   327
13.1141   320
13.1241   321
13.1341   309
13.1441   323
13.1541   332
13.1641   335
13.1741   341
13.1841   350
13.1941   367
13.2041   335
13.2141   340
13.2241   349
13.2341   364
13.2441   364
13.2541   348
13.2641   357
13.2741   344
13.2841   334
13.2941   334
13.3041   334
13.3141   353
13.3241   343
13.3341   364
13.3441   386
13.3541   363
13.3641   351
13.3741   365
13.3841   371
13.3941   372
13.4041   385
13.4141   385
13.4241   367
13.4341   370
13.4441   377
13.4541   391
13.4641   383
13.4741   356
13.4841   350
13.4941   361
13.5041   378
13.5141   374
13.5241   377
13.5341   396
13.5441   405
13.5541   397
13.5641   396
13.5741   407
13.5841   417
13.5941   399
13.6041   401
13.6141   402
13.6241   393
13.6341   388
13.6441   380
13.6541   389
13.6641   403
13.6741   396
13.6841   400
13.6941   381
13.7041   346
13.7141   367
13.7241   402
13.7341   411
13.7441   425
13.7541   422
13.7641   395
13.7741   392
13.7841   396
13.7941   410
13.8041   405
13.8141   400
13.8241   407
13.8341   417
13.8441   419
13.8541   436
13.8641   438
13.8741   410
13.8841   402
13.8941   416
13.9041   415
13.9141   399
13.9241   416
13.9341   432
13.9441   443
13.9541   434
13.9641   415
13.9741   394
13.9841   433
13.9941   459
14.0041   425
14.0141   428
14.0241   430
14.0341   436
14.0441   457
14.0541   471
14.0641   472
14.0741   466
14.0841   442
14.0941   443
14.1041   471
14.1141   456
14.1241   449
14.1341   442
14.1441   451
14.1541   496
14.1641   478
14.1741   448
14.1841   445
14.1941   441
14.2041   438
14.2141   453
14.2241   467
14.2341   470
14.2441   462
14.2541   447
14.2641   443
14.2741   456
14.2841   471
14.2941   466
14.3041   472
14.3141   473
14.3241   462
14.3341   454
14.3441   461
14.3541   479
14.3641   452
14.3741   439
14.3841   438
14.3941   438
14.4041   459
14.4141   445
14.4241   441
14.4341   482
14.4441   476
14.4541   463
14.4641   479
14.4741   471
14.4841   446
14.4941   467
14.5041   488
14.5141   472
14.5241   473
14.5341   482
14.5441   489
14.5541   483
14.5641   475
14.5741   475
14.5841   478
14.5941   509
14.6041   499
14.6141   465
14.6241   465
14.6341   462
14.6441   502
14.6541   518
14.6641   482
14.6741   468
14.6841   467
14.6941   472
14.7041   461
14.7141   459
14.7241   482
14.7341   492
14.7441   495
14.7541   498
14.7641   520
14.7741   534
14.7841   510
14.7941   511
14.8041   501
14.8141   496
14.8241   497
14.8341   505
14.8441   497
14.8541   482
14.8641   491
14.8741   505
14.8841   510
14.8941   505
14.9041   523
14.9141   545
14.9241   515
14.9341   513
14.9441   535
14.9541   521
14.9641   518
14.9741   502
14.9841   507
14.9941   540
15.0041   570
15.0141   550
15.0241   526
15.0341   508
15.0441   526
15.0541   550
15.0641   547
15.0741   541
15.0841   531
15.0941   508
15.1041   520
15.1141   531
15.1241   533
15.1341   537
15.1441   535
15.1541   539
15.1641   521
15.1741   512
15.1841   520
15.1941   521
15.2041   547
15.2141   568
15.2241   516
15.2341   521
15.2441   559
15.2541   543
15.2641   512
15.2741   512
15.2841   535
15.2941   545
15.3041   541
15.3141   529
15.3241   501
15.3341   518
15.3441   549
15.3541   562
15.3641   531
15.3741   532
15.3841   525
15.3941   504
15.4041   539
15.4141   534
15.4241   532
15.4341   543
15.4441   559
15.4541   543
15.4641   534
15.4741   534
15.4841   533
15.4941   554
15.5041   531
15.5141   524
15.5241   555
15.5341   580
15.5441   595
15.5541   594
15.5641   598
15.5741   617
15.5841   672
15.5941   685
15.6041   643
15.6141   657
15.6241   692
15.6341   735
15.6441   751
15.6541   774
15.6641   786
15.6741   830
15.6841   856
15.6941   875
15.7041   856
15.7141   883
15.7241   901
15.7341   887
15.7441   869
15.7541   893
15.7641   900
15.7741   871
15.7841   860
15.7941   854
15.8041   818
15.8141   826
15.8241   857
15.8341   823
15.8441   773
15.8541   776
15.8641   761
15.8741   721
15.8841   690
15.8941   685
15.9041   694
15.9141   689
15.9241   660
15.9341   643
15.9441   607
15.9541   617
15.9641   629
15.9741   641
15.9841   613
15.9941   600
16.0041   605
16.0141   608
16.0241   614
16.0341   591
16.0441   583
16.0541   598
16.0641   604
16.0741   603
16.0841   600
16.0941   610
16.1041   626
16.1141   605
16.1241   609
16.1341   629
16.1441   608
16.1541   611
16.1641   580
16.1741   591
16.1841   587
16.1941   598
16.2041   612
16.2141   626
16.2241   612
16.2341   635
16.2441   610
16.2541   589
16.2641   629
16.2741   626
16.2841   611
16.2941   616
16.3041   654
16.3141   625
16.3241   620
16.3341   646
16.3441   627
16.3541   603
16.3641   606
16.3741   623
16.3841   645
16.3941   614
16.4041   634
16.4141   636
16.4241   637
16.4341   660
16.4441   658
16.4541   662
16.4641   638
16.4741   655
16.4841   670
16.4941   671
16.5041   652
16.5141   633
16.5241   637
16.5341   623
16.5441   633
16.5541   639
16.5641   668
16.5741   651
16.5841   673
16.5941   669
16.6041   616
16.6141   625
16.6241   655
16.6341   654
16.6441   665
16.6541   712
16.6641   683
16.6741   672
16.6841   674
16.6941   674
16.7041   656
16.7141   654
16.7241   668
16.7341   690
16.7441   694
16.7541   701
16.7641   690
16.7741   713
16.7841   670
16.7941   662
16.8041   669
16.8141   703
16.8241   685
16.8341   676
16.8441   661
16.8541   680
16.8641   697
16.8741   667
16.8841   666
16.8941   690
16.9041   693
16.9141   719
16.9241   731
16.9341   676
16.9441   684
16.9541   685
16.9641   687
16.9741   715
16.9841   718
16.9941   721
17.0041   727
17.0141   726
17.0241   708
17.0341   726
17.0441   697
17.0541   718
17.0641   720
17.0741   694
17.0841   710
17.0941   712
17.1041   679
17.1141   710
17.1241   682
17.1341   698
17.1441   672
17.1541   714
17.1641   711
17.1741   714
17.1841   715
17.1941   719
17.2041   766
17.2141   715
17.2241   711
17.2341   735
17.2441   730
17.2541   726
17.2641   720
17.2741   730
17.2841   758
17.2941   766
17.3041   717
17.3141   727
17.3241   739
17.3341   745
17.3441   778
17.3541   745
17.3641   749
17.3741   780
17.3841   756
17.3941   756
17.4041   719
17.4141   723
17.4241   751
17.4341   771
17.4441   755
17.4541   780
17.4641   801
17.4741   794
17.4841   762
17.4941   786
17.5041   791
17.5141   802
17.5241   760
17.5341   763
17.5441   802
17.5541   804
17.5641   795
17.5741   797
17.5841   844
17.5941   840
17.6041   803
17.6141   789
17.6241   828
17.6341   796
17.6441   826
17.6541   855
17.6641   842
17.6741   794
17.6841   791
17.6941   796
17.7041   856
17.7141   817
17.7241   804
17.7341   806
17.7441   831
17.7541   817
17.7641   810
17.7741   803
17.7841   833
17.7941   826
17.8041   824
17.8141   799
17.8241   791
17.8341   813
17.8441   833
17.8541   818
17.8641   813
17.8741   772
17.8841   793
17.8941   848
17.9041   804
17.9141   757
17.9241   795
17.9341   819
17.9441   856
17.9541   866
17.9641   819
17.9741   800
17.9841   770
17.9941   809
18.0041   802
18.0141   800
18.0241   776
18.0341   815
18.0441   814
18.0541   861
18.0641   804
18.0741   750
18.0841   819
18.0941   831
18.1041   855
18.1141   794
18.1241   824
18.1341   839
18.1441   804
18.1541   840
18.1641   832
18.1741   863
18.1841   850
18.1941   814
18.2041   806
18.2141   829
18.2241   804
18.2341   870
18.2441   895
18.2541   873
18.2641   820
18.2741   820
18.2841   870
18.2941   835
18.3041   847
18.3141   861
18.3241   844
18.3341   820
18.3441   837
18.3541   818
18.3641   867
18.3741   858
18.3841   833
18.3941   853
18.4041   825
18.4141   820
18.4241   840
18.4341   864
18.4441   861
18.4541   837
18.4641   823
18.4741   837
18.4841   866
18.4941   861
18.5041   850
18.5141   806
18.5241   831
18.5341   842
18.5441   853
18.5541   846
18.5641   865
18.5741   836
18.5841   867
18.5941   920
18.6041   871
18.6141   851
18.6241   913
18.6341   873
18.6441   839
18.6541   922
18.6641   872
18.6741   862
18.6841   838
18.6941   866
18.7041   870
18.7141   859
18.7241   860
18.7341   895
18.7441   884
18.7541   890
18.7641   869
18.7741   887
18.7841   886
18.7941   879
18.8041   863
18.8141   849
18.8241   844
18.8341   887
18.8441   883
18.8541   893
18.8641   955
18.8741   892
18.8841   902
18.8941   926
18.9041   953
18.9141   903
18.9241   890
18.9341   900
18.9441   920
18.9541   905
18.9641   915
18.9741   883
18.9841   883
18.9941   890
19.0041   909
19.0141   889
19.0241   890
19.0341   911
19.0441   919
19.0541   940
19.0641   873
19.0741   882
19.0841   880
19.0941   897
19.1041   897
19.1141   917
19.1241   897
19.1341   938
19.1441   898
19.1541   915
19.1641   907
19.1741   930
19.1841   933
19.1941   921
19.2041   912
19.2141   946
19.2241   915
19.2341   914
19.2441   927
19.2541   890
19.2641   893
19.2741   925
19.2841   941
19.2941   913
19.3041   969
19.3141   935
19.3241   950
19.3341   919
19.3441   939
19.3541   937
19.3641   929
19.3741   930
19.3841   984
19.3941   938
19.4041   956
19.4141   919
19.4241   936
19.4341   912
19.4441   964
19.4541   947
19.4641   934
19.4741   965
19.4841   914
19.4941   889
19.5041   912
19.5141   940
19.5241   948
19.5341   976
19.5441   966
19.5541   961
19.5641   914
19.5741   985
19.5841   926
19.5941   933
19.6041   914
19.6141   950
19.6241   955
19.6341   946
19.6441   963
19.6541   930
19.6641   969
19.6741   977
19.6841   960
19.6941  1001
19.7041   927
19.7141   940
19.7241   953
19.7341   944
19.7441   913
19.7541   918
19.7641   939
19.7741   934
19.7841   949
19.7941   920
19.8041   981
19.8141   966
19.8241   983
19.8341   971
19.8441   967
19.8541   963
19.8641   942
19.8741   960
19.8841   997
19.8941   926
19.9041   913
19.9141   921
19.9241   912
19.9341   942
19.9441   979
19.9541   963
19.9641   970
19.9741   979
19.9841  1003
19.9941   974
20.0041   959
20.0141   921
20.0241  1027
20.0341  1013
20.0441   912
20.0541   920
20.0641   979
20.0741   982
20.0841   917
20.0941   973
20.1041   969
20.1141   957
20.1241   943
20.1341   963
20.1441  1007
20.1541   987
20.1641  1023
20.1741   956
20.1841   950
20.1941  1017
20.2041   975
20.2141   957
20.2241   973
20.2341   927
20.2441  1002
20.2541  1011
20.2641   997
20.2741   976
20.2841   938
20.2941   978
20.3041   945
20.3141   973
20.3241   999
20.3341   983
20.3441   955
20.3541   976
20.3641  1010
20.3741   962
20.3841   953
20.3941  1035
20.4041   963
20.4141   972
20.4241   929
20.4341   955
20.4441   935
20.4541  1003
20.4641   936
20.4741   985
20.4841   970
20.4941   949
20.5041   942
20.5141   939
20.5241   974
20.5341  1008
20.5441   984
20.5541  1000
20.5641   980
20.5741   949
20.5841   980
20.5941  1006
20.6041   952
20.6141   994
20.6241   969
20.6341   931
20.6441   908
20.6541   978
20.6641   957
20.6741   955
20.6841   937
20.6941   989
20.7041   981
20.7141   970
20.7241   970
20.7341  1030
20.7441  1008
20.7541   994
20.7641   995
20.7741   988
20.7841   991
20.7941  1015
20.8041   986
20.8141  1043
20.8241  1046
20.8341  1037
20.8441  1027
20.8541  1073
20.8641  1071
20.8741  1092
20.8841  1136
20.8941  1123
20.9041  1096
20.9141  1153
20.9241  1269
20.9341  1223
20.9441  1273
20.9541  1269
20.9641  1273
20.9741  1268
20.9841  1343
20.9941  1338
21.0041  1407
21.0141  1412
21.0241  1443
21.0341  1422
21.0441  1490
21.0541  1550
21.0641  1522
21.0741  1438
21.0841  1466
21.0941  1554
21.1041  1538
21.1141  1506
21.1241  1572
21.1341  1514
21.1441  1575
21.1541  1589
21.1641  1515
21.1741  1537
21.1841  1461
21.1941  1466
21.2041  1450
21.2141  1438
21.2241  1453
21.2341  1373
21.2441  1408
21.2541  1379
21.2641  1331
21.2741  1232
21.2841  1188
21.2941  1228
21.3041  1190
21.3141  1203
21.3241  1199
21.3341  1089
21.3441  1116
21.3541  1055
21.3641  1116
21.3741  1026
21.3841  1121
21.3941  1008
21.4041  1079
21.4141  1051
21.4241  1031
21.4341  1042
21.4441  1001
21.4541   994
21.4641  1005
21.4741   946
21.4841  1022
21.4941  1059
21.5041  1033
21.5141  1011
21.5241   982
21.5341   994
21.5441  1096
21.5541  1010
21.5641  1004
21.5741   993
21.5841  1046
21.5941  1023
21.6041   996
21.6141  1082
21.6241  1021
21.6341  1080
21.6441   998
21.6541   975
21.6641  1038
21.6741   989
21.6841   984
21.6941   979
21.7041  1018
21.7141   982
21.7241   943
21.7341  1061
21.7441  1005
21.7541   994
21.7641   987
21.7741   997
21.7841   989
21.7941  1060
21.8041   999
21.8141  1031
21.8241   970
21.8341   997
21.8441  1041
21.8541   996
21.8641  1041
21.8741   958
21.8841   983
21.8941   981
21.9041  1036
21.9141  1010
21.9241   977
21.9341   968
21.9441   993
21.9541  1033
21.9641   993
21.9741   987
21.9841  1066
21.9941  1029
22.0041  1055
22.0141  1010
22.0241  1034
22.0341  1024
22.0441  1021
22.0541  1039
22.0641   975
22.0741   982
22.0841  1015
22.0941   997
22.1041  1016
22.1141  1017
22.1241   984
22.1341   980
22.1441   998
22.1541   974
22.1641  1045
22.1741  1029
22.1841  1050
22.1941  1058
22.2041  1008
22.2141  1018
22.2241   973
22.2341  1010
22.2441   964
22.2541  1019
22.2641   991
22.2741   934
22.2841  1011
22.2941  1043
22.3041  1014
22.3141  1035
22.3241  1057
22.3341   991
22.3441  1028
22.3541   992
22.3641  1018
22.3741  1057
22.3841  1026
22.3941  1044
22.4041  1008
22.4141  1013
22.4241   974
22.4341  1031
22.4441   935
22.4541  1017
22.4641  1072
22.4741  1025
22.4841  1034
22.4941  1041
22.5041   988
22.5141   963
22.5241  1014
22.5341   987
22.5441  1009
22.5541  1060
22.5641   986
22.5741   976
22.5841  1017
22.5941  1051
22.6041   991
22.6141   991
22.6241  1003
22.6341  1017
22.6441  1022
22.6541  1019
22.6641   993
22.6741   962
22.6841  1036
22.6941  1010
22.7041   969
22.7141   915
22.7241   978
22.7341   984
22.7441   967
22.7541   959
22.7641   944
22.7741  1015
22.7841  1067
22.7941  1034
22.8041   991
22.8141   956
22.8241   996
22.8341   983
22.8441  1042
22.8541   986
22.8641  1020
22.8741   999
22.8841  1017
22.8941   957
22.9041  1031
22.9141   975
22.9241   997
22.9341   983
22.9441   965
22.9541   991
22.9641   969
22.9741   962
22.9841   995
22.9941   980
23.0041   967
23.0141   997
23.0241   957
23.0341  1061
23.0441   950
23.0541  1048
23.0641   967
23.0741   977
23.0841  1035
23.0941   968
23.1041  1017
23.1141   986
23.1241  1056
23.1341   993
23.1441  1002
23.1541   934
23.1641   960
23.1741   952
23.1841   982
23.1941   944
23.2041   986
23.2141   940
23.2241   993
23.2341   963
23.2441   923
23.2541   983
23.2641  1025
23.2741   957
23.2841  1014
23.2941  1056
23.3041  1020
23.3141   978
23.3241  1014
23.3341  1008
23.3441   987
23.3541   984
23.3641  1032
23.3741   980
23.3841  1011
23.3941   985
23.4041  1030
23.4141  1021
23.4241  1012
23.4341   985
23.4441   942
23.4541  1053
23.4641   971
23.4741   938
23.4841   982
23.4941   986
23.5041  1021
23.5141   974
23.5241   962
23.5341   875
23.5441   991
23.5541   972
23.5641   950
23.5741   946
23.5841   982
23.5941   948
23.6041   981
23.6141  1029
23.6241   982
23.6341  1016
23.6441  1003
23.6541  1003
23.6641  1063
23.6741   972
23.6841  1012
23.6941   969
23.7041  1070
23.7141  1040
23.7241  1048
23.7341  1053
23.7441  1087
23.7541  1110
23.7641  1048
23.7741  1072
23.7841  1056
23.7941  1093
23.8041  1075
23.8141  1051
23.8241  1037
23.8341  1073
23.8441  1039
23.8541  1079
23.8641  1077
23.8741  1052
23.8841   974
23.8941  1023
23.9041  1063
23.9141   973
23.9241   995
23.9341  1029
23.9441   998
23.9541  1041
23.9641  1047
23.9741  1015
23.9841  1000
23.9941  1038
24.0041   988
24.0141  1006
24.0241   885
24.0341   949
24.0441   996
24.0541   965
24.0641  1003
24.0741   941
24.0841   910
24.0941   969
24.1041   929
24.1141   949
24.1241   947
24.1341  1020
24.1441   923
24.1541  1041
24.1641   899
24.1741   978
24.1841   953
24.1941   966
24.2041   941
24.2141  1015
24.2241   970
24.2341   990
24.2441   923
24.2541   938
24.2641   973
24.2741   923
24.2841   964
24.2941   987
24.3041   920
24.3141   947
24.3241   930
24.3341   969
24.3441   929
24.3541   942
24.3641   945
24.3741   979
24.3841   970
24.3941   946
24.4041   919
24.4141   930
24.4241   989
24.4341   906
24.4441   872
24.4541   941
24.4641   891
24.4741   967
24.4841   933
24.4941   938
24.5041   914
24.5141   936
24.5241   941
24.5341   874
24.5441   937
24.5541   939
24.5641   918
24.5741   968
24.5841   930
24.5941   959
24.6041   962
24.6141   937
24.6241   906
24.6341   934
24.6441   905
24.6541   936
24.6641   936
24.6741   937
24.6841  1003
24.6941   956
24.7041   898
24.7141   951
24.7241   930
24.7341   912
24.7441   871
24.7541   889
24.7641   877
24.7741   880
24.7841   941
24.7941   949
24.8041   950
24.8141   920
24.8241   900
24.8341   912
24.8441   913
24.8541   982
24.8641   892
24.8741   874
24.8841   900
24.8941   877
24.9041   899
24.9141   946
24.9241   924
24.9341   955
24.9441   910
24.9541   919
24.9641   952
24.9741   898
24.9841   926
24.9941   904
25.0041   971
25.0141   920
25.0241   960
25.0341   935
25.0441   862
25.0541   894
25.0641   957
25.0741   932
25.0841   912
25.0941   940
25.1041   935
25.1141   947
25.1241   903
25.1341   925
25.1441   872
25.1541   976
25.1641   993
25.1741   950
25.1841   931
25.1941   904
25.2041   943
25.2141   939
25.2241   903
25.2341   941
25.2441   948
25.2541   896
25.2641   933
25.2741   964
25.2841   901
25.2941   912
25.3041   907
25.3141   884
25.3241   882
25.3341   869
25.3441   885
25.3541   883
25.3641   891
25.3741   930
25.3841   911
25.3941   904
25.4041   896
25.4141   892
25.4241   883
25.4341   876
25.4441   888
25.4541   877
25.4641   836
25.4741   887
25.4841   912
25.4941   828
25.5041   888
25.5141   880
25.5241   896
25.5341   905
25.5441   879
25.5541   839
25.5641   818
25.5741   894
25.5841   845
25.5941   872
25.6041   914
25.6141   903
25.6241   850
25.6341   872
25.6441   904
25.6541   898
25.6641   862
25.6741   832
25.6841   884
25.6941   826
25.7041   816
25.7141   833
25.7241   821
25.7341   813
25.7441   827
25.7541   868
25.7641   844
25.7741   875
25.7841   885
25.7941   851
25.8041   922
25.8141   875
25.8241   839
25.8341   863
25.8441   861
25.8541   888
25.8641   847
25.8741   852
25.8841   820
25.8941   831
25.9041   867
25.9141   786
25.9241   833
25.9341   840
25.9441   847
25.9541   857
25.9641   846
25.9741   838
25.9841   808
25.9941   884
26.0041   815
26.0141   826
26.0241   856
26.0341   820
26.0441   824
26.0541   795
26.0641   836
26.0741   825
26.0841   768
26.0941   796
26.1041   874
26.1141   859
26.1241   842
26.1341   802
26.1441   805
26.1541   803
26.1641   835
26.1741   821
26.1841   863
26.1941   817
26.2041   824
26.2141   828
26.2241   837
26.2341   797
26.2441   837
26.2541   823
26.2641   797
26.2741   782
26.2841   800
26.2941   851
26.3041   849
26.3141   823
26.3241   807
26.3341   802
26.3441   845
26.3541   776
26.3641   825
26.3741   883
26.3841   830
26.3941   841
26.4041   877
26.4141   865
26.4241   789
26.4341   822
26.4441   765
26.4541   836
26.4641   779
26.4741   799
26.4841   790
26.4941   763
26.5041   809
26.5141   803
26.5241   776
26.5341   719
26.5441   767
26.5541   806
26.5641   804
26.5741   799
26.5841   843
26.5941   777
26.6041   807
26.6141   829
26.6241   784
26.6341   749
26.6441   798
26.6541   790
26.6641   796
26.6741   791
26.6841   776
26.6941   761
26.7041   824
26.7141   784
26.7241   832
26.7341   789
26.7441   812
26.7541   789
26.7641   796
26.7741   754
26.7841   804
26.7941   828
26.8041   781
26.8141   755
26.8241   780
26.8341   771
26.8441   781
26.8541   784
26.8641   769
26.8741   774
26.8841   742
26.8941   745
26.9041   773
26.9141   800
26.9241   730
26.9341   764
26.9441   760
26.9541   781
26.9641   761
26.9741   767
26.9841   763
26.9941   758
27.0041   735
27.0141   783
27.0241   796
27.0341   784
27.0441   759
27.0541   749
27.0641   739
27.0741   727
27.0841   727
27.0941   757
27.1041   737
27.1141   771
27.1241   753
27.1341   750
27.1441   772
27.1541   752
27.1641   716
27.1741   786
27.1841   795
27.1941   758
27.2041   754
27.2141   770
27.2241   759
27.2341   762
27.2441   767
27.2541   778
27.2641   752
27.2741   762
27.2841   764
27.2941   726
27.3041   818
27.3141   720
27.3241   754
27.3341   736
27.3441   799
27.3541   741
27.3641   777
27.3741   751
27.3841   767
27.3941   735
27.4041   737
27.4141   703
27.4241   774
27.4341   723
27.4441   710
27.4541   725
27.4641   743
27.4741   734
27.4841   749
27.4941   725
27.5041   740
27.5141   736
27.5241   724
27.5341   702
27.5441   757
27.5541   754
27.5641   718
27.5741   729
27.5841   716
27.5941   731
27.6041   701
27.6141   725
27.6241   741
27.6341   722
27.6441   704
27.6541   699
27.6641   768
27.6741   741
27.6841   755
27.6941   667
27.7041   757
27.7141   730
27.7241   721
27.7341   708
27.7441   748
27.7541   697
27.7641   704
27.7741   698
27.7841   714
27.7941   681
27.8041   709
27.8141   691
27.8241   728
27.8341   689
27.8441   736
27.8541   680
27.8641   671
27.8741   727
27.8841   693
27.8941   668
27.9041   694
27.9141   720
27.9241   707
27.9341   713
27.9441   649
27.9541   680
27.9641   711
27.9741   682
27.9841   692
27.9941   710
28.0041   667
28.0141   669
28.0241   680
28.0341   668
28.0441   670
28.0541   670
28.0641   646
28.0741   636
28.0841   707
28.0941   751
28.1041   677
28.1141   724
28.1241   703
28.1341   672
28.1441   718
28.1541   641
28.1641   687
28.1741   724
28.1841   647
28.1941   671
28.2041   739
28.2141   648
28.2241   638
28.2341   678
28.2441   698
28.2541   645
28.2641   666
28.2741   671
28.2841   656
28.2941   695
28.3041   677
28.3141   707
28.3241   644
28.3341   671
28.3441   675
28.3541   650
28.3641   672
28.3741   705
28.3841   678
28.3941   657
28.4041   684
28.4141   658
28.4241   688
28.4341   703
28.4441   635
28.4541   657
28.4641   643
28.4741   610
28.4841   641
28.4941   636
28.5041   627
28.5141   652
28.5241   641
28.5341   641
28.5441   629
28.5541   644
28.5641   688
28.5741   620
28.5841   645
28.5941   656
28.6041   628
28.6141   694
28.6241   662
28.6341   645
28.6441   605
28.6541   653
28.6641   647
28.6741   666
28.6841   620
28.6941   627
28.7041   663
28.7141   641
28.7241   619
28.7341   632
28.7441   654
28.7541   637
28.7641   638
28.7741   619
28.7841   594
28.7941   673
28.8041   659
28.8141   664
28.8241   613
28.8341   658
28.8441   616
28.8541   602
28.8641   607
28.8741   587
28.8841   562
28.8941   597
28.9041   642
28.9141   668
28.9241   635
28.9341   600
28.9441   636
28.9541   629
28.9641   618
28.9741   647
28.9841   628
28.9941   632
29.0041   637
29.0141   645
29.0241   589
29.0341   634
29.0441   628
29.0541   651
29.0641   683
29.0741   624
29.0841   618
29.0941   585
29.1041   611
29.1141   640
29.1241   628
29.1341   620
29.1441   633
29.1541   606
29.1641   609
29.1741   595
29.1841   618
29.1941   599
29.2041   575
29.2141   648
29.2241   619
29.2341   543
29.2441   578
29.2541   572
29.2641   587
29.2741   606
29.2841   632
29.2941   641
29.3041   599
29.3141   594
29.3241   587
29.3341   568
29.3441   598
29.3541   582
29.3641   637
29.3741   584
29.3841   576
29.3941   599
29.4041   542
29.4141   560
29.4241   590
29.4341   579
29.4441   588
29.4541   559
29.4641   590
29.4741   591
29.4841   552
29.4941   598
29.5041   593
29.5141   595
29.5241   539
29.5341   575
29.5441   583
29.5541   582
29.5641   556
29.5741   578
29.5841   622
29.5941   548
29.6041   529
29.6141   542
29.6241   553
29.6341   512
29.6441   550
29.6541   580
29.6641   580
29.6741   559
29.6841   514
29.6941   565
29.7041   561
29.7141   547
29.7241   554
29.7341   586
29.7441   526
29.7541   573
29.7641   527
29.7741   548
29.7841   556
29.7941   536
29.8041   534
29.8141   529
29.8241   576
29.8341   566
29.8441   556
29.8541   496
29.8641   521
29.8741   546
29.8841   508
29.8941   532
29.9041   579
29.9141   519
29.9241   512
29.9341   542
29.9441   538
29.9541   522
29.9641   529
29.9741   536
29.9841   543
29.9941   528
30.0041   566
30.0141   570
30.0241   555
30.0341   505
30.0441   558
30.0541   538
30.0641   497
30.0741   500
30.0841   542
30.0941   535
30.1041   470
30.1141   541
30.1241   539
30.1341   524
30.1441   501
30.1541   523
30.1641   535
30.1741   500
30.1841   534
30.1941   533
30.2041   563
30.2141   569
30.2241   526
30.2341   571
30.2441   484
30.2541   506
30.2641   493
30.2741   507
30.2841   526
30.2941   541
30.3041   503
30.3141   521
30.3241   510
30.3341   554
30.3441   512
30.3541   502
30.3641   519
30.3741   500
30.3841   481
30.3941   506
30.4041   493
30.4141   510
30.4241   498
30.4341   542
30.4441   483
30.4541   493
30.4641   515
30.4741   503
30.4841   538
30.4941   502
30.5041   525
30.5141   498
30.5241   464
30.5341   456
30.5441   513
30.5541   482
30.5641   506
30.5741   483
30.5841   499
30.5941   487
30.6041   484
30.6141   515
30.6241   499
30.6341   503
30.6441   490
30.6541   510
30.6641   509
30.6741   440
30.6841   482
30.6941   492
30.7041   499
30.7141   468
30.7241   458
30.7341   531
30.7441   470
30.7541   485
30.7641   466
30.7741   463
30.7841   459
30.7941   442
30.8041   491
30.8141   519
30.8241   488
30.8341   473
30.8441   448
30.8541   492
30.8641   473
30.8741   509
30.8841   473
30.8941   477
30.9041   448
30.9141   470
30.9241   453
30.9341   454
30.9441   460
30.9541   486
30.9641   473
30.9741   449
30.9841   437
30.9941   496
31.0041   472
31.0141   493
31.0241   445
31.0341   457
31.0441   491
31.0541   466
31.0641   462
31.0741   462
31.0841   463
31.0941   455
31.1041   441
31.1141   484
31.1241   450
31.1341   488
31.1441   468
31.1541   466
31.1641   442
31.1741   433
31.1841   453
31.1941   426
31.2041   442
31.2141   440
31.2241   485
31.2341   450
31.2441   469
31.2541   467
31.2641   451
31.2741   427
31.2841   441
31.2941   442
31.3041   478
31.3141   468
31.3241   436
31.3341   426
31.3441   428
31.3541   447
31.3641   455
31.3741   468
31.3841   456
31.3941   443
31.4041   433
31.4141   433
31.4241   422
31.4341   429
31.4441   478
31.4541   421
31.4641   449
31.4741   450
31.4841   422
31.4941   423
31.5041   438
31.5141   388
31.5241   477
31.5341   439
31.5441   399
31.5541   433
31.5641   431
31.5741   419
31.5841   414
31.5941   436
31.6041   461
31.6141   446
31.6241   432
31.6341   468
31.6441   411
31.6541   401
31.6641   433
31.6741   435
31.6841   423
31.6941   412
31.7041   438
31.7141   427
31.7241   425
31.7341   412
31.7441   423
31.7541   426
31.7641   418
31.7741   428
31.7841   404
31.7941   435
31.8041   435
31.8141   423
31.8241   412
31.8341   428
31.8441   427
31.8541   396
31.8641   430
31.8741   416
31.8841   431
31.8941   429
31.9041   404
31.9141   409
31.9241   418
31.9341   419
31.9441   407
31.9541   398
31.9641   402
31.9741   427
31.9841   404
31.9941   401
32.0041   407
32.0141   399
32.0241   405
32.0341   393
32.0441   405
32.0541   411
32.0641   389
32.0741   389
32.0841   406
32.0941   427
32.1041   370
32.1141   402
32.1241   369
32.1341   365
32.1441   421
32.1541   368
32.1641   371
32.1741   366
32.1841   365
32.1941   379
32.2041   375
32.2141   394
32.2241   386
32.2341   395
32.2441   423
32.2541   378
32.2641   375
32.2741   411
32.2841   413
32.2941   396
32.3041   408
32.3141   422
32.3241   382
32.3341   362
32.3441   403
32.3541   367
32.3641   395
32.3741   383
32.3841   365
32.3941   370
32.4041   379
32.4141   376
32.4241   390
32.4341   381
32.4441   364
32.4541   373
32.4641   391
32.4741   391
32.4841   392
32.4941   402
32.5041   372
32.5141   388
32.5241   378
32.5341   385
32.5441   364
32.5541   360
32.5641   375
32.5741   366
32.5841   379
32.5941   364
32.6041   374
32.6141   339
32.6241   363
32.6341   340
32.6441   345
32.6541   376
32.6641   315
32.6741   347
32.6841   359
32.6941   350
32.7041   353
32.7141   354
32.7241   342
32.7341   359
32.7441   324
32.7541   350
32.7641   374
32.7741   345
32.7841   367
32.7941   362
32.8041   358
32.8141   347
32.8241   348
32.8341   341
32.8441   327
32.8541   344
32.8641   357
32.8741   362
32.8841   357
32.8941   379
32.9041   338
32.9141   310
32.9241   353
32.9341   324
32.9441   353
32.9541   383
32.9641   342
32.9741   348
32.9841   354
32.9941   381
33.0041   312
33.0141   330
33.0241   330
33.0341   351
33.0441   345
33.0541   357
33.0641   345
33.0741   332
33.0841   334
33.0941   340
33.1041   337
33.1141   313
33.1241   348
33.1341   337
33.1441   343
33.1541   356
33.1641   325
33.1741   337
33.1841   333
33.1941   329
33.2041   309
33.2141   327
33.2241   305
33.2341   310
33.2441   323
33.2541   308
33.2641   320
33.2741   320
33.2841   328
33.2941   343
33.3041   318
33.3141   328
33.3241   310
33.3341   313
33.3441   320
33.3541   307
33.3641   345
33.3741   319
33.3841   327
33.3941   325
33.4041   337
33.4141   299
33.4241   305
33.4341   311
33.4441   320
33.4541   315
33.4641   332
33.4741   314
33.4841   331
33.4941   292
33.5041   292
33.5141   314
33.5241   298
33.5341   325
33.5441   322
33.5541   302
33.5641   305
33.5741   309
33.5841   335
33.5941   295
33.6041   297
33.6141   282
33.6241   304
33.6341   325
33.6441   321
33.6541   311
33.6641   301
33.6741   296
33.6841   293
33.6941   296
33.7041   275
33.7141   312
33.7241   275
33.7341   305
33.7441   302
33.7541   307
33.7641   305
33.7741   299
33.7841   297
33.7941   300
33.8041   288
33.8141   302
33.8241   315
33.8341   284
33.8441   300
33.8541   310
33.8641   286
33.8741   280
33.8841   301
33.8941   309
33.9041   302
33.9141   269
33.9241   276
33.9341   276
33.9441   293
33.9541   271
33.9641   292
33.9741   261
33.9841   276
33.9941   310
34.0041   280
34.0141   298
34.0241   300
34.0341   280
34.0441   275
34.0541   269
34.0641   277
34.0741   309
34.0841   264
34.0941   285
34.1041   270
34.1141   272
34.1241   254
34.1341   274
34.1441   309
34.1541   287
34.1641   285
34.1741   266
34.1841   279
34.1941   257
34.2041   300
34.2141   268
34.2241   262
34.2341   266
34.2441   271
34.2541   278
34.2641   294
34.2741   267
34.2841   267
34.2941   264
34.3041   285
34.3141   263
34.3241   265
34.3341   289
34.3441   271
34.3541   263
34.3641   275
34.3741   280
34.3841   245
34.3941   274
34.4041   232
34.4141   278
34.4241   296
34.4341   232
34.4441   258
34.4541   253
34.4641   259
34.4741   264
34.4841   286
34.4941   270
34.5041   263
34.5141   269
34.5241   243
34.5341   263
34.5441   261
34.5541   250
34.5641   277
34.5741   256
34.5841   271
34.5941   240
34.6041   257
34.6141   240
34.6241   241
34.6341   275
34.6441   275
34.6541   252
34.6641   258
34.6741   245
34.6841   261
34.6941   256
34.7041   252
34.7141   249
34.7241   238
34.7341   246
34.7441   225
34.7541   240
34.7641   257
34.7741   256
34.7841   259
34.7941   232
34.8041   280
34.8141   251
34.8241   219
34.8341   258
34.8441   250
34.8541   241
34.8641   250
34.8741   247
34.8841   222
34.8941   240
34.9041   253
34.9141   242
34.9241   257
34.9341   244
34.9441   247
34.9541   213
34.9641   236
34.9741   246
34.9841   238
34.9941   243
35.0041   259
35.0141   252
35.0241   269
35.0341   246
35.0441   270
35.0541   218
35.0641   237
35.0741   257
35.0841   213
35.0941   245
35.1041   248
35.1141   230
35.1241   213
35.1341   240
35.1441   229
35.1541   249
35.1641   226
35.1741   225
35.1841   230
35.1941   223
35.2041   238
35.2141   232
35.2241   229
35.2341   210
35.2441   222
35.2541   221
35.2641   207
35.2741   212
35.2841   215
35.2941   230
35.3041   215
35.3141   215
35.3241   206
35.3341   217
35.3441   215
35.3541   234
35.3641   243
35.3741   205
35.3841   237
35.3941   184
35.4041   196
35.4141   226
35.4241   211
35.4341   220
35.4441   218
35.4541   226
35.4641   191
35.4741   223
35.4841   214
35.4941   218
35.5041   214
35.5141   220
35.5241   201
35.5341   209
35.5441   210
35.5541   205
35.5641   211
35.5741   209
35.5841   211
35.5941   205
35.6041   179
35.6141   196
35.6241   207
35.6341   201
35.6441   220
35.6541   214
35.6641   208
35.6741   210
35.6841   201
35.6941   200
35.7041   210
35.7141   224
35.7241   194
35.7341   178
35.7441   198
35.7541   194
35.7641   214
35.7741   214
35.7841   194
35.7941   210
35.8041   195
35.8141   208
35.8241   194
35.8341   194
35.8441   194
35.8541   185
35.8641   222
35.8741   209
35.8841   215
35.8941   193
35.9041   210
35.9141   215
35.9241   198
35.9341   210
35.9441   189
35.9541   193
35.9641   180
35.9741   199
35.9841   204
35.9941   190
36.0041   189
36.0141   185
36.0241   195
36.0341   196
36.0441   194
36.0541   179
36.0641   189
36.0741   180
36.0841   188
36.0941   180
36.1041   186
36.1141   174
36.1241   183
36.1341   212
36.1441   183
36.1541   175
36.1641   177
36.1741   172
36.1841   180
36.1941   190
36.2041   191
36.2141   181
36.2241   159
36.2341   180
36.2441   184
36.2541   195
36.2641   170
36.2741   184
36.2841   176
36.2941   166
36.3041   179
36.3141   183
36.3241   165
36.3341   179
36.3441   169
36.3541   184
36.3641   198
36.3741   180
36.3841   169
36.3941   177
36.4041   162
36.4141   189
36.4241   161
36.4341   175
36.4441   154
36.4541   173
36.4641   169
36.4741   185
36.4841   149
36.4941   170
36.5041   170
36.5141   178
36.5241   158
36.5341   182
36.5441   162
36.5541   171
36.5641   187
36.5741   160
36.5841   164
36.5941   172
36.6041   155
36.6141   162
36.6241   176
36.6341   180
36.6441   184
36.6541   165
36.6641   197
36.6741   156
36.6841   141
36.6941   163
36.7041   157
36.7141   135
36.7241   154
36.7341   147
36.7441   180
36.7541   162
36.7641   184
36.7741   162
36.7841   158
36.7941   147
36.8041   167
36.8141   151
36.8241   151
36.8341   149
36.8441   156
36.8541   170
36.8641   156
36.8741   170
36.8841   165
36.8941   158
36.9041   165
36.9141   142
36.9241   169
36.9341   153
36.9441   151
36.9541   156
36.9641   158
36.9741   168
36.9841   156
36.9941   137
37.0041   147
37.0141   144
37.0241   165
37.0341   153
37.0441   144
37.0541   163
37.0641   160
37.0741   146
37.0841   129
37.0941   106
37.1041   146
37.1141   151
37.1241   163
37.1341   142
37.1441   161
37.1541   148
37.1641   147
37.1741   162
37.1841   132
37.1941   130
37.2041   129
37.2141   146
37.2241   143
37.2341   145
37.2441   145
37.2541   169
37.2641   147
37.2741   145
37.2841   144
37.2941   131
37.3041   158
37.3141   129
37.3241   144
37.3341   138
37.3441   157
37.3541   130
37.3641   138
37.3741   131
37.3841   147
37.3941   140
37.4041   150
37.4141   153
37.4241   137
37.4341   146
37.4441   129
37.4541   151
37.4641   149
37.4741   133
37.4841   132
37.4941   129
37.5041   122
37.5141   139
37.5241   151
37.5341   131
37.5441   129
37.5541   147
37.5641   140
37.5741   158
37.5841   146
37.5941   147
37.6041   131
37.6141   133
37.6241   118
37.6341   133
37.6441   149
37.6541   120
37.6641   149
37.6741   134
37.6841   130
37.6941   141
37.7041   122
37.7141   144
37.7241   116
37.7341   125
37.7441   132
37.7541   130
37.7641   120
37.7741   129
37.7841   115
37.7941   113
37.8041   120
37.8141   131
37.8241   131
37.8341   122
37.8441   119
37.8541   110
37.8641   118
37.8741   109
37.8841   117
37.8941   138
37.9041   124
37.9141   106
37.9241   123
37.9341   119
37.9441   119
37.9541   109
37.9641   124
37.9741   117
37.9841   121
37.9941   137
38.0041   120
38.0141   154
38.0241   132
38.0341   129
38.0441   116
38.0541   118
38.0641   115
38.0741   129
38.0841   127
38.0941    96
38.1041   119
38.1141   121
38.1241   124
38.1341   125
38.1441   109
38.1541   111
38.1641   127
38.1741   102
38.1841    83
38.1941   122
38.2041   140
38.2141   131
38.2241   121
38.2341   112
38.2441   120
38.2541   109
38.2641   108
38.2741   138
38.2841   117
38.2941   108
38.3041   100
38.3141   126
38.3241   111
38.3341   131
38.3441   125
38.3541   123
38.3641   116
38.3741    95
38.3841   116
38.3941   101
38.4041   110
38.4141    93
38.4241   119
38.4341   122
38.4441    99
38.4541   103
38.4641   100
38.4741   107
38.4841    98
38.4941   118
38.5041   118
38.5141   106
38.5241    97
38.5341    86
38.5441   104
38.5541    90
38.5641    97
38.5741    93
38.5841   103
38.5941   101
38.6041   105
38.6141   114
38.6241   112
38.6341   104
38.6441    90
38.6541    92
38.6641    88
38.6741    96
38.6841   112
38.6941   119
38.7041    83
38.7141    90
38.7241    95
38.7341    99
38.7441    98
38.7541    93
38.7641    88
38.7741   113
38.7841    97
38.7941   107
38.8041    83
38.8141    87
38.8241    94
38.8341    95
38.8441    98
38.8541    94
38.8641    82
38.8741    94
38.8841    97
38.8941    94
38.9041    87
38.9141    74
38.9241    87
38.9341    81
38.9441    87
38.9541    87
38.9641    94
38.9741    73
38.9841    63
38.9941    77
39.0041    88
39.0141    96
39.0241   101
39.0341    90
39.0441    80
39.0541    90
39.0641    83
39.0741    94
39.0841    77
39.0941    80
39.1041    85
39.1141    92
39.1241    80
39.1341    97
39.1441    96
39.1541    89
39.1641    96
39.1741    82
39.1841    90
39.1941    95
39.2041   109
39.2141    71
39.2241    83
39.2341    74
39.2441    86
39.2541    90
39.2641    69
39.2741    81
39.2841    96
39.2941    84
39.3041    95
39.3141    75
39.3241    83
39.3341    73
39.3441    77
39.3541    68
39.3641    82
39.3741    62
39.3841    79
39.3941    81
39.4041    73
39.4141    93
39.4241    69
39.4341    72
39.4441    82
39.4541    73
39.4641    77
39.4741    60
39.4841    82
39.4941    77
39.5041    90
39.5141    74
39.5241    70
39.5341    78
39.5441    61
39.5541    67
39.5641    78
39.5741    64
39.5841    91
39.5941    70
39.6041    80
39.6141    67
39.6241    82
39.6341    72
39.6441    74
39.6541    75
39.6641    72
39.6741    75
39.6841    90
39.6941    68
39.7041    72
39.7141    62
39.7241    89
39.7341    72
39.7441    68
39.7541    64
39.7641    69
39.7741    63
39.7841    63
39.7941    74
39.8041    59
39.8141    58
39.8241    57
39.8341    67
39.8441    78
39.8541    65
39.8641    73
39.8741    62
39.8841    71
39.8941    60
39.9041    64
39.9141    45
39.9241    61
39.9341    65
39.9441    66
39.9541    53
39.9641    64
39.9741    75
39.9841    61
39.9941    74
