Bruker Nano GmbH Berlin, Germany
Esprit 1.9

Date: 4/1/2021 4:58:44 PM
Real time: 19559
Life time: 18228
Pulse density: 101011


Detector type: XFlash 430
Window type: Custom type
Detector thickness: 0.45
Si dead layer:0.029

Calibration, lin.: 10
Calibration, abs.: -955.9
Mn FWHM: 137.05
Fano factor: 0.121
Channels: 4095

Energy Counts
-0.9559     0
-0.9459     0
-0.9359     0
-0.9259     0
-0.9159     0
-0.9059     0
-0.8959     0
-0.8859     0
-0.8759     0
-0.8659     0
-0.8559     0
-0.8459     0
-0.8359     0
-0.8259     0
-0.8159     0
-0.8059     0
-0.7959     0
-0.7859     0
-0.7759     0
-0.7659     0
-0.7559     0
-0.7459     0
-0.7359     0
-0.7259     0
-0.7159     0
-0.7059     0
-0.6959     0
-0.6859     0
-0.6759     0
-0.6659     0
-0.6559     0
-0.6459     0
-0.6359     0
-0.6259     0
-0.6159     0
-0.6059     0
-0.5959     0
-0.5859     0
-0.5759     0
-0.5659     0
-0.5559     0
-0.5459     0
-0.5359     0
-0.5259     0
-0.5159     0
-0.5059     0
-0.4959     0
-0.4859     0
-0.4759     0
-0.4659     0
-0.4559     0
-0.4459     0
-0.4359     0
-0.4259     0
-0.4159     0
-0.4059     0
-0.3959     0
-0.3859     0
-0.3759     0
-0.3659     0
-0.3559     0
-0.3459     0
-0.3359     0
-0.3259     0
-0.3159     0
-0.3059     0
-0.2959     0
-0.2859     0
-0.2759     0
-0.2659     0
-0.2559     0
-0.2459     0
-0.2359     0
-0.2259     0
-0.2159     0
-0.2059     0
-0.1959     0
-0.1859     0
-0.1759     0
-0.1659     0
-0.1559     0
-0.1459     0
-0.1359     0
-0.1259     2
-0.1159     1
-0.1059    15
-0.0959    57
-0.0859   200
-0.0759   715
-0.0659  2037
-0.0559  5340
-0.0459 11468
-0.0359 21642
-0.0259 34439
-0.0159 47720
-0.0059 56204
 0.0041 55741
 0.0141 48117
 0.0241 35806
 0.0341 22842
 0.0441 12438
 0.0541  5846
 0.0641  2250
 0.0741   811
 0.0841   231
 0.0941    84
 0.1041    28
 0.1141    11
 0.1241     6
 0.1341     8
 0.1441    10
 0.1541     2
 0.1641     3
 0.1741     0
 0.1841   171
 0.1941   300
 0.2041   279
 0.2141   263
 0.2241   299
 0.2341   288
 0.2441   308
 0.2541   303
 0.2641   273
 0.2741   289
 0.2841   279
 0.2941   254
 0.3041   299
 0.3141   311
 0.3241   292
 0.3341   278
 0.3441   266
 0.3541   272
 0.3641   276
 0.3741   277
 0.3841   286
 0.3941   291
 0.4041   265
 0.4141   254
 0.4241   253
 0.4341   230
 0.4441   246
 0.4541   258
 0.4641   257
 0.4741   270
 0.4841   254
 0.4941   267
 0.5041   254
 0.5141   260
 0.5241   258
 0.5341   241
 0.5441   239
 0.5541   237
 0.5641   239
 0.5741   253
 0.5841   251
 0.5941   217
 0.6041   220
 0.6141   232
 0.6241   224
 0.6341   227
 0.6441   230
 0.6541   223
 0.6641   226
 0.6741   230
 0.6841   233
 0.6941   218
 0.7041   193
 0.7141   195
 0.7241   216
 0.7341   226
 0.7441   215
 0.7541   201
 0.7641   197
 0.7741   202
 0.7841   198
 0.7941   203
 0.8041   213
 0.8141   213
 0.8241   213
 0.8341   222
 0.8441   202
 0.8541   194
 0.8641   184
 0.8741   207
 0.8841   206
 0.8941   227
 0.9041   211
 0.9141   187
 0.9241   208
 0.9341   220
 0.9441   193
 0.9541   178
 0.9641   192
 0.9741   194
 0.9841   186
 0.9941   204
 1.0041   204
 1.0141   206
 1.0241   210
 1.0341   188
 1.0441   208
 1.0541   226
 1.0641   200
 1.0741   193
 1.0841   189
 1.0941   197
 1.1041   184
 1.1141   202
 1.1241   183
 1.1341   171
 1.1441   203
 1.1541   187
 1.1641   209
 1.1741   182
 1.1841   181
 1.1941   175
 1.2041   190
 1.2141   199
 1.2241   169
 1.2341   189
 1.2441   195
 1.2541   181
 1.2641   176
 1.2741   169
 1.2841   173
 1.2941   176
 1.3041   172
 1.3141   177
 1.3241   177
 1.3341   181
 1.3441   165
 1.3541   183
 1.3641   164
 1.3741   173
 1.3841   167
 1.3941   162
 1.4041   169
 1.4141   172
 1.4241   168
 1.4341   178
 1.4441   168
 1.4541   165
 1.4641   175
 1.4741   179
 1.4841   165
 1.4941   186
 1.5041   180
 1.5141   173
 1.5241   146
 1.5341   160
 1.5441   195
 1.5541   164
 1.5641   150
 1.5741   166
 1.5841   157
 1.5941   163
 1.6041   172
 1.6141   190
 1.6241   161
 1.6341   177
 1.6441   198
 1.6541   221
 1.6641   237
 1.6741   303
 1.6841   364
 1.6941   444
 1.7041   501
 1.7141   631
 1.7241   701
 1.7341   776
 1.7441   743
 1.7541   701
 1.7641   628
 1.7741   561
 1.7841   429
 1.7941   355
 1.8041   286
 1.8141   261
 1.8241   263
 1.8341   202
 1.8441   220
 1.8541   199
 1.8641   201
 1.8741   184
 1.8841   175
 1.8941   171
 1.9041   158
 1.9141   164
 1.9241   187
 1.9341   181
 1.9441   182
 1.9541   200
 1.9641   198
 1.9741   198
 1.9841   183
 1.9941   206
 2.0041   222
 2.0141   195
 2.0241   186
 2.0341   202
 2.0441   196
 2.0541   171
 2.0641   170
 2.0741   160
 2.0841   154
 2.0941   186
 2.1041   170
 2.1141   167
 2.1241   157
 2.1341   155
 2.1441   182
 2.1541   170
 2.1641   144
 2.1741   162
 2.1841   155
 2.1941   138
 2.2041   145
 2.2141   154
 2.2241   146
 2.2341   158
 2.2441   141
 2.2541   134
 2.2641   141
 2.2741   152
 2.2841   161
 2.2941   143
 2.3041   138
 2.3141   125
 2.3241   130
 2.3341   145
 2.3441   141
 2.3541   139
 2.3641   136
 2.3741   142
 2.3841   149
 2.3941   155
 2.4041   134
 2.4141   141
 2.4241   144
 2.4341   129
 2.4441   134
 2.4541   137
 2.4641   132
 2.4741   135
 2.4841   139
 2.4941   123
 2.5041   125
 2.5141   139
 2.5241   147
 2.5341   145
 2.5441   136
 2.5541   106
 2.5641   140
 2.5741   109
 2.5841   135
 2.5941   144
 2.6041   128
 2.6141   137
 2.6241   120
 2.6341   124
 2.6441   122
 2.6541   125
 2.6641   137
 2.6741   110
 2.6841   147
 2.6941   112
 2.7041   126
 2.7141   128
 2.7241   123
 2.7341   119
 2.7441   120
 2.7541   109
 2.7641   132
 2.7741   143
 2.7841   133
 2.7941   105
 2.8041   130
 2.8141   123
 2.8241   125
 2.8341   139
 2.8441   130
 2.8541   128
 2.8641   120
 2.8741   130
 2.8841   132
 2.8941   134
 2.9041   129
 2.9141   128
 2.9241   100
 2.9341   110
 2.9441   122
 2.9541   122
 2.9641   131
 2.9741   133
 2.9841   111
 2.9941   114
 3.0041   129
 3.0141   120
 3.0241   120
 3.0341   114
 3.0441    99
 3.0541    96
 3.0641   115
 3.0741   103
 3.0841   115
 3.0941   103
 3.1041   103
 3.1141    97
 3.1241    98
 3.1341   116
 3.1441   110
 3.1541   112
 3.1641   103
 3.1741   101
 3.1841   114
 3.1941   111
 3.2041   100
 3.2141   115
 3.2241   129
 3.2341   136
 3.2441   142
 3.2541   155
 3.2641   188
 3.2741   212
 3.2841   227
 3.2941   214
 3.3041   232
 3.3141   220
 3.3241   243
 3.3341   227
 3.3441   199
 3.3541   217
 3.3641   168
 3.3741   151
 3.3841   126
 3.3941   110
 3.4041   105
 3.4141   114
 3.4241   100
 3.4341   120
 3.4441   108
 3.4541   105
 3.4641   100
 3.4741    94
 3.4841   107
 3.4941    96
 3.5041   113
 3.5141   125
 3.5241   114
 3.5341   134
 3.5441   138
 3.5541   164
 3.5641   193
 3.5741   160
 3.5841   193
 3.5941   268
 3.6041   309
 3.6141   410
 3.6241   510
 3.6341   595
 3.6441   727
 3.6541   849
 3.6641   932
 3.6741   968
 3.6841   997
 3.6941  1040
 3.7041  1001
 3.7141   879
 3.7241   840
 3.7341   716
 3.7441   599
 3.7541   495
 3.7641   376
 3.7741   329
 3.7841   220
 3.7941   165
 3.8041   152
 3.8141   108
 3.8241   108
 3.8341    88
 3.8441    79
 3.8541    88
 3.8641    79
 3.8741    92
 3.8841    76
 3.8941    96
 3.9041    89
 3.9141    99
 3.9241   103
 3.9341   120
 3.9441   130
 3.9541   162
 3.9641   155
 3.9741   180
 3.9841   170
 3.9941   184
 4.0041   208
 4.0141   216
 4.0241   198
 4.0341   182
 4.0441   179
 4.0541   168
 4.0641   160
 4.0741   145
 4.0841   139
 4.0941    89
 4.1041    85
 4.1141    85
 4.1241    72
 4.1341    87
 4.1441    73
 4.1541    76
 4.1641    79
 4.1741    66
 4.1841    70
 4.1941    75
 4.2041    80
 4.2141    74
 4.2241    66
 4.2341    71
 4.2441    70
 4.2541    85
 4.2641    70
 4.2741    77
 4.2841    66
 4.2941    64
 4.3041    76
 4.3141    70
 4.3241    74
 4.3341    68
 4.3441    86
 4.3541    96
 4.3641    92
 4.3741   121
 4.3841   147
 4.3941   138
 4.4041   180
 4.4141   238
 4.4241   299
 4.4341   334
 4.4441   405
 4.4541   517
 4.4641   563
 4.4741   664
 4.4841   773
 4.4941   808
 4.5041   752
 4.5141   823
 4.5241   750
 4.5341   675
 4.5441   645
 4.5541   539
 4.5641   509
 4.5741   392
 4.5841   340
 4.5941   240
 4.6041   208
 4.6141   175
 4.6241   132
 4.6341   110
 4.6441   133
 4.6541    91
 4.6641   112
 4.6741    81
 4.6841    81
 4.6941   120
 4.7041    84
 4.7141    87
 4.7241   103
 4.7341    98
 4.7441    74
 4.7541    90
 4.7641   100
 4.7741    86
 4.7841    90
 4.7941    97
 4.8041   109
 4.8141   109
 4.8241   123
 4.8341   138
 4.8441   156
 4.8541   162
 4.8641   147
 4.8741   179
 4.8841   182
 4.8941   187
 4.9041   220
 4.9141   243
 4.9241   259
 4.9341   226
 4.9441   238
 4.9541   203
 4.9641   194
 4.9741   170
 4.9841   194
 4.9941   175
 5.0041   158
 5.0141   134
 5.0241   122
 5.0341   127
 5.0441   106
 5.0541    86
 5.0641   106
 5.0741    85
 5.0841    95
 5.0941   100
 5.1041    79
 5.1141    81
 5.1241    94
 5.1341    89
 5.1441    91
 5.1541    91
 5.1641    80
 5.1741   107
 5.1841    96
 5.1941    98
 5.2041    89
 5.2141    87
 5.2241    84
 5.2341    79
 5.2441   106
 5.2541    84
 5.2641    75
 5.2741    86
 5.2841    82
 5.2941    86
 5.3041    96
 5.3141   101
 5.3241   101
 5.3341    92
 5.3441    93
 5.3541   115
 5.3641   117
 5.3741   118
 5.3841   112
 5.3941   127
 5.4041   117
 5.4141   126
 5.4241   127
 5.4341   137
 5.4441   134
 5.4541   115
 5.4641   116
 5.4741   113
 5.4841   120
 5.4941    98
 5.5041    95
 5.5141    91
 5.5241    95
 5.5341    93
 5.5441    91
 5.5541    93
 5.5641   101
 5.5741    97
 5.5841    89
 5.5941    90
 5.6041    97
 5.6141    91
 5.6241   101
 5.6341    90
 5.6441    87
 5.6541    96
 5.6641    94
 5.6741    89
 5.6841    93
 5.6941    95
 5.7041   103
 5.7141   105
 5.7241    97
 5.7341   105
 5.7441   148
 5.7541   138
 5.7641   155
 5.7741   182
 5.7841   198
 5.7941   256
 5.8041   277
 5.8141   354
 5.8241   425
 5.8341   463
 5.8441   556
 5.8541   595
 5.8641   629
 5.8741   682
 5.8841   746
 5.8941   728
 5.9041   704
 5.9141   707
 5.9241   681
 5.9341   609
 5.9441   530
 5.9541   443
 5.9641   405
 5.9741   334
 5.9841   307
 5.9941   235
 6.0041   238
 6.0141   204
 6.0241   173
 6.0341   160
 6.0441   140
 6.0541   144
 6.0641   134
 6.0741   165
 6.0841   137
 6.0941   163
 6.1041   150
 6.1141   161
 6.1241   149
 6.1341   165
 6.1441   185
 6.1541   173
 6.1641   217
 6.1741   224
 6.1841   243
 6.1941   295
 6.2041   394
 6.2141   533
 6.2241   716
 6.2341   984
 6.2441  1422
 6.2541  1849
 6.2641  2625
 6.2741  3638
 6.2841  4869
 6.2941  6628
 6.3041  8415
 6.3141 10596
 6.3241 13124
 6.3341 16299
 6.3441 18462
 6.3541 21280
 6.3641 23700
 6.3741 25681
 6.3841 26660
 6.3941 27666
 6.4041 27169
 6.4141 26627
 6.4241 25149
 6.4341 23124
 6.4441 20480
 6.4541 17721
 6.4641 15047
 6.4741 12495
 6.4841  9936
 6.4941  7679
 6.5041  5766
 6.5141  4327
 6.5241  3209
 6.5341  2259
 6.5441  1618
 6.5541  1140
 6.5641   762
 6.5741   543
 6.5841   455
 6.5941   326
 6.6041   261
 6.6141   231
 6.6241   202
 6.6341   207
 6.6441   179
 6.6541   197
 6.6641   172
 6.6741   188
 6.6841   169
 6.6941   190
 6.7041   147
 6.7141   147
 6.7241   166
 6.7341   163
 6.7441   175
 6.7541   166
 6.7641   188
 6.7741   198
 6.7841   217
 6.7941   195
 6.8041   230
 6.8141   224
 6.8241   203
 6.8341   218
 6.8441   253
 6.8541   267
 6.8641   316
 6.8741   347
 6.8841   421
 6.8941   453
 6.9041   556
 6.9141   717
 6.9241   811
 6.9341  1054
 6.9441  1220
 6.9541  1551
 6.9641  1892
 6.9741  2187
 6.9841  2616
 6.9941  3052
 7.0041  3475
 7.0141  3821
 7.0241  4151
 7.0341  4289
 7.0441  4427
 7.0541  4492
 7.0641  4442
 7.0741  4353
 7.0841  4093
 7.0941  3732
 7.1041  3258
 7.1141  2852
 7.1241  2515
 7.1341  1958
 7.1441  1734
 7.1541  1337
 7.1641  1052
 7.1741   885
 7.1841   636
 7.1941   545
 7.2041   433
 7.2141   363
 7.2241   253
 7.2341   264
 7.2441   206
 7.2541   222
 7.2641   231
 7.2741   185
 7.2841   205
 7.2941   192
 7.3041   181
 7.3141   212
 7.3241   219
 7.3341   216
 7.3441   251
 7.3541   234
 7.3641   229
 7.3741   260
 7.3841   252
 7.3941   261
 7.4041   251
 7.4141   262
 7.4241   251
 7.4341   268
 7.4441   280
 7.4541   226
 7.4641   266
 7.4741   245
 7.4841   248
 7.4941   229
 7.5041   243
 7.5141   234
 7.5241   196
 7.5341   193
 7.5441   204
 7.5541   208
 7.5641   190
 7.5741   209
 7.5841   164
 7.5941   144
 7.6041   179
 7.6141   184
 7.6241   197
 7.6341   199
 7.6441   193
 7.6541   186
 7.6641   185
 7.6741   183
 7.6841   197
 7.6941   201
 7.7041   225
 7.7141   227
 7.7241   235
 7.7341   214
 7.7441   248
 7.7541   223
 7.7641   234
 7.7741   243
 7.7841   240
 7.7941   237
 7.8041   229
 7.8141   219
 7.8241   263
 7.8341   254
 7.8441   256
 7.8541   263
 7.8641   281
 7.8741   296
 7.8841   279
 7.8941   311
 7.9041   335
 7.9141   347
 7.9241   365
 7.9341   347
 7.9441   362
 7.9541   394
 7.9641   388
 7.9741   445
 7.9841   534
 7.9941   531
 8.0041   565
 8.0141   619
 8.0241   637
 8.0341   695
 8.0441   794
 8.0541   822
 8.0641   837
 8.0741   910
 8.0841   983
 8.0941   987
 8.1041  1042
 8.1141  1026
 8.1241  1150
 8.1341  1184
 8.1441  1146
 8.1541  1242
 8.1641  1306
 8.1741  1228
 8.1841  1288
 8.1941  1308
 8.2041  1347
 8.2141  1340
 8.2241  1293
 8.2341  1372
 8.2441  1401
 8.2541  1471
 8.2641  1567
 8.2741  1688
 8.2841  1687
 8.2941  1815
 8.3041  2030
 8.3141  2200
 8.3241  2354
 8.3341  2520
 8.3441  2745
 8.3541  2888
 8.3641  2929
 8.3741  3053
 8.3841  3187
 8.3941  3119
 8.4041  3067
 8.4141  2999
 8.4241  2778
 8.4341  2605
 8.4441  2411
 8.4541  2105
 8.4641  1806
 8.4741  1637
 8.4841  1463
 8.4941  1261
 8.5041   996
 8.5141   823
 8.5241   722
 8.5341   601
 8.5441   513
 8.5541   488
 8.5641   462
 8.5741   397
 8.5841   382
 8.5941   378
 8.6041   373
 8.6141   352
 8.6241   340
 8.6341   366
 8.6441   359
 8.6541   365
 8.6641   387
 8.6741   349
 8.6841   372
 8.6941   370
 8.7041   372
 8.7141   329
 8.7241   315
 8.7341   336
 8.7441   348
 8.7541   308
 8.7641   318
 8.7741   321
 8.7841   334
 8.7941   289
 8.8041   301
 8.8141   293
 8.8241   308
 8.8341   278
 8.8441   301
 8.8541   299
 8.8641   280
 8.8741   322
 8.8841   359
 8.8941   298
 8.9041   289
 8.9141   333
 8.9241   323
 8.9341   319
 8.9441   327
 8.9541   305
 8.9641   311
 8.9741   346
 8.9841   344
 8.9941   351
 9.0041   374
 9.0141   360
 9.0241   383
 9.0341   367
 9.0441   368
 9.0541   387
 9.0641   394
 9.0741   398
 9.0841   404
 9.0941   444
 9.1041   412
 9.1141   512
 9.1241   485
 9.1341   515
 9.1441   507
 9.1541   513
 9.1641   538
 9.1741   587
 9.1841   654
 9.1941   664
 9.2041   699
 9.2141   692
 9.2241   761
 9.2341   773
 9.2441   817
 9.2541   835
 9.2641   898
 9.2741   914
 9.2841   928
 9.2941   976
 9.3041  1033
 9.3141  1117
 9.3241  1114
 9.3341  1158
 9.3441  1149
 9.3541  1193
 9.3641  1300
 9.3741  1279
 9.3841  1263
 9.3941  1278
 9.4041  1293
 9.4141  1296
 9.4241  1245
 9.4341  1288
 9.4441  1355
 9.4541  1365
 9.4641  1408
 9.4741  1408
 9.4841  1404
 9.4941  1502
 9.5041  1536
 9.5141  1587
 9.5241  1579
 9.5341  1616
 9.5441  1709
 9.5541  1798
 9.5641  1878
 9.5741  1942
 9.5841  2033
 9.5941  2222
 9.6041  2424
 9.6141  2531
 9.6241  2631
 9.6341  2706
 9.6441  2750
 9.6541  2831
 9.6641  2863
 9.6741  2794
 9.6841  2771
 9.6941  2682
 9.7041  2628
 9.7141  2520
 9.7241  2361
 9.7341  2203
 9.7441  2002
 9.7541  1826
 9.7641  1704
 9.7741  1580
 9.7841  1533
 9.7941  1351
 9.8041  1319
 9.8141  1261
 9.8241  1241
 9.8341  1190
 9.8441  1176
 9.8541  1161
 9.8641  1126
 9.8741  1152
 9.8841  1178
 9.8941  1180
 9.9041  1251
 9.9141  1213
 9.9241  1192
 9.9341  1245
 9.9441  1244
 9.9541  1299
 9.9641  1317
 9.9741  1222
 9.9841  1173
 9.9941  1102
10.0041  1079
10.0141   963
10.0241   904
10.0341   809
10.0441   742
10.0541   652
10.0641   583
10.0741   554
10.0841   474
10.0941   433
10.1041   402
10.1141   357
10.1241   360
10.1341   330
10.1441   294
10.1541   284
10.1641   268
10.1741   257
10.1841   263
10.1941   256
10.2041   221
10.2141   232
10.2241   230
10.2341   209
10.2441   215
10.2541   196
10.2641   196
10.2741   188
10.2841   190
10.2941   172
10.3041   154
10.3141   164
10.3241   168
10.3341   162
10.3441   147
10.3541   180
10.3641   179
10.3741   175
10.3841   156
10.3941   151
10.4041   158
10.4141   155
10.4241   174
10.4341   168
10.4441   176
10.4541   174
10.4641   161
10.4741   171
10.4841   176
10.4941   166
10.5041   169
10.5141   183
10.5241   185
10.5341   183
10.5441   198
10.5541   201
10.5641   168
10.5741   178
10.5841   173
10.5941   182
10.6041   211
10.6141   204
10.6241   213
10.6341   204
10.6441   203
10.6541   200
10.6641   208
10.6741   208
10.6841   203
10.6941   219
10.7041   222
10.7141   242
10.7241   217
10.7341   216
10.7441   231
10.7541   240
10.7641   252
10.7741   244
10.7841   249
10.7941   235
10.8041   250
10.8141   255
10.8241   253
10.8341   254
10.8441   275
10.8541   298
10.8641   276
10.8741   279
10.8841   299
10.8941   297
10.9041   287
10.9141   282
10.9241   300
10.9341   290
10.9441   285
10.9541   304
10.9641   279
10.9741   254
10.9841   260
10.9941   265
11.0041   259
11.0141   276
11.0241   266
11.0341   257
11.0441   265
11.0541   265
11.0641   262
11.0741   244
11.0841   266
11.0941   249
11.1041   240
11.1141   237
11.1241   245
11.1341   259
11.1441   262
11.1541   290
11.1641   331
11.1741   316
11.1841   296
11.1941   310
11.2041   345
11.2141   376
11.2241   379
11.2341   361
11.2441   382
11.2541   402
11.2641   386
11.2741   405
11.2841   408
11.2941   395
11.3041   395
11.3141   370
11.3241   366
11.3341   374
11.3441   367
11.3541   354
11.3641   316
11.3741   312
11.3841   290
11.3941   270
11.4041   262
11.4141   252
11.4241   225
11.4341   223
11.4441   216
11.4541   225
11.4641   221
11.4741   216
11.4841   208
11.4941   208
11.5041   206
11.5141   196
11.5241   219
11.5341   213
11.5441   210
11.5541   213
11.5641   205
11.5741   203
11.5841   193
11.5941   221
11.6041   217
11.6141   199
11.6241   215
11.6341   227
11.6441   222
11.6541   214
11.6641   203
11.6741   216
11.6841   224
11.6941   205
11.7041   195
11.7141   205
11.7241   192
11.7341   191
11.7441   198
11.7541   169
11.7641   157
11.7741   164
11.7841   172
11.7941   162
11.8041   149
11.8141   166
11.8241   179
11.8341   171
11.8441   148
11.8541   135
11.8641   140
11.8741   146
11.8841   148
11.8941   160
11.9041   149
11.9141   147
11.9241   156
11.9341   162
11.9441   165
11.9541   157
11.9641   157
11.9741   155
11.9841   158
11.9941   174
12.0041   174
12.0141   177
12.0241   171
12.0341   159
12.0441   158
12.0541   160
12.0641   152
12.0741   141
12.0841   140
12.0941   143
12.1041   146
12.1141   164
12.1241   175
12.1341   171
12.1441   167
12.1541   148
12.1641   148
12.1741   145
12.1841   142
12.1941   153
12.2041   147
12.2141   147
12.2241   142
12.2341   151
12.2441   159
12.2541   142
12.2641   151
12.2741   149
12.2841   162
12.2941   162
12.3041   150
12.3141   145
12.3241   157
12.3341   168
12.3441   156
12.3541   151
12.3641   148
12.3741   154
12.3841   159
12.3941   159
12.4041   148
12.4141   151
12.4241   154
12.4341   155
12.4441   159
12.4541   153
12.4641   158
12.4741   168
12.4841   161
12.4941   163
12.5041   175
12.5141   173
12.5241   162
12.5341   162
12.5441   184
12.5541   174
12.5641   165
12.5741   162
12.5841   159
12.5941   156
12.6041   161
12.6141   163
12.6241   176
12.6341   188
12.6441   174
12.6541   167
12.6641   168
12.6741   165
12.6841   167
12.6941   171
12.7041   168
12.7141   166
12.7241   168
12.7341   172
12.7441   176
12.7541   177
12.7641   180
12.7741   182
12.7841   171
12.7941   156
12.8041   151
12.8141   165
12.8241   179
12.8341   178
12.8441   174
12.8541   175
12.8641   175
12.8741   173
12.8841   177
12.8941   183
12.9041   178
12.9141   173
12.9241   174
12.9341   173
12.9441   170
12.9541   172
12.9641   176
12.9741   183
12.9841   194
12.9941   175
13.0041   160
13.0141   173
13.0241   178
13.0341   177
13.0441   175
13.0541   174
13.0641   167
13.0741   172
13.0841   187
13.0941   186
13.1041   175
13.1141   180
13.1241   199
13.1341   193
13.1441   190
13.1541   187
13.1641   182
13.1741   181
13.1841   183
13.1941   183
13.2041   184
13.2141   182
13.2241   199
13.2341   211
13.2441   210
13.2541   213
13.2641   219
13.2741   251
13.2841   263
13.2941   260
13.3041   262
13.3141   263
13.3241   255
13.3341   260
13.3441   273
13.3541   271
13.3641   262
13.3741   255
13.3841   256
13.3941   256
13.4041   255
13.4141   251
13.4241   253
13.4341   260
13.4441   259
13.4541   250
13.4641   243
13.4741   241
13.4841   241
13.4941   242
13.5041   245
13.5141   236
13.5241   222
13.5341   217
13.5441   221
13.5541   225
13.5641   225
13.5741   222
13.5841   217
13.5941   218
13.6041   226
13.6141   229
13.6241   222
13.6341   213
13.6441   204
13.6541   212
13.6641   217
13.6741   206
13.6841   203
13.6941   201
13.7041   201
13.7141   216
13.7241   213
13.7341   216
13.7441   237
13.7541   233
13.7641   229
13.7741   222
13.7841   226
13.7941   228
13.8041   218
13.8141   222
13.8241   217
13.8341   206
13.8441   222
13.8541   244
13.8641   232
13.8741   239
13.8841   251
13.8941   246
13.9041   246
13.9141   243
13.9241   238
13.9341   242
13.9441   257
13.9541   246
13.9641   231
13.9741   244
13.9841   265
13.9941   262
14.0041   250
14.0141   253
14.0241   271
14.0341   284
14.0441   286
14.0541   306
14.0641   326
14.0741   320
14.0841   317
14.0941   322
14.1041   334
14.1141   346
14.1241   341
14.1341   340
14.1441   340
14.1541   336
14.1641   354
14.1741   368
14.1841   328
14.1941   316
14.2041   329
14.2141   322
14.2241   319
14.2341   307
14.2441   301
14.2541   299
14.2641   290
14.2741   273
14.2841   272
14.2941   278
14.3041   276
14.3141   273
14.3241   264
14.3341   279
14.3441   271
14.3541   265
14.3641   273
14.3741   254
14.3841   251
14.3941   256
14.4041   237
14.4141   246
14.4241   254
14.4341   250
14.4441   252
14.4541   265
14.4641   277
14.4741   260
14.4841   265
14.4941   267
14.5041   249
14.5141   254
14.5241   261
14.5341   253
14.5441   243
14.5541   253
14.5641   265
14.5741   266
14.5841   276
14.5941   275
14.6041   253
14.6141   260
14.6241   283
14.6341   287
14.6441   268
14.6541   265
14.6641   283
14.6741   274
14.6841   277
14.6941   288
14.7041   293
14.7141   277
14.7241   265
14.7341   274
14.7441   265
14.7541   261
14.7641   273
14.7741   276
14.7841   284
14.7941   277
14.8041   274
14.8141   291
14.8241   316
14.8341   310
14.8441   298
14.8541   318
14.8641   310
14.8741   290
14.8841   303
14.8941   283
14.9041   279
14.9141   295
14.9241   305
14.9341   314
14.9441   326
14.9541   345
14.9641   348
14.9741   334
14.9841   316
14.9941   312
15.0041   293
15.0141   286
15.0241   301
15.0341   310
15.0441   303
15.0541   305
15.0641   308
15.0741   290
15.0841   280
15.0941   286
15.1041   302
15.1141   295
15.1241   297
15.1341   312
15.1441   323
15.1541   310
15.1641   311
15.1741   299
15.1841   286
15.1941   281
15.2041   301
15.2141   324
15.2241   326
15.2341   305
15.2441   298
15.2541   315
15.2641   313
15.2741   315
15.2841   306
15.2941   318
15.3041   333
15.3141   327
15.3241   312
15.3341   296
15.3441   307
15.3541   295
15.3641   284
15.3741   296
15.3841   306
15.3941   313
15.4041   331
15.4141   322
15.4241   321
15.4341   316
15.4441   320
15.4541   319
15.4641   309
15.4741   307
15.4841   332
15.4941   341
15.5041   340
15.5141   341
15.5241   348
15.5341   350
15.5441   352
15.5541   366
15.5641   372
15.5741   398
15.5841   393
15.5941   405
15.6041   435
15.6141   432
15.6241   451
15.6341   476
15.6441   495
15.6541   525
15.6641   539
15.6741   539
15.6841   546
15.6941   571
15.7041   601
15.7141   630
15.7241   653
15.7341   649
15.7441   630
15.7541   640
15.7641   649
15.7741   640
15.7841   652
15.7941   620
15.8041   614
15.8141   562
15.8241   533
15.8341   555
15.8441   545
15.8541   526
15.8641   510
15.8741   480
15.8841   460
15.8941   452
15.9041   430
15.9141   428
15.9241   398
15.9341   390
15.9441   405
15.9541   373
15.9641   349
15.9741   359
15.9841   362
15.9941   371
16.0041   360
16.0141   345
16.0241   347
16.0341   369
16.0441   373
16.0541   362
16.0641   369
16.0741   362
16.0841   372
16.0941   364
16.1041   357
16.1141   346
16.1241   345
16.1341   359
16.1441   387
16.1541   388
16.1641   371
16.1741   376
16.1841   375
16.1941   372
16.2041   378
16.2141   374
16.2241   380
16.2341   363
16.2441   361
16.2541   354
16.2641   352
16.2741   368
16.2841   369
16.2941   365
16.3041   350
16.3141   351
16.3241   362
16.3341   368
16.3441   364
16.3541   371
16.3641   392
16.3741   370
16.3841   359
16.3941   369
16.4041   374
16.4141   386
16.4241   391
16.4341   376
16.4441   381
16.4541   358
16.4641   367
16.4741   397
16.4841   407
16.4941   395
16.5041   395
16.5141   380
16.5241   402
16.5341   411
16.5441   417
16.5541   396
16.5641   387
16.5741   429
16.5841   418
16.5941   399
16.6041   415
16.6141   410
16.6241   403
16.6341   392
16.6441   406
16.6541   411
16.6641   405
16.6741   410
16.6841   414
16.6941   390
16.7041   392
16.7141   405
16.7241   402
16.7341   407
16.7441   399
16.7541   423
16.7641   427
16.7741   404
16.7841   410
16.7941   412
16.8041   393
16.8141   392
16.8241   406
16.8341   411
16.8441   395
16.8541   402
16.8641   402
16.8741   411
16.8841   424
16.8941   423
16.9041   383
16.9141   398
16.9241   397
16.9341   420
16.9441   430
16.9541   430
16.9641   437
16.9741   403
16.9841   414
16.9941   441
17.0041   435
17.0141   406
17.0241   420
17.0341   425
17.0441   432
17.0541   431
17.0641   413
17.0741   417
17.0841   430
17.0941   446
17.1041   444
17.1141   459
17.1241   435
17.1341   409
17.1441   429
17.1541   431
17.1641   456
17.1741   453
17.1841   432
17.1941   436
17.2041   433
17.2141   424
17.2241   398
17.2341   418
17.2441   441
17.2541   449
17.2641   424
17.2741   453
17.2841   443
17.2941   415
17.3041   425
17.3141   436
17.3241   430
17.3341   447
17.3441   426
17.3541   441
17.3641   463
17.3741   498
17.3841   464
17.3941   426
17.4041   438
17.4141   461
17.4241   449
17.4341   455
17.4441   453
17.4541   487
17.4641   471
17.4741   423
17.4841   449
17.4941   467
17.5041   452
17.5141   449
17.5241   474
17.5341   441
17.5441   450
17.5541   457
17.5641   489
17.5741   502
17.5841   508
17.5941   519
17.6041   523
17.6141   493
17.6241   477
17.6341   518
17.6441   518
17.6541   505
17.6641   504
17.6741   498
17.6841   509
17.6941   510
17.7041   494
17.7141   494
17.7241   486
17.7341   503
17.7441   515
17.7541   505
17.7641   494
17.7741   480
17.7841   509
17.7941   459
17.8041   475
17.8141   460
17.8241   485
17.8341   500
17.8441   469
17.8541   472
17.8641   473
17.8741   489
17.8841   502
17.8941   486
17.9041   468
17.9141   477
17.9241   468
17.9341   471
17.9441   504
17.9541   499
17.9641   464
17.9741   471
17.9841   470
17.9941   462
18.0041   489
18.0141   490
18.0241   479
18.0341   461
18.0441   487
18.0541   483
18.0641   479
18.0741   467
18.0841   488
18.0941   496
18.1041   507
18.1141   495
18.1241   475
18.1341   506
18.1441   481
18.1541   461
18.1641   486
18.1741   449
18.1841   497
18.1941   495
18.2041   478
18.2141   496
18.2241   518
18.2341   484
18.2441   475
18.2541   499
18.2641   512
18.2741   498
18.2841   486
18.2941   491
18.3041   516
18.3141   497
18.3241   501
18.3341   514
18.3441   483
18.3541   457
18.3641   443
18.3741   475
18.3841   454
18.3941   479
18.4041   492
18.4141   511
18.4241   531
18.4341   501
18.4441   508
18.4541   537
18.4641   502
18.4741   488
18.4841   505
18.4941   499
18.5041   451
18.5141   491
18.5241   503
18.5341   517
18.5441   520
18.5541   518
18.5641   516
18.5741   513
18.5841   502
18.5941   498
18.6041   539
18.6141   531
18.6241   539
18.6341   525
18.6441   502
18.6541   502
18.6641   505
18.6741   521
18.6841   513
18.6941   504
18.7041   522
18.7141   509
18.7241   533
18.7341   548
18.7441   539
18.7541   508
18.7641   532
18.7741   520
18.7841   515
18.7941   506
18.8041   512
18.8141   508
18.8241   502
18.8341   493
18.8441   531
18.8541   516
18.8641   533
18.8741   515
18.8841   493
18.8941   533
18.9041   537
18.9141   509
18.9241   515
18.9341   528
18.9441   548
18.9541   550
18.9641   520
18.9741   525
18.9841   498
18.9941   546
19.0041   539
19.0141   516
19.0241   553
19.0341   543
19.0441   544
19.0541   558
19.0641   533
19.0741   514
19.0841   532
19.0941   558
19.1041   517
19.1141   535
19.1241   558
19.1341   546
19.1441   509
19.1541   512
19.1641   507
19.1741   495
19.1841   510
19.1941   546
19.2041   540
19.2141   537
19.2241   532
19.2341   582
19.2441   545
19.2541   525
19.2641   549
19.2741   582
19.2841   511
19.2941   529
19.3041   527
19.3141   536
19.3241   521
19.3341   527
19.3441   541
19.3541   543
19.3641   545
19.3741   519
19.3841   515
19.3941   555
19.4041   528
19.4141   499
19.4241   521
19.4341   524
19.4441   558
19.4541   545
19.4641   571
19.4741   567
19.4841   586
19.4941   573
19.5041   539
19.5141   544
19.5241   532
19.5341   570
19.5441   525
19.5541   562
19.5641   522
19.5741   537
19.5841   559
19.5941   566
19.6041   513
19.6141   514
19.6241   527
19.6341   544
19.6441   562
19.6541   539
19.6641   554
19.6741   555
19.6841   551
19.6941   528
19.7041   549
19.7141   577
19.7241   567
19.7341   534
19.7441   552
19.7541   552
19.7641   589
19.7741   572
19.7841   573
19.7941   565
19.8041   569
19.8141   537
19.8241   544
19.8341   583
19.8441   588
19.8541   524
19.8641   537
19.8741   560
19.8841   557
19.8941   559
19.9041   571
19.9141   533
19.9241   545
19.9341   569
19.9441   548
19.9541   549
19.9641   547
19.9741   528
19.9841   528
19.9941   551
20.0041   559
20.0141   561
20.0241   547
20.0341   581
20.0441   542
20.0541   511
20.0641   550
20.0741   545
20.0841   550
20.0941   555
20.1041   556
20.1141   566
20.1241   604
20.1341   554
20.1441   543
20.1541   601
20.1641   556
20.1741   555
20.1841   551
20.1941   556
20.2041   553
20.2141   571
20.2241   557
20.2341   571
20.2441   523
20.2541   563
20.2641   562
20.2741   584
20.2841   565
20.2941   549
20.3041   561
20.3141   559
20.3241   559
20.3341   517
20.3441   536
20.3541   556
20.3641   571
20.3741   563
20.3841   584
20.3941   557
20.4041   571
20.4141   569
20.4241   567
20.4341   554
20.4441   552
20.4541   535
20.4641   599
20.4741   545
20.4841   548
20.4941   528
20.5041   560
20.5141   540
20.5241   564
20.5341   577
20.5441   576
20.5541   631
20.5641   597
20.5741   548
20.5841   569
20.5941   577
20.6041   579
20.6141   591
20.6241   575
20.6341   586
20.6441   583
20.6541   582
20.6641   584
20.6741   560
20.6841   572
20.6941   554
20.7041   562
20.7141   563
20.7241   558
20.7341   558
20.7441   534
20.7541   549
20.7641   563
20.7741   623
20.7841   616
20.7941   572
20.8041   611
20.8141   572
20.8241   568
20.8341   616
20.8441   652
20.8541   612
20.8641   643
20.8741   576
20.8841   602
20.8941   645
20.9041   640
20.9141   674
20.9241   661
20.9341   688
20.9441   723
20.9541   751
20.9641   697
20.9741   667
20.9841   743
20.9941   772
21.0041   743
21.0141   740
21.0241   775
21.0341   774
21.0441   740
21.0541   787
21.0641   772
21.0741   787
21.0841   793
21.0941   865
21.1041   831
21.1141   837
21.1241   880
21.1341   844
21.1441   822
21.1541   835
21.1641   862
21.1741   866
21.1841   863
21.1941   836
21.2041   830
21.2141   801
21.2241   791
21.2341   765
21.2441   755
21.2541   738
21.2641   718
21.2741   687
21.2841   697
21.2941   702
21.3041   693
21.3141   679
21.3241   680
21.3341   642
21.3441   631
21.3541   628
21.3641   639
21.3741   628
21.3841   601
21.3941   573
21.4041   569
21.4141   569
21.4241   607
21.4341   567
21.4441   529
21.4541   580
21.4641   601
21.4741   574
21.4841   598
21.4941   554
21.5041   541
21.5141   561
21.5241   544
21.5341   589
21.5441   562
21.5541   554
21.5641   604
21.5741   581
21.5841   565
21.5941   538
21.6041   544
21.6141   580
21.6241   581
21.6341   539
21.6441   566
21.6541   546
21.6641   557
21.6741   595
21.6841   590
21.6941   615
21.7041   570
21.7141   573
21.7241   571
21.7341   579
21.7441   556
21.7541   621
21.7641   575
21.7741   605
21.7841   576
21.7941   516
21.8041   587
21.8141   579
21.8241   577
21.8341   577
21.8441   572
21.8541   603
21.8641   596
21.8741   572
21.8841   570
21.8941   561
21.9041   573
21.9141   597
21.9241   557
21.9341   578
21.9441   556
21.9541   578
21.9641   613
21.9741   565
21.9841   579
21.9941   553
22.0041   539
22.0141   571
22.0241   579
22.0341   614
22.0441   557
22.0541   570
22.0641   519
22.0741   571
22.0841   598
22.0941   591
22.1041   615
22.1141   541
22.1241   570
22.1341   536
22.1441   588
22.1541   608
22.1641   548
22.1741   597
22.1841   542
22.1941   610
22.2041   567
22.2141   540
22.2241   552
22.2341   627
22.2441   588
22.2541   590
22.2641   559
22.2741   574
22.2841   574
22.2941   555
22.3041   555
22.3141   566
22.3241   551
22.3341   557
22.3441   546
22.3541   554
22.3641   590
22.3741   585
22.3841   560
22.3941   536
22.4041   534
22.4141   543
22.4241   621
22.4341   580
22.4441   543
22.4541   596
22.4641   560
22.4741   563
22.4841   575
22.4941   544
22.5041   576
22.5141   575
22.5241   569
22.5341   566
22.5441   554
22.5541   573
22.5641   574
22.5741   548
22.5841   592
22.5941   528
22.6041   572
22.6141   584
22.6241   559
22.6341   549
22.6441   588
22.6541   567
22.6641   592
22.6741   579
22.6841   542
22.6941   606
22.7041   586
22.7141   565
22.7241   584
22.7341   567
22.7441   543
22.7541   543
22.7641   580
22.7741   612
22.7841   584
22.7941   570
22.8041   589
22.8141   594
22.8241   553
22.8341   523
22.8441   577
22.8541   509
22.8641   513
22.8741   532
22.8841   533
22.8941   580
22.9041   536
22.9141   588
22.9241   547
22.9341   556
22.9441   558
22.9541   483
22.9641   547
22.9741   579
22.9841   560
22.9941   514
23.0041   576
23.0141   543
23.0241   566
23.0341   525
23.0441   548
23.0541   508
23.0641   582
23.0741   547
23.0841   555
23.0941   581
23.1041   510
23.1141   556
23.1241   541
23.1341   523
23.1441   524
23.1541   530
23.1641   544
23.1741   562
23.1841   586
23.1941   563
23.2041   523
23.2141   514
23.2241   536
23.2341   539
23.2441   567
23.2541   523
23.2641   527
23.2741   561
23.2841   578
23.2941   537
23.3041   531
23.3141   533
23.3241   572
23.3341   576
23.3441   556
23.3541   516
23.3641   563
23.3741   521
23.3841   478
23.3941   544
23.4041   542
23.4141   537
23.4241   573
23.4341   554
23.4441   517
23.4541   526
23.4641   531
23.4741   550
23.4841   570
23.4941   566
23.5041   531
23.5141   589
23.5241   524
23.5341   541
23.5441   532
23.5541   498
23.5641   518
23.5741   556
23.5841   539
23.5941   530
23.6041   530
23.6141   545
23.6241   556
23.6341   555
23.6441   579
23.6541   559
23.6641   597
23.6741   521
23.6841   590
23.6941   543
23.7041   573
23.7141   538
23.7241   619
23.7341   576
23.7441   593
23.7541   531
23.7641   570
23.7741   594
23.7841   607
23.7941   578
23.8041   594
23.8141   575
23.8241   609
23.8341   564
23.8441   532
23.8541   580
23.8641   530
23.8741   552
23.8841   575
23.8941   594
23.9041   612
23.9141   562
23.9241   631
23.9341   540
23.9441   519
23.9541   532
23.9641   518
23.9741   523
23.9841   542
23.9941   516
24.0041   506
24.0141   555
24.0241   533
24.0341   543
24.0441   529
24.0541   505
24.0641   529
24.0741   510
24.0841   494
24.0941   474
24.1041   531
24.1141   501
24.1241   523
24.1341   509
24.1441   505
24.1541   541
24.1641   519
24.1741   504
24.1841   523
24.1941   518
24.2041   533
24.2141   543
24.2241   492
24.2341   523
24.2441   509
24.2541   546
24.2641   501
24.2741   526
24.2841   539
24.2941   513
24.3041   503
24.3141   469
24.3241   505
24.3341   538
24.3441   511
24.3541   514
24.3641   503
24.3741   529
24.3841   481
24.3941   532
24.4041   557
24.4141   547
24.4241   507
24.4341   526
24.4441   520
24.4541   551
24.4641   541
24.4741   519
24.4841   528
24.4941   505
24.5041   497
24.5141   527
24.5241   526
24.5341   515
24.5441   483
24.5541   500
24.5641   508
24.5741   493
24.5841   532
24.5941   525
24.6041   518
24.6141   510
24.6241   547
24.6341   513
24.6441   498
24.6541   505
24.6641   527
24.6741   506
24.6841   509
24.6941   541
24.7041   524
24.7141   493
24.7241   493
24.7341   474
24.7441   515
24.7541   500
24.7641   486
24.7741   512
24.7841   523
24.7941   491
24.8041   501
24.8141   505
24.8241   495
24.8341   489
24.8441   465
24.8541   522
24.8641   497
24.8741   473
24.8841   497
24.8941   508
24.9041   530
24.9141   513
24.9241   529
24.9341   498
24.9441   475
24.9541   506
24.9641   478
24.9741   486
24.9841   473
24.9941   503
25.0041   519
25.0141   529
25.0241   480
25.0341   488
25.0441   468
25.0541   492
25.0641   524
25.0741   464
25.0841   517
25.0941   503
25.1041   483
25.1141   510
25.1241   482
25.1341   502
25.1441   505
25.1541   470
25.1641   483
25.1741   495
25.1841   516
25.1941   501
25.2041   487
25.2141   491
25.2241   507
25.2341   506
25.2441   505
25.2541   509
25.2641   471
25.2741   497
25.2841   487
25.2941   477
25.3041   491
25.3141   450
25.3241   458
25.3341   495
25.3441   505
25.3541   453
25.3641   472
25.3741   499
25.3841   463
25.3941   473
25.4041   489
25.4141   505
25.4241   499
25.4341   477
25.4441   519
25.4541   483
25.4641   467
25.4741   430
25.4841   464
25.4941   460
25.5041   475
25.5141   477
25.5241   477
25.5341   474
25.5441   472
25.5541   443
25.5641   460
25.5741   470
25.5841   477
25.5941   449
25.6041   480
25.6141   490
25.6241   468
25.6341   444
25.6441   462
25.6541   478
25.6641   477
25.6741   497
25.6841   455
25.6941   508
25.7041   472
25.7141   468
25.7241   462
25.7341   482
25.7441   447
25.7541   446
25.7641   464
25.7741   456
25.7841   456
25.7941   490
25.8041   415
25.8141   418
25.8241   442
25.8341   417
25.8441   454
25.8541   449
25.8641   414
25.8741   434
25.8841   451
25.8941   413
25.9041   428
25.9141   449
25.9241   445
25.9341   421
25.9441   466
25.9541   476
25.9641   494
25.9741   440
25.9841   441
25.9941   445
26.0041   455
26.0141   437
26.0241   457
26.0341   444
26.0441   457
26.0541   439
26.0641   426
26.0741   454
26.0841   466
26.0941   475
26.1041   475
26.1141   426
26.1241   443
26.1341   408
26.1441   422
26.1541   430
26.1641   439
26.1741   442
26.1841   495
26.1941   463
26.2041   438
26.2141   419
26.2241   453
26.2341   423
26.2441   412
26.2541   447
26.2641   436
26.2741   445
26.2841   417
26.2941   450
26.3041   438
26.3141   421
26.3241   444
26.3341   452
26.3441   455
26.3541   429
26.3641   409
26.3741   426
26.3841   434
26.3941   430
26.4041   426
26.4141   415
26.4241   446
26.4341   445
26.4441   453
26.4541   425
26.4641   427
26.4741   476
26.4841   439
26.4941   427
26.5041   455
26.5141   454
26.5241   388
26.5341   405
26.5441   403
26.5541   417
26.5641   389
26.5741   434
26.5841   445
26.5941   402
26.6041   414
26.6141   468
26.6241   429
26.6341   434
26.6441   421
26.6541   430
26.6641   476
26.6741   425
26.6841   434
26.6941   430
26.7041   397
26.7141   393
26.7241   411
26.7341   430
26.7441   431
26.7541   413
26.7641   436
26.7741   410
26.7841   387
26.7941   398
26.8041   378
26.8141   421
26.8241   437
26.8341   419
26.8441   438
26.8541   412
26.8641   395
26.8741   390
26.8841   412
26.8941   395
26.9041   394
26.9141   435
26.9241   422
26.9341   398
26.9441   388
26.9541   397
26.9641   422
26.9741   423
26.9841   413
26.9941   439
27.0041   405
27.0141   401
27.0241   403
27.0341   415
27.0441   424
27.0541   413
27.0641   373
27.0741   405
27.0841   392
27.0941   410
27.1041   405
27.1141   381
27.1241   401
27.1341   432
27.1441   378
27.1541   394
27.1641   377
27.1741   389
27.1841   404
27.1941   388
27.2041   417
27.2141   411
27.2241   398
27.2341   432
27.2441   418
27.2541   394
27.2641   401
27.2741   402
27.2841   444
27.2941   369
27.3041   405
27.3141   403
27.3241   388
27.3341   386
27.3441   384
27.3541   387
27.3641   366
27.3741   365
27.3841   389
27.3941   370
27.4041   399
27.4141   378
27.4241   384
27.4341   405
27.4441   386
27.4541   400
27.4641   388
27.4741   375
27.4841   375
27.4941   387
27.5041   387
27.5141   413
27.5241   414
27.5341   419
27.5441   379
27.5541   383
27.5641   392
27.5741   362
27.5841   370
27.5941   374
27.6041   396
27.6141   368
27.6241   366
27.6341   412
27.6441   367
27.6541   406
27.6641   402
27.6741   378
27.6841   378
27.6941   373
27.7041   353
27.7141   351
27.7241   362
27.7341   396
27.7441   401
27.7541   379
27.7641   370
27.7741   362
27.7841   363
27.7941   356
27.8041   364
27.8141   374
27.8241   400
27.8341   389
27.8441   339
27.8541   347
27.8641   384
27.8741   373
27.8841   348
27.8941   336
27.9041   358
27.9141   348
27.9241   367
27.9341   375
27.9441   326
27.9541   379
27.9641   407
27.9741   386
27.9841   319
27.9941   367
28.0041   368
28.0141   349
28.0241   340
28.0341   348
28.0441   354
28.0541   378
28.0641   359
28.0741   372
28.0841   342
28.0941   350
28.1041   342
28.1141   353
28.1241   357
28.1341   359
28.1441   309
28.1541   371
28.1641   374
28.1741   358
28.1841   348
28.1941   351
28.2041   367
28.2141   346
28.2241   338
28.2341   361
28.2441   307
28.2541   319
28.2641   334
28.2741   352
28.2841   365
28.2941   368
28.3041   369
28.3141   322
28.3241   326
28.3341   298
28.3441   319
28.3541   327
28.3641   343
28.3741   366
28.3841   321
28.3941   349
28.4041   297
28.4141   346
28.4241   332
28.4341   338
28.4441   350
28.4541   348
28.4641   352
28.4741   351
28.4841   351
28.4941   325
28.5041   347
28.5141   348
28.5241   318
28.5341   354
28.5441   308
28.5541   348
28.5641   352
28.5741   332
28.5841   328
28.5941   287
28.6041   341
28.6141   351
28.6241   329
28.6341   317
28.6441   307
28.6541   297
28.6641   294
28.6741   321
28.6841   303
28.6941   316
28.7041   315
28.7141   315
28.7241   317
28.7341   333
28.7441   324
28.7541   343
28.7641   347
28.7741   329
28.7841   324
28.7941   315
28.8041   328
28.8141   314
28.8241   319
28.8341   320
28.8441   323
28.8541   330
28.8641   331
28.8741   321
28.8841   329
28.8941   319
28.9041   331
28.9141   323
28.9241   314
28.9341   312
28.9441   330
28.9541   331
28.9641   288
28.9741   296
28.9841   317
28.9941   320
29.0041   311
29.0141   311
29.0241   294
29.0341   293
29.0441   327
29.0541   309
29.0641   307
29.0741   335
29.0841   325
29.0941   325
29.1041   290
29.1141   331
29.1241   335
29.1341   314
29.1441   290
29.1541   318
29.1641   306
29.1741   301
29.1841   328
29.1941   311
29.2041   303
29.2141   313
29.2241   289
29.2341   327
29.2441   299
29.2541   308
29.2641   277
29.2741   290
29.2841   315
29.2941   299
29.3041   290
29.3141   310
29.3241   309
29.3341   294
29.3441   301
29.3541   290
29.3641   308
29.3741   268
29.3841   288
29.3941   289
29.4041   298
29.4141   300
29.4241   311
29.4341   281
29.4441   314
29.4541   266
29.4641   319
29.4741   305
29.4841   304
29.4941   315
29.5041   287
29.5141   295
29.5241   288
29.5341   280
29.5441   310
29.5541   281
29.5641   302
29.5741   274
29.5841   301
29.5941   271
29.6041   295
29.6141   278
29.6241   293
29.6341   310
29.6441   302
29.6541   307
29.6641   312
29.6741   264
29.6841   270
29.6941   307
29.7041   296
29.7141   278
29.7241   298
29.7341   280
29.7441   268
29.7541   264
29.7641   259
29.7741   263
29.7841   298
29.7941   287
29.8041   263
29.8141   273
29.8241   285
29.8341   276
29.8441   279
29.8541   264
29.8641   262
29.8741   273
29.8841   271
29.8941   288
29.9041   285
29.9141   301
29.9241   311
29.9341   279
29.9441   278
29.9541   240
29.9641   269
29.9741   278
29.9841   267
29.9941   276
30.0041   238
30.0141   270
30.0241   271
30.0341   283
30.0441   263
30.0541   282
30.0641   274
30.0741   295
30.0841   264
30.0941   269
30.1041   266
30.1141   255
30.1241   269
30.1341   251
30.1441   260
30.1541   263
30.1641   261
30.1741   247
30.1841   268
30.1941   261
30.2041   242
30.2141   283
30.2241   250
30.2341   264
30.2441   254
30.2541   257
30.2641   232
30.2741   264
30.2841   275
30.2941   263
30.3041   242
30.3141   249
30.3241   253
30.3341   232
30.3441   260
30.3541   259
30.3641   261
30.3741   274
30.3841   256
30.3941   239
30.4041   246
30.4141   281
30.4241   230
30.4341   269
30.4441   264
30.4541   244
30.4641   265
30.4741   257
30.4841   261
30.4941   247
30.5041   259
30.5141   258
30.5241   250
30.5341   308
30.5441   252
30.5541   239
30.5641   276
30.5741   249
30.5841   229
30.5941   256
30.6041   263
30.6141   261
30.6241   219
30.6341   240
30.6441   255
30.6541   246
30.6641   248
30.6741   265
30.6841   240
30.6941   229
30.7041   246
30.7141   278
30.7241   248
30.7341   250
30.7441   252
30.7541   257
30.7641   248
30.7741   258
30.7841   237
30.7941   225
30.8041   215
30.8141   245
30.8241   248
30.8341   263
30.8441   261
30.8541   274
30.8641   235
30.8741   243
30.8841   234
30.8941   250
30.9041   236
30.9141   224
30.9241   249
30.9341   211
30.9441   222
30.9541   204
30.9641   258
30.9741   261
30.9841   249
30.9941   244
31.0041   224
31.0141   227
31.0241   257
31.0341   233
31.0441   232
31.0541   236
31.0641   230
31.0741   227
31.0841   257
31.0941   259
31.1041   232
31.1141   214
31.1241   226
31.1341   222
31.1441   243
31.1541   227
31.1641   248
31.1741   222
31.1841   225
31.1941   207
31.2041   233
31.2141   220
31.2241   241
31.2341   255
31.2441   213
31.2541   222
31.2641   229
31.2741   230
31.2841   231
31.2941   208
31.3041   207
31.3141   222
31.3241   239
31.3341   229
31.3441   224
31.3541   214
31.3641   252
31.3741   230
31.3841   230
31.3941   226
31.4041   218
31.4141   214
31.4241   218
31.4341   215
31.4441   214
31.4541   230
31.4641   224
31.4741   202
31.4841   210
31.4941   231
31.5041   227
31.5141   228
31.5241   213
31.5341   226
31.5441   209
31.5541   196
31.5641   214
31.5741   249
31.5841   226
31.5941   214
31.6041   207
31.6141   219
31.6241   227
31.6341   222
31.6441   203
31.6541   184
31.6641   214
31.6741   237
31.6841   183
31.6941   208
31.7041   232
31.7141   208
31.7241   212
31.7341   200
31.7441   228
31.7541   216
31.7641   189
31.7741   223
31.7841   189
31.7941   214
31.8041   215
31.8141   209
31.8241   188
31.8341   204
31.8441   233
31.8541   205
31.8641   192
31.8741   207
31.8841   205
31.8941   185
31.9041   192
31.9141   210
31.9241   203
31.9341   203
31.9441   208
31.9541   208
31.9641   219
31.9741   184
31.9841   204
31.9941   206
32.0041   211
32.0141   194
32.0241   197
32.0341   213
32.0441   195
32.0541   211
32.0641   206
32.0741   212
32.0841   186
32.0941   201
32.1041   204
32.1141   203
32.1241   207
32.1341   208
32.1441   187
32.1541   201
32.1641   207
32.1741   234
32.1841   206
32.1941   221
32.2041   195
32.2141   200
32.2241   206
32.2341   227
32.2441   194
32.2541   210
32.2641   191
32.2741   154
32.2841   173
32.2941   206
32.3041   196
32.3141   219
32.3241   194
32.3341   178
32.3441   162
32.3541   195
32.3641   190
32.3741   206
32.3841   194
32.3941   208
32.4041   208
32.4141   185
32.4241   193
32.4341   205
32.4441   188
32.4541   168
32.4641   196
32.4741   199
32.4841   175
32.4941   199
32.5041   168
32.5141   184
32.5241   183
32.5341   194
32.5441   175
32.5541   166
32.5641   184
32.5741   192
32.5841   205
32.5941   170
32.6041   177
32.6141   183
32.6241   183
32.6341   176
32.6441   180
32.6541   202
32.6641   179
32.6741   177
32.6841   162
32.6941   177
32.7041   187
32.7141   167
32.7241   188
32.7341   188
32.7441   203
32.7541   187
32.7641   185
32.7741   181
32.7841   186
32.7941   154
32.8041   166
32.8141   175
32.8241   185
32.8341   152
32.8441   176
32.8541   174
32.8641   178
32.8741   184
32.8841   166
32.8941   170
32.9041   155
32.9141   167
32.9241   146
32.9341   168
32.9441   169
32.9541   192
32.9641   163
32.9741   174
32.9841   170
32.9941   185
33.0041   178
33.0141   147
33.0241   158
33.0341   156
33.0441   163
33.0541   148
33.0641   177
33.0741   174
33.0841   191
33.0941   166
33.1041   157
33.1141   154
33.1241   167
33.1341   174
33.1441   140
33.1541   159
33.1641   151
33.1741   181
33.1841   169
33.1941   166
33.2041   173
33.2141   165
33.2241   164
33.2341   146
33.2441   147
33.2541   153
33.2641   179
33.2741   166
33.2841   152
33.2941   149
33.3041   158
33.3141   153
33.3241   162
33.3341   170
33.3441   160
33.3541   154
33.3641   154
33.3741   146
33.3841   143
33.3941   156
33.4041   140
33.4141   156
33.4241   164
33.4341   157
33.4441   162
33.4541   151
33.4641   129
33.4741   154
33.4841   167
33.4941   160
33.5041   162
33.5141   151
33.5241   171
33.5341   165
33.5441   165
33.5541   139
33.5641   130
33.5741   151
33.5841   138
33.5941   144
33.6041   141
33.6141   140
33.6241   166
33.6341   145
33.6441   151
33.6541   166
33.6641   157
33.6741   160
33.6841   164
33.6941   135
33.7041   146
33.7141   145
33.7241   137
33.7341   143
33.7441   154
33.7541   145
33.7641   156
33.7741   163
33.7841   125
33.7941   129
33.8041   133
33.8141   146
33.8241   157
33.8341   148
33.8441   134
33.8541   150
33.8641   153
33.8741   129
33.8841   135
33.8941   137
33.9041   141
33.9141   150
33.9241   149
33.9341   153
33.9441   157
33.9541   136
33.9641   134
33.9741   138
33.9841   160
33.9941   143
34.0041   160
34.0141   151
34.0241   161
34.0341   138
34.0441   146
34.0541   152
34.0641   137
34.0741   145
34.0841   143
34.0941   140
34.1041   134
34.1141   143
34.1241   132
34.1341   148
34.1441   135
34.1541   136
34.1641   130
34.1741   152
34.1841   118
34.1941   128
34.2041   136
34.2141   154
34.2241   129
34.2341   148
34.2441   150
34.2541   131
34.2641   126
34.2741   138
34.2841   143
34.2941   142
34.3041   140
34.3141   140
34.3241   125
34.3341   130
34.3441   121
34.3541   133
34.3641   126
34.3741   150
34.3841   136
34.3941   114
34.4041   137
34.4141   142
34.4241   134
34.4341   132
34.4441   129
34.4541   124
34.4641   148
34.4741   136
34.4841   131
34.4941   110
34.5041   119
34.5141   127
34.5241   132
34.5341   134
34.5441   120
34.5541   128
34.5641   133
34.5741   128
34.5841   124
34.5941   110
34.6041   127
34.6141   133
34.6241   117
34.6341   112
34.6441   107
34.6541   126
34.6641   129
34.6741   149
34.6841   131
34.6941   135
34.7041   131
34.7141   129
34.7241    98
34.7341   100
34.7441   116
34.7541   122
34.7641   128
34.7741   127
34.7841   109
34.7941   109
34.8041   116
34.8141   123
34.8241   131
34.8341   125
34.8441   129
34.8541   125
34.8641   112
34.8741   119
34.8841   106
34.8941   106
34.9041   115
34.9141   126
34.9241   100
34.9341   133
34.9441    99
34.9541   120
34.9641   102
34.9741   105
34.9841   100
34.9941   111
35.0041   125
35.0141   127
35.0241   107
35.0341   124
35.0441   111
35.0541   138
35.0641   120
35.0741   120
35.0841   122
35.0941   106
35.1041   112
35.1141   126
35.1241   116
35.1341   103
35.1441   132
35.1541   103
35.1641   125
35.1741   118
35.1841    97
35.1941   119
35.2041   116
35.2141   121
35.2241   107
35.2341   132
35.2441   112
35.2541    99
35.2641   109
35.2741   122
35.2841   119
35.2941   110
35.3041   100
35.3141   101
35.3241   110
35.3341   119
35.3441   109
35.3541   119
35.3641   127
35.3741   106
35.3841   105
35.3941   116
35.4041    92
35.4141   122
35.4241   117
35.4341    84
35.4441   112
35.4541    99
35.4641   110
35.4741   104
35.4841   102
35.4941   112
35.5041    98
35.5141   118
35.5241   115
35.5341    95
35.5441    81
35.5541   103
35.5641    84
35.5741   108
35.5841   107
35.5941   130
35.6041   110
35.6141   105
35.6241   120
35.6341    75
35.6441    86
35.6541   103
35.6641   116
35.6741    90
35.6841   104
35.6941   108
35.7041   121
35.7141   105
35.7241    93
35.7341    84
35.7441    99
35.7541   110
35.7641    91
35.7741   112
35.7841   103
35.7941    97
35.8041   110
35.8141    97
35.8241    94
35.8341    75
35.8441   110
35.8541   122
35.8641    84
35.8741    83
35.8841    80
35.8941    99
35.9041   104
35.9141    84
35.9241   102
35.9341   103
35.9441   102
35.9541    99
35.9641   109
35.9741    96
35.9841    93
35.9941    93
36.0041    85
36.0141   115
36.0241    89
36.0341    99
36.0441    84
36.0541    87
36.0641    94
36.0741    95
36.0841   132
36.0941    88
36.1041    90
36.1141    88
36.1241    84
36.1341    98
36.1441    86
36.1541    83
36.1641    82
36.1741    84
36.1841    82
36.1941    87
36.2041    91
36.2141   102
36.2241    90
36.2341    94
36.2441   116
36.2541    87
36.2641    95
36.2741    83
36.2841   106
36.2941    93
36.3041    90
36.3141    85
36.3241    94
36.3341    82
36.3441    97
36.3541    81
36.3641    76
36.3741    77
36.3841    73
36.3941    78
36.4041   105
36.4141    86
36.4241    95
36.4341    98
36.4441    85
36.4541    81
36.4641   105
36.4741    84
36.4841    80
36.4941    83
36.5041    94
36.5141    90
36.5241    87
36.5341    80
36.5441    86
36.5541    96
36.5641    92
36.5741    77
36.5841    77
36.5941    85
36.6041    82
36.6141    97
36.6241    92
36.6341    76
36.6441    64
36.6541    67
36.6641    63
36.6741    65
36.6841    84
36.6941    98
36.7041    74
36.7141    69
36.7241    82
36.7341    67
36.7441    67
36.7541    92
36.7641    83
36.7741    91
36.7841    93
36.7941    71
36.8041    75
36.8141    83
36.8241    79
36.8341    81
36.8441    71
36.8541    75
36.8641    80
36.8741    89
36.8841    78
36.8941    84
36.9041    72
36.9141    69
36.9241    82
36.9341    71
36.9441    81
36.9541    78
36.9641    75
36.9741    83
36.9841    71
36.9941    85
37.0041    65
37.0141    92
37.0241    82
37.0341    63
37.0441    66
37.0541    68
37.0641    72
37.0741    73
37.0841    72
37.0941    80
37.1041    68
37.1141    83
37.1241    58
37.1341    64
37.1441    78
37.1541    82
37.1641    64
37.1741    56
37.1841    76
37.1941    68
37.2041    83
37.2141    90
37.2241    64
37.2341    63
37.2441    61
37.2541    71
37.2641    65
37.2741    76
37.2841    64
37.2941    66
37.3041    70
37.3141    48
37.3241    55
37.3341    67
37.3441    64
37.3541    62
37.3641    61
37.3741    62
37.3841    70
37.3941    73
37.4041    73
37.4141    50
37.4241    60
37.4341    63
37.4441    65
37.4541    70
37.4641    68
37.4741    83
37.4841    57
37.4941    65
37.5041    67
37.5141    73
37.5241    54
37.5341    70
37.5441    57
37.5541    53
37.5641    79
37.5741    55
37.5841    63
37.5941    54
37.6041    57
37.6141    59
37.6241    69
37.6341    66
37.6441    73
37.6541    64
37.6641    44
37.6741    71
37.6841    59
37.6941    73
37.7041    74
37.7141    59
37.7241    53
37.7341    58
37.7441    56
37.7541    55
37.7641    57
37.7741    68
37.7841    64
37.7941    61
37.8041    55
37.8141    58
37.8241    61
37.8341    54
37.8441    60
37.8541    44
37.8641    61
37.8741    69
37.8841    60
37.8941    45
37.9041    49
37.9141    64
37.9241    54
37.9341    46
37.9441    52
37.9541    44
37.9641    55
37.9741    65
37.9841    59
37.9941    52
38.0041    63
38.0141    61
38.0241    71
38.0341    59
38.0441    62
38.0541    51
38.0641    40
38.0741    57
38.0841    54
38.0941    65
38.1041    50
38.1141    53
38.1241    50
38.1341    46
38.1441    60
38.1541    53
38.1641    51
38.1741    63
38.1841    63
38.1941    61
38.2041    49
38.2141    40
38.2241    53
38.2341    54
38.2441    46
38.2541    49
38.2641    53
38.2741    55
38.2841    39
38.2941    44
38.3041    46
38.3141    60
38.3241    66
38.3341    50
38.3441    59
38.3541    46
38.3641    54
38.3741    50
38.3841    43
38.3941    52
38.4041    52
38.4141    45
38.4241    47
38.4341    50
38.4441    52
38.4541    55
38.4641    44
38.4741    51
38.4841    52
38.4941    46
38.5041    45
38.5141    45
38.5241    58
38.5341    61
38.5441    51
38.5541    44
38.5641    36
38.5741    39
38.5841    55
38.5941    54
38.6041    45
38.6141    52
38.6241    55
38.6341    54
38.6441    54
38.6541    47
38.6641    55
38.6741    37
38.6841    52
38.6941    34
38.7041    35
38.7141    41
38.7241    43
38.7341    34
38.7441    51
38.7541    37
38.7641    48
38.7741    29
38.7841    46
38.7941    49
38.8041    38
38.8141    54
38.8241    36
38.8341    50
38.8441    42
38.8541    41
38.8641    43
38.8741    55
38.8841    42
38.8941    43
38.9041    37
38.9141    46
38.9241    35
38.9341    55
38.9441    51
38.9541    35
38.9641    50
38.9741    35
38.9841    37
38.9941    52
39.0041    39
39.0141    48
39.0241    44
39.0341    49
39.0441    42
39.0541    45
39.0641    38
39.0741    38
39.0841    40
39.0941    43
39.1041    41
39.1141    47
39.1241    47
39.1341    38
39.1441    31
39.1541    38
39.1641    37
39.1741    39
39.1841    39
39.1941    50
39.2041    40
39.2141    41
39.2241    38
39.2341    41
39.2441    44
39.2541    31
39.2641    40
39.2741    45
39.2841    34
39.2941    45
39.3041    33
39.3141    38
39.3241    38
39.3341    54
39.3441    40
39.3541    37
39.3641    43
39.3741    45
39.3841    34
39.3941    37
39.4041    35
39.4141    36
39.4241    40
39.4341    40
39.4441    21
39.4541    29
39.4641    38
39.4741    29
39.4841    46
39.4941    35
39.5041    38
39.5141    26
39.5241    38
39.5341    31
39.5441    33
39.5541    34
39.5641    26
39.5741    32
39.5841    23
39.5941    41
39.6041    32
39.6141    38
39.6241    36
39.6341    26
39.6441    25
39.6541    34
39.6641    30
39.6741    28
39.6841    36
39.6941    34
39.7041    42
39.7141    29
39.7241    27
39.7341    28
39.7441    23
39.7541    31
39.7641    28
39.7741    39
39.7841    26
39.7941    31
39.8041    35
39.8141    39
39.8241    28
39.8341    31
39.8441    33
39.8541    24
39.8641    24
39.8741    28
39.8841    24
39.8941    23
39.9041    37
39.9141    22
39.9241    37
39.9341    24
39.9441    33
39.9541    20
39.9641    30
39.9741    26
39.9841    22
