Bruker Nano GmbH Berlin, Germany
Esprit 1.9

Date: 5/14/2021 1:37:53 PM
Real time: 16349
Life time: 15291
Pulse density: 96089


Detector type: XFlash 430
Window type: Custom type
Detector thickness: 0.45
Si dead layer:0.029

Calibration, lin.: 10
Calibration, abs.: -955.9
Mn FWHM: 137.05
Fano factor: 0.121
Channels: 4095

Energy Counts
-0.9559     0
-0.9459     0
-0.9359     0
-0.9259     0
-0.9159     0
-0.9059     0
-0.8959     0
-0.8859     0
-0.8759     0
-0.8659     0
-0.8559     0
-0.8459     0
-0.8359     0
-0.8259     0
-0.8159     0
-0.8059     0
-0.7959     0
-0.7859     0
-0.7759     0
-0.7659     0
-0.7559     0
-0.7459     0
-0.7359     0
-0.7259     0
-0.7159     0
-0.7059     0
-0.6959     0
-0.6859     0
-0.6759     0
-0.6659     0
-0.6559     0
-0.6459     0
-0.6359     0
-0.6259     0
-0.6159     0
-0.6059     0
-0.5959     0
-0.5859     0
-0.5759     0
-0.5659     0
-0.5559     0
-0.5459     0
-0.5359     0
-0.5259     0
-0.5159     0
-0.5059     0
-0.4959     0
-0.4859     0
-0.4759     0
-0.4659     0
-0.4559     0
-0.4459     0
-0.4359     0
-0.4259     0
-0.4159     0
-0.4059     0
-0.3959     0
-0.3859     0
-0.3759     0
-0.3659     0
-0.3559     0
-0.3459     0
-0.3359     0
-0.3259     0
-0.3159     0
-0.3059     0
-0.2959     0
-0.2859     0
-0.2759     0
-0.2659     0
-0.2559     0
-0.2459     0
-0.2359     0
-0.2259     0
-0.2159     0
-0.2059     0
-0.1959     0
-0.1859     0
-0.1759     0
-0.1659     0
-0.1559     0
-0.1459     0
-0.1359     0
-0.1259     0
-0.1159     3
-0.1059     3
-0.0959    53
-0.0859   168
-0.0759   616
-0.0659  1717
-0.0559  4512
-0.0459  9508
-0.0359 18114
-0.0259 29119
-0.0159 40078
-0.0059 46764
 0.0041 47218
 0.0141 40447
 0.0241 30093
 0.0341 18899
 0.0441 10334
 0.0541  4889
 0.0641  1935
 0.0741   635
 0.0841   224
 0.0941    64
 0.1041    18
 0.1141    12
 0.1241     7
 0.1341     8
 0.1441     7
 0.1541     1
 0.1641     4
 0.1741    21
 0.1841   140
 0.1941   236
 0.2041   216
 0.2141   204
 0.2241   223
 0.2341   231
 0.2441   227
 0.2541   234
 0.2641   221
 0.2741   229
 0.2841   220
 0.2941   221
 0.3041   232
 0.3141   213
 0.3241   206
 0.3341   214
 0.3441   211
 0.3541   200
 0.3641   186
 0.3741   187
 0.3841   199
 0.3941   204
 0.4041   214
 0.4141   184
 0.4241   185
 0.4341   188
 0.4441   189
 0.4541   199
 0.4641   207
 0.4741   201
 0.4841   199
 0.4941   183
 0.5041   190
 0.5141   195
 0.5241   197
 0.5341   187
 0.5441   201
 0.5541   186
 0.5641   176
 0.5741   182
 0.5841   171
 0.5941   171
 0.6041   163
 0.6141   168
 0.6241   173
 0.6341   173
 0.6441   172
 0.6541   170
 0.6641   183
 0.6741   180
 0.6841   164
 0.6941   173
 0.7041   193
 0.7141   185
 0.7241   167
 0.7341   161
 0.7441   164
 0.7541   166
 0.7641   169
 0.7741   164
 0.7841   157
 0.7941   169
 0.8041   155
 0.8141   154
 0.8241   167
 0.8341   153
 0.8441   160
 0.8541   148
 0.8641   157
 0.8741   155
 0.8841   165
 0.8941   158
 0.9041   160
 0.9141   167
 0.9241   150
 0.9341   138
 0.9441   143
 0.9541   153
 0.9641   165
 0.9741   160
 0.9841   163
 0.9941   153
 1.0041   142
 1.0141   139
 1.0241   153
 1.0341   151
 1.0441   149
 1.0541   142
 1.0641   160
 1.0741   140
 1.0841   146
 1.0941   152
 1.1041   145
 1.1141   144
 1.1241   147
 1.1341   140
 1.1441   148
 1.1541   135
 1.1641   155
 1.1741   133
 1.1841   155
 1.1941   152
 1.2041   155
 1.2141   138
 1.2241   141
 1.2341   140
 1.2441   137
 1.2541   129
 1.2641   130
 1.2741   138
 1.2841   130
 1.2941   136
 1.3041   131
 1.3141   143
 1.3241   138
 1.3341   140
 1.3441   134
 1.3541   151
 1.3641   133
 1.3741   117
 1.3841   138
 1.3941   118
 1.4041   118
 1.4141   146
 1.4241   134
 1.4341   130
 1.4441   135
 1.4541   131
 1.4641   130
 1.4741   140
 1.4841   124
 1.4941   133
 1.5041   137
 1.5141   122
 1.5241   108
 1.5341   129
 1.5441   150
 1.5541   127
 1.5641   144
 1.5741   125
 1.5841   122
 1.5941   119
 1.6041   127
 1.6141   127
 1.6241   129
 1.6341   149
 1.6441   157
 1.6541   173
 1.6641   183
 1.6741   212
 1.6841   296
 1.6941   352
 1.7041   407
 1.7141   486
 1.7241   524
 1.7341   601
 1.7441   615
 1.7541   538
 1.7641   482
 1.7741   405
 1.7841   337
 1.7941   304
 1.8041   252
 1.8141   206
 1.8241   196
 1.8341   169
 1.8441   165
 1.8541   164
 1.8641   157
 1.8741   146
 1.8841   126
 1.8941   125
 1.9041   123
 1.9141   127
 1.9241   136
 1.9341   141
 1.9441   132
 1.9541   131
 1.9641   137
 1.9741   127
 1.9841   158
 1.9941   162
 2.0041   153
 2.0141   168
 2.0241   139
 2.0341   132
 2.0441   130
 2.0541   162
 2.0641   140
 2.0741   127
 2.0841   121
 2.0941   118
 2.1041   132
 2.1141   138
 2.1241   108
 2.1341   121
 2.1441   107
 2.1541   111
 2.1641   107
 2.1741   114
 2.1841   118
 2.1941   121
 2.2041   122
 2.2141   113
 2.2241   106
 2.2341   135
 2.2441   109
 2.2541   114
 2.2641   101
 2.2741   109
 2.2841   110
 2.2941   133
 2.3041   101
 2.3141    97
 2.3241   119
 2.3341   109
 2.3441   112
 2.3541    91
 2.3641   111
 2.3741   105
 2.3841    91
 2.3941   100
 2.4041    85
 2.4141    95
 2.4241    93
 2.4341    99
 2.4441    81
 2.4541   106
 2.4641    90
 2.4741    98
 2.4841   104
 2.4941   125
 2.5041   103
 2.5141    95
 2.5241    97
 2.5341   100
 2.5441    88
 2.5541   105
 2.5641    92
 2.5741    98
 2.5841   100
 2.5941    89
 2.6041    99
 2.6141   110
 2.6241    88
 2.6341    96
 2.6441    98
 2.6541    96
 2.6641    99
 2.6741   103
 2.6841    99
 2.6941    87
 2.7041   116
 2.7141    89
 2.7241    95
 2.7341    76
 2.7441   106
 2.7541   104
 2.7641    99
 2.7741    96
 2.7841    96
 2.7941    77
 2.8041    81
 2.8141    97
 2.8241    90
 2.8341    78
 2.8441    85
 2.8541    83
 2.8641   102
 2.8741   100
 2.8841    97
 2.8941    85
 2.9041    93
 2.9141    88
 2.9241    71
 2.9341    82
 2.9441    84
 2.9541    81
 2.9641    87
 2.9741    99
 2.9841   103
 2.9941    71
 3.0041    77
 3.0141    98
 3.0241    96
 3.0341    95
 3.0441    84
 3.0541    74
 3.0641    75
 3.0741    87
 3.0841    66
 3.0941    94
 3.1041    81
 3.1141    59
 3.1241    83
 3.1341    62
 3.1441    80
 3.1541    81
 3.1641    85
 3.1741   107
 3.1841    86
 3.1941    98
 3.2041    74
 3.2141    87
 3.2241   111
 3.2341   125
 3.2441   148
 3.2541   145
 3.2641   177
 3.2741   194
 3.2841   202
 3.2941   230
 3.3041   251
 3.3141   249
 3.3241   208
 3.3341   211
 3.3441   205
 3.3541   171
 3.3641   161
 3.3741   121
 3.3841   114
 3.3941   120
 3.4041    99
 3.4141    78
 3.4241   101
 3.4341    93
 3.4441    78
 3.4541    79
 3.4641    80
 3.4741    77
 3.4841    80
 3.4941   100
 3.5041    95
 3.5141   104
 3.5241   116
 3.5341   121
 3.5441   142
 3.5541   180
 3.5641   226
 3.5741   243
 3.5841   356
 3.5941   462
 3.6041   606
 3.6141   747
 3.6241  1022
 3.6341  1284
 3.6441  1619
 3.6541  1874
 3.6641  2226
 3.6741  2365
 3.6841  2443
 3.6941  2399
 3.7041  2301
 3.7141  2179
 3.7241  1884
 3.7341  1647
 3.7441  1343
 3.7541  1021
 3.7641   767
 3.7741   554
 3.7841   420
 3.7941   312
 3.8041   218
 3.8141   170
 3.8241   123
 3.8341    94
 3.8441    77
 3.8541    83
 3.8641    80
 3.8741    78
 3.8841    79
 3.8941   120
 3.9041    97
 3.9141   130
 3.9241   182
 3.9341   196
 3.9441   245
 3.9541   244
 3.9641   312
 3.9741   383
 3.9841   419
 3.9941   442
 4.0041   499
 4.0141   502
 4.0241   468
 4.0341   417
 4.0441   412
 4.0541   391
 4.0641   323
 4.0741   251
 4.0841   227
 4.0941   174
 4.1041   130
 4.1141    95
 4.1241   105
 4.1341    73
 4.1441    60
 4.1541    71
 4.1641    58
 4.1741    58
 4.1841    69
 4.1941    61
 4.2041    71
 4.2141    52
 4.2241    49
 4.2341    55
 4.2441    57
 4.2541    56
 4.2641    48
 4.2741    50
 4.2841    45
 4.2941    57
 4.3041    52
 4.3141    52
 4.3241    62
 4.3341    55
 4.3441    67
 4.3541    67
 4.3641    66
 4.3741    68
 4.3841    69
 4.3941    80
 4.4041    91
 4.4141   112
 4.4241   135
 4.4341   148
 4.4441   190
 4.4541   255
 4.4641   258
 4.4741   316
 4.4841   335
 4.4941   340
 4.5041   363
 4.5141   315
 4.5241   311
 4.5341   314
 4.5441   300
 4.5541   218
 4.5641   227
 4.5741   201
 4.5841   155
 4.5941   144
 4.6041   128
 4.6141   102
 4.6241    87
 4.6341    61
 4.6441    84
 4.6541    67
 4.6641    57
 4.6741    59
 4.6841    49
 4.6941    55
 4.7041    65
 4.7141    54
 4.7241    74
 4.7341    70
 4.7441    61
 4.7541    56
 4.7641    73
 4.7741    68
 4.7841    58
 4.7941    62
 4.8041    67
 4.8141    72
 4.8241    69
 4.8341    77
 4.8441    87
 4.8541   100
 4.8641    99
 4.8741    87
 4.8841   126
 4.8941   111
 4.9041   110
 4.9141   135
 4.9241   127
 4.9341   130
 4.9441   128
 4.9541   139
 4.9641   116
 4.9741    97
 4.9841    97
 4.9941    94
 5.0041    93
 5.0141    85
 5.0241    83
 5.0341    71
 5.0441    79
 5.0541    70
 5.0641    80
 5.0741    69
 5.0841    53
 5.0941    61
 5.1041    65
 5.1141    80
 5.1241    62
 5.1341    64
 5.1441    81
 5.1541    73
 5.1641    61
 5.1741    62
 5.1841    61
 5.1941    77
 5.2041    65
 5.2141    48
 5.2241    73
 5.2341    67
 5.2441    66
 5.2541    76
 5.2641    69
 5.2741    61
 5.2841    76
 5.2941    98
 5.3041    72
 5.3141    96
 5.3241   104
 5.3341    91
 5.3441   106
 5.3541   126
 5.3641   134
 5.3741   161
 5.3841   135
 5.3941   148
 5.4041   158
 5.4141   161
 5.4241   151
 5.4341   158
 5.4441   138
 5.4541   139
 5.4641   137
 5.4741   106
 5.4841   117
 5.4941   122
 5.5041   107
 5.5141    91
 5.5241    75
 5.5341    85
 5.5441    87
 5.5541    80
 5.5641    66
 5.5741    84
 5.5841    75
 5.5941    62
 5.6041    74
 5.6141    64
 5.6241    71
 5.6341    75
 5.6441    78
 5.6541    84
 5.6641    84
 5.6741    75
 5.6841    81
 5.6941    70
 5.7041    99
 5.7141    74
 5.7241    89
 5.7341    76
 5.7441    91
 5.7541    83
 5.7641    93
 5.7741   118
 5.7841   108
 5.7941   150
 5.8041   157
 5.8141   165
 5.8241   187
 5.8341   195
 5.8441   232
 5.8541   245
 5.8641   295
 5.8741   287
 5.8841   289
 5.8941   293
 5.9041   328
 5.9141   304
 5.9241   268
 5.9341   264
 5.9441   256
 5.9541   197
 5.9641   195
 5.9741   172
 5.9841   166
 5.9941   162
 6.0041   130
 6.0141   126
 6.0241   126
 6.0341   118
 6.0441   123
 6.0541   116
 6.0641    99
 6.0741    94
 6.0841   108
 6.0941   114
 6.1041   121
 6.1141   106
 6.1241   109
 6.1341   134
 6.1441   148
 6.1541   163
 6.1641   146
 6.1741   164
 6.1841   191
 6.1941   250
 6.2041   284
 6.2141   382
 6.2241   527
 6.2341   702
 6.2441  1043
 6.2541  1349
 6.2641  1867
 6.2741  2700
 6.2841  3473
 6.2941  4664
 6.3041  5889
 6.3141  7757
 6.3241  9466
 6.3341 11404
 6.3441 13419
 6.3541 15148
 6.3641 16967
 6.3741 18181
 6.3841 19509
 6.3941 19827
 6.4041 19710
 6.4141 19185
 6.4241 18211
 6.4341 16459
 6.4441 14786
 6.4541 12881
 6.4641 10963
 6.4741  8860
 6.4841  7064
 6.4941  5600
 6.5041  4330
 6.5141  3176
 6.5241  2315
 6.5341  1655
 6.5441  1146
 6.5541   784
 6.5641   568
 6.5741   394
 6.5841   334
 6.5941   245
 6.6041   160
 6.6141   170
 6.6241   158
 6.6341   145
 6.6441   138
 6.6541   139
 6.6641   126
 6.6741   146
 6.6841   164
 6.6941   109
 6.7041   112
 6.7141   133
 6.7241   124
 6.7341   124
 6.7441   165
 6.7541   129
 6.7641   140
 6.7741   130
 6.7841   168
 6.7941   138
 6.8041   171
 6.8141   171
 6.8241   175
 6.8341   193
 6.8441   194
 6.8541   219
 6.8641   235
 6.8741   267
 6.8841   312
 6.8941   346
 6.9041   458
 6.9141   523
 6.9241   687
 6.9341   797
 6.9441   998
 6.9541  1203
 6.9641  1364
 6.9741  1653
 6.9841  2085
 6.9941  2248
 7.0041  2603
 7.0141  2879
 7.0241  3082
 7.0341  3158
 7.0441  3402
 7.0541  3431
 7.0641  3391
 7.0741  3373
 7.0841  2986
 7.0941  2817
 7.1041  2463
 7.1141  2165
 7.1241  1882
 7.1341  1644
 7.1441  1329
 7.1541  1068
 7.1641   864
 7.1741   649
 7.1841   538
 7.1941   381
 7.2041   318
 7.2141   285
 7.2241   226
 7.2341   184
 7.2441   180
 7.2541   169
 7.2641   174
 7.2741   159
 7.2841   170
 7.2941   174
 7.3041   174
 7.3141   176
 7.3241   188
 7.3341   194
 7.3441   214
 7.3541   230
 7.3641   195
 7.3741   247
 7.3841   264
 7.3941   283
 7.4041   271
 7.4141   272
 7.4241   265
 7.4341   307
 7.4441   299
 7.4541   284
 7.4641   282
 7.4741   293
 7.4841   300
 7.4941   302
 7.5041   254
 7.5141   271
 7.5241   243
 7.5341   237
 7.5441   198
 7.5541   200
 7.5641   192
 7.5741   186
 7.5841   189
 7.5941   174
 7.6041   171
 7.6141   178
 7.6241   168
 7.6341   149
 7.6441   157
 7.6541   164
 7.6641   163
 7.6741   167
 7.6841   179
 7.6941   173
 7.7041   174
 7.7141   177
 7.7241   186
 7.7341   151
 7.7441   188
 7.7541   191
 7.7641   189
 7.7741   196
 7.7841   183
 7.7941   190
 7.8041   191
 7.8141   192
 7.8241   203
 7.8341   204
 7.8441   215
 7.8541   242
 7.8641   247
 7.8741   264
 7.8841   214
 7.8941   246
 7.9041   292
 7.9141   283
 7.9241   288
 7.9341   300
 7.9441   315
 7.9541   394
 7.9641   399
 7.9741   373
 7.9841   442
 7.9941   426
 8.0041   480
 8.0141   550
 8.0241   569
 8.0341   558
 8.0441   633
 8.0541   673
 8.0641   751
 8.0741   787
 8.0841   860
 8.0941   854
 8.1041   910
 8.1141   972
 8.1241   965
 8.1341  1002
 8.1441  1022
 8.1541  1081
 8.1641  1070
 8.1741  1068
 8.1841  1133
 8.1941  1108
 8.2041  1133
 8.2141  1121
 8.2241  1119
 8.2341  1158
 8.2441  1178
 8.2541  1215
 8.2641  1254
 8.2741  1364
 8.2841  1479
 8.2941  1560
 8.3041  1717
 8.3141  1807
 8.3241  1960
 8.3341  2058
 8.3441  2219
 8.3541  2382
 8.3641  2534
 8.3741  2609
 8.3841  2534
 8.3941  2514
 8.4041  2543
 8.4141  2458
 8.4241  2251
 8.4341  2140
 8.4441  1988
 8.4541  1799
 8.4641  1627
 8.4741  1372
 8.4841  1172
 8.4941   982
 8.5041   887
 8.5141   744
 8.5241   647
 8.5341   618
 8.5441   560
 8.5541   490
 8.5641   469
 8.5741   470
 8.5841   469
 8.5941   477
 8.6041   485
 8.6141   470
 8.6241   455
 8.6341   509
 8.6441   513
 8.6541   512
 8.6641   449
 8.6741   459
 8.6841   437
 8.6941   418
 8.7041   400
 8.7141   366
 8.7241   336
 8.7341   330
 8.7441   321
 8.7541   289
 8.7641   293
 8.7741   259
 8.7841   245
 8.7941   246
 8.8041   230
 8.8141   241
 8.8241   236
 8.8341   254
 8.8441   241
 8.8541   222
 8.8641   244
 8.8741   228
 8.8841   252
 8.8941   257
 8.9041   259
 8.9141   231
 8.9241   268
 8.9341   285
 8.9441   262
 8.9541   273
 8.9641   275
 8.9741   242
 8.9841   288
 8.9941   280
 9.0041   304
 9.0141   294
 9.0241   319
 9.0341   310
 9.0441   296
 9.0541   317
 9.0641   324
 9.0741   318
 9.0841   366
 9.0941   373
 9.1041   384
 9.1141   420
 9.1241   402
 9.1341   419
 9.1441   425
 9.1541   461
 9.1641   470
 9.1741   492
 9.1841   490
 9.1941   519
 9.2041   602
 9.2141   627
 9.2241   672
 9.2341   679
 9.2441   678
 9.2541   700
 9.2641   748
 9.2741   783
 9.2841   803
 9.2941   840
 9.3041   861
 9.3141   899
 9.3241   937
 9.3341  1008
 9.3441   991
 9.3541   983
 9.3641   978
 9.3741  1043
 9.3841  1048
 9.3941  1102
 9.4041  1076
 9.4141  1102
 9.4241  1120
 9.4341  1110
 9.4441  1123
 9.4541  1113
 9.4641  1162
 9.4741  1120
 9.4841  1166
 9.4941  1204
 9.5041  1227
 9.5141  1326
 9.5241  1331
 9.5341  1369
 9.5441  1388
 9.5541  1465
 9.5641  1606
 9.5741  1637
 9.5841  1692
 9.5941  1816
 9.6041  1901
 9.6141  2027
 9.6241  2103
 9.6341  2230
 9.6441  2221
 9.6541  2281
 9.6641  2299
 9.6741  2324
 9.6841  2205
 9.6941  2166
 9.7041  2002
 9.7141  1925
 9.7241  1827
 9.7341  1729
 9.7441  1553
 9.7541  1450
 9.7641  1377
 9.7741  1233
 9.7841  1150
 9.7941  1137
 9.8041  1073
 9.8141   966
 9.8241   901
 9.8341   916
 9.8441   914
 9.8541   907
 9.8641   915
 9.8741   936
 9.8841   898
 9.8941   943
 9.9041   915
 9.9141   979
 9.9241   971
 9.9341  1005
 9.9441   988
 9.9541   946
 9.9641   932
 9.9741   946
 9.9841   904
 9.9941   878
10.0041   839
10.0141   772
10.0241   682
10.0341   614
10.0441   587
10.0541   523
10.0641   509
10.0741   449
10.0841   406
10.0941   392
10.1041   326
10.1141   292
10.1241   271
10.1341   269
10.1441   236
10.1541   205
10.1641   192
10.1741   194
10.1841   204
10.1941   186
10.2041   172
10.2141   177
10.2241   171
10.2341   152
10.2441   162
10.2541   152
10.2641   161
10.2741   153
10.2841   135
10.2941   144
10.3041   129
10.3141   123
10.3241   132
10.3341   130
10.3441   134
10.3541   140
10.3641   136
10.3741   141
10.3841   140
10.3941   127
10.4041   132
10.4141   150
10.4241   145
10.4341   138
10.4441   141
10.4541   127
10.4641   167
10.4741   154
10.4841   155
10.4941   137
10.5041   154
10.5141   162
10.5241   156
10.5341   150
10.5441   162
10.5541   150
10.5641   160
10.5741   168
10.5841   152
10.5941   151
10.6041   150
10.6141   172
10.6241   162
10.6341   166
10.6441   164
10.6541   176
10.6641   168
10.6741   178
10.6841   154
10.6941   159
10.7041   182
10.7141   186
10.7241   194
10.7341   202
10.7441   184
10.7541   185
10.7641   190
10.7741   199
10.7841   210
10.7941   196
10.8041   204
10.8141   206
10.8241   218
10.8341   242
10.8441   228
10.8541   220
10.8641   222
10.8741   218
10.8841   220
10.8941   224
10.9041   246
10.9141   228
10.9241   220
10.9341   224
10.9441   237
10.9541   224
10.9641   232
10.9741   245
10.9841   203
10.9941   218
11.0041   225
11.0141   217
11.0241   190
11.0341   205
11.0441   201
11.0541   223
11.0641   210
11.0741   198
11.0841   194
11.0941   215
11.1041   212
11.1141   206
11.1241   216
11.1341   240
11.1441   226
11.1541   218
11.1641   217
11.1741   225
11.1841   233
11.1941   271
11.2041   276
11.2141   277
11.2241   298
11.2341   319
11.2441   319
11.2541   343
11.2641   329
11.2741   312
11.2841   339
11.2941   345
11.3041   338
11.3141   319
11.3241   310
11.3341   306
11.3441   287
11.3541   259
11.3641   238
11.3741   231
11.3841   223
11.3941   210
11.4041   207
11.4141   196
11.4241   179
11.4341   184
11.4441   188
11.4541   185
11.4641   181
11.4741   163
11.4841   147
11.4941   160
11.5041   156
11.5141   179
11.5241   165
11.5341   160
11.5441   171
11.5541   173
11.5641   177
11.5741   179
11.5841   189
11.5941   182
11.6041   169
11.6141   174
11.6241   184
11.6341   186
11.6441   179
11.6541   170
11.6641   198
11.6741   180
11.6841   170
11.6941   183
11.7041   172
11.7141   159
11.7241   154
11.7341   155
11.7441   157
11.7541   174
11.7641   154
11.7741   159
11.7841   138
11.7941   117
11.8041   131
11.8141   126
11.8241   119
11.8341   132
11.8441   128
11.8541   132
11.8641   128
11.8741   142
11.8841   147
11.8941   135
11.9041   141
11.9141   137
11.9241   128
11.9341   119
11.9441   121
11.9541   135
11.9641   129
11.9741   120
11.9841   125
11.9941   131
12.0041   144
12.0141   149
12.0241   154
12.0341   154
12.0441   134
12.0541   134
12.0641   142
12.0741   141
12.0841   139
12.0941   148
12.1041   136
12.1141   139
12.1241   141
12.1341   127
12.1441   116
12.1541   124
12.1641   128
12.1741   125
12.1841   125
12.1941   136
12.2041   133
12.2141   123
12.2241   128
12.2341   131
12.2441   126
12.2541   116
12.2641   125
12.2741   120
12.2841   116
12.2941   123
12.3041   122
12.3141   118
12.3241   121
12.3341   124
12.3441   129
12.3541   129
12.3641   133
12.3741   127
12.3841   129
12.3941   121
12.4041   111
12.4141   125
12.4241   127
12.4341   128
12.4441   135
12.4541   142
12.4641   144
12.4741   131
12.4841   141
12.4941   156
12.5041   139
12.5141   123
12.5241   131
12.5341   140
12.5441   142
12.5541   155
12.5641   159
12.5741   156
12.5841   142
12.5941   131
12.6041   147
12.6141   160
12.6241   165
12.6341   165
12.6441   160
12.6541   151
12.6641   151
12.6741   150
12.6841   151
12.6941   151
12.7041   161
12.7141   165
12.7241   163
12.7341   156
12.7441   158
12.7541   167
12.7641   171
12.7741   166
12.7841   160
12.7941   157
12.8041   153
12.8141   143
12.8241   139
12.8341   149
12.8441   157
12.8541   152
12.8641   146
12.8741   140
12.8841   137
12.8941   144
12.9041   150
12.9141   147
12.9241   143
12.9341   139
12.9441   139
12.9541   141
12.9641   153
12.9741   164
12.9841   152
12.9941   149
13.0041   154
13.0141   160
13.0241   169
13.0341   162
13.0441   169
13.0541   168
13.0641   147
13.0741   148
13.0841   162
13.0941   156
13.1041   165
13.1141   169
13.1241   156
13.1341   164
13.1441   167
13.1541   162
13.1641   155
13.1741   148
13.1841   181
13.1941   182
13.2041   166
13.2141   183
13.2241   189
13.2341   187
13.2441   191
13.2541   193
13.2641   189
13.2741   187
13.2841   188
13.2941   197
13.3041   212
13.3141   217
13.3241   221
13.3341   221
13.3441   207
13.3541   209
13.3641   217
13.3741   235
13.3841   234
13.3941   230
13.4041   241
13.4141   241
13.4241   225
13.4341   234
13.4441   238
13.4541   227
13.4641   213
13.4741   215
13.4841   212
13.4941   187
13.5041   189
13.5141   213
13.5241   220
13.5341   204
13.5441   202
13.5541   187
13.5641   172
13.5741   186
13.5841   190
13.5941   195
13.6041   194
13.6141   199
13.6241   206
13.6341   195
13.6441   186
13.6541   179
13.6641   186
13.6741   205
13.6841   213
13.6941   197
13.7041   182
13.7141   189
13.7241   193
13.7341   192
13.7441   203
13.7541   198
13.7641   192
13.7741   200
13.7841   205
13.7941   201
13.8041   198
13.8141   204
13.8241   208
13.8341   202
13.8441   199
13.8541   211
13.8641   202
13.8741   204
13.8841   218
13.8941   211
13.9041   209
13.9141   214
13.9241   215
13.9341   233
13.9441   239
13.9541   216
13.9641   204
13.9741   219
13.9841   216
13.9941   219
14.0041   241
14.0141   244
14.0241   258
14.0341   263
14.0441   265
14.0541   267
14.0641   272
14.0741   284
14.0841   293
14.0941   301
14.1041   306
14.1141   310
14.1241   300
14.1341   314
14.1441   323
14.1541   324
14.1641   308
14.1741   311
14.1841   338
14.1941   320
14.2041   300
14.2141   289
14.2241   288
14.2341   291
14.2441   290
14.2541   291
14.2641   276
14.2741   264
14.2841   254
14.2941   242
14.3041   266
14.3141   258
14.3241   232
14.3341   256
14.3441   250
14.3541   219
14.3641   215
14.3741   214
14.3841   240
14.3941   250
14.4041   227
14.4141   225
14.4241   229
14.4341   226
14.4441   251
14.4541   248
14.4641   228
14.4741   248
14.4841   257
14.4941   247
14.5041   242
14.5141   252
14.5241   231
14.5341   218
14.5441   250
14.5541   260
14.5641   247
14.5741   245
14.5841   230
14.5941   236
14.6041   249
14.6141   261
14.6241   249
14.6341   231
14.6441   234
14.6541   238
14.6641   256
14.6741   259
14.6841   260
14.6941   269
14.7041   257
14.7141   237
14.7241   224
14.7341   242
14.7441   252
14.7541   239
14.7641   251
14.7741   267
14.7841   265
14.7941   262
14.8041   250
14.8141   252
14.8241   291
14.8341   306
14.8441   278
14.8541   269
14.8641   268
14.8741   262
14.8841   272
14.8941   298
14.9041   299
14.9141   287
14.9241   294
14.9341   307
14.9441   306
14.9541   303
14.9641   296
14.9741   274
14.9841   275
14.9941   296
15.0041   296
15.0141   287
15.0241   282
15.0341   272
15.0441   289
15.0541   293
15.0641   253
15.0741   265
15.0841   283
15.0941   288
15.1041   269
15.1141   256
15.1241   275
15.1341   271
15.1441   288
15.1541   304
15.1641   293
15.1741   287
15.1841   297
15.1941   270
15.2041   266
15.2141   262
15.2241   269
15.2341   255
15.2441   246
15.2541   267
15.2641   287
15.2741   286
15.2841   282
15.2941   280
15.3041   270
15.3141   285
15.3241   300
15.3341   286
15.3441   293
15.3541   289
15.3641   277
15.3741   287
15.3841   287
15.3941   302
15.4041   312
15.4141   308
15.4241   295
15.4341   294
15.4441   302
15.4541   282
15.4641   272
15.4741   275
15.4841   305
15.4941   325
15.5041   317
15.5141   317
15.5241   307
15.5341   312
15.5441   309
15.5541   307
15.5641   324
15.5741   314
15.5841   323
15.5941   336
15.6041   347
15.6141   356
15.6241   398
15.6341   393
15.6441   385
15.6541   399
15.6641   408
15.6741   423
15.6841   420
15.6941   397
15.7041   405
15.7141   433
15.7241   452
15.7341   479
15.7441   476
15.7541   449
15.7641   483
15.7741   472
15.7841   417
15.7941   459
15.8041   462
15.8141   445
15.8241   422
15.8341   393
15.8441   408
15.8541   407
15.8641   385
15.8741   397
15.8841   396
15.8941   396
15.9041   376
15.9141   360
15.9241   359
15.9341   369
15.9441   356
15.9541   343
15.9641   332
15.9741   320
15.9841   347
15.9941   334
16.0041   320
16.0141   333
16.0241   343
16.0341   341
16.0441   330
16.0541   335
16.0641   337
16.0741   327
16.0841   313
16.0941   322
16.1041   327
16.1141   336
16.1241   332
16.1341   336
16.1441   330
16.1541   315
16.1641   336
16.1741   334
16.1841   324
16.1941   321
16.2041   328
16.2141   334
16.2241   348
16.2341   342
16.2441   353
16.2541   351
16.2641   354
16.2741   354
16.2841   344
16.2941   355
16.3041   359
16.3141   337
16.3241   328
16.3341   362
16.3441   370
16.3541   344
16.3641   335
16.3741   360
16.3841   352
16.3941   348
16.4041   357
16.4141   370
16.4241   369
16.4341   362
16.4441   348
16.4541   364
16.4641   358
16.4741   338
16.4841   351
16.4941   371
16.5041   387
16.5141   396
16.5241   375
16.5341   383
16.5441   368
16.5541   375
16.5641   360
16.5741   378
16.5841   376
16.5941   362
16.6041   353
16.6141   344
16.6241   360
16.6341   379
16.6441   377
16.6541   366
16.6641   368
16.6741   385
16.6841   379
16.6941   356
16.7041   380
16.7141   378
16.7241   379
16.7341   369
16.7441   350
16.7541   370
16.7641   370
16.7741   372
16.7841   370
16.7941   372
16.8041   362
16.8141   369
16.8241   379
16.8341   365
16.8441   381
16.8541   403
16.8641   401
16.8741   382
16.8841   392
16.8941   392
16.9041   379
16.9141   355
16.9241   367
16.9341   390
16.9441   394
16.9541   418
16.9641   381
16.9741   374
16.9841   380
16.9941   407
17.0041   410
17.0141   404
17.0241   384
17.0341   398
17.0441   383
17.0541   398
17.0641   404
17.0741   418
17.0841   430
17.0941   405
17.1041   426
17.1141   416
17.1241   400
17.1341   418
17.1441   417
17.1541   397
17.1641   386
17.1741   385
17.1841   379
17.1941   395
17.2041   392
17.2141   393
17.2241   403
17.2341   412
17.2441   414
17.2541   407
17.2641   423
17.2741   452
17.2841   437
17.2941   406
17.3041   407
17.3141   410
17.3241   409
17.3341   428
17.3441   409
17.3541   427
17.3641   414
17.3741   428
17.3841   420
17.3941   428
17.4041   431
17.4141   443
17.4241   425
17.4341   439
17.4441   423
17.4541   438
17.4641   426
17.4741   400
17.4841   418
17.4941   396
17.5041   418
17.5141   441
17.5241   416
17.5341   449
17.5441   461
17.5541   454
17.5641   409
17.5741   407
17.5841   411
17.5941   422
17.6041   421
17.6141   431
17.6241   447
17.6341   455
17.6441   453
17.6541   454
17.6641   449
17.6741   447
17.6841   451
17.6941   435
17.7041   464
17.7141   451
17.7241   446
17.7341   441
17.7441   452
17.7541   452
17.7641   444
17.7741   422
17.7841   439
17.7941   452
17.8041   440
17.8141   432
17.8241   458
17.8341   466
17.8441   456
17.8541   440
17.8641   443
17.8741   456
17.8841   416
17.8941   423
17.9041   429
17.9141   422
17.9241   415
17.9341   444
17.9441   420
17.9541   441
17.9641   416
17.9741   415
17.9841   437
17.9941   464
18.0041   453
18.0141   417
18.0241   417
18.0341   441
18.0441   452
18.0541   438
18.0641   454
18.0741   449
18.0841   462
18.0941   458
18.1041   466
18.1141   469
18.1241   462
18.1341   417
18.1441   410
18.1541   451
18.1641   450
18.1741   450
18.1841   430
18.1941   460
18.2041   440
18.2141   431
18.2241   442
18.2341   479
18.2441   465
18.2541   439
18.2641   463
18.2741   459
18.2841   445
18.2941   427
18.3041   433
18.3141   457
18.3241   473
18.3341   468
18.3441   455
18.3541   447
18.3641   453
18.3741   449
18.3841   490
18.3941   489
18.4041   478
18.4141   450
18.4241   441
18.4341   467
18.4441   426
18.4541   393
18.4641   460
18.4741   443
18.4841   429
18.4941   441
18.5041   481
18.5141   464
18.5241   418
18.5341   442
18.5441   453
18.5541   441
18.5641   438
18.5741   471
18.5841   456
18.5941   441
18.6041   463
18.6141   460
18.6241   479
18.6341   470
18.6441   460
18.6541   462
18.6641   467
18.6741   490
18.6841   478
18.6941   495
18.7041   451
18.7141   458
18.7241   484
18.7341   476
18.7441   479
18.7541   458
18.7641   433
18.7741   487
18.7841   456
18.7941   472
18.8041   497
18.8141   441
18.8241   439
18.8341   446
18.8441   455
18.8541   448
18.8641   443
18.8741   454
18.8841   463
18.8941   450
18.9041   486
18.9141   478
18.9241   466
18.9341   490
18.9441   465
18.9541   479
18.9641   471
18.9741   473
18.9841   469
18.9941   463
19.0041   445
19.0141   443
19.0241   451
19.0341   468
19.0441   485
19.0541   507
19.0641   458
19.0741   451
19.0841   465
19.0941   469
19.1041   464
19.1141   476
19.1241   479
19.1341   464
19.1441   469
19.1541   450
19.1641   468
19.1741   487
19.1841   463
19.1941   473
19.2041   483
19.2141   460
19.2241   454
19.2341   442
19.2441   461
19.2541   465
19.2641   482
19.2741   485
19.2841   473
19.2941   447
19.3041   450
19.3141   465
19.3241   501
19.3341   457
19.3441   458
19.3541   488
19.3641   483
19.3741   504
19.3841   483
19.3941   443
19.4041   480
19.4141   499
19.4241   497
19.4341   512
19.4441   495
19.4541   461
19.4641   489
19.4741   487
19.4841   458
19.4941   473
19.5041   515
19.5141   497
19.5241   466
19.5341   479
19.5441   454
19.5541   460
19.5641   481
19.5741   475
19.5841   473
19.5941   470
19.6041   480
19.6141   479
19.6241   466
19.6341   483
19.6441   476
19.6541   523
19.6641   501
19.6741   475
19.6841   482
19.6941   530
19.7041   468
19.7141   468
19.7241   477
19.7341   488
19.7441   450
19.7541   511
19.7641   458
19.7741   458
19.7841   467
19.7941   498
19.8041   503
19.8141   474
19.8241   497
19.8341   486
19.8441   482
19.8541   478
19.8641   493
19.8741   496
19.8841   487
19.8941   498
19.9041   488
19.9141   507
19.9241   438
19.9341   475
19.9441   476
19.9541   481
19.9641   487
19.9741   464
19.9841   483
19.9941   483
20.0041   493
20.0141   481
20.0241   516
20.0341   500
20.0441   498
20.0541   477
20.0641   470
20.0741   502
20.0841   501
20.0941   479
20.1041   497
20.1141   504
20.1241   469
20.1341   493
20.1441   464
20.1541   479
20.1641   480
20.1741   484
20.1841   459
20.1941   499
20.2041   480
20.2141   470
20.2241   499
20.2341   505
20.2441   510
20.2541   483
20.2641   496
20.2741   482
20.2841   505
20.2941   503
20.3041   490
20.3141   493
20.3241   489
20.3341   483
20.3441   484
20.3541   456
20.3641   434
20.3741   485
20.3841   473
20.3941   500
20.4041   495
20.4141   524
20.4241   469
20.4341   497
20.4441   473
20.4541   496
20.4641   499
20.4741   479
20.4841   511
20.4941   486
20.5041   477
20.5141   480
20.5241   501
20.5341   508
20.5441   475
20.5541   502
20.5641   485
20.5741   487
20.5841   465
20.5941   503
20.6041   502
20.6141   489
20.6241   516
20.6341   471
20.6441   477
20.6541   515
20.6641   458
20.6741   469
20.6841   474
20.6941   479
20.7041   500
20.7141   477
20.7241   443
20.7341   475
20.7441   467
20.7541   522
20.7641   482
20.7741   483
20.7841   467
20.7941   477
20.8041   500
20.8141   529
20.8241   515
20.8341   503
20.8441   467
20.8541   483
20.8641   526
20.8741   510
20.8841   586
20.8941   551
20.9041   521
20.9141   579
20.9241   554
20.9341   546
20.9441   577
20.9541   554
20.9641   630
20.9741   601
20.9841   571
20.9941   627
21.0041   604
21.0141   582
21.0241   618
21.0341   604
21.0441   641
21.0541   639
21.0641   642
21.0741   669
21.0841   616
21.0941   677
21.1041   683
21.1141   667
21.1241   644
21.1341   684
21.1441   714
21.1541   663
21.1641   627
21.1741   645
21.1841   659
21.1941   650
21.2041   618
21.2141   634
21.2241   618
21.2341   597
21.2441   600
21.2541   606
21.2641   604
21.2741   604
21.2841   557
21.2941   571
21.3041   549
21.3141   537
21.3241   511
21.3341   546
21.3441   529
21.3541   529
21.3641   532
21.3741   534
21.3841   532
21.3941   500
21.4041   501
21.4141   489
21.4241   483
21.4341   441
21.4441   455
21.4541   464
21.4641   482
21.4741   463
21.4841   489
21.4941   485
21.5041   480
21.5141   490
21.5241   484
21.5341   453
21.5441   487
21.5541   463
21.5641   466
21.5741   475
21.5841   498
21.5941   452
21.6041   457
21.6141   485
21.6241   459
21.6341   494
21.6441   501
21.6541   496
21.6641   459
21.6741   459
21.6841   499
21.6941   458
21.7041   461
21.7141   483
21.7241   447
21.7341   530
21.7441   482
21.7541   459
21.7641   474
21.7741   459
21.7841   452
21.7941   497
21.8041   442
21.8141   465
21.8241   488
21.8341   474
21.8441   472
21.8541   460
21.8641   447
21.8741   475
21.8841   469
21.8941   449
21.9041   429
21.9141   437
21.9241   467
21.9341   451
21.9441   531
21.9541   483
21.9641   441
21.9741   441
21.9841   466
21.9941   495
22.0041   481
22.0141   432
22.0241   487
22.0341   462
22.0441   494
22.0541   441
22.0641   470
22.0741   462
22.0841   487
22.0941   487
22.1041   486
22.1141   460
22.1241   483
22.1341   451
22.1441   475
22.1541   477
22.1641   484
22.1741   458
22.1841   497
22.1941   505
22.2041   469
22.2141   471
22.2241   460
22.2341   451
22.2441   478
22.2541   459
22.2641   458
22.2741   470
22.2841   456
22.2941   441
22.3041   485
22.3141   496
22.3241   471
22.3341   470
22.3441   463
22.3541   470
22.3641   459
22.3741   517
22.3841   449
22.3941   441
22.4041   460
22.4141   458
22.4241   433
22.4341   458
22.4441   491
22.4541   447
22.4641   460
22.4741   444
22.4841   456
22.4941   454
22.5041   451
22.5141   443
22.5241   478
22.5341   443
22.5441   454
22.5541   449
22.5641   471
22.5741   449
22.5841   461
22.5941   463
22.6041   441
22.6141   440
22.6241   444
22.6341   397
22.6441   446
22.6541   480
22.6641   468
22.6741   431
22.6841   428
22.6941   432
22.7041   477
22.7141   437
22.7241   422
22.7341   413
22.7441   430
22.7541   457
22.7641   457
22.7741   426
22.7841   469
22.7941   442
22.8041   443
22.8141   460
22.8241   426
22.8341   446
22.8441   475
22.8541   451
22.8641   464
22.8741   439
22.8841   468
22.8941   440
22.9041   444
22.9141   439
22.9241   463
22.9341   431
22.9441   427
22.9541   467
22.9641   487
22.9741   461
22.9841   449
22.9941   423
23.0041   451
23.0141   441
23.0241   424
23.0341   494
23.0441   434
23.0541   444
23.0641   438
23.0741   408
23.0841   461
23.0941   443
23.1041   457
23.1141   436
23.1241   433
23.1341   458
23.1441   464
23.1541   470
23.1641   463
23.1741   430
23.1841   437
23.1941   411
23.2041   464
23.2141   451
23.2241   455
23.2341   434
23.2441   445
23.2541   470
23.2641   439
23.2741   417
23.2841   439
23.2941   436
23.3041   440
23.3141   427
23.3241   446
23.3341   416
23.3441   400
23.3541   445
23.3641   439
23.3741   470
23.3841   420
23.3941   440
23.4041   437
23.4141   443
23.4241   434
23.4341   419
23.4441   429
23.4541   404
23.4641   411
23.4741   399
23.4841   426
23.4941   459
23.5041   460
23.5141   412
23.5241   442
23.5341   412
23.5441   416
23.5541   443
23.5641   466
23.5741   461
23.5841   418
23.5941   442
23.6041   421
23.6141   439
23.6241   446
23.6341   418
23.6441   460
23.6541   461
23.6641   442
23.6741   449
23.6841   436
23.6941   445
23.7041   423
23.7141   482
23.7241   448
23.7341   421
23.7441   433
23.7541   456
23.7641   485
23.7741   458
23.7841   423
23.7941   472
23.8041   484
23.8141   454
23.8241   480
23.8341   437
23.8441   436
23.8541   425
23.8641   449
23.8741   432
23.8841   463
23.8941   473
23.9041   451
23.9141   415
23.9241   473
23.9341   427
23.9441   460
23.9541   444
23.9641   425
23.9741   452
23.9841   398
23.9941   409
24.0041   431
24.0141   414
24.0241   406
24.0341   446
24.0441   421
24.0541   420
24.0641   387
24.0741   398
24.0841   420
24.0941   386
24.1041   411
24.1141   387
24.1241   411
24.1341   419
24.1441   426
24.1541   388
24.1641   391
24.1741   386
24.1841   424
24.1941   421
24.2041   412
24.2141   444
24.2241   383
24.2341   392
24.2441   418
24.2541   404
24.2641   419
24.2741   444
24.2841   406
24.2941   409
24.3041   411
24.3141   381
24.3241   438
24.3341   434
24.3441   410
24.3541   438
24.3641   393
24.3741   381
24.3841   402
24.3941   406
24.4041   389
24.4141   373
24.4241   412
24.4341   409
24.4441   366
24.4541   407
24.4641   377
24.4741   378
24.4841   392
24.4941   367
24.5041   405
24.5141   378
24.5241   412
24.5341   370
24.5441   374
24.5541   364
24.5641   389
24.5741   403
24.5841   389
24.5941   422
24.6041   381
24.6141   395
24.6241   414
24.6341   356
24.6441   424
24.6541   389
24.6641   382
24.6741   382
24.6841   392
24.6941   385
24.7041   413
24.7141   382
24.7241   406
24.7341   377
24.7441   366
24.7541   377
24.7641   416
24.7741   399
24.7841   368
24.7941   389
24.8041   407
24.8141   406
24.8241   379
24.8341   394
24.8441   403
24.8541   381
24.8641   396
24.8741   402
24.8841   387
24.8941   400
24.9041   366
24.9141   385
24.9241   394
24.9341   402
24.9441   369
24.9541   362
24.9641   379
24.9741   387
24.9841   363
24.9941   390
25.0041   400
25.0141   368
25.0241   395
25.0341   361
25.0441   347
25.0541   373
25.0641   391
25.0741   369
25.0841   372
25.0941   402
25.1041   400
25.1141   384
25.1241   379
25.1341   364
25.1441   407
25.1541   370
25.1641   393
25.1741   400
25.1841   388
25.1941   390
25.2041   403
25.2141   383
25.2241   380
25.2341   376
25.2441   390
25.2541   414
25.2641   397
25.2741   370
25.2841   394
25.2941   347
25.3041   386
25.3141   368
25.3241   352
25.3341   380
25.3441   389
25.3541   356
25.3641   355
25.3741   380
25.3841   375
25.3941   346
25.4041   379
25.4141   370
25.4241   365
25.4341   352
25.4441   367
25.4541   376
25.4641   373
25.4741   341
25.4841   348
25.4941   382
25.5041   380
25.5141   381
25.5241   352
25.5341   359
25.5441   357
25.5541   364
25.5641   346
25.5741   380
25.5841   357
25.5941   368
25.6041   351
25.6141   352
25.6241   362
25.6341   351
25.6441   366
25.6541   359
25.6641   324
25.6741   386
25.6841   355
25.6941   353
25.7041   355
25.7141   339
25.7241   351
25.7341   372
25.7441   336
25.7541   309
25.7641   353
25.7741   365
25.7841   332
25.7941   368
25.8041   375
25.8141   349
25.8241   341
25.8341   347
25.8441   356
25.8541   326
25.8641   348
25.8741   342
25.8841   330
25.8941   344
25.9041   347
25.9141   333
25.9241   327
25.9341   333
25.9441   366
25.9541   349
25.9641   326
25.9741   343
25.9841   341
25.9941   337
26.0041   311
26.0141   353
26.0241   357
26.0341   346
26.0441   318
26.0541   316
26.0641   345
26.0741   331
26.0841   309
26.0941   317
26.1041   335
26.1141   346
26.1241   346
26.1341   339
26.1441   335
26.1541   328
26.1641   323
26.1741   325
26.1841   321
26.1941   323
26.2041   346
26.2141   325
26.2241   328
26.2341   327
26.2441   352
26.2541   336
26.2641   329
26.2741   348
26.2841   336
26.2941   351
26.3041   340
26.3141   303
26.3241   316
26.3341   338
26.3441   313
26.3541   292
26.3641   290
26.3741   346
26.3841   292
26.3941   334
26.4041   337
26.4141   340
26.4241   341
26.4341   307
26.4441   321
26.4541   312
26.4641   335
26.4741   365
26.4841   308
26.4941   332
26.5041   324
26.5141   305
26.5241   333
26.5341   333
26.5441   298
26.5541   314
26.5641   317
26.5741   320
26.5841   310
26.5941   334
26.6041   315
26.6141   291
26.6241   306
26.6341   319
26.6441   339
26.6541   336
26.6641   285
26.6741   296
26.6841   311
26.6941   311
26.7041   299
26.7141   305
26.7241   268
26.7341   317
26.7441   333
26.7541   282
26.7641   289
26.7741   278
26.7841   280
26.7941   308
26.8041   309
26.8141   335
26.8241   288
26.8341   329
26.8441   334
26.8541   335
26.8641   333
26.8741   315
26.8841   300
26.8941   315
26.9041   323
26.9141   303
26.9241   293
26.9341   307
26.9441   304
26.9541   295
26.9641   279
26.9741   300
26.9841   297
26.9941   308
27.0041   313
27.0141   292
27.0241   299
27.0341   298
27.0441   287
27.0541   301
27.0641   300
27.0741   289
27.0841   285
27.0941   321
27.1041   332
27.1141   302
27.1241   318
27.1341   330
27.1441   302
27.1541   308
27.1641   287
27.1741   291
27.1841   291
27.1941   319
27.2041   300
27.2141   291
27.2241   308
27.2341   288
27.2441   266
27.2541   305
27.2641   283
27.2741   288
27.2841   294
27.2941   307
27.3041   282
27.3141   306
27.3241   319
27.3341   291
27.3441   307
27.3541   294
27.3641   330
27.3741   289
27.3841   314
27.3941   292
27.4041   280
27.4141   295
27.4241   281
27.4341   286
27.4441   281
27.4541   293
27.4641   291
27.4741   316
27.4841   305
27.4941   284
27.5041   271
27.5141   262
27.5241   251
27.5341   283
27.5441   275
27.5541   286
27.5641   292
27.5741   306
27.5841   297
27.5941   273
27.6041   272
27.6141   274
27.6241   270
27.6341   284
27.6441   275
27.6541   278
27.6641   285
27.6741   273
27.6841   271
27.6941   286
27.7041   250
27.7141   276
27.7241   292
27.7341   281
27.7441   267
27.7541   289
27.7641   267
27.7741   271
27.7841   279
27.7941   278
27.8041   287
27.8141   287
27.8241   257
27.8341   283
27.8441   260
27.8541   260
27.8641   277
27.8741   259
27.8841   262
27.8941   258
27.9041   273
27.9141   264
27.9241   262
27.9341   262
27.9441   270
27.9541   271
27.9641   280
27.9741   264
27.9841   270
27.9941   264
28.0041   283
28.0141   291
28.0241   252
28.0341   241
28.0441   253
28.0541   250
28.0641   231
28.0741   285
28.0841   263
28.0941   267
28.1041   272
28.1141   238
28.1241   260
28.1341   258
28.1441   256
28.1541   254
28.1641   263
28.1741   244
28.1841   239
28.1941   258
28.2041   243
28.2141   270
28.2241   276
28.2341   267
28.2441   271
28.2541   257
28.2641   279
28.2741   232
28.2841   252
28.2941   243
28.3041   251
28.3141   224
28.3241   249
28.3341   243
28.3441   253
28.3541   274
28.3641   279
28.3741   266
28.3841   255
28.3941   236
28.4041   249
28.4141   242
28.4241   247
28.4341   232
28.4441   250
28.4541   260
28.4641   259
28.4741   247
28.4841   236
28.4941   230
28.5041   259
28.5141   222
28.5241   265
28.5341   260
28.5441   237
28.5541   269
28.5641   247
28.5741   246
28.5841   276
28.5941   274
28.6041   252
28.6141   236
28.6241   275
28.6341   236
28.6441   232
28.6541   244
28.6641   232
28.6741   238
28.6841   227
28.6941   237
28.7041   240
28.7141   229
28.7241   224
28.7341   229
28.7441   205
28.7541   243
28.7641   243
28.7741   253
28.7841   208
28.7941   237
28.8041   225
28.8141   226
28.8241   260
28.8341   235
28.8441   243
28.8541   213
28.8641   222
28.8741   225
28.8841   228
28.8941   220
28.9041   238
28.9141   230
28.9241   220
28.9341   234
28.9441   237
28.9541   243
28.9641   241
28.9741   207
28.9841   223
28.9941   222
29.0041   223
29.0141   234
29.0241   217
29.0341   232
29.0441   243
29.0541   234
29.0641   201
29.0741   232
29.0841   226
29.0941   243
29.1041   219
29.1141   213
29.1241   238
29.1341   226
29.1441   227
29.1541   217
29.1641   218
29.1741   221
29.1841   243
29.1941   228
29.2041   233
29.2141   221
29.2241   224
29.2341   221
29.2441   228
29.2541   225
29.2641   225
29.2741   223
29.2841   217
29.2941   237
29.3041   213
29.3141   249
29.3241   227
29.3341   237
29.3441   194
29.3541   233
29.3641   210
29.3741   251
29.3841   214
29.3941   233
29.4041   210
29.4141   195
29.4241   229
29.4341   218
29.4441   201
29.4541   199
29.4641   222
29.4741   228
29.4841   224
29.4941   212
29.5041   208
29.5141   210
29.5241   212
29.5341   192
29.5441   215
29.5541   213
29.5641   206
29.5741   228
29.5841   212
29.5941   198
29.6041   223
29.6141   216
29.6241   230
29.6341   223
29.6441   238
29.6541   226
29.6641   218
29.6741   188
29.6841   185
29.6941   193
29.7041   201
29.7141   195
29.7241   221
29.7341   213
29.7441   214
29.7541   196
29.7641   216
29.7741   209
29.7841   190
29.7941   209
29.8041   202
29.8141   196
29.8241   212
29.8341   203
29.8441   209
29.8541   218
29.8641   199
29.8741   211
29.8841   199
29.8941   213
29.9041   205
29.9141   210
29.9241   207
29.9341   188
29.9441   186
29.9541   218
29.9641   196
29.9741   197
29.9841   181
29.9941   201
30.0041   202
30.0141   221
30.0241   218
30.0341   200
30.0441   183
30.0541   213
30.0641   224
30.0741   207
30.0841   180
30.0941   199
30.1041   212
30.1141   207
30.1241   193
30.1341   200
30.1441   198
30.1541   217
30.1641   187
30.1741   185
30.1841   172
30.1941   191
30.2041   187
30.2141   195
30.2241   204
30.2341   197
30.2441   214
30.2541   195
30.2641   178
30.2741   191
30.2841   171
30.2941   193
30.3041   177
30.3141   172
30.3241   168
30.3341   185
30.3441   188
30.3541   205
30.3641   186
30.3741   194
30.3841   201
30.3941   186
30.4041   194
30.4141   189
30.4241   191
30.4341   188
30.4441   193
30.4541   189
30.4641   181
30.4741   185
30.4841   176
30.4941   183
30.5041   182
30.5141   198
30.5241   186
30.5341   185
30.5441   195
30.5541   201
30.5641   187
30.5741   195
30.5841   157
30.5941   172
30.6041   164
30.6141   177
30.6241   174
30.6341   178
30.6441   158
30.6541   179
30.6641   165
30.6741   192
30.6841   175
30.6941   173
30.7041   164
30.7141   161
30.7241   182
30.7341   180
30.7441   190
30.7541   159
30.7641   162
30.7741   173
30.7841   175
30.7941   183
30.8041   164
30.8141   162
30.8241   180
30.8341   185
30.8441   180
30.8541   169
30.8641   160
30.8741   167
30.8841   168
30.8941   181
30.9041   191
30.9141   186
30.9241   202
30.9341   167
30.9441   159
30.9541   175
30.9641   152
30.9741   148
30.9841   165
30.9941   168
31.0041   178
31.0141   171
31.0241   193
31.0341   196
31.0441   186
31.0541   161
31.0641   181
31.0741   169
31.0841   185
31.0941   147
31.1041   163
31.1141   162
31.1241   159
31.1341   168
31.1441   157
31.1541   166
31.1641   163
31.1741   172
31.1841   156
31.1941   162
31.2041   172
31.2141   174
31.2241   147
31.2341   171
31.2441   185
31.2541   156
31.2641   166
31.2741   178
31.2841   157
31.2941   150
31.3041   154
31.3141   148
31.3241   142
31.3341   150
31.3441   173
31.3541   178
31.3641   148
31.3741   156
31.3841   125
31.3941   155
31.4041   140
31.4141   151
31.4241   141
31.4341   154
31.4441   161
31.4541   156
31.4641   159
31.4741   157
31.4841   148
31.4941   162
31.5041   140
31.5141   158
31.5241   166
31.5341   173
31.5441   163
31.5541   167
31.5641   156
31.5741   151
31.5841   164
31.5941   148
31.6041   158
31.6141   153
31.6241   174
31.6341   168
31.6441   129
31.6541   145
31.6641   134
31.6741   158
31.6841   164
31.6941   152
31.7041   149
31.7141   160
31.7241   139
31.7341   177
31.7441   134
31.7541   152
31.7641   147
31.7741   136
31.7841   153
31.7941   157
31.8041   132
31.8141   146
31.8241   160
31.8341   162
31.8441   146
31.8541   142
31.8641   149
31.8741   151
31.8841   172
31.8941   152
31.9041   137
31.9141   144
31.9241   146
31.9341   157
31.9441   151
31.9541   141
31.9641   138
31.9741   151
31.9841   155
31.9941   145
32.0041   136
32.0141   134
32.0241   149
32.0341   137
32.0441   153
32.0541   149
32.0641   141
32.0741   148
32.0841   141
32.0941   161
32.1041   139
32.1141   139
32.1241   155
32.1341   139
32.1441   145
32.1541   131
32.1641   138
32.1741   159
32.1841   149
32.1941   156
32.2041   131
32.2141   137
32.2241   140
32.2341   138
32.2441   135
32.2541   131
32.2641   126
32.2741   154
32.2841   142
32.2941   114
32.3041   123
32.3141   138
32.3241   137
32.3341   111
32.3441   145
32.3541   142
32.3641   125
32.3741   139
32.3841   152
32.3941   115
32.4041   128
32.4141   135
32.4241   150
32.4341   129
32.4441   126
32.4541   140
32.4641   149
32.4741   147
32.4841   115
32.4941   139
32.5041   106
32.5141   148
32.5241   131
32.5341   106
32.5441   139
32.5541   125
32.5641   114
32.5741   115
32.5841   115
32.5941   122
32.6041   122
32.6141   130
32.6241   122
32.6341   110
32.6441   128
32.6541   131
32.6641   143
32.6741   122
32.6841   122
32.6941   131
32.7041   106
32.7141   117
32.7241   116
32.7341   121
32.7441   136
32.7541   119
32.7641   135
32.7741   130
32.7841   122
32.7941   121
32.8041   140
32.8141   129
32.8241   135
32.8341   124
32.8441   132
32.8541   130
32.8641   136
32.8741   151
32.8841   122
32.8941   111
32.9041   122
32.9141   122
32.9241   107
32.9341   119
32.9441   100
32.9541   125
32.9641   118
32.9741   120
32.9841   134
32.9941   116
33.0041   101
33.0141    97
33.0241   120
33.0341   128
33.0441   124
33.0541   127
33.0641   126
33.0741   101
33.0841    99
33.0941   121
33.1041   122
33.1141   124
33.1241    94
33.1341   107
33.1441   109
33.1541    94
33.1641   121
33.1741    95
33.1841   120
33.1941   130
33.2041   117
33.2141   128
33.2241   125
33.2341   122
33.2441   106
33.2541   120
33.2641   119
33.2741    99
33.2841   104
33.2941   104
33.3041   118
33.3141   124
33.3241   109
33.3341   110
33.3441   103
33.3541   119
33.3641   101
33.3741   114
33.3841   123
33.3941   110
33.4041   118
33.4141   105
33.4241    88
33.4341   104
33.4441   112
33.4541   124
33.4641   103
33.4741   104
33.4841   124
33.4941    91
33.5041   103
33.5141   106
33.5241   112
33.5341   111
33.5441   110
33.5541   102
33.5641   103
33.5741    99
33.5841   115
33.5941    99
33.6041    98
33.6141   101
33.6241   106
33.6341   107
33.6441   108
33.6541   108
33.6641   112
33.6741   116
33.6841   105
33.6941   117
33.7041   120
33.7141   113
33.7241   118
33.7341    92
33.7441   119
33.7541   105
33.7641   105
33.7741    85
33.7841   102
33.7941   105
33.8041   116
33.8141   105
33.8241   104
33.8341   104
33.8441    98
33.8541   100
33.8641    94
33.8741   102
33.8841   111
33.8941    98
33.9041   100
33.9141    81
33.9241    89
33.9341    73
33.9441   115
33.9541   112
33.9641   107
33.9741    94
33.9841    84
33.9941    99
34.0041   100
34.0141    91
34.0241   104
34.0341    90
34.0441    92
34.0541    99
34.0641   106
34.0741    88
34.0841   110
34.0941    98
34.1041    92
34.1141   100
34.1241    90
34.1341    87
34.1441   100
34.1541    93
34.1641    93
34.1741    97
34.1841    99
34.1941   106
34.2041   102
34.2141    91
34.2241    86
34.2341   102
34.2441   112
34.2541    85
34.2641    97
34.2741    81
34.2841    82
34.2941    77
34.3041    80
34.3141   102
34.3241    95
34.3341   100
34.3441   107
34.3541    97
34.3641   104
34.3741    90
34.3841    84
34.3941    85
34.4041   105
34.4141   105
34.4241    93
34.4341    97
34.4441    76
34.4541    90
34.4641    97
34.4741    95
34.4841    82
34.4941    83
34.5041    98
34.5141   106
34.5241   100
34.5341    94
34.5441   101
34.5541    78
34.5641    85
34.5741    90
34.5841    95
34.5941    86
34.6041    91
34.6141    95
34.6241    74
34.6341    86
34.6441    88
34.6541    81
34.6641    84
34.6741    87
34.6841    84
34.6941    79
34.7041    95
34.7141    94
34.7241    88
34.7341   100
34.7441    85
34.7541    74
34.7641    69
34.7741    81
34.7841    69
34.7941    90
34.8041    77
34.8141    82
34.8241    84
34.8341    73
34.8441    81
34.8541    85
34.8641    87
34.8741    80
34.8841    71
34.8941    95
34.9041    94
34.9141    73
34.9241    87
34.9341    97
34.9441    82
34.9541    68
34.9641    80
34.9741    79
34.9841    86
34.9941    73
35.0041    90
35.0141    84
35.0241    73
35.0341    93
35.0441    88
35.0541    88
35.0641    94
35.0741    82
35.0841    81
35.0941    80
35.1041    93
35.1141    86
35.1241    77
35.1341    75
35.1441    81
35.1541    71
35.1641    64
35.1741    63
35.1841    86
35.1941    77
35.2041    72
35.2141    58
35.2241    80
35.2341    74
35.2441    86
35.2541    78
35.2641    76
35.2741    86
35.2841    76
35.2941    74
35.3041    81
35.3141    75
35.3241    74
35.3341    76
35.3441    85
35.3541    65
35.3641    70
35.3741    73
35.3841    58
35.3941    83
35.4041    65
35.4141    86
35.4241    82
35.4341    73
35.4441    54
35.4541    78
35.4641    79
35.4741    73
35.4841    71
35.4941    68
35.5041    60
35.5141    67
35.5241    64
35.5341    64
35.5441    65
35.5541    79
35.5641    67
35.5741    69
35.5841    56
35.5941    78
35.6041    78
35.6141    65
35.6241    68
35.6341    58
35.6441    77
35.6541    71
35.6641    68
35.6741    53
35.6841    71
35.6941    67
35.7041    78
35.7141    76
35.7241    80
35.7341    65
35.7441    85
35.7541    74
35.7641    59
35.7741    83
35.7841    72
35.7941    80
35.8041    67
35.8141    75
35.8241    71
35.8341    64
35.8441    67
35.8541    58
35.8641    77
35.8741    59
35.8841    63
35.8941    69
35.9041    70
35.9141    73
35.9241    75
35.9341    69
35.9441    64
35.9541    56
35.9641    63
35.9741    72
35.9841    64
35.9941    51
36.0041    55
36.0141    82
36.0241    75
36.0341    58
36.0441    71
36.0541    79
36.0641    66
36.0741    81
36.0841    59
36.0941    56
36.1041    65
36.1141    62
36.1241    62
36.1341    56
36.1441    71
36.1541    65
36.1641    56
36.1741    66
36.1841    61
36.1941    55
36.2041    51
36.2141    72
36.2241    64
36.2341    57
36.2441    62
36.2541    60
36.2641    57
36.2741    55
36.2841    56
36.2941    64
36.3041    69
36.3141    65
36.3241    46
36.3341    50
36.3441    60
36.3541    47
36.3641    60
36.3741    57
36.3841    61
36.3941    53
36.4041    55
36.4141    58
36.4241    65
36.4341    67
36.4441    54
36.4541    66
36.4641    74
36.4741    50
36.4841    47
36.4941    55
36.5041    55
36.5141    62
36.5241    68
36.5341    63
36.5441    54
36.5541    54
36.5641    62
36.5741    65
36.5841    70
36.5941    54
36.6041    62
36.6141    59
36.6241    58
36.6341    67
36.6441    52
36.6541    56
36.6641    54
36.6741    47
36.6841    59
36.6941    47
36.7041    68
36.7141    46
36.7241    56
36.7341    55
36.7441    61
36.7541    52
36.7641    66
36.7741    49
36.7841    57
36.7941    48
36.8041    60
36.8141    57
36.8241    59
36.8341    46
36.8441    50
36.8541    64
36.8641    43
36.8741    55
36.8841    51
36.8941    43
36.9041    53
36.9141    49
36.9241    44
36.9341    57
36.9441    49
36.9541    54
36.9641    44
36.9741    46
36.9841    55
36.9941    58
37.0041    58
37.0141    35
37.0241    56
37.0341    57
37.0441    41
37.0541    57
37.0641    45
37.0741    52
37.0841    46
37.0941    48
37.1041    50
37.1141    39
37.1241    57
37.1341    48
37.1441    43
37.1541    55
37.1641    52
37.1741    52
37.1841    53
37.1941    55
37.2041    42
37.2141    63
37.2241    52
37.2341    49
37.2441    52
37.2541    56
37.2641    34
37.2741    56
37.2841    56
37.2941    65
37.3041    45
37.3141    54
37.3241    50
37.3341    55
37.3441    41
37.3541    47
37.3641    49
37.3741    54
37.3841    42
37.3941    52
37.4041    33
37.4141    41
37.4241    47
37.4341    46
37.4441    39
37.4541    41
37.4641    31
37.4741    54
37.4841    40
37.4941    39
37.5041    52
37.5141    51
37.5241    45
37.5341    42
37.5441    45
37.5541    43
37.5641    42
37.5741    43
37.5841    41
37.5941    42
37.6041    38
37.6141    46
37.6241    36
37.6341    47
37.6441    38
37.6541    34
37.6641    47
37.6741    48
37.6841    41
37.6941    48
37.7041    41
37.7141    38
37.7241    34
37.7341    46
37.7441    42
37.7541    38
37.7641    30
37.7741    39
37.7841    24
37.7941    51
37.8041    41
37.8141    24
37.8241    38
37.8341    39
37.8441    39
37.8541    47
37.8641    43
37.8741    42
37.8841    40
37.8941    37
37.9041    41
37.9141    39
37.9241    44
37.9341    36
37.9441    37
37.9541    28
37.9641    34
37.9741    30
37.9841    41
37.9941    44
38.0041    40
38.0141    42
38.0241    43
38.0341    34
38.0441    39
38.0541    37
38.0641    45
38.0741    41
38.0841    32
38.0941    30
38.1041    39
38.1141    34
38.1241    28
38.1341    29
38.1441    46
38.1541    36
38.1641    39
38.1741    47
38.1841    48
38.1941    33
38.2041    29
38.2141    28
38.2241    38
38.2341    35
38.2441    36
38.2541    33
38.2641    42
38.2741    27
38.2841    33
38.2941    38
38.3041    36
38.3141    30
38.3241    41
38.3341    36
38.3441    36
38.3541    29
38.3641    33
38.3741    44
38.3841    26
38.3941    28
38.4041    32
38.4141    28
38.4241    33
38.4341    41
38.4441    31
38.4541    30
38.4641    33
38.4741    24
38.4841    34
38.4941    23
38.5041    34
38.5141    30
38.5241    35
38.5341    27
38.5441    31
38.5541    30
38.5641    24
38.5741    34
38.5841    30
38.5941    28
38.6041    26
38.6141    19
38.6241    35
38.6341    35
38.6441    31
38.6541    30
38.6641    28
38.6741    36
38.6841    30
38.6941    28
38.7041    36
38.7141    25
38.7241    36
38.7341    25
38.7441    28
38.7541    31
38.7641    31
38.7741    20
38.7841    24
38.7941    33
38.8041    30
38.8141    33
38.8241    43
38.8341    32
38.8441    31
38.8541    29
38.8641    30
38.8741    30
38.8841    34
38.8941    28
38.9041    35
38.9141    26
38.9241    38
38.9341    27
38.9441    40
38.9541    44
38.9641    23
38.9741    29
38.9841    34
38.9941    30
39.0041    33
39.0141    21
39.0241    26
39.0341    20
39.0441    24
39.0541    28
39.0641    39
39.0741    35
39.0841    28
39.0941    27
39.1041    27
39.1141    23
39.1241    27
39.1341    11
39.1441    23
39.1541    32
39.1641    40
39.1741    24
39.1841    24
39.1941    25
39.2041    30
39.2141    30
39.2241    23
39.2341    27
39.2441    28
39.2541    36
39.2641    28
39.2741    28
39.2841    16
39.2941    23
39.3041    26
39.3141    25
39.3241    19
39.3341    26
39.3441    20
39.3541    28
39.3641    26
39.3741    20
39.3841    29
39.3941    21
39.4041    17
39.4141    22
39.4241    31
39.4341    26
39.4441    34
39.4541    26
39.4641    21
39.4741    19
39.4841    24
39.4941    24
39.5041    23
39.5141    18
39.5241    25
39.5341    16
39.5441    29
39.5541    27
39.5641    28
39.5741    35
39.5841    20
39.5941    19
39.6041    18
39.6141    17
39.6241    22
39.6341    12
39.6441    25
39.6541    23
39.6641    18
39.6741    17
39.6841    20
39.6941    25
39.7041    31
39.7141    20
39.7241    21
39.7341    25
39.7441    19
39.7541    19
39.7641    17
39.7741    27
39.7841    17
39.7941    15
39.8041    33
39.8141    18
39.8241    20
39.8341    19
39.8441    22
39.8541    23
39.8641    30
39.8741    22
39.8841    21
39.8941    16
39.9041    20
39.9141    22
39.9241    22
39.9341    16
39.9441    16
39.9541    20
39.9641    19
39.9741    17
39.9841    20
