Bruker Nano GmbH Berlin, Germany
Esprit 1.9

Date: 5/14/2021 1:40:57 PM
Real time: 21453
Life time: 20285
Pulse density: 79372


Detector type: XFlash 430
Window type: Custom type
Detector thickness: 0.45
Si dead layer:0.029

Calibration, lin.: 10
Calibration, abs.: -955.9
Mn FWHM: 137.05
Fano factor: 0.121
Channels: 4096

Energy Counts
-0.9559     0
-0.9459     0
-0.9359     0
-0.9259     0
-0.9159     0
-0.9059     0
-0.8959     0
-0.8859     0
-0.8759     0
-0.8659     0
-0.8559     0
-0.8459     0
-0.8359     0
-0.8259     0
-0.8159     0
-0.8059     0
-0.7959     0
-0.7859     0
-0.7759     0
-0.7659     0
-0.7559     0
-0.7459     0
-0.7359     0
-0.7259     0
-0.7159     0
-0.7059     0
-0.6959     0
-0.6859     0
-0.6759     0
-0.6659     0
-0.6559     0
-0.6459     0
-0.6359     0
-0.6259     0
-0.6159     0
-0.6059     0
-0.5959     0
-0.5859     0
-0.5759     0
-0.5659     0
-0.5559     0
-0.5459     0
-0.5359     0
-0.5259     0
-0.5159     0
-0.5059     0
-0.4959     0
-0.4859     0
-0.4759     0
-0.4659     0
-0.4559     0
-0.4459     0
-0.4359     0
-0.4259     0
-0.4159     0
-0.4059     0
-0.3959     0
-0.3859     0
-0.3759     0
-0.3659     0
-0.3559     0
-0.3459     0
-0.3359     0
-0.3259     0
-0.3159     0
-0.3059     0
-0.2959     0
-0.2859     0
-0.2759     0
-0.2659     0
-0.2559     0
-0.2459     0
-0.2359     0
-0.2259     0
-0.2159     0
-0.2059     0
-0.1959     0
-0.1859     0
-0.1759     0
-0.1659     0
-0.1559     0
-0.1459     0
-0.1359     0
-0.1259     2
-0.1159     4
-0.1059    10
-0.0959    50
-0.0859   232
-0.0759   762
-0.0659  2298
-0.0559  5926
-0.0459 13163
-0.0359 24338
-0.0259 38571
-0.0159 53143
-0.0059 62448
 0.0041 62149
 0.0141 53631
 0.0241 39645
 0.0341 25214
 0.0441 13392
 0.0541  6355
 0.0641  2501
 0.0741   862
 0.0841   265
 0.0941    71
 0.1041    24
 0.1141    13
 0.1241     7
 0.1341     8
 0.1441     5
 0.1541     6
 0.1641     4
 0.1741     2
 0.1841   167
 0.1941   306
 0.2041   278
 0.2141   271
 0.2241   269
 0.2341   305
 0.2441   287
 0.2541   290
 0.2641   291
 0.2741   294
 0.2841   278
 0.2941   287
 0.3041   305
 0.3141   298
 0.3241   294
 0.3341   283
 0.3441   293
 0.3541   287
 0.3641   265
 0.3741   275
 0.3841   263
 0.3941   272
 0.4041   288
 0.4141   269
 0.4241   282
 0.4341   278
 0.4441   285
 0.4541   269
 0.4641   245
 0.4741   279
 0.4841   300
 0.4941   263
 0.5041   246
 0.5141   253
 0.5241   257
 0.5341   259
 0.5441   267
 0.5541   255
 0.5641   253
 0.5741   240
 0.5841   241
 0.5941   253
 0.6041   244
 0.6141   245
 0.6241   229
 0.6341   219
 0.6441   212
 0.6541   214
 0.6641   226
 0.6741   246
 0.6841   238
 0.6941   214
 0.7041   222
 0.7141   216
 0.7241   215
 0.7341   222
 0.7441   223
 0.7541   211
 0.7641   212
 0.7741   225
 0.7841   219
 0.7941   205
 0.8041   201
 0.8141   211
 0.8241   208
 0.8341   203
 0.8441   196
 0.8541   209
 0.8641   217
 0.8741   201
 0.8841   205
 0.8941   207
 0.9041   205
 0.9141   211
 0.9241   200
 0.9341   192
 0.9441   201
 0.9541   213
 0.9641   204
 0.9741   201
 0.9841   202
 0.9941   183
 1.0041   202
 1.0141   209
 1.0241   208
 1.0341   193
 1.0441   189
 1.0541   178
 1.0641   196
 1.0741   172
 1.0841   191
 1.0941   184
 1.1041   204
 1.1141   215
 1.1241   188
 1.1341   189
 1.1441   187
 1.1541   174
 1.1641   162
 1.1741   182
 1.1841   181
 1.1941   167
 1.2041   174
 1.2141   198
 1.2241   166
 1.2341   186
 1.2441   170
 1.2541   189
 1.2641   169
 1.2741   161
 1.2841   175
 1.2941   195
 1.3041   197
 1.3141   186
 1.3241   180
 1.3341   195
 1.3441   173
 1.3541   165
 1.3641   170
 1.3741   169
 1.3841   199
 1.3941   174
 1.4041   196
 1.4141   169
 1.4241   181
 1.4341   167
 1.4441   178
 1.4541   160
 1.4641   159
 1.4741   178
 1.4841   183
 1.4941   182
 1.5041   173
 1.5141   167
 1.5241   177
 1.5341   178
 1.5441   182
 1.5541   144
 1.5641   155
 1.5741   166
 1.5841   167
 1.5941   172
 1.6041   168
 1.6141   160
 1.6241   157
 1.6341   178
 1.6441   209
 1.6541   244
 1.6641   274
 1.6741   339
 1.6841   397
 1.6941   467
 1.7041   584
 1.7141   674
 1.7241   786
 1.7341   755
 1.7441   747
 1.7541   743
 1.7641   681
 1.7741   597
 1.7841   487
 1.7941   417
 1.8041   307
 1.8141   276
 1.8241   231
 1.8341   253
 1.8441   224
 1.8541   194
 1.8641   167
 1.8741   172
 1.8841   191
 1.8941   188
 1.9041   155
 1.9141   185
 1.9241   209
 1.9341   192
 1.9441   173
 1.9541   195
 1.9641   192
 1.9741   197
 1.9841   209
 1.9941   216
 2.0041   196
 2.0141   202
 2.0241   187
 2.0341   212
 2.0441   223
 2.0541   193
 2.0641   181
 2.0741   164
 2.0841   170
 2.0941   190
 2.1041   156
 2.1141   154
 2.1241   148
 2.1341   163
 2.1441   164
 2.1541   144
 2.1641   159
 2.1741   143
 2.1841   145
 2.1941   167
 2.2041   163
 2.2141   144
 2.2241   155
 2.2341   171
 2.2441   152
 2.2541   142
 2.2641   151
 2.2741   137
 2.2841   153
 2.2941   168
 2.3041   140
 2.3141   154
 2.3241   148
 2.3341   146
 2.3441   136
 2.3541   133
 2.3641   166
 2.3741   135
 2.3841   137
 2.3941   161
 2.4041   144
 2.4141   139
 2.4241   136
 2.4341   140
 2.4441   145
 2.4541   137
 2.4641   145
 2.4741   143
 2.4841   155
 2.4941   127
 2.5041   142
 2.5141   148
 2.5241   137
 2.5341   146
 2.5441   125
 2.5541   124
 2.5641   145
 2.5741   131
 2.5841   125
 2.5941   124
 2.6041   111
 2.6141   129
 2.6241   117
 2.6341   148
 2.6441   134
 2.6541   121
 2.6641   122
 2.6741   130
 2.6841   126
 2.6941   147
 2.7041   128
 2.7141   119
 2.7241   123
 2.7341   126
 2.7441   121
 2.7541   109
 2.7641   122
 2.7741   119
 2.7841   137
 2.7941   116
 2.8041   107
 2.8141   120
 2.8241   134
 2.8341   151
 2.8441   145
 2.8541   147
 2.8641   152
 2.8741   139
 2.8841   132
 2.8941   151
 2.9041   133
 2.9141   110
 2.9241   128
 2.9341   113
 2.9441   137
 2.9541   115
 2.9641   135
 2.9741   132
 2.9841   110
 2.9941   128
 3.0041   134
 3.0141   135
 3.0241   103
 3.0341   112
 3.0441   121
 3.0541    99
 3.0641   110
 3.0741   121
 3.0841   118
 3.0941   112
 3.1041   112
 3.1141   103
 3.1241   104
 3.1341   128
 3.1441   112
 3.1541   120
 3.1641   117
 3.1741   113
 3.1841   115
 3.1941   130
 3.2041   131
 3.2141   147
 3.2241   183
 3.2341   156
 3.2441   227
 3.2541   281
 3.2641   324
 3.2741   352
 3.2841   406
 3.2941   404
 3.3041   457
 3.3141   433
 3.3241   424
 3.3341   426
 3.3441   438
 3.3541   355
 3.3641   296
 3.3741   256
 3.3841   236
 3.3941   190
 3.4041   147
 3.4141   134
 3.4241   134
 3.4341   101
 3.4441   108
 3.4541    93
 3.4641   100
 3.4741   102
 3.4841   113
 3.4941   127
 3.5041   123
 3.5141   147
 3.5241   164
 3.5341   164
 3.5441   199
 3.5541   202
 3.5641   230
 3.5741   266
 3.5841   360
 3.5941   374
 3.6041   492
 3.6141   635
 3.6241   757
 3.6341   900
 3.6441  1087
 3.6541  1300
 3.6641  1407
 3.6741  1479
 3.6841  1526
 3.6941  1566
 3.7041  1499
 3.7141  1426
 3.7241  1267
 3.7341  1026
 3.7441   881
 3.7541   695
 3.7641   510
 3.7741   412
 3.7841   327
 3.7941   232
 3.8041   177
 3.8141   144
 3.8241   134
 3.8341    91
 3.8441   108
 3.8541   108
 3.8641   107
 3.8741   117
 3.8841   106
 3.8941   102
 3.9041   115
 3.9141   139
 3.9241   161
 3.9341   155
 3.9441   187
 3.9541   231
 3.9641   242
 3.9741   255
 3.9841   299
 3.9941   313
 4.0041   313
 4.0141   326
 4.0241   306
 4.0341   312
 4.0441   288
 4.0541   248
 4.0641   231
 4.0741   194
 4.0841   158
 4.0941   146
 4.1041   120
 4.1141   106
 4.1241   125
 4.1341   105
 4.1441   106
 4.1541    96
 4.1641    99
 4.1741    68
 4.1841    78
 4.1941    74
 4.2041    86
 4.2141    70
 4.2241    73
 4.2341    83
 4.2441    85
 4.2541    82
 4.2641    86
 4.2741    92
 4.2841    86
 4.2941    73
 4.3041    80
 4.3141    87
 4.3241    71
 4.3341    86
 4.3441    86
 4.3541    91
 4.3641   100
 4.3741    96
 4.3841   106
 4.3941   127
 4.4041   164
 4.4141   178
 4.4241   214
 4.4341   264
 4.4441   269
 4.4541   310
 4.4641   349
 4.4741   373
 4.4841   396
 4.4941   415
 4.5041   421
 4.5141   435
 4.5241   410
 4.5341   374
 4.5441   308
 4.5541   319
 4.5641   256
 4.5741   227
 4.5841   201
 4.5941   170
 4.6041   152
 4.6141   119
 4.6241   114
 4.6341   119
 4.6441   113
 4.6541   104
 4.6641   102
 4.6741   111
 4.6841    85
 4.6941    96
 4.7041    83
 4.7141    92
 4.7241    98
 4.7341    92
 4.7441    84
 4.7541    93
 4.7641   107
 4.7741   120
 4.7841   129
 4.7941   134
 4.8041   127
 4.8141   146
 4.8241   161
 4.8341   170
 4.8441   161
 4.8541   149
 4.8641   159
 4.8741   171
 4.8841   166
 4.8941   179
 4.9041   145
 4.9141   161
 4.9241   169
 4.9341   169
 4.9441   180
 4.9541   129
 4.9641   156
 4.9741   155
 4.9841   128
 4.9941   123
 5.0041   131
 5.0141   128
 5.0241   103
 5.0341   108
 5.0441    98
 5.0541    98
 5.0641    98
 5.0741    96
 5.0841   108
 5.0941   111
 5.1041   101
 5.1141    97
 5.1241   115
 5.1341   113
 5.1441    88
 5.1541   126
 5.1641   106
 5.1741    87
 5.1841    94
 5.1941   110
 5.2041    99
 5.2141   100
 5.2241   100
 5.2341   100
 5.2441    97
 5.2541   107
 5.2641    97
 5.2741    92
 5.2841   100
 5.2941    96
 5.3041   119
 5.3141   111
 5.3241   102
 5.3341   114
 5.3441   109
 5.3541   109
 5.3641    92
 5.3741   103
 5.3841   129
 5.3941   108
 5.4041   102
 5.4141   105
 5.4241   117
 5.4341    90
 5.4441   106
 5.4541   101
 5.4641   110
 5.4741   127
 5.4841   106
 5.4941    87
 5.5041   118
 5.5141   121
 5.5241   116
 5.5341   106
 5.5441    99
 5.5541   114
 5.5641    88
 5.5741   109
 5.5841   118
 5.5941   105
 5.6041   106
 5.6141   111
 5.6241   103
 5.6341   100
 5.6441   110
 5.6541    94
 5.6641   117
 5.6741   105
 5.6841   105
 5.6941   103
 5.7041   115
 5.7141   112
 5.7241   128
 5.7341   122
 5.7441   114
 5.7541   132
 5.7641   124
 5.7741   151
 5.7841   123
 5.7941   135
 5.8041   173
 5.8141   189
 5.8241   210
 5.8341   220
 5.8441   217
 5.8541   236
 5.8641   273
 5.8741   286
 5.8841   277
 5.8941   273
 5.9041   273
 5.9141   246
 5.9241   269
 5.9341   267
 5.9441   236
 5.9541   216
 5.9641   185
 5.9741   174
 5.9841   141
 5.9941   157
 6.0041   142
 6.0141   141
 6.0241   119
 6.0341   123
 6.0441   126
 6.0541   117
 6.0641   116
 6.0741   140
 6.0841   136
 6.0941   139
 6.1041   114
 6.1141   129
 6.1241   139
 6.1341   127
 6.1441   143
 6.1541   154
 6.1641   155
 6.1741   171
 6.1841   168
 6.1941   222
 6.2041   276
 6.2141   277
 6.2241   359
 6.2341   494
 6.2441   674
 6.2541   852
 6.2641  1174
 6.2741  1612
 6.2841  2179
 6.2941  2834
 6.3041  3658
 6.3141  4645
 6.3241  5607
 6.3341  6818
 6.3441  7976
 6.3541  9059
 6.3641  9921
 6.3741 10823
 6.3841 11375
 6.3941 11453
 6.4041 11793
 6.4141 11336
 6.4241 10703
 6.4341  9934
 6.4441  8744
 6.4541  7643
 6.4641  6572
 6.4741  5411
 6.4841  4256
 6.4941  3261
 6.5041  2576
 6.5141  1965
 6.5241  1422
 6.5341  1017
 6.5441   787
 6.5541   536
 6.5641   427
 6.5741   300
 6.5841   260
 6.5941   217
 6.6041   171
 6.6141   160
 6.6241   140
 6.6341   140
 6.6441   154
 6.6541   164
 6.6641   146
 6.6741   145
 6.6841   148
 6.6941   145
 6.7041   137
 6.7141   160
 6.7241   170
 6.7341   156
 6.7441   145
 6.7541   140
 6.7641   135
 6.7741   169
 6.7841   173
 6.7941   156
 6.8041   157
 6.8141   164
 6.8241   169
 6.8341   176
 6.8441   187
 6.8541   196
 6.8641   207
 6.8741   236
 6.8841   246
 6.8941   309
 6.9041   323
 6.9141   364
 6.9241   390
 6.9341   549
 6.9441   612
 6.9541   705
 6.9641   845
 6.9741  1039
 6.9841  1232
 6.9941  1392
 7.0041  1539
 7.0141  1745
 7.0241  1880
 7.0341  1911
 7.0441  2033
 7.0541  2008
 7.0641  1940
 7.0741  1971
 7.0841  1792
 7.0941  1730
 7.1041  1511
 7.1141  1341
 7.1241  1192
 7.1341  1042
 7.1441   827
 7.1541   718
 7.1641   580
 7.1741   509
 7.1841   403
 7.1941   378
 7.2041   294
 7.2141   259
 7.2241   236
 7.2341   211
 7.2441   226
 7.2541   199
 7.2641   214
 7.2741   209
 7.2841   230
 7.2941   234
 7.3041   221
 7.3141   210
 7.3241   233
 7.3341   267
 7.3441   246
 7.3541   264
 7.3641   260
 7.3741   283
 7.3841   288
 7.3941   278
 7.4041   248
 7.4141   280
 7.4241   269
 7.4341   268
 7.4441   283
 7.4541   249
 7.4641   241
 7.4741   232
 7.4841   217
 7.4941   246
 7.5041   224
 7.5141   239
 7.5241   207
 7.5341   203
 7.5441   207
 7.5541   199
 7.5641   203
 7.5741   221
 7.5841   233
 7.5941   209
 7.6041   192
 7.6141   214
 7.6241   198
 7.6341   231
 7.6441   211
 7.6541   195
 7.6641   244
 7.6741   228
 7.6841   238
 7.6941   230
 7.7041   238
 7.7141   253
 7.7241   222
 7.7341   248
 7.7441   253
 7.7541   259
 7.7641   259
 7.7741   261
 7.7841   275
 7.7941   277
 7.8041   278
 7.8141   278
 7.8241   292
 7.8341   285
 7.8441   309
 7.8541   319
 7.8641   309
 7.8741   319
 7.8841   373
 7.8941   330
 7.9041   345
 7.9141   390
 7.9241   416
 7.9341   422
 7.9441   452
 7.9541   425
 7.9641   474
 7.9741   515
 7.9841   543
 7.9941   634
 8.0041   630
 8.0141   697
 8.0241   762
 8.0341   808
 8.0441   825
 8.0541   909
 8.0641   942
 8.0741  1030
 8.0841  1106
 8.0941  1135
 8.1041  1209
 8.1141  1270
 8.1241  1273
 8.1341  1379
 8.1441  1373
 8.1541  1419
 8.1641  1493
 8.1741  1422
 8.1841  1460
 8.1941  1489
 8.2041  1426
 8.2141  1536
 8.2241  1471
 8.2341  1518
 8.2441  1536
 8.2541  1568
 8.2641  1732
 8.2741  1844
 8.2841  1957
 8.2941  2139
 8.3041  2333
 8.3141  2488
 8.3241  2652
 8.3341  2946
 8.3441  3174
 8.3541  3265
 8.3641  3420
 8.3741  3527
 8.3841  3587
 8.3941  3634
 8.4041  3528
 8.4141  3529
 8.4241  3368
 8.4341  3004
 8.4441  2847
 8.4541  2497
 8.4641  2175
 8.4741  1944
 8.4841  1664
 8.4941  1412
 8.5041  1199
 8.5141   991
 8.5241   841
 8.5341   688
 8.5441   644
 8.5541   540
 8.5641   504
 8.5741   444
 8.5841   422
 8.5941   410
 8.6041   407
 8.6141   397
 8.6241   400
 8.6341   392
 8.6441   400
 8.6541   364
 8.6641   395
 8.6741   402
 8.6841   357
 8.6941   372
 8.7041   357
 8.7141   369
 8.7241   386
 8.7341   344
 8.7441   349
 8.7541   370
 8.7641   380
 8.7741   338
 8.7841   305
 8.7941   317
 8.8041   338
 8.8141   330
 8.8241   318
 8.8341   341
 8.8441   333
 8.8541   328
 8.8641   334
 8.8741   325
 8.8841   351
 8.8941   337
 8.9041   350
 8.9141   333
 8.9241   357
 8.9341   358
 8.9441   346
 8.9541   328
 8.9641   375
 8.9741   364
 8.9841   377
 8.9941   390
 9.0041   383
 9.0141   411
 9.0241   416
 9.0341   380
 9.0441   418
 9.0541   451
 9.0641   441
 9.0741   452
 9.0841   453
 9.0941   477
 9.1041   490
 9.1141   496
 9.1241   568
 9.1341   544
 9.1441   564
 9.1541   655
 9.1641   642
 9.1741   641
 9.1841   697
 9.1941   733
 9.2041   784
 9.2141   818
 9.2241   853
 9.2341   898
 9.2441  1021
 9.2541  1003
 9.2641  1012
 9.2741  1039
 9.2841  1068
 9.2941  1163
 9.3041  1205
 9.3141  1239
 9.3241  1215
 9.3341  1283
 9.3441  1289
 9.3541  1268
 9.3641  1343
 9.3741  1417
 9.3841  1396
 9.3941  1454
 9.4041  1497
 9.4141  1442
 9.4241  1464
 9.4341  1515
 9.4441  1442
 9.4541  1494
 9.4641  1545
 9.4741  1601
 9.4841  1584
 9.4941  1628
 9.5041  1688
 9.5141  1716
 9.5241  1768
 9.5341  1782
 9.5441  1890
 9.5541  2075
 9.5641  2121
 9.5741  2239
 9.5841  2346
 9.5941  2499
 9.6041  2666
 9.6141  2796
 9.6241  2865
 9.6341  3022
 9.6441  3067
 9.6541  3117
 9.6641  3213
 9.6741  3158
 9.6841  3191
 9.6941  3015
 9.7041  2976
 9.7141  2783
 9.7241  2636
 9.7341  2503
 9.7441  2290
 9.7541  2154
 9.7641  1922
 9.7741  1786
 9.7841  1647
 9.7941  1578
 9.8041  1475
 9.8141  1359
 9.8241  1312
 9.8341  1245
 9.8441  1188
 9.8541  1254
 9.8641  1305
 9.8741  1266
 9.8841  1332
 9.8941  1318
 9.9041  1378
 9.9141  1379
 9.9241  1397
 9.9341  1475
 9.9441  1375
 9.9541  1473
 9.9641  1398
 9.9741  1342
 9.9841  1323
 9.9941  1247
10.0041  1154
10.0141  1129
10.0241  1018
10.0341   920
10.0441   815
10.0541   756
10.0641   668
10.0741   599
10.0841   527
10.0941   491
10.1041   447
10.1141   397
10.1241   398
10.1341   346
10.1441   313
10.1541   280
10.1641   274
10.1741   265
10.1841   284
10.1941   255
10.2041   236
10.2141   256
10.2241   246
10.2341   225
10.2441   218
10.2541   226
10.2641   219
10.2741   212
10.2841   200
10.2941   202
10.3041   199
10.3141   185
10.3241   182
10.3341   179
10.3441   169
10.3541   186
10.3641   194
10.3741   183
10.3841   171
10.3941   174
10.4041   176
10.4141   169
10.4241   179
10.4341   184
10.4441   175
10.4541   179
10.4641   202
10.4741   196
10.4841   196
10.4941   198
10.5041   207
10.5141   202
10.5241   202
10.5341   192
10.5441   195
10.5541   211
10.5641   205
10.5741   217
10.5841   218
10.5941   212
10.6041   215
10.6141   212
10.6241   205
10.6341   210
10.6441   237
10.6541   228
10.6641   200
10.6741   210
10.6841   240
10.6941   233
10.7041   229
10.7141   237
10.7241   244
10.7341   223
10.7441   215
10.7541   254
10.7641   260
10.7741   267
10.7841   271
10.7941   275
10.8041   282
10.8141   298
10.8241   294
10.8341   304
10.8441   336
10.8541   325
10.8641   342
10.8741   311
10.8841   303
10.8941   308
10.9041   323
10.9141   315
10.9241   313
10.9341   313
10.9441   283
10.9541   285
10.9641   330
10.9741   316
10.9841   297
10.9941   300
11.0041   317
11.0141   284
11.0241   289
11.0341   282
11.0441   274
11.0541   295
11.0641   302
11.0741   272
11.0841   268
11.0941   276
11.1041   287
11.1141   276
11.1241   275
11.1341   291
11.1441   305
11.1541   291
11.1641   316
11.1741   344
11.1841   354
11.1941   341
11.2041   357
11.2141   378
11.2241   395
11.2341   415
11.2441   433
11.2541   469
11.2641   456
11.2741   430
11.2841   450
11.2941   449
11.3041   433
11.3141   467
11.3241   446
11.3341   395
11.3441   370
11.3541   366
11.3641   334
11.3741   330
11.3841   316
11.3941   286
11.4041   284
11.4141   253
11.4241   243
11.4341   248
11.4441   244
11.4541   227
11.4641   228
11.4741   208
11.4841   218
11.4941   227
11.5041   223
11.5141   230
11.5241   230
11.5341   233
11.5441   229
11.5541   234
11.5641   245
11.5741   240
11.5841   237
11.5941   220
11.6041   234
11.6141   253
11.6241   236
11.6341   224
11.6441   235
11.6541   237
11.6641   227
11.6741   226
11.6841   215
11.6941   206
11.7041   200
11.7141   205
11.7241   213
11.7341   192
11.7441   183
11.7541   200
11.7641   182
11.7741   165
11.7841   180
11.7941   180
11.8041   172
11.8141   177
11.8241   161
11.8341   164
11.8441   175
11.8541   163
11.8641   162
11.8741   163
11.8841   168
11.8941   178
11.9041   173
11.9141   170
11.9241   175
11.9341   153
11.9441   150
11.9541   169
11.9641   165
11.9741   171
11.9841   173
11.9941   161
12.0041   174
12.0141   165
12.0241   158
12.0341   180
12.0441   177
12.0541   180
12.0641   174
12.0741   170
12.0841   178
12.0941   174
12.1041   158
12.1141   151
12.1241   151
12.1341   162
12.1441   172
12.1541   173
12.1641   162
12.1741   160
12.1841   155
12.1941   155
12.2041   147
12.2141   153
12.2241   154
12.2341   146
12.2441   155
12.2541   157
12.2641   170
12.2741   171
12.2841   160
12.2941   153
12.3041   154
12.3141   170
12.3241   173
12.3341   160
12.3441   162
12.3541   169
12.3641   175
12.3741   160
12.3841   151
12.3941   169
12.4041   170
12.4141   160
12.4241   155
12.4341   170
12.4441   171
12.4541   175
12.4641   167
12.4741   167
12.4841   164
12.4941   158
12.5041   157
12.5141   163
12.5241   171
12.5341   174
12.5441   186
12.5541   205
12.5641   197
12.5741   209
12.5841   193
12.5941   184
12.6041   184
12.6141   185
12.6241   191
12.6341   189
12.6441   192
12.6541   183
12.6641   186
12.6741   192
12.6841   178
12.6941   196
12.7041   206
12.7141   181
12.7241   182
12.7341   186
12.7441   189
12.7541   200
12.7641   201
12.7741   198
12.7841   185
12.7941   188
12.8041   192
12.8141   187
12.8241   195
12.8341   202
12.8441   188
12.8541   181
12.8641   190
12.8741   192
12.8841   192
12.8941   193
12.9041   202
12.9141   183
12.9241   185
12.9341   188
12.9441   185
12.9541   185
12.9641   200
12.9741   189
12.9841   183
12.9941   180
13.0041   172
13.0141   189
13.0241   181
13.0341   187
13.0441   205
13.0541   193
13.0641   198
13.0741   193
13.0841   202
13.0941   211
13.1041   203
13.1141   194
13.1241   195
13.1341   198
13.1441   196
13.1541   216
13.1641   217
13.1741   228
13.1841   241
13.1941   235
13.2041   243
13.2141   235
13.2241   251
13.2341   273
13.2441   277
13.2541   293
13.2641   303
13.2741   307
13.2841   341
13.2941   379
13.3041   393
13.3141   401
13.3241   420
13.3341   409
13.3441   415
13.3541   437
13.3641   444
13.3741   469
13.3841   470
13.3941   460
13.4041   465
13.4141   445
13.4241   436
13.4341   425
13.4441   381
13.4541   381
13.4641   387
13.4741   345
13.4841   318
13.4941   315
13.5041   298
13.5141   286
13.5241   280
13.5341   266
13.5441   262
13.5541   253
13.5641   248
13.5741   249
13.5841   234
13.5941   230
13.6041   241
13.6141   242
13.6241   243
13.6341   239
13.6441   216
13.6541   211
13.6641   240
13.6741   247
13.6841   225
13.6941   222
13.7041   232
13.7141   240
13.7241   227
13.7341   234
13.7441   255
13.7541   249
13.7641   240
13.7741   240
13.7841   245
13.7941   240
13.8041   233
13.8141   251
13.8241   237
13.8341   218
13.8441   246
13.8541   270
13.8641   254
13.8741   248
13.8841   254
13.8941   249
13.9041   266
13.9141   288
13.9241   318
13.9341   336
13.9441   365
13.9541   405
13.9641   441
13.9741   496
13.9841   551
13.9941   599
14.0041   632
14.0141   705
14.0241   793
14.0341   851
14.0441   914
14.0541   983
14.0641  1065
14.0741  1163
14.0841  1259
14.0941  1334
14.1041  1379
14.1141  1400
14.1241  1412
14.1341  1436
14.1441  1487
14.1541  1536
14.1641  1522
14.1741  1441
14.1841  1377
14.1941  1315
14.2041  1236
14.2141  1183
14.2241  1117
14.2341  1044
14.2441   943
14.2541   844
14.2641   761
14.2741   668
14.2841   621
14.2941   568
14.3041   502
14.3141   451
14.3241   398
14.3341   362
14.3441   360
14.3541   353
14.3641   307
14.3741   300
14.3841   315
14.3941   281
14.4041   270
14.4141   270
14.4241   267
14.4341   270
14.4441   266
14.4541   256
14.4641   256
14.4741   264
14.4841   242
14.4941   252
14.5041   276
14.5141   258
14.5241   246
14.5341   255
14.5441   255
14.5541   272
14.5641   277
14.5741   256
14.5841   269
14.5941   280
14.6041   266
14.6141   246
14.6241   263
14.6341   277
14.6441   265
14.6541   265
14.6641   272
14.6741   271
14.6841   270
14.6941   268
14.7041   272
14.7141   271
14.7241   263
14.7341   251
14.7441   252
14.7541   265
14.7641   286
14.7741   289
14.7841   289
14.7941   276
14.8041   273
14.8141   281
14.8241   290
14.8341   292
14.8441   297
14.8541   299
14.8641   311
14.8741   317
14.8841   320
14.8941   330
14.9041   332
14.9141   323
14.9241   308
14.9341   316
14.9441   326
14.9541   325
14.9641   322
14.9741   353
14.9841   338
14.9941   326
15.0041   330
15.0141   325
15.0241   321
15.0341   318
15.0441   319
15.0541   321
15.0641   302
15.0741   291
15.0841   312
15.0941   335
15.1041   308
15.1141   296
15.1241   282
15.1341   267
15.1441   297
15.1541   296
15.1641   276
15.1741   285
15.1841   285
15.1941   293
15.2041   283
15.2141   293
15.2241   307
15.2341   326
15.2441   320
15.2541   297
15.2641   291
15.2741   289
15.2841   292
15.2941   279
15.3041   279
15.3141   289
15.3241   295
15.3341   308
15.3441   291
15.3541   266
15.3641   291
15.3741   325
15.3841   315
15.3941   292
15.4041   299
15.4141   293
15.4241   293
15.4341   299
15.4441   298
15.4541   306
15.4641   315
15.4741   310
15.4841   303
15.4941   313
15.5041   299
15.5141   304
15.5241   332
15.5341   328
15.5441   320
15.5541   338
15.5641   349
15.5741   352
15.5841   362
15.5941   361
15.6041   371
15.6141   373
15.6241   383
15.6341   400
15.6441   383
15.6541   400
15.6641   441
15.6741   442
15.6841   457
15.6941   488
15.7041   511
15.7141   536
15.7241   523
15.7341   532
15.7441   570
15.7541   588
15.7641   620
15.7741   600
15.7841   619
15.7941   602
15.8041   615
15.8141   605
15.8241   620
15.8341   627
15.8441   598
15.8541   588
15.8641   570
15.8741   538
15.8841   542
15.8941   536
15.9041   515
15.9141   510
15.9241   504
15.9341   474
15.9441   426
15.9541   410
15.9641   404
15.9741   398
15.9841   423
15.9941   421
16.0041   397
16.0141   394
16.0241   365
16.0341   345
16.0441   354
16.0541   363
16.0641   361
16.0741   356
16.0841   375
16.0941   361
16.1041   360
16.1141   361
16.1241   362
16.1341   381
16.1441   393
16.1541   380
16.1641   347
16.1741   337
16.1841   357
16.1941   355
16.2041   347
16.2141   346
16.2241   365
16.2341   345
16.2441   339
16.2541   328
16.2641   354
16.2741   360
16.2841   352
16.2941   331
16.3041   360
16.3141   362
16.3241   366
16.3341   353
16.3441   360
16.3541   342
16.3641   322
16.3741   348
16.3841   356
16.3941   361
16.4041   336
16.4141   344
16.4241   345
16.4341   357
16.4441   363
16.4541   364
16.4641   357
16.4741   352
16.4841   351
16.4941   401
16.5041   388
16.5141   370
16.5241   381
16.5341   352
16.5441   347
16.5541   356
16.5641   364
16.5741   372
16.5841   374
16.5941   377
16.6041   368
16.6141   375
16.6241   389
16.6341   359
16.6441   360
16.6541   364
16.6641   384
16.6741   399
16.6841   357
16.6941   366
16.7041   340
16.7141   360
16.7241   401
16.7341   397
16.7441   368
16.7541   380
16.7641   373
16.7741   340
16.7841   348
16.7941   375
16.8041   397
16.8141   371
16.8241   383
16.8341   382
16.8441   373
16.8541   390
16.8641   368
16.8741   363
16.8841   389
16.8941   382
16.9041   388
16.9141   369
16.9241   364
16.9341   374
16.9441   380
16.9541   375
16.9641   378
16.9741   381
16.9841   369
16.9941   358
17.0041   385
17.0141   397
17.0241   408
17.0341   402
17.0441   393
17.0541   378
17.0641   387
17.0741   391
17.0841   377
17.0941   363
17.1041   365
17.1141   377
17.1241   366
17.1341   382
17.1441   399
17.1541   363
17.1641   395
17.1741   400
17.1841   399
17.1941   372
17.2041   370
17.2141   365
17.2241   376
17.2341   402
17.2441   414
17.2541   383
17.2641   380
17.2741   369
17.2841   395
17.2941   404
17.3041   388
17.3141   395
17.3241   386
17.3341   402
17.3441   407
17.3541   406
17.3641   414
17.3741   415
17.3841   403
17.3941   404
17.4041   408
17.4141   413
17.4241   406
17.4341   385
17.4441   388
17.4541   414
17.4641   429
17.4741   425
17.4841   406
17.4941   417
17.5041   411
17.5141   420
17.5241   417
17.5341   427
17.5441   414
17.5541   409
17.5641   437
17.5741   440
17.5841   450
17.5941   445
17.6041   408
17.6141   424
17.6241   444
17.6341   416
17.6441   407
17.6541   393
17.6641   407
17.6741   432
17.6841   421
17.6941   451
17.7041   441
17.7141   432
17.7241   447
17.7341   438
17.7441   460
17.7541   472
17.7641   442
17.7741   437
17.7841   427
17.7941   439
17.8041   455
17.8141   456
17.8241   452
17.8341   419
17.8441   431
17.8541   404
17.8641   432
17.8741   446
17.8841   421
17.8941   441
17.9041   447
17.9141   457
17.9241   455
17.9341   426
17.9441   445
17.9541   450
17.9641   430
17.9741   439
17.9841   443
17.9941   430
18.0041   434
18.0141   436
18.0241   428
18.0341   400
18.0441   447
18.0541   428
18.0641   438
18.0741   444
18.0841   431
18.0941   417
18.1041   411
18.1141   413
18.1241   419
18.1341   429
18.1441   417
18.1541   404
18.1641   403
18.1741   428
18.1841   439
18.1941   431
18.2041   453
18.2141   461
18.2241   444
18.2341   423
18.2441   440
18.2541   437
18.2641   428
18.2741   431
18.2841   453
18.2941   436
18.3041   440
18.3141   478
18.3241   436
18.3341   436
18.3441   433
18.3541   459
18.3641   452
18.3741   466
18.3841   459
18.3941   443
18.4041   446
18.4141   439
18.4241   469
18.4341   439
18.4441   439
18.4541   430
18.4641   454
18.4741   454
18.4841   474
18.4941   479
18.5041   448
18.5141   423
18.5241   428
18.5341   452
18.5441   480
18.5541   466
18.5641   476
18.5741   451
18.5841   431
18.5941   442
18.6041   474
18.6141   451
18.6241   472
18.6341   479
18.6441   470
18.6541   453
18.6641   492
18.6741   488
18.6841   474
18.6941   456
18.7041   460
18.7141   482
18.7241   434
18.7341   476
18.7441   483
18.7541   469
18.7641   468
18.7741   479
18.7841   455
18.7941   480
18.8041   474
18.8141   468
18.8241   455
18.8341   448
18.8441   475
18.8541   467
18.8641   477
18.8741   462
18.8841   464
18.8941   507
18.9041   509
18.9141   460
18.9241   487
18.9341   454
18.9441   494
18.9541   525
18.9641   484
18.9741   485
18.9841   467
18.9941   502
19.0041   476
19.0141   484
19.0241   503
19.0341   480
19.0441   490
19.0541   516
19.0641   501
19.0741   503
19.0841   526
19.0941   512
19.1041   514
19.1141   484
19.1241   512
19.1341   494
19.1441   487
19.1541   489
19.1641   489
19.1741   526
19.1841   474
19.1941   483
19.2041   476
19.2141   499
19.2241   524
19.2341   517
19.2441   436
19.2541   477
19.2641   495
19.2741   500
19.2841   463
19.2941   500
19.3041   501
19.3141   480
19.3241   506
19.3341   539
19.3441   495
19.3541   494
19.3641   507
19.3741   492
19.3841   504
19.3941   472
19.4041   520
19.4141   476
19.4241   451
19.4341   516
19.4441   493
19.4541   486
19.4641   483
19.4741   454
19.4841   473
19.4941   486
19.5041   527
19.5141   516
19.5241   456
19.5341   503
19.5441   465
19.5541   499
19.5641   504
19.5741   511
19.5841   498
19.5941   515
19.6041   504
19.6141   475
19.6241   495
19.6341   543
19.6441   541
19.6541   489
19.6641   499
19.6741   461
19.6841   519
19.6941   516
19.7041   497
19.7141   505
19.7241   547
19.7341   494
19.7441   490
19.7541   502
19.7641   509
19.7741   543
19.7841   544
19.7941   494
19.8041   521
19.8141   503
19.8241   516
19.8341   489
19.8441   523
19.8541   491
19.8641   477
19.8741   499
19.8841   470
19.8941   508
19.9041   500
19.9141   487
19.9241   536
19.9341   534
19.9441   522
19.9541   531
19.9641   526
19.9741   498
19.9841   491
19.9941   494
20.0041   506
20.0141   503
20.0241   508
20.0341   494
20.0441   532
20.0541   526
20.0641   499
20.0741   546
20.0841   520
20.0941   524
20.1041   504
20.1141   524
20.1241   534
20.1341   535
20.1441   531
20.1541   518
20.1641   540
20.1741   507
20.1841   501
20.1941   496
20.2041   500
20.2141   517
20.2241   529
20.2341   516
20.2441   542
20.2541   530
20.2641   507
20.2741   504
20.2841   524
20.2941   563
20.3041   532
20.3141   528
20.3241   513
20.3341   495
20.3441   529
20.3541   533
20.3641   537
20.3741   546
20.3841   544
20.3941   504
20.4041   526
20.4141   547
20.4241   548
20.4341   539
20.4441   537
20.4541   568
20.4641   528
20.4741   492
20.4841   521
20.4941   539
20.5041   521
20.5141   533
20.5241   499
20.5341   512
20.5441   498
20.5541   511
20.5641   529
20.5741   513
20.5841   532
20.5941   533
20.6041   545
20.6141   587
20.6241   575
20.6341   523
20.6441   574
20.6541   538
20.6641   521
20.6741   510
20.6841   534
20.6941   517
20.7041   539
20.7141   536
20.7241   517
20.7341   504
20.7441   538
20.7541   545
20.7641   517
20.7741   580
20.7841   538
20.7941   510
20.8041   536
20.8141   597
20.8241   560
20.8341   579
20.8441   613
20.8541   598
20.8641   567
20.8741   589
20.8841   598
20.8941   629
20.9041   615
20.9141   630
20.9241   613
20.9341   666
20.9441   657
20.9541   667
20.9641   670
20.9741   693
20.9841   713
20.9941   712
21.0041   753
21.0141   751
21.0241   807
21.0341   741
21.0441   748
21.0541   797
21.0641   782
21.0741   810
21.0841   798
21.0941   809
21.1041   835
21.1141   840
21.1241   825
21.1341   796
21.1441   798
21.1541   849
21.1641   877
21.1741   828
21.1841   813
21.1941   825
21.2041   800
21.2141   762
21.2241   755
21.2341   721
21.2441   721
21.2541   745
21.2641   733
21.2741   685
21.2841   679
21.2941   684
21.3041   667
21.3141   646
21.3241   639
21.3341   642
21.3441   633
21.3541   583
21.3641   562
21.3741   578
21.3841   539
21.3941   548
21.4041   545
21.4141   559
21.4241   546
21.4341   596
21.4441   539
21.4541   570
21.4641   532
21.4741   547
21.4841   546
21.4941   565
21.5041   573
21.5141   561
21.5241   556
21.5341   538
21.5441   526
21.5541   546
21.5641   531
21.5741   527
21.5841   546
21.5941   553
21.6041   588
21.6141   527
21.6241   564
21.6341   526
21.6441   547
21.6541   508
21.6641   507
21.6741   541
21.6841   549
21.6941   544
21.7041   551
21.7141   532
21.7241   551
21.7341   545
21.7441   531
21.7541   560
21.7641   539
21.7741   555
21.7841   504
21.7941   565
21.8041   519
21.8141   554
21.8241   528
21.8341   537
21.8441   525
21.8541   532
21.8641   536
21.8741   559
21.8841   546
21.8941   574
21.9041   553
21.9141   546
21.9241   517
21.9341   560
21.9441   542
21.9541   552
21.9641   569
21.9741   556
21.9841   535
21.9941   548
22.0041   533
22.0141   560
22.0241   555
22.0341   563
22.0441   548
22.0541   504
22.0641   527
22.0741   512
22.0841   536
22.0941   569
22.1041   501
22.1141   526
22.1241   549
22.1341   539
22.1441   519
22.1541   565
22.1641   559
22.1741   542
22.1841   574
22.1941   535
22.2041   579
22.2141   554
22.2241   538
22.2341   546
22.2441   571
22.2541   558
22.2641   527
22.2741   575
22.2841   551
22.2941   557
22.3041   532
22.3141   525
22.3241   530
22.3341   553
22.3441   569
22.3541   508
22.3641   559
22.3741   575
22.3841   504
22.3941   547
22.4041   542
22.4141   572
22.4241   538
22.4341   547
22.4441   534
22.4541   526
22.4641   546
22.4741   555
22.4841   559
22.4941   529
22.5041   578
22.5141   562
22.5241   527
22.5341   554
22.5441   528
22.5541   569
22.5641   536
22.5741   512
22.5841   555
22.5941   520
22.6041   546
22.6141   556
22.6241   532
22.6341   522
22.6441   511
22.6541   518
22.6641   541
22.6741   539
22.6841   564
22.6941   528
22.7041   504
22.7141   515
22.7241   496
22.7341   558
22.7441   519
22.7541   549
22.7641   548
22.7741   557
22.7841   511
22.7941   542
22.8041   515
22.8141   549
22.8241   521
22.8341   559
22.8441   510
22.8541   546
22.8641   539
22.8741   542
22.8841   565
22.8941   549
22.9041   513
22.9141   509
22.9241   540
22.9341   554
22.9441   538
22.9541   519
22.9641   557
22.9741   462
22.9841   560
22.9941   576
23.0041   544
23.0141   575
23.0241   503
23.0341   542
23.0441   550
23.0541   522
23.0641   573
23.0741   518
23.0841   540
23.0941   527
23.1041   568
23.1141   533
23.1241   534
23.1341   536
23.1441   474
23.1541   514
23.1641   573
23.1741   531
23.1841   493
23.1941   538
23.2041   603
23.2141   515
23.2241   557
23.2341   501
23.2441   546
23.2541   533
23.2641   550
23.2741   490
23.2841   495
23.2941   519
23.3041   540
23.3141   536
23.3241   528
23.3341   561
23.3441   526
23.3541   510
23.3641   562
23.3741   530
23.3841   501
23.3941   502
23.4041   553
23.4141   552
23.4241   505
23.4341   528
23.4441   554
23.4541   498
23.4641   515
23.4741   507
23.4841   559
23.4941   538
23.5041   501
23.5141   552
23.5241   558
23.5341   508
23.5441   533
23.5541   557
23.5641   501
23.5741   533
23.5841   539
23.5941   513
23.6041   563
23.6141   564
23.6241   505
23.6341   497
23.6441   546
23.6541   524
23.6641   543
23.6741   551
23.6841   570
23.6941   572
23.7041   586
23.7141   566
23.7241   594
23.7341   580
23.7441   586
23.7541   586
23.7641   533
23.7741   531
23.7841   574
23.7941   593
23.8041   549
23.8141   526
23.8241   598
23.8341   564
23.8441   552
23.8541   549
23.8641   527
23.8741   561
23.8841   523
23.8941   569
23.9041   572
23.9141   545
23.9241   590
23.9341   518
23.9441   572
23.9541   531
23.9641   510
23.9741   546
23.9841   523
23.9941   557
24.0041   559
24.0141   488
24.0241   520
24.0341   487
24.0441   515
24.0541   514
24.0641   518
24.0741   529
24.0841   551
24.0941   530
24.1041   537
24.1141   489
24.1241   516
24.1341   514
24.1441   534
24.1541   537
24.1641   541
24.1741   498
24.1841   491
24.1941   501
24.2041   578
24.2141   517
24.2241   478
24.2341   483
24.2441   523
24.2541   478
24.2641   492
24.2741   526
24.2841   522
24.2941   529
24.3041   462
24.3141   533
24.3241   555
24.3341   501
24.3441   528
24.3541   499
24.3641   480
24.3741   529
24.3841   489
24.3941   518
24.4041   519
24.4141   502
24.4241   487
24.4341   471
24.4441   484
24.4541   506
24.4641   498
24.4741   521
24.4841   505
24.4941   513
24.5041   473
24.5141   465
24.5241   517
24.5341   513
24.5441   500
24.5541   517
24.5641   479
24.5741   486
24.5841   471
24.5941   504
24.6041   488
24.6141   484
24.6241   433
24.6341   517
24.6441   515
24.6541   468
24.6641   495
24.6741   471
24.6841   502
24.6941   524
24.7041   508
24.7141   474
24.7241   517
24.7341   475
24.7441   501
24.7541   470
24.7641   534
24.7741   502
24.7841   501
24.7941   473
24.8041   477
24.8141   483
24.8241   483
24.8341   505
24.8441   491
24.8541   463
24.8641   463
24.8741   512
24.8841   481
24.8941   494
24.9041   487
24.9141   479
24.9241   475
24.9341   490
24.9441   508
24.9541   505
24.9641   475
24.9741   513
24.9841   514
24.9941   529
25.0041   496
25.0141   496
25.0241   516
25.0341   505
25.0441   511
25.0541   471
25.0641   501
25.0741   494
25.0841   509
25.0941   515
25.1041   505
25.1141   471
25.1241   487
25.1341   477
25.1441   472
25.1541   499
25.1641   513
25.1741   526
25.1841   492
25.1941   520
25.2041   517
25.2141   508
25.2241   500
25.2341   490
25.2441   512
25.2541   474
25.2641   497
25.2741   487
25.2841   479
25.2941   466
25.3041   474
25.3141   492
25.3241   475
25.3341   508
25.3441   491
25.3541   518
25.3641   521
25.3741   490
25.3841   455
25.3941   496
25.4041   478
25.4141   471
25.4241   508
25.4341   484
25.4441   471
25.4541   502
25.4641   483
25.4741   481
25.4841   510
25.4941   462
25.5041   454
25.5141   450
25.5241   470
25.5341   469
25.5441   472
25.5541   507
25.5641   464
25.5741   449
25.5841   460
25.5941   469
25.6041   465
25.6141   451
25.6241   460
25.6341   462
25.6441   441
25.6541   440
25.6641   440
25.6741   437
25.6841   480
25.6941   449
25.7041   431
25.7141   443
25.7241   489
25.7341   469
25.7441   461
25.7541   440
25.7641   421
25.7741   424
25.7841   449
25.7941   435
25.8041   427
25.8141   461
25.8241   454
25.8341   454
25.8441   402
25.8541   451
25.8641   447
25.8741   414
25.8841   444
25.8941   475
25.9041   458
25.9141   424
25.9241   433
25.9341   477
25.9441   473
25.9541   473
25.9641   407
25.9741   411
25.9841   444
25.9941   434
26.0041   441
26.0141   454
26.0241   457
26.0341   463
26.0441   452
26.0541   444
26.0641   429
26.0741   453
26.0841   480
26.0941   430
26.1041   462
26.1141   439
26.1241   451
26.1341   480
26.1441   456
26.1541   467
26.1641   427
26.1741   435
26.1841   413
26.1941   406
26.2041   420
26.2141   479
26.2241   431
26.2341   428
26.2441   473
26.2541   424
26.2641   450
26.2741   412
26.2841   431
26.2941   456
26.3041   434
26.3141   437
26.3241   422
26.3341   462
26.3441   456
26.3541   419
26.3641   434
26.3741   443
26.3841   448
26.3941   409
26.4041   418
26.4141   443
26.4241   445
26.4341   432
26.4441   414
26.4541   453
26.4641   423
26.4741   407
26.4841   411
26.4941   446
26.5041   395
26.5141   427
26.5241   411
26.5341   425
26.5441   412
26.5541   426
26.5641   419
26.5741   423
26.5841   406
26.5941   430
26.6041   425
26.6141   398
26.6241   433
26.6341   427
26.6441   399
26.6541   386
26.6641   430
26.6741   397
26.6841   428
26.6941   433
26.7041   415
26.7141   412
26.7241   405
26.7341   412
26.7441   370
26.7541   422
26.7641   456
26.7741   428
26.7841   440
26.7941   391
26.8041   411
26.8141   425
26.8241   405
26.8341   416
26.8441   419
26.8541   396
26.8641   421
26.8741   430
26.8841   372
26.8941   415
26.9041   422
26.9141   447
26.9241   397
26.9341   414
26.9441   425
26.9541   431
26.9641   421
26.9741   405
26.9841   409
26.9941   402
27.0041   436
27.0141   400
27.0241   397
27.0341   431
27.0441   388
27.0541   382
27.0641   408
27.0741   392
27.0841   410
27.0941   415
27.1041   402
27.1141   406
27.1241   403
27.1341   404
27.1441   401
27.1541   461
27.1641   421
27.1741   391
27.1841   422
27.1941   417
27.2041   407
27.2141   361
27.2241   395
27.2341   409
27.2441   389
27.2541   436
27.2641   400
27.2741   377
27.2841   359
27.2941   393
27.3041   425
27.3141   394
27.3241   411
27.3341   423
27.3441   422
27.3541   390
27.3641   413
27.3741   388
27.3841   411
27.3941   420
27.4041   379
27.4141   395
27.4241   393
27.4341   371
27.4441   401
27.4541   373
27.4641   363
27.4741   376
27.4841   384
27.4941   381
27.5041   423
27.5141   383
27.5241   369
27.5341   389
27.5441   398
27.5541   399
27.5641   406
27.5741   392
27.5841   374
27.5941   401
27.6041   376
27.6141   402
27.6241   411
27.6341   384
27.6441   387
27.6541   379
27.6641   393
27.6741   365
27.6841   361
27.6941   336
27.7041   359
27.7141   379
27.7241   390
27.7341   376
27.7441   368
27.7541   384
27.7641   356
27.7741   394
27.7841   381
27.7941   349
27.8041   378
27.8141   329
27.8241   377
27.8341   385
27.8441   352
27.8541   382
27.8641   418
27.8741   374
27.8841   393
27.8941   368
27.9041   380
27.9141   387
27.9241   368
27.9341   383
27.9441   372
27.9541   373
27.9641   363
27.9741   382
27.9841   371
27.9941   381
28.0041   360
28.0141   367
28.0241   364
28.0341   390
28.0441   375
28.0541   390
28.0641   374
28.0741   352
28.0841   368
28.0941   350
28.1041   344
28.1141   371
28.1241   381
28.1341   347
28.1441   348
28.1541   363
28.1641   371
28.1741   383
28.1841   381
28.1941   362
28.2041   388
28.2141   395
28.2241   346
28.2341   339
28.2441   346
28.2541   371
28.2641   386
28.2741   345
28.2841   350
28.2941   381
28.3041   341
28.3141   386
28.3241   364
28.3341   347
28.3441   344
28.3541   345
28.3641   367
28.3741   394
28.3841   338
28.3941   376
28.4041   345
28.4141   327
28.4241   378
28.4341   357
28.4441   383
28.4541   352
28.4641   395
28.4741   342
28.4841   366
28.4941   370
28.5041   325
28.5141   332
28.5241   327
28.5341   338
28.5441   357
28.5541   344
28.5641   341
28.5741   345
28.5841   364
28.5941   338
28.6041   350
28.6141   326
28.6241   388
28.6341   332
28.6441   319
28.6541   357
28.6641   368
28.6741   332
28.6841   336
28.6941   343
28.7041   326
28.7141   326
28.7241   340
28.7341   338
28.7441   332
28.7541   332
28.7641   335
28.7741   356
28.7841   326
28.7941   329
28.8041   361
28.8141   364
28.8241   370
28.8341   353
28.8441   332
28.8541   295
28.8641   331
28.8741   307
28.8841   344
28.8941   310
28.9041   334
28.9141   328
28.9241   351
28.9341   338
28.9441   334
28.9541   313
28.9641   306
28.9741   322
28.9841   313
28.9941   319
29.0041   325
29.0141   329
29.0241   321
29.0341   323
29.0441   313
29.0541   311
29.0641   326
29.0741   310
29.0841   341
29.0941   339
29.1041   340
29.1141   326
29.1241   334
29.1341   316
29.1441   327
29.1541   294
29.1641   312
29.1741   334
29.1841   316
29.1941   331
29.2041   291
29.2141   313
29.2241   328
29.2341   329
29.2441   301
29.2541   325
29.2641   301
29.2741   295
29.2841   315
29.2941   333
29.3041   324
29.3141   310
29.3241   284
29.3341   344
29.3441   294
29.3541   293
29.3641   301
29.3741   322
29.3841   320
29.3941   301
29.4041   298
29.4141   318
29.4241   313
29.4341   330
29.4441   334
29.4541   331
29.4641   296
29.4741   294
29.4841   308
29.4941   305
29.5041   312
29.5141   299
29.5241   292
29.5341   286
29.5441   303
29.5541   308
29.5641   291
29.5741   300
29.5841   282
29.5941   298
29.6041   320
29.6141   307
29.6241   301
29.6341   307
29.6441   330
29.6541   347
29.6641   299
29.6741   280
29.6841   319
29.6941   291
29.7041   302
29.7141   317
29.7241   294
29.7341   290
29.7441   298
29.7541   306
29.7641   311
29.7741   295
29.7841   330
29.7941   267
29.8041   302
29.8141   264
29.8241   291
29.8341   301
29.8441   323
29.8541   301
29.8641   257
29.8741   280
29.8841   287
29.8941   283
29.9041   299
29.9141   287
29.9241   261
29.9341   296
29.9441   261
29.9541   279
29.9641   291
29.9741   283
29.9841   261
29.9941   268
30.0041   301
30.0141   282
30.0241   273
30.0341   271
30.0441   266
30.0541   262
30.0641   266
30.0741   296
30.0841   283
30.0941   292
30.1041   294
30.1141   266
30.1241   258
30.1341   259
30.1441   290
30.1541   303
30.1641   296
30.1741   278
30.1841   269
30.1941   269
30.2041   294
30.2141   276
30.2241   259
30.2341   286
30.2441   288
30.2541   258
30.2641   262
30.2741   261
30.2841   290
30.2941   293
30.3041   257
30.3141   296
30.3241   289
30.3341   257
30.3441   275
30.3541   280
30.3641   257
30.3741   255
30.3841   270
30.3941   296
30.4041   275
30.4141   239
30.4241   265
30.4341   265
30.4441   290
30.4541   285
30.4641   280
30.4741   257
30.4841   267
30.4941   286
30.5041   248
30.5141   274
30.5241   267
30.5341   252
30.5441   263
30.5541   290
30.5641   263
30.5741   266
30.5841   271
30.5941   258
30.6041   248
30.6141   259
30.6241   260
30.6341   238
30.6441   255
30.6541   264
30.6641   243
30.6741   231
30.6841   268
30.6941   278
30.7041   257
30.7141   242
30.7241   244
30.7341   279
30.7441   265
30.7541   257
30.7641   253
30.7741   266
30.7841   263
30.7941   246
30.8041   263
30.8141   244
30.8241   266
30.8341   239
30.8441   262
30.8541   240
30.8641   248
30.8741   276
30.8841   253
30.8941   279
30.9041   255
30.9141   262
30.9241   231
30.9341   246
30.9441   239
30.9541   250
30.9641   258
30.9741   244
30.9841   240
30.9941   272
31.0041   241
31.0141   247
31.0241   252
31.0341   279
31.0441   245
31.0541   231
31.0641   230
31.0741   229
31.0841   260
31.0941   247
31.1041   258
31.1141   256
31.1241   237
31.1341   237
31.1441   245
31.1541   225
31.1641   263
31.1741   234
31.1841   236
31.1941   263
31.2041   212
31.2141   238
31.2241   235
31.2341   233
31.2441   243
31.2541   214
31.2641   230
31.2741   234
31.2841   249
31.2941   233
31.3041   221
31.3141   238
31.3241   223
31.3341   250
31.3441   224
31.3541   216
31.3641   235
31.3741   220
31.3841   248
31.3941   218
31.4041   231
31.4141   246
31.4241   217
31.4341   241
31.4441   243
31.4541   223
31.4641   224
31.4741   240
31.4841   217
31.4941   235
31.5041   247
31.5141   221
31.5241   227
31.5341   255
31.5441   226
31.5541   218
31.5641   230
31.5741   225
31.5841   222
31.5941   229
31.6041   251
31.6141   241
31.6241   233
31.6341   238
31.6441   236
31.6541   235
31.6641   248
31.6741   216
31.6841   254
31.6941   226
31.7041   235
31.7141   228
31.7241   236
31.7341   244
31.7441   253
31.7541   245
31.7641   259
31.7741   251
31.7841   242
31.7941   264
31.8041   258
31.8141   276
31.8241   247
31.8341   235
31.8441   252
31.8541   262
31.8641   275
31.8741   258
31.8841   239
31.8941   209
31.9041   237
31.9141   251
31.9241   234
31.9341   236
31.9441   246
31.9541   274
31.9641   245
31.9741   237
31.9841   235
31.9941   253
32.0041   241
32.0141   248
32.0241   228
32.0341   243
32.0441   255
32.0541   240
32.0641   249
32.0741   251
32.0841   262
32.0941   263
32.1041   230
32.1141   272
32.1241   241
32.1341   272
32.1441   282
32.1541   282
32.1641   319
32.1741   268
32.1841   273
32.1941   288
32.2041   265
32.2141   256
32.2241   289
32.2341   226
32.2441   245
32.2541   253
32.2641   244
32.2741   277
32.2841   268
32.2941   268
32.3041   232
32.3141   250
32.3241   234
32.3341   220
32.3441   236
32.3541   222
32.3641   251
32.3741   208
32.3841   186
32.3941   218
32.4041   194
32.4141   216
32.4241   222
32.4341   209
32.4441   215
32.4541   188
32.4641   207
32.4741   222
32.4841   193
32.4941   199
32.5041   209
32.5141   186
32.5241   209
32.5341   185
32.5441   189
32.5541   216
32.5641   205
32.5741   212
32.5841   195
32.5941   202
32.6041   184
32.6141   172
32.6241   191
32.6341   170
32.6441   182
32.6541   199
32.6641   189
32.6741   179
32.6841   198
32.6941   185
32.7041   201
32.7141   185
32.7241   183
32.7341   190
32.7441   188
32.7541   197
32.7641   194
32.7741   181
32.7841   185
32.7941   195
32.8041   191
32.8141   176
32.8241   164
32.8341   206
32.8441   180
32.8541   183
32.8641   168
32.8741   182
32.8841   189
32.8941   182
32.9041   187
32.9141   154
32.9241   170
32.9341   188
32.9441   179
32.9541   176
32.9641   197
32.9741   193
32.9841   189
32.9941   186
33.0041   178
33.0141   167
33.0241   200
33.0341   188
33.0441   182
33.0541   185
33.0641   170
33.0741   186
33.0841   185
33.0941   185
33.1041   160
33.1141   196
33.1241   180
33.1341   170
33.1441   159
33.1541   158
33.1641   202
33.1741   160
33.1841   179
33.1941   174
33.2041   169
33.2141   154
33.2241   178
33.2341   179
33.2441   178
33.2541   160
33.2641   194
33.2741   188
33.2841   180
33.2941   170
33.3041   145
33.3141   163
33.3241   163
33.3341   150
33.3441   172
33.3541   174
33.3641   173
33.3741   166
33.3841   161
33.3941   143
33.4041   169
33.4141   171
33.4241   162
33.4341   161
33.4441   197
33.4541   181
33.4641   161
33.4741   158
33.4841   158
33.4941   163
33.5041   164
33.5141   158
33.5241   143
33.5341   157
33.5441   149
33.5541   164
33.5641   174
33.5741   148
33.5841   147
33.5941   185
33.6041   136
33.6141   153
33.6241   160
33.6341   152
33.6441   154
33.6541   167
33.6641   175
33.6741   160
33.6841   170
33.6941   164
33.7041   176
33.7141   160
33.7241   159
33.7341   141
33.7441   164
33.7541   166
33.7641   160
33.7741   162
33.7841   171
33.7941   142
33.8041   156
33.8141   177
33.8241   152
33.8341   163
33.8441   155
33.8541   171
33.8641   139
33.8741   164
33.8841   148
33.8941   161
33.9041   165
33.9141   147
33.9241   162
33.9341   135
33.9441   168
33.9541   156
33.9641   142
33.9741   163
33.9841   143
33.9941   153
34.0041   174
34.0141   169
34.0241   137
34.0341   141
34.0441   133
34.0541   132
34.0641   146
34.0741   141
34.0841   153
34.0941   144
34.1041   144
34.1141   142
34.1241   124
34.1341   161
34.1441   159
34.1541   134
34.1641   143
34.1741   152
34.1841   178
34.1941   162
34.2041   147
34.2141   144
34.2241   136
34.2341   128
34.2441   134
34.2541   148
34.2641   142
34.2741   140
34.2841   127
34.2941   140
34.3041   137
34.3141   128
34.3241   123
34.3341   128
34.3441   154
34.3541   153
34.3641   139
34.3741   144
34.3841   130
34.3941   146
34.4041   140
34.4141   138
34.4241   145
34.4341   115
34.4441   142
34.4541   140
34.4641   134
34.4741   144
34.4841   138
34.4941   125
34.5041   133
34.5141   141
34.5241   135
34.5341   121
34.5441   124
34.5541   116
34.5641   130
34.5741   109
34.5841   132
34.5941   122
34.6041   131
34.6141   155
34.6241   131
34.6341   125
34.6441   114
34.6541   141
34.6641   141
34.6741   153
34.6841   130
34.6941   119
34.7041   155
34.7141   138
34.7241   109
34.7341   141
34.7441   147
34.7541   130
34.7641   129
34.7741   136
34.7841   133
34.7941   120
34.8041   135
34.8141   110
34.8241   123
34.8341   118
34.8441   126
34.8541   137
34.8641   135
34.8741   126
34.8841   137
34.8941   122
34.9041   127
34.9141   127
34.9241   130
34.9341   111
34.9441   124
34.9541   128
34.9641   142
34.9741   121
34.9841   112
34.9941   107
35.0041   116
35.0141   110
35.0241   119
35.0341   129
35.0441   118
35.0541   141
35.0641   126
35.0741   134
35.0841   119
35.0941   109
35.1041   135
35.1141   109
35.1241    86
35.1341   125
35.1441   117
35.1541   117
35.1641   123
35.1741    97
35.1841   116
35.1941   121
35.2041   110
35.2141   128
35.2241   109
35.2341   116
35.2441   112
35.2541   124
35.2641   117
35.2741   109
35.2841   119
35.2941   132
35.3041   137
35.3141   118
35.3241    94
35.3341   117
35.3441   116
35.3541   113
35.3641   108
35.3741    99
35.3841   107
35.3941    98
35.4041   110
35.4141   111
35.4241   104
35.4341   125
35.4441   112
35.4541   112
35.4641   105
35.4741   116
35.4841    90
35.4941   118
35.5041   103
35.5141   111
35.5241   112
35.5341   122
35.5441   110
35.5541   125
35.5641   116
35.5741   108
35.5841   125
35.5941   103
35.6041   112
35.6141   118
35.6241   121
35.6341   106
35.6441   115
35.6541   112
35.6641   117
35.6741   108
35.6841   110
35.6941   115
35.7041   100
35.7141   105
35.7241    99
35.7341    98
35.7441   114
35.7541    95
35.7641   107
35.7741   113
35.7841   104
35.7941    96
35.8041   115
35.8141   115
35.8241   105
35.8341    93
35.8441    88
35.8541   100
35.8641   110
35.8741   108
35.8841   117
35.8941   121
35.9041    98
35.9141    98
35.9241   106
35.9341    89
35.9441   105
35.9541   105
35.9641    93
35.9741   102
35.9841   121
35.9941   103
36.0041    96
36.0141    87
36.0241    95
36.0341   113
36.0441    93
36.0541   110
36.0641    87
36.0741   112
36.0841   108
36.0941   102
36.1041    89
36.1141   108
36.1241    92
36.1341    95
36.1441   109
36.1541    95
36.1641   107
36.1741    86
36.1841    73
36.1941    87
36.2041    99
36.2141    91
36.2241   100
36.2341    71
36.2441    97
36.2541    77
36.2641    93
36.2741    97
36.2841   100
36.2941   102
36.3041   105
36.3141    99
36.3241    86
36.3341   111
36.3441    98
36.3541    99
36.3641   109
36.3741   100
36.3841    90
36.3941   117
36.4041    89
36.4141   105
36.4241   123
36.4341   114
36.4441   106
36.4541   103
36.4641   102
36.4741   101
36.4841   104
36.4941    84
36.5041    92
36.5141   110
36.5241    88
36.5341   100
36.5441    94
36.5541    84
36.5641    95
36.5741    87
36.5841    91
36.5941    89
36.6041    86
36.6141    94
36.6241    87
36.6341   100
36.6441    81
36.6541   104
36.6641    81
36.6741    75
36.6841    83
36.6941    96
36.7041    71
36.7141    79
36.7241    87
36.7341    90
36.7441    87
36.7541   111
36.7641    82
36.7741    70
36.7841    77
36.7941    86
36.8041    96
36.8141    72
36.8241    88
36.8341    77
36.8441    94
36.8541    71
36.8641    80
36.8741    83
36.8841    94
36.8941    96
36.9041    73
36.9141    95
36.9241    80
36.9341    71
36.9441    74
36.9541    86
36.9641    85
36.9741    87
36.9841    96
36.9941    95
37.0041    90
37.0141    93
37.0241    75
37.0341    73
37.0441    67
37.0541    96
37.0641    71
37.0741    81
37.0841    92
37.0941    81
37.1041    86
37.1141    75
37.1241    70
37.1341    75
37.1441    87
37.1541    75
37.1641    90
37.1741    80
37.1841    79
37.1941    82
37.2041    84
37.2141    76
37.2241    89
37.2341    94
37.2441    79
37.2541    65
37.2641    90
37.2741    64
37.2841    85
37.2941    68
37.3041    81
37.3141    89
37.3241    80
37.3341    76
37.3441    62
37.3541    88
37.3641    94
37.3741    76
37.3841    85
37.3941    74
37.4041    71
37.4141    81
37.4241    87
37.4341    75
37.4441    80
37.4541    68
37.4641    86
37.4741    68
37.4841    74
37.4941    82
37.5041    62
37.5141    81
37.5241    69
37.5341    83
37.5441    65
37.5541    72
37.5641    59
37.5741    66
37.5841    75
37.5941    70
37.6041    71
37.6141    72
37.6241    54
37.6341    69
37.6441    48
37.6541    68
37.6641    61
37.6741    80
37.6841    68
37.6941    59
37.7041    72
37.7141    79
37.7241    68
37.7341    67
37.7441    58
37.7541    65
37.7641    59
37.7741    61
37.7841    66
37.7941    58
37.8041    53
37.8141    58
37.8241    86
37.8341    67
37.8441    60
37.8541    63
37.8641    65
37.8741    57
37.8841    69
37.8941    63
37.9041    66
37.9141    76
37.9241    53
37.9341    62
37.9441    64
37.9541    65
37.9641    67
37.9741    59
37.9841    60
37.9941    49
38.0041    62
38.0141    67
38.0241    57
38.0341    52
38.0441    70
38.0541    62
38.0641    61
38.0741    62
38.0841    64
38.0941    56
38.1041    67
38.1141    49
38.1241    55
38.1341    61
38.1441    62
38.1541    56
38.1641    64
38.1741    40
38.1841    54
38.1941    63
38.2041    57
38.2141    47
38.2241    51
38.2341    58
38.2441    63
38.2541    55
38.2641    61
38.2741    53
38.2841    54
38.2941    71
38.3041    64
38.3141    68
38.3241    50
38.3341    46
38.3441    41
38.3541    51
38.3641    50
38.3741    59
38.3841    52
38.3941    56
38.4041    64
38.4141    57
38.4241    60
38.4341    52
38.4441    56
38.4541    49
38.4641    46
38.4741    45
38.4841    54
38.4941    57
38.5041    52
38.5141    53
38.5241    56
38.5341    61
38.5441    67
38.5541    67
38.5641    54
38.5741    47
38.5841    48
38.5941    44
38.6041    52
38.6141    60
38.6241    64
38.6341    59
38.6441    62
38.6541    60
38.6641    60
38.6741    53
38.6841    52
38.6941    42
38.7041    55
38.7141    56
38.7241    55
38.7341    47
38.7441    39
38.7541    47
38.7641    59
38.7741    51
38.7841    36
38.7941    53
38.8041    51
38.8141    52
38.8241    55
38.8341    45
38.8441    63
38.8541    53
38.8641    61
38.8741    49
38.8841    40
38.8941    56
38.9041    49
38.9141    51
38.9241    41
38.9341    42
38.9441    42
38.9541    55
38.9641    47
38.9741    48
38.9841    43
38.9941    39
39.0041    58
39.0141    38
39.0241    39
39.0341    55
39.0441    48
39.0541    42
39.0641    38
39.0741    38
39.0841    44
39.0941    54
39.1041    54
39.1141    44
39.1241    48
39.1341    39
39.1441    48
39.1541    39
39.1641    47
39.1741    30
39.1841    45
39.1941    41
39.2041    43
39.2141    39
39.2241    42
39.2341    42
39.2441    39
39.2541    33
39.2641    37
39.2741    51
39.2841    50
39.2941    34
39.3041    29
39.3141    46
39.3241    55
39.3341    57
39.3441    39
39.3541    34
39.3641    42
39.3741    50
39.3841    37
39.3941    53
39.4041    50
39.4141    50
39.4241    36
39.4341    44
39.4441    28
39.4541    33
39.4641    41
39.4741    39
39.4841    37
39.4941    37
39.5041    42
39.5141    42
39.5241    42
39.5341    32
39.5441    48
39.5541    48
39.5641    40
39.5741    39
39.5841    37
39.5941    43
39.6041    31
39.6141    42
39.6241    39
39.6341    27
39.6441    34
39.6541    35
39.6641    37
39.6741    34
39.6841    38
39.6941    31
39.7041    33
39.7141    35
39.7241    40
39.7341    32
39.7441    35
39.7541    35
39.7641    36
39.7741    34
39.7841    27
39.7941    38
39.8041    43
39.8141    35
39.8241    37
39.8341    36
39.8441    34
39.8541    32
39.8641    44
39.8741    36
39.8841    34
39.8941    26
39.9041    28
39.9141    37
39.9241    41
39.9341    43
39.9441    29
39.9541    23
39.9641    37
39.9741    28
39.9841    28
39.9941    32
