Bruker Nano GmbH Berlin, Germany
Esprit 1.9

Date: 5/14/2021 1:30:41 PM
Real time: 15945
Life time: 14811
Pulse density: 104584


Detector type: XFlash 430
Window type: Custom type
Detector thickness: 0.45
Si dead layer:0.029

Calibration, lin.: 10
Calibration, abs.: -955.9
Mn FWHM: 137.05
Fano factor: 0.121
Channels: 4095

Energy Counts
-0.9559     0
-0.9459     0
-0.9359     0
-0.9259     0
-0.9159     0
-0.9059     0
-0.8959     0
-0.8859     0
-0.8759     0
-0.8659     0
-0.8559     0
-0.8459     0
-0.8359     0
-0.8259     0
-0.8159     0
-0.8059     0
-0.7959     0
-0.7859     0
-0.7759     0
-0.7659     0
-0.7559     0
-0.7459     0
-0.7359     0
-0.7259     0
-0.7159     0
-0.7059     0
-0.6959     0
-0.6859     0
-0.6759     0
-0.6659     0
-0.6559     0
-0.6459     0
-0.6359     0
-0.6259     0
-0.6159     0
-0.6059     0
-0.5959     0
-0.5859     0
-0.5759     0
-0.5659     0
-0.5559     0
-0.5459     0
-0.5359     0
-0.5259     0
-0.5159     0
-0.5059     0
-0.4959     0
-0.4859     0
-0.4759     0
-0.4659     0
-0.4559     0
-0.4459     0
-0.4359     0
-0.4259     0
-0.4159     0
-0.4059     0
-0.3959     0
-0.3859     0
-0.3759     0
-0.3659     0
-0.3559     0
-0.3459     0
-0.3359     0
-0.3259     0
-0.3159     0
-0.3059     0
-0.2959     0
-0.2859     0
-0.2759     0
-0.2659     0
-0.2559     0
-0.2459     0
-0.2359     0
-0.2259     0
-0.2159     0
-0.2059     0
-0.1959     0
-0.1859     0
-0.1759     0
-0.1659     0
-0.1559     0
-0.1459     0
-0.1359     0
-0.1259     0
-0.1159     0
-0.1059     3
-0.0959    40
-0.0859   175
-0.0759   568
-0.0659  1757
-0.0559  4432
-0.0459  9569
-0.0359 17566
-0.0259 28017
-0.0159 38412
-0.0059 45520
 0.0041 45732
 0.0141 39218
 0.0241 28936
 0.0341 18409
 0.0441  9986
 0.0541  4689
 0.0641  1845
 0.0741   617
 0.0841   174
 0.0941    63
 0.1041     9
 0.1141    12
 0.1241     8
 0.1341     4
 0.1441     9
 0.1541     7
 0.1641     3
 0.1741     1
 0.1841   147
 0.1941   294
 0.2041   262
 0.2141   283
 0.2241   252
 0.2341   306
 0.2441   287
 0.2541   277
 0.2641   287
 0.2741   283
 0.2841   290
 0.2941   253
 0.3041   247
 0.3141   239
 0.3241   250
 0.3341   228
 0.3441   251
 0.3541   244
 0.3641   242
 0.3741   236
 0.3841   219
 0.3941   223
 0.4041   233
 0.4141   222
 0.4241   220
 0.4341   232
 0.4441   231
 0.4541   230
 0.4641   216
 0.4741   227
 0.4841   203
 0.4941   207
 0.5041   234
 0.5141   241
 0.5241   237
 0.5341   241
 0.5441   232
 0.5541   217
 0.5641   207
 0.5741   193
 0.5841   204
 0.5941   205
 0.6041   212
 0.6141   203
 0.6241   203
 0.6341   200
 0.6441   194
 0.6541   192
 0.6641   199
 0.6741   201
 0.6841   200
 0.6941   206
 0.7041   190
 0.7141   182
 0.7241   193
 0.7341   190
 0.7441   185
 0.7541   189
 0.7641   194
 0.7741   187
 0.7841   188
 0.7941   191
 0.8041   182
 0.8141   186
 0.8241   175
 0.8341   174
 0.8441   175
 0.8541   189
 0.8641   196
 0.8741   187
 0.8841   185
 0.8941   181
 0.9041   182
 0.9141   178
 0.9241   180
 0.9341   167
 0.9441   158
 0.9541   168
 0.9641   174
 0.9741   171
 0.9841   167
 0.9941   188
 1.0041   183
 1.0141   198
 1.0241   180
 1.0341   182
 1.0441   171
 1.0541   158
 1.0641   149
 1.0741   173
 1.0841   174
 1.0941   156
 1.1041   166
 1.1141   176
 1.1241   153
 1.1341   174
 1.1441   147
 1.1541   152
 1.1641   169
 1.1741   171
 1.1841   154
 1.1941   175
 1.2041   165
 1.2141   152
 1.2241   149
 1.2341   158
 1.2441   169
 1.2541   176
 1.2641   171
 1.2741   161
 1.2841   157
 1.2941   148
 1.3041   178
 1.3141   142
 1.3241   156
 1.3341   152
 1.3441   157
 1.3541   150
 1.3641   164
 1.3741   155
 1.3841   170
 1.3941   171
 1.4041   159
 1.4141   135
 1.4241   153
 1.4341   152
 1.4441   147
 1.4541   140
 1.4641   153
 1.4741   141
 1.4841   148
 1.4941   131
 1.5041   160
 1.5141   173
 1.5241   148
 1.5341   147
 1.5441   164
 1.5541   150
 1.5641   143
 1.5741   152
 1.5841   141
 1.5941   142
 1.6041   160
 1.6141   153
 1.6241   164
 1.6341   160
 1.6441   160
 1.6541   178
 1.6641   207
 1.6741   234
 1.6841   336
 1.6941   384
 1.7041   466
 1.7141   561
 1.7241   589
 1.7341   596
 1.7441   599
 1.7541   566
 1.7641   544
 1.7741   455
 1.7841   414
 1.7941   336
 1.8041   273
 1.8141   210
 1.8241   202
 1.8341   175
 1.8441   181
 1.8541   151
 1.8641   173
 1.8741   160
 1.8841   169
 1.8941   153
 1.9041   141
 1.9141   156
 1.9241   150
 1.9341   156
 1.9441   159
 1.9541   150
 1.9641   165
 1.9741   162
 1.9841   150
 1.9941   167
 2.0041   175
 2.0141   176
 2.0241   170
 2.0341   183
 2.0441   169
 2.0541   166
 2.0641   140
 2.0741   153
 2.0841   144
 2.0941   136
 2.1041   132
 2.1141   137
 2.1241   146
 2.1341   129
 2.1441   147
 2.1541   142
 2.1641   139
 2.1741   122
 2.1841   125
 2.1941   123
 2.2041   129
 2.2141   133
 2.2241   142
 2.2341   126
 2.2441   144
 2.2541   119
 2.2641   122
 2.2741   119
 2.2841   117
 2.2941   131
 2.3041   132
 2.3141   129
 2.3241   118
 2.3341   119
 2.3441   106
 2.3541   136
 2.3641   129
 2.3741   130
 2.3841   107
 2.3941   114
 2.4041    90
 2.4141   114
 2.4241   123
 2.4341   121
 2.4441   109
 2.4541   102
 2.4641   121
 2.4741   112
 2.4841   122
 2.4941   104
 2.5041   117
 2.5141   122
 2.5241   142
 2.5341   130
 2.5441   111
 2.5541   118
 2.5641   115
 2.5741   106
 2.5841   115
 2.5941   103
 2.6041   120
 2.6141   106
 2.6241   117
 2.6341   129
 2.6441   106
 2.6541   109
 2.6641    87
 2.6741    97
 2.6841   114
 2.6941   121
 2.7041    93
 2.7141   105
 2.7241   115
 2.7341    97
 2.7441   102
 2.7541   103
 2.7641    89
 2.7741   112
 2.7841   102
 2.7941    95
 2.8041    89
 2.8141   105
 2.8241   110
 2.8341   103
 2.8441   128
 2.8541    96
 2.8641    96
 2.8741    99
 2.8841   120
 2.8941   127
 2.9041   107
 2.9141    94
 2.9241   100
 2.9341    96
 2.9441    94
 2.9541   110
 2.9641   108
 2.9741   100
 2.9841   116
 2.9941   101
 3.0041   112
 3.0141    99
 3.0241    90
 3.0341    91
 3.0441    85
 3.0541    90
 3.0641   106
 3.0741   100
 3.0841    88
 3.0941   114
 3.1041    87
 3.1141    72
 3.1241    85
 3.1341    79
 3.1441    93
 3.1541    87
 3.1641    79
 3.1741    92
 3.1841    84
 3.1941    84
 3.2041    78
 3.2141    94
 3.2241    99
 3.2341   110
 3.2441   113
 3.2541   102
 3.2641   101
 3.2741   105
 3.2841   121
 3.2941   120
 3.3041   129
 3.3141   116
 3.3241   109
 3.3341   108
 3.3441   106
 3.3541    83
 3.3641    93
 3.3741    93
 3.3841    92
 3.3941    94
 3.4041    94
 3.4141    93
 3.4241    79
 3.4341    68
 3.4441    72
 3.4541    77
 3.4641    88
 3.4741    71
 3.4841    80
 3.4941    93
 3.5041    86
 3.5141    74
 3.5241    79
 3.5341    96
 3.5441    99
 3.5541   106
 3.5641   104
 3.5741   138
 3.5841   197
 3.5941   244
 3.6041   272
 3.6141   339
 3.6241   398
 3.6341   510
 3.6441   605
 3.6541   749
 3.6641   818
 3.6741   887
 3.6841   949
 3.6941   948
 3.7041   875
 3.7141   849
 3.7241   713
 3.7341   617
 3.7441   513
 3.7541   419
 3.7641   337
 3.7741   234
 3.7841   193
 3.7941   153
 3.8041   102
 3.8141   111
 3.8241    83
 3.8341    92
 3.8441    75
 3.8541    76
 3.8641    74
 3.8741    71
 3.8841    74
 3.8941    82
 3.9041    96
 3.9141    90
 3.9241    90
 3.9341   117
 3.9441   114
 3.9541   117
 3.9641   121
 3.9741   163
 3.9841   184
 3.9941   188
 4.0041   177
 4.0141   180
 4.0241   168
 4.0341   183
 4.0441   158
 4.0541   133
 4.0641   129
 4.0741    99
 4.0841   109
 4.0941    85
 4.1041    84
 4.1141    75
 4.1241    68
 4.1341    66
 4.1441    62
 4.1541    58
 4.1641    60
 4.1741    66
 4.1841    65
 4.1941    69
 4.2041    54
 4.2141    67
 4.2241    62
 4.2341    71
 4.2441    67
 4.2541    58
 4.2641    68
 4.2741    62
 4.2841    48
 4.2941    59
 4.3041    65
 4.3141    50
 4.3241    55
 4.3341    55
 4.3441    65
 4.3541    71
 4.3641    77
 4.3741    74
 4.3841    90
 4.3941   106
 4.4041   127
 4.4141   160
 4.4241   212
 4.4341   250
 4.4441   317
 4.4541   333
 4.4641   409
 4.4741   423
 4.4841   479
 4.4941   509
 4.5041   569
 4.5141   558
 4.5241   506
 4.5341   527
 4.5441   454
 4.5541   403
 4.5641   325
 4.5741   271
 4.5841   236
 4.5941   176
 4.6041   152
 4.6141   131
 4.6241   103
 4.6341    84
 4.6441    68
 4.6541    73
 4.6641    74
 4.6741    94
 4.6841    92
 4.6941    70
 4.7041    65
 4.7141    65
 4.7241    84
 4.7341    87
 4.7441    62
 4.7541    66
 4.7641    49
 4.7741    67
 4.7841    81
 4.7941    94
 4.8041    84
 4.8141    83
 4.8241    83
 4.8341    98
 4.8441   115
 4.8541   122
 4.8641   113
 4.8741   163
 4.8841   129
 4.8941   148
 4.9041   137
 4.9141   156
 4.9241   163
 4.9341   174
 4.9441   153
 4.9541   160
 4.9641   154
 4.9741   140
 4.9841   139
 4.9941   123
 5.0041   113
 5.0141   102
 5.0241   102
 5.0341    99
 5.0441    89
 5.0541    77
 5.0641    80
 5.0741    77
 5.0841    75
 5.0941    85
 5.1041    56
 5.1141    58
 5.1241    72
 5.1341    73
 5.1441    60
 5.1541    75
 5.1641    61
 5.1741    68
 5.1841    86
 5.1941    77
 5.2041    78
 5.2141    91
 5.2241    75
 5.2341    89
 5.2441    56
 5.2541    74
 5.2641    76
 5.2741    75
 5.2841    70
 5.2941    82
 5.3041    73
 5.3141    77
 5.3241   113
 5.3341   101
 5.3441   116
 5.3541   108
 5.3641   124
 5.3741   105
 5.3841   108
 5.3941   124
 5.4041   142
 5.4141   107
 5.4241   128
 5.4341   122
 5.4441   130
 5.4541   128
 5.4641   105
 5.4741   101
 5.4841    95
 5.4941    89
 5.5041    92
 5.5141    95
 5.5241    85
 5.5341    75
 5.5441    88
 5.5541    90
 5.5641    90
 5.5741    87
 5.5841    77
 5.5941    95
 5.6041    90
 5.6141    81
 5.6241    77
 5.6341    87
 5.6441    76
 5.6541    73
 5.6641    77
 5.6741    76
 5.6841    78
 5.6941    77
 5.7041    99
 5.7141    83
 5.7241    97
 5.7341    85
 5.7441   100
 5.7541   109
 5.7641    98
 5.7741   127
 5.7841   177
 5.7941   170
 5.8041   193
 5.8141   203
 5.8241   246
 5.8341   264
 5.8441   321
 5.8541   357
 5.8641   398
 5.8741   410
 5.8841   419
 5.8941   392
 5.9041   447
 5.9141   436
 5.9241   378
 5.9341   372
 5.9441   309
 5.9541   297
 5.9641   228
 5.9741   226
 5.9841   206
 5.9941   188
 6.0041   141
 6.0141   148
 6.0241   117
 6.0341   120
 6.0441   112
 6.0541   100
 6.0641   116
 6.0741    85
 6.0841    96
 6.0941   111
 6.1041   129
 6.1141   116
 6.1241   109
 6.1341   128
 6.1441   128
 6.1541   149
 6.1641   153
 6.1741   160
 6.1841   200
 6.1941   220
 6.2041   258
 6.2141   350
 6.2241   441
 6.2341   625
 6.2441   832
 6.2541  1177
 6.2641  1585
 6.2741  2185
 6.2841  2835
 6.2941  3842
 6.3041  4916
 6.3141  6294
 6.3241  7558
 6.3341  9301
 6.3441 11045
 6.3541 12501
 6.3641 14033
 6.3741 15015
 6.3841 15672
 6.3941 16296
 6.4041 16097
 6.4141 15830
 6.4241 14943
 6.4341 13879
 6.4441 12247
 6.4541 10695
 6.4641  8890
 6.4741  7382
 6.4841  5839
 6.4941  4544
 6.5041  3512
 6.5141  2646
 6.5241  1985
 6.5341  1410
 6.5441   979
 6.5541   779
 6.5641   492
 6.5741   336
 6.5841   292
 6.5941   228
 6.6041   200
 6.6141   180
 6.6241   151
 6.6341   146
 6.6441   132
 6.6541   119
 6.6641   125
 6.6741   126
 6.6841   126
 6.6941   118
 6.7041   138
 6.7141   137
 6.7241   119
 6.7341   152
 6.7441   143
 6.7541   167
 6.7641   135
 6.7741   150
 6.7841   167
 6.7941   138
 6.8041   141
 6.8141   135
 6.8241   170
 6.8341   188
 6.8441   216
 6.8541   205
 6.8641   212
 6.8741   256
 6.8841   299
 6.8941   313
 6.9041   400
 6.9141   476
 6.9241   567
 6.9341   666
 6.9441   829
 6.9541   973
 6.9641  1185
 6.9741  1398
 6.9841  1628
 6.9941  1872
 7.0041  2027
 7.0141  2309
 7.0241  2530
 7.0341  2654
 7.0441  2669
 7.0541  2810
 7.0641  2834
 7.0741  2574
 7.0841  2479
 7.0941  2235
 7.1041  2040
 7.1141  1866
 7.1241  1577
 7.1341  1366
 7.1441  1107
 7.1541   903
 7.1641   752
 7.1741   557
 7.1841   515
 7.1941   405
 7.2041   329
 7.2141   282
 7.2241   234
 7.2341   190
 7.2441   181
 7.2541   195
 7.2641   181
 7.2741   177
 7.2841   187
 7.2941   179
 7.3041   169
 7.3141   186
 7.3241   195
 7.3341   217
 7.3441   238
 7.3541   223
 7.3641   221
 7.3741   252
 7.3841   225
 7.3941   255
 7.4041   253
 7.4141   256
 7.4241   279
 7.4341   240
 7.4441   279
 7.4541   253
 7.4641   268
 7.4741   253
 7.4841   243
 7.4941   212
 7.5041   224
 7.5141   186
 7.5241   217
 7.5341   208
 7.5441   212
 7.5541   195
 7.5641   187
 7.5741   183
 7.5841   164
 7.5941   175
 7.6041   173
 7.6141   165
 7.6241   175
 7.6341   154
 7.6441   185
 7.6541   191
 7.6641   179
 7.6741   182
 7.6841   176
 7.6941   179
 7.7041   193
 7.7141   200
 7.7241   205
 7.7341   209
 7.7441   183
 7.7541   207
 7.7641   197
 7.7741   221
 7.7841   214
 7.7941   217
 7.8041   234
 7.8141   211
 7.8241   226
 7.8341   223
 7.8441   245
 7.8541   248
 7.8641   258
 7.8741   272
 7.8841   297
 7.8941   281
 7.9041   298
 7.9141   327
 7.9241   335
 7.9341   363
 7.9441   351
 7.9541   370
 7.9641   430
 7.9741   429
 7.9841   472
 7.9941   526
 8.0041   520
 8.0141   561
 8.0241   607
 8.0341   682
 8.0441   686
 8.0541   765
 8.0641   799
 8.0741   835
 8.0841   937
 8.0941   987
 8.1041  1071
 8.1141  1037
 8.1241  1105
 8.1341  1118
 8.1441  1166
 8.1541  1170
 8.1641  1156
 8.1741  1241
 8.1841  1225
 8.1941  1245
 8.2041  1280
 8.2141  1221
 8.2241  1305
 8.2341  1375
 8.2441  1328
 8.2541  1395
 8.2641  1409
 8.2741  1439
 8.2841  1628
 8.2941  1745
 8.3041  1895
 8.3141  1972
 8.3241  2159
 8.3341  2359
 8.3441  2538
 8.3541  2688
 8.3641  2805
 8.3741  2920
 8.3841  2872
 8.3941  2914
 8.4041  2849
 8.4141  2835
 8.4241  2675
 8.4341  2385
 8.4441  2352
 8.4541  2067
 8.4641  1798
 8.4741  1552
 8.4841  1351
 8.4941  1104
 8.5041   959
 8.5141   818
 8.5241   668
 8.5341   583
 8.5441   515
 8.5541   453
 8.5641   442
 8.5741   382
 8.5841   360
 8.5941   369
 8.6041   346
 8.6141   354
 8.6241   353
 8.6341   356
 8.6441   361
 8.6541   354
 8.6641   336
 8.6741   330
 8.6841   349
 8.6941   347
 8.7041   344
 8.7141   309
 8.7241   316
 8.7341   336
 8.7441   300
 8.7541   278
 8.7641   256
 8.7741   254
 8.7841   263
 8.7941   264
 8.8041   291
 8.8141   256
 8.8241   274
 8.8341   256
 8.8441   298
 8.8541   292
 8.8641   277
 8.8741   290
 8.8841   290
 8.8941   271
 8.9041   301
 8.9141   293
 8.9241   305
 8.9341   306
 8.9441   313
 8.9541   289
 8.9641   289
 8.9741   301
 8.9841   300
 8.9941   340
 9.0041   335
 9.0141   352
 9.0241   337
 9.0341   362
 9.0441   367
 9.0541   368
 9.0641   382
 9.0741   387
 9.0841   415
 9.0941   422
 9.1041   424
 9.1141   441
 9.1241   455
 9.1341   472
 9.1441   484
 9.1541   586
 9.1641   580
 9.1741   567
 9.1841   573
 9.1941   675
 9.2041   704
 9.2141   699
 9.2241   736
 9.2341   783
 9.2441   823
 9.2541   853
 9.2641   859
 9.2741   927
 9.2841   958
 9.2941  1023
 9.3041  1079
 9.3141  1087
 9.3241  1124
 9.3341  1150
 9.3441  1159
 9.3541  1234
 9.3641  1219
 9.3741  1237
 9.3841  1282
 9.3941  1276
 9.4041  1256
 9.4141  1259
 9.4241  1289
 9.4341  1281
 9.4441  1316
 9.4541  1357
 9.4641  1353
 9.4741  1426
 9.4841  1393
 9.4941  1391
 9.5041  1442
 9.5141  1474
 9.5241  1487
 9.5341  1531
 9.5441  1684
 9.5541  1758
 9.5641  1814
 9.5741  1919
 9.5841  2064
 9.5941  2158
 9.6041  2262
 9.6141  2429
 9.6241  2537
 9.6341  2618
 9.6441  2703
 9.6541  2778
 9.6641  2793
 9.6741  2795
 9.6841  2789
 9.6941  2723
 9.7041  2615
 9.7141  2404
 9.7241  2242
 9.7341  2140
 9.7441  2021
 9.7541  1831
 9.7641  1677
 9.7741  1552
 9.7841  1440
 9.7941  1338
 9.8041  1214
 9.8141  1175
 9.8241  1115
 9.8341  1032
 9.8441  1064
 9.8541  1046
 9.8641  1011
 9.8741  1019
 9.8841  1078
 9.8941  1110
 9.9041  1061
 9.9141  1122
 9.9241  1122
 9.9341  1174
 9.9441  1145
 9.9541  1112
 9.9641  1102
 9.9741  1068
 9.9841  1050
 9.9941   978
10.0041   953
10.0141   899
10.0241   844
10.0341   774
10.0441   651
10.0541   582
10.0641   518
10.0741   447
10.0841   446
10.0941   388
10.1041   362
10.1141   349
10.1241   309
10.1341   276
10.1441   278
10.1541   270
10.1641   228
10.1741   223
10.1841   218
10.1941   220
10.2041   215
10.2141   190
10.2241   210
10.2341   180
10.2441   178
10.2541   195
10.2641   180
10.2741   169
10.2841   175
10.2941   159
10.3041   157
10.3141   164
10.3241   166
10.3341   163
10.3441   155
10.3541   166
10.3641   161
10.3741   167
10.3841   148
10.3941   167
10.4041   168
10.4141   162
10.4241   161
10.4341   173
10.4441   165
10.4541   159
10.4641   167
10.4741   161
10.4841   172
10.4941   171
10.5041   165
10.5141   175
10.5241   192
10.5341   170
10.5441   184
10.5541   174
10.5641   175
10.5741   184
10.5841   188
10.5941   187
10.6041   167
10.6141   169
10.6241   214
10.6341   209
10.6441   172
10.6541   184
10.6641   201
10.6741   202
10.6841   208
10.6941   214
10.7041   214
10.7141   197
10.7241   216
10.7341   220
10.7441   229
10.7541   235
10.7641   234
10.7741   242
10.7841   248
10.7941   222
10.8041   245
10.8141   270
10.8241   261
10.8341   257
10.8441   260
10.8541   278
10.8641   284
10.8741   308
10.8841   298
10.8941   287
10.9041   296
10.9141   295
10.9241   286
10.9341   298
10.9441   285
10.9541   290
10.9641   263
10.9741   290
10.9841   293
10.9941   283
11.0041   270
11.0141   264
11.0241   246
11.0341   271
11.0441   256
11.0541   249
11.0641   239
11.0741   219
11.0841   258
11.0941   248
11.1041   235
11.1141   266
11.1241   242
11.1341   239
11.1441   260
11.1541   275
11.1641   266
11.1741   273
11.1841   310
11.1941   302
11.2041   325
11.2141   340
11.2241   349
11.2341   363
11.2441   356
11.2541   362
11.2641   362
11.2741   366
11.2841   369
11.2941   385
11.3041   381
11.3141   359
11.3241   330
11.3341   348
11.3441   345
11.3541   318
11.3641   289
11.3741   271
11.3841   272
11.3941   262
11.4041   228
11.4141   219
11.4241   228
11.4341   216
11.4441   189
11.4541   193
11.4641   217
11.4741   211
11.4841   194
11.4941   212
11.5041   202
11.5141   202
11.5241   198
11.5341   186
11.5441   203
11.5541   199
11.5641   219
11.5741   224
11.5841   215
11.5941   211
11.6041   201
11.6141   208
11.6241   217
11.6341   224
11.6441   219
11.6541   207
11.6641   219
11.6741   189
11.6841   198
11.6941   200
11.7041   212
11.7141   208
11.7241   197
11.7341   180
11.7441   179
11.7541   181
11.7641   169
11.7741   161
11.7841   174
11.7941   165
11.8041   156
11.8141   158
11.8241   161
11.8341   150
11.8441   157
11.8541   164
11.8641   166
11.8741   165
11.8841   156
11.8941   164
11.9041   159
11.9141   166
11.9241   180
11.9341   179
11.9441   154
11.9541   160
11.9641   177
11.9741   173
11.9841   171
11.9941   167
12.0041   174
12.0141   177
12.0241   180
12.0341   183
12.0441   181
12.0541   173
12.0641   165
12.0741   177
12.0841   178
12.0941   167
12.1041   155
12.1141   156
12.1241   155
12.1341   156
12.1441   156
12.1541   160
12.1641   150
12.1741   149
12.1841   144
12.1941   157
12.2041   154
12.2141   149
12.2241   161
12.2341   155
12.2441   154
12.2541   146
12.2641   136
12.2741   141
12.2841   144
12.2941   153
12.3041   158
12.3141   159
12.3241   147
12.3341   137
12.3441   146
12.3541   172
12.3641   179
12.3741   161
12.3841   151
12.3941   160
12.4041   174
12.4141   176
12.4241   166
12.4341   161
12.4441   177
12.4541   177
12.4641   165
12.4741   164
12.4841   166
12.4941   167
12.5041   167
12.5141   165
12.5241   167
12.5341   169
12.5441   167
12.5541   169
12.5641   168
12.5741   180
12.5841   181
12.5941   170
12.6041   172
12.6141   175
12.6241   176
12.6341   179
12.6441   180
12.6541   180
12.6641   174
12.6741   170
12.6841   177
12.6941   188
12.7041   183
12.7141   188
12.7241   182
12.7341   174
12.7441   177
12.7541   179
12.7641   179
12.7741   178
12.7841   177
12.7941   179
12.8041   182
12.8141   183
12.8241   181
12.8341   179
12.8441   182
12.8541   187
12.8641   189
12.8741   192
12.8841   194
12.8941   192
12.9041   189
12.9141   186
12.9241   185
12.9341   187
12.9441   192
12.9541   196
12.9641   194
12.9741   192
12.9841   194
12.9941   195
13.0041   193
13.0141   192
13.0241   191
13.0341   192
13.0441   197
13.0541   202
13.0641   203
13.0741   203
13.0841   204
13.0941   206
13.1041   204
13.1141   201
13.1241   200
13.1341   200
13.1441   198
13.1541   201
13.1641   208
13.1741   209
13.1841   205
13.1941   204
13.2041   211
13.2141   212
13.2241   207
13.2341   205
13.2441   209
13.2541   211
13.2641   214
13.2741   219
13.2841   227
13.2941   218
13.3041   219
13.3141   230
13.3241   229
13.3341   245
13.3441   251
13.3541   230
13.3641   233
13.3741   249
13.3841   228
13.3941   224
13.4041   239
13.4141   237
13.4241   226
13.4341   229
13.4441   231
13.4541   224
13.4641   218
13.4741   217
13.4841   225
13.4941   227
13.5041   216
13.5141   231
13.5241   229
13.5341   229
13.5441   234
13.5541   226
13.5641   228
13.5741   212
13.5841   214
13.5941   223
13.6041   228
13.6141   234
13.6241   224
13.6341   212
13.6441   227
13.6541   223
13.6641   224
13.6741   237
13.6841   232
13.6941   237
13.7041   224
13.7141   223
13.7241   232
13.7341   228
13.7441   221
13.7541   224
13.7641   235
13.7741   239
13.7841   243
13.7941   236
13.8041   239
13.8141   240
13.8241   242
13.8341   236
13.8441   225
13.8541   235
13.8641   234
13.8741   238
13.8841   233
13.8941   219
13.9041   225
13.9141   241
13.9241   243
13.9341   245
13.9441   252
13.9541   265
13.9641   259
13.9741   263
13.9841   280
13.9941   267
14.0041   272
14.0141   298
14.0241   325
14.0341   315
14.0441   286
14.0541   284
14.0641   294
14.0741   306
14.0841   302
14.0941   310
14.1041   336
14.1141   333
14.1241   331
14.1341   339
14.1441   345
14.1541   355
14.1641   339
14.1741   318
14.1841   325
14.1941   318
14.2041   313
14.2141   323
14.2241   317
14.2341   309
14.2441   305
14.2541   291
14.2641   284
14.2741   292
14.2841   289
14.2941   261
14.3041   258
14.3141   268
14.3241   256
14.3341   261
14.3441   271
14.3541   275
14.3641   264
14.3741   260
14.3841   277
14.3941   271
14.4041   260
14.4141   260
14.4241   267
14.4341   286
14.4441   272
14.4541   263
14.4641   262
14.4741   262
14.4841   261
14.4941   251
14.5041   272
14.5141   287
14.5241   272
14.5341   278
14.5441   269
14.5541   254
14.5641   278
14.5741   267
14.5841   255
14.5941   264
14.6041   261
14.6141   255
14.6241   263
14.6341   275
14.6441   271
14.6541   270
14.6641   270
14.6741   279
14.6841   283
14.6941   276
14.7041   288
14.7141   292
14.7241   287
14.7341   295
14.7441   298
14.7541   296
14.7641   287
14.7741   288
14.7841   297
14.7941   290
14.8041   271
14.8141   284
14.8241   316
14.8341   317
14.8441   331
14.8541   333
14.8641   325
14.8741   327
14.8841   324
14.8941   312
14.9041   311
14.9141   301
14.9241   293
14.9341   316
14.9441   320
14.9541   300
14.9641   292
14.9741   301
14.9841   299
14.9941   299
15.0041   319
15.0141   340
15.0241   333
15.0341   320
15.0441   316
15.0541   291
15.0641   298
15.0741   319
15.0841   306
15.0941   290
15.1041   305
15.1141   319
15.1241   325
15.1341   303
15.1441   299
15.1541   315
15.1641   307
15.1741   313
15.1841   323
15.1941   312
15.2041   311
15.2141   320
15.2241   326
15.2341   317
15.2441   310
15.2541   306
15.2641   325
15.2741   313
15.2841   318
15.2941   330
15.3041   330
15.3141   314
15.3241   321
15.3341   330
15.3441   340
15.3541   329
15.3641   324
15.3741   330
15.3841   341
15.3941   333
15.4041   344
15.4141   350
15.4241   327
15.4341   326
15.4441   366
15.4541   355
15.4641   355
15.4741   376
15.4841   358
15.4941   365
15.5041   381
15.5141   396
15.5241   412
15.5341   432
15.5441   438
15.5541   432
15.5641   450
15.5741   471
15.5841   476
15.5941   505
15.6041   540
15.6141   589
15.6241   606
15.6341   620
15.6441   673
15.6541   705
15.6641   703
15.6741   747
15.6841   797
15.6941   799
15.7041   826
15.7141   865
15.7241   891
15.7341   906
15.7441   907
15.7541   896
15.7641   896
15.7741   867
15.7841   874
15.7941   863
15.8041   854
15.8141   813
15.8241   749
15.8341   733
15.8441   727
15.8541   692
15.8641   619
15.8741   605
15.8841   593
15.8941   552
15.9041   525
15.9141   487
15.9241   467
15.9341   469
15.9441   443
15.9541   402
15.9641   397
15.9741   404
15.9841   387
15.9941   374
16.0041   361
16.0141   364
16.0241   368
16.0341   357
16.0441   367
16.0541   384
16.0641   385
16.0741   354
16.0841   367
16.0941   396
16.1041   376
16.1141   388
16.1241   372
16.1341   380
16.1441   371
16.1541   394
16.1641   390
16.1741   370
16.1841   367
16.1941   368
16.2041   371
16.2141   374
16.2241   373
16.2341   378
16.2441   374
16.2541   359
16.2641   375
16.2741   396
16.2841   394
16.2941   376
16.3041   381
16.3141   369
16.3241   368
16.3341   383
16.3441   398
16.3541   379
16.3641   404
16.3741   391
16.3841   394
16.3941   394
16.4041   379
16.4141   390
16.4241   369
16.4341   382
16.4441   368
16.4541   383
16.4641   398
16.4741   403
16.4841   417
16.4941   415
16.5041   415
16.5141   376
16.5241   392
16.5341   420
16.5441   433
16.5541   434
16.5641   417
16.5741   423
16.5841   415
16.5941   417
16.6041   423
16.6141   418
16.6241   413
16.6341   414
16.6441   421
16.6541   416
16.6641   422
16.6741   418
16.6841   422
16.6941   435
16.7041   445
16.7141   435
16.7241   435
16.7341   435
16.7441   430
16.7541   410
16.7641   424
16.7741   418
16.7841   427
16.7941   430
16.8041   401
16.8141   438
16.8241   426
16.8341   431
16.8441   432
16.8541   421
16.8641   417
16.8741   445
16.8841   423
16.8941   399
16.9041   392
16.9141   411
16.9241   444
16.9341   455
16.9441   435
16.9541   434
16.9641   430
16.9741   426
16.9841   403
16.9941   408
17.0041   418
17.0141   428
17.0241   426
17.0341   424
17.0441   415
17.0541   431
17.0641   429
17.0741   431
17.0841   411
17.0941   414
17.1041   411
17.1141   401
17.1241   432
17.1341   430
17.1441   427
17.1541   416
17.1641   439
17.1741   445
17.1841   438
17.1941   445
17.2041   460
17.2141   458
17.2241   446
17.2341   434
17.2441   463
17.2541   427
17.2641   414
17.2741   439
17.2841   438
17.2941   440
17.3041   453
17.3141   450
17.3241   436
17.3341   459
17.3441   470
17.3541   458
17.3641   443
17.3741   446
17.3841   423
17.3941   447
17.4041   461
17.4141   455
17.4241   436
17.4341   471
17.4441   485
17.4541   481
17.4641   477
17.4741   463
17.4841   488
17.4941   487
17.5041   471
17.5141   499
17.5241   511
17.5341   503
17.5441   485
17.5541   514
17.5641   520
17.5741   524
17.5841   534
17.5941   535
17.6041   531
17.6141   529
17.6241   547
17.6341   561
17.6441   556
17.6541   538
17.6641   538
17.6741   534
17.6841   531
17.6941   502
17.7041   476
17.7141   536
17.7241   531
17.7341   511
17.7441   538
17.7541   517
17.7641   476
17.7741   480
17.7841   525
17.7941   524
17.8041   490
17.8141   496
17.8241   514
17.8341   469
17.8441   466
17.8541   509
17.8641   508
17.8741   477
17.8841   504
17.8941   482
17.9041   438
17.9141   452
17.9241   441
17.9341   473
17.9441   479
17.9541   462
17.9641   475
17.9741   482
17.9841   482
17.9941   461
18.0041   461
18.0141   470
18.0241   475
18.0341   472
18.0441   513
18.0541   502
18.0641   492
18.0741   523
18.0841   493
18.0941   481
18.1041   461
18.1141   494
18.1241   494
18.1341   466
18.1441   487
18.1541   458
18.1641   492
18.1741   476
18.1841   482
18.1941   469
18.2041   493
18.2141   505
18.2241   498
18.2341   481
18.2441   470
18.2541   481
18.2641   480
18.2741   481
18.2841   478
18.2941   476
18.3041   483
18.3141   468
18.3241   502
18.3341   506
18.3441   470
18.3541   511
18.3641   528
18.3741   483
18.3841   489
18.3941   504
18.4041   488
18.4141   483
18.4241   492
18.4341   543
18.4441   494
18.4541   494
18.4641   512
18.4741   522
18.4841   496
18.4941   480
18.5041   487
18.5141   471
18.5241   492
18.5341   516
18.5441   516
18.5541   514
18.5641   505
18.5741   487
18.5841   476
18.5941   500
18.6041   532
18.6141   514
18.6241   516
18.6341   500
18.6441   520
18.6541   490
18.6641   513
18.6741   501
18.6841   506
18.6941   539
18.7041   502
18.7141   498
18.7241   510
18.7341   502
18.7441   493
18.7541   494
18.7641   504
18.7741   514
18.7841   504
18.7941   502
18.8041   501
18.8141   511
18.8241   485
18.8341   517
18.8441   500
18.8541   517
18.8641   512
18.8741   551
18.8841   506
18.8941   488
18.9041   483
18.9141   492
18.9241   497
18.9341   470
18.9441   494
18.9541   530
18.9641   513
18.9741   519
18.9841   516
18.9941   517
19.0041   495
19.0141   473
19.0241   493
19.0341   465
19.0441   512
19.0541   511
19.0641   508
19.0741   500
19.0841   494
19.0941   518
19.1041   516
19.1141   491
19.1241   513
19.1341   534
19.1441   487
19.1541   494
19.1641   479
19.1741   498
19.1841   473
19.1941   513
19.2041   506
19.2141   535
19.2241   529
19.2341   523
19.2441   510
19.2541   531
19.2641   543
19.2741   518
19.2841   478
19.2941   495
19.3041   496
19.3141   472
19.3241   492
19.3341   502
19.3441   470
19.3541   507
19.3641   541
19.3741   534
19.3841   538
19.3941   543
19.4041   514
19.4141   539
19.4241   525
19.4341   557
19.4441   506
19.4541   499
19.4641   505
19.4741   510
19.4841   509
19.4941   509
19.5041   498
19.5141   548
19.5241   572
19.5341   542
19.5441   488
19.5541   507
19.5641   548
19.5741   531
19.5841   504
19.5941   504
19.6041   520
19.6141   514
19.6241   527
19.6341   533
19.6441   506
19.6541   514
19.6641   517
19.6741   542
19.6841   538
19.6941   495
19.7041   507
19.7141   517
19.7241   529
19.7341   559
19.7441   526
19.7541   547
19.7641   514
19.7741   490
19.7841   532
19.7941   515
19.8041   575
19.8141   543
19.8241   559
19.8341   555
19.8441   537
19.8541   523
19.8641   520
19.8741   516
19.8841   529
19.8941   518
19.9041   516
19.9141   559
19.9241   542
19.9341   517
19.9441   545
19.9541   490
19.9641   535
19.9741   534
19.9841   551
19.9941   537
20.0041   560
20.0141   496
20.0241   543
20.0341   543
20.0441   523
20.0541   519
20.0641   535
20.0741   539
20.0841   542
20.0941   538
20.1041   519
20.1141   545
20.1241   565
20.1341   568
20.1441   553
20.1541   533
20.1641   558
20.1741   548
20.1841   525
20.1941   504
20.2041   516
20.2141   502
20.2241   522
20.2341   532
20.2441   566
20.2541   535
20.2641   565
20.2741   581
20.2841   571
20.2941   548
20.3041   519
20.3141   524
20.3241   535
20.3341   547
20.3441   546
20.3541   511
20.3641   551
20.3741   550
20.3841   536
20.3941   529
20.4041   557
20.4141   508
20.4241   500
20.4341   507
20.4441   514
20.4541   531
20.4641   507
20.4741   530
20.4841   573
20.4941   572
20.5041   513
20.5141   528
20.5241   538
20.5341   524
20.5441   526
20.5541   525
20.5641   505
20.5741   558
20.5841   535
20.5941   560
20.6041   555
20.6141   531
20.6241   535
20.6341   527
20.6441   564
20.6541   563
20.6641   524
20.6741   548
20.6841   546
20.6941   523
20.7041   555
20.7141   584
20.7241   550
20.7341   573
20.7441   531
20.7541   522
20.7641   574
20.7741   548
20.7841   529
20.7941   558
20.8041   560
20.8141   524
20.8241   537
20.8341   565
20.8441   532
20.8541   591
20.8641   594
20.8741   620
20.8841   589
20.8941   573
20.9041   610
20.9141   638
20.9241   599
20.9341   616
20.9441   636
20.9541   639
20.9641   663
20.9741   633
20.9841   633
20.9941   703
21.0041   739
21.0141   698
21.0241   759
21.0341   738
21.0441   707
21.0541   688
21.0641   732
21.0741   743
21.0841   770
21.0941   787
21.1041   784
21.1141   753
21.1241   797
21.1341   768
21.1441   802
21.1541   798
21.1641   777
21.1741   767
21.1841   756
21.1941   749
21.2041   766
21.2141   752
21.2241   718
21.2341   733
21.2441   676
21.2541   672
21.2641   633
21.2741   685
21.2841   699
21.2941   653
21.3041   633
21.3141   673
21.3241   588
21.3341   618
21.3441   614
21.3541   574
21.3641   534
21.3741   531
21.3841   569
21.3941   543
21.4041   539
21.4141   546
21.4241   536
21.4341   562
21.4441   533
21.4541   538
21.4641   586
21.4741   528
21.4841   501
21.4941   496
21.5041   550
21.5141   520
21.5241   510
21.5341   539
21.5441   503
21.5541   506
21.5641   525
21.5741   533
21.5841   505
21.5941   549
21.6041   575
21.6141   538
21.6241   560
21.6341   525
21.6441   566
21.6541   542
21.6641   548
21.6741   532
21.6841   503
21.6941   495
21.7041   527
21.7141   558
21.7241   529
21.7341   552
21.7441   525
21.7541   541
21.7641   530
21.7741   506
21.7841   514
21.7941   475
21.8041   494
21.8141   548
21.8241   505
21.8341   463
21.8441   520
21.8541   483
21.8641   514
21.8741   541
21.8841   526
21.8941   543
21.9041   553
21.9141   560
21.9241   532
21.9341   501
21.9441   555
21.9541   508
21.9641   551
21.9741   522
21.9841   539
21.9941   506
22.0041   570
22.0141   545
22.0241   547
22.0341   548
22.0441   546
22.0541   511
22.0641   542
22.0741   542
22.0841   501
22.0941   532
22.1041   497
22.1141   499
22.1241   534
22.1341   499
22.1441   516
22.1541   510
22.1641   518
22.1741   499
22.1841   528
22.1941   548
22.2041   541
22.2141   554
22.2241   542
22.2341   536
22.2441   570
22.2541   542
22.2641   529
22.2741   497
22.2841   498
22.2941   542
22.3041   506
22.3141   468
22.3241   501
22.3341   488
22.3441   529
22.3541   504
22.3641   541
22.3741   534
22.3841   551
22.3941   529
22.4041   524
22.4141   524
22.4241   499
22.4341   485
22.4441   506
22.4541   536
22.4641   530
22.4741   535
22.4841   525
22.4941   522
22.5041   507
22.5141   504
22.5241   494
22.5341   551
22.5441   533
22.5541   521
22.5641   522
22.5741   568
22.5841   516
22.5941   499
22.6041   538
22.6141   514
22.6241   506
22.6341   568
22.6441   521
22.6541   521
22.6641   546
22.6741   500
22.6841   513
22.6941   518
22.7041   512
22.7141   520
22.7241   510
22.7341   518
22.7441   521
22.7541   499
22.7641   487
22.7741   501
22.7841   532
22.7941   488
22.8041   509
22.8141   509
22.8241   516
22.8341   504
22.8441   503
22.8541   525
22.8641   514
22.8741   512
22.8841   516
22.8941   481
22.9041   508
22.9141   498
22.9241   571
22.9341   501
22.9441   510
22.9541   520
22.9641   468
22.9741   512
22.9841   499
22.9941   522
23.0041   517
23.0141   491
23.0241   502
23.0341   500
23.0441   480
23.0541   512
23.0641   489
23.0741   508
23.0841   515
23.0941   489
23.1041   501
23.1141   471
23.1241   504
23.1341   522
23.1441   475
23.1541   528
23.1641   483
23.1741   495
23.1841   518
23.1941   497
23.2041   504
23.2141   495
23.2241   461
23.2341   476
23.2441   526
23.2541   505
23.2641   511
23.2741   448
23.2841   505
23.2941   529
23.3041   507
23.3141   510
23.3241   467
23.3341   507
23.3441   452
23.3541   508
23.3641   500
23.3741   480
23.3841   502
23.3941   471
23.4041   484
23.4141   507
23.4241   477
23.4341   534
23.4441   494
23.4541   510
23.4641   483
23.4741   457
23.4841   521
23.4941   493
23.5041   506
23.5141   474
23.5241   508
23.5341   522
23.5441   513
23.5541   449
23.5641   486
23.5741   489
23.5841   508
23.5941   531
23.6041   527
23.6141   463
23.6241   507
23.6341   542
23.6441   512
23.6541   480
23.6641   511
23.6741   496
23.6841   510
23.6941   509
23.7041   487
23.7141   480
23.7241   467
23.7341   483
23.7441   474
23.7541   562
23.7641   512
23.7741   510
23.7841   509
23.7941   542
23.8041   519
23.8141   510
23.8241   518
23.8341   490
23.8441   541
23.8541   519
23.8641   503
23.8741   538
23.8841   514
23.8941   520
23.9041   511
23.9141   495
23.9241   479
23.9341   518
23.9441   482
23.9541   500
23.9641   478
23.9741   469
23.9841   485
23.9941   482
24.0041   489
24.0141   481
24.0241   434
24.0341   464
24.0441   501
24.0541   503
24.0641   450
24.0741   475
24.0841   502
24.0941   497
24.1041   458
24.1141   454
24.1241   445
24.1341   477
24.1441   487
24.1541   483
24.1641   458
24.1741   471
24.1841   480
24.1941   471
24.2041   469
24.2141   463
24.2241   467
24.2341   469
24.2441   446
24.2541   451
24.2641   477
24.2741   466
24.2841   467
24.2941   481
24.3041   512
24.3141   473
24.3241   466
24.3341   463
24.3441   471
24.3541   437
24.3641   456
24.3741   451
24.3841   487
24.3941   461
24.4041   416
24.4141   494
24.4241   448
24.4341   465
24.4441   432
24.4541   477
24.4641   466
24.4741   439
24.4841   423
24.4941   448
24.5041   435
24.5141   504
24.5241   498
24.5341   479
24.5441   453
24.5541   468
24.5641   446
24.5741   466
24.5841   428
24.5941   424
24.6041   438
24.6141   442
24.6241   437
24.6341   459
24.6441   453
24.6541   472
24.6641   452
24.6741   417
24.6841   456
24.6941   491
24.7041   477
24.7141   464
24.7241   435
24.7341   444
24.7441   463
24.7541   428
24.7641   432
24.7741   414
24.7841   407
24.7941   460
24.8041   457
24.8141   475
24.8241   475
24.8341   481
24.8441   475
24.8541   464
24.8641   473
24.8741   443
24.8841   413
24.8941   444
24.9041   426
24.9141   452
24.9241   462
24.9341   484
24.9441   423
24.9541   471
24.9641   452
24.9741   437
24.9841   447
24.9941   446
25.0041   456
25.0141   443
25.0241   448
25.0341   460
25.0441   460
25.0541   413
25.0641   424
25.0741   461
25.0841   454
25.0941   470
25.1041   389
25.1141   415
25.1241   467
25.1341   448
25.1441   403
25.1541   433
25.1641   450
25.1741   444
25.1841   442
25.1941   442
25.2041   455
25.2141   456
25.2241   430
25.2341   435
25.2441   479
25.2541   443
25.2641   442
25.2741   428
25.2841   410
25.2941   443
25.3041   440
25.3141   422
25.3241   444
25.3341   461
25.3441   425
25.3541   434
25.3641   436
25.3741   440
25.3841   425
25.3941   429
25.4041   418
25.4141   422
25.4241   436
25.4341   411
25.4441   450
25.4541   465
25.4641   426
25.4741   418
25.4841   417
25.4941   428
25.5041   397
25.5141   407
25.5241   418
25.5341   417
25.5441   441
25.5541   405
25.5641   425
25.5741   388
25.5841   411
25.5941   448
25.6041   400
25.6141   391
25.6241   399
25.6341   413
25.6441   388
25.6541   428
25.6641   428
25.6741   385
25.6841   428
25.6941   408
25.7041   419
25.7141   433
25.7241   412
25.7341   369
25.7441   438
25.7541   412
25.7641   415
25.7741   414
25.7841   413
25.7941   419
25.8041   381
25.8141   411
25.8241   411
25.8341   424
25.8441   423
25.8541   381
25.8641   408
25.8741   402
25.8841   421
25.8941   389
25.9041   387
25.9141   389
25.9241   435
25.9341   380
25.9441   406
25.9541   380
25.9641   396
25.9741   395
25.9841   401
25.9941   394
26.0041   410
26.0141   403
26.0241   428
26.0341   391
26.0441   377
26.0541   387
26.0641   392
26.0741   371
26.0841   408
26.0941   402
26.1041   391
26.1141   385
26.1241   413
26.1341   423
26.1441   397
26.1541   420
26.1641   384
26.1741   413
26.1841   375
26.1941   366
26.2041   363
26.2141   386
26.2241   381
26.2341   372
26.2441   388
26.2541   383
26.2641   372
26.2741   421
26.2841   414
26.2941   396
26.3041   414
26.3141   390
26.3241   395
26.3341   373
26.3441   380
26.3541   359
26.3641   371
26.3741   386
26.3841   391
26.3941   363
26.4041   353
26.4141   376
26.4241   415
26.4341   378
26.4441   408
26.4541   397
26.4641   342
26.4741   374
26.4841   393
26.4941   365
26.5041   383
26.5141   394
26.5241   391
26.5341   360
26.5441   390
26.5541   362
26.5641   365
26.5741   373
26.5841   400
26.5941   359
26.6041   364
26.6141   357
26.6241   384
26.6341   380
26.6441   392
26.6541   393
26.6641   381
26.6741   357
26.6841   375
26.6941   396
26.7041   408
26.7141   427
26.7241   371
26.7341   395
26.7441   387
26.7541   375
26.7641   355
26.7741   348
26.7841   382
26.7941   339
26.8041   372
26.8141   343
26.8241   359
26.8341   387
26.8441   358
26.8541   376
26.8641   358
26.8741   349
26.8841   378
26.8941   335
26.9041   372
26.9141   402
26.9241   356
26.9341   348
26.9441   373
26.9541   326
26.9641   358
26.9741   352
26.9841   348
26.9941   324
27.0041   365
27.0141   385
27.0241   345
27.0341   366
27.0441   378
27.0541   343
27.0641   348
27.0741   359
27.0841   370
27.0941   388
27.1041   367
27.1141   351
27.1241   367
27.1341   366
27.1441   401
27.1541   337
27.1641   372
27.1741   349
27.1841   357
27.1941   358
27.2041   390
27.2141   398
27.2241   339
27.2341   367
27.2441   366
27.2541   313
27.2641   328
27.2741   336
27.2841   367
27.2941   349
27.3041   341
27.3141   370
27.3241   334
27.3341   329
27.3441   347
27.3541   347
27.3641   353
27.3741   361
27.3841   333
27.3941   358
27.4041   337
27.4141   336
27.4241   382
27.4341   347
27.4441   350
27.4541   357
27.4641   322
27.4741   341
27.4841   370
27.4941   360
27.5041   339
27.5141   353
27.5241   340
27.5341   352
27.5441   348
27.5541   368
27.5641   330
27.5741   352
27.5841   318
27.5941   338
27.6041   343
27.6141   366
27.6241   331
27.6341   331
27.6441   335
27.6541   300
27.6641   313
27.6741   319
27.6841   322
27.6941   371
27.7041   334
27.7141   356
27.7241   326
27.7341   331
27.7441   337
27.7541   331
27.7641   309
27.7741   314
27.7841   327
27.7941   330
27.8041   297
27.8141   334
27.8241   304
27.8341   316
27.8441   305
27.8541   356
27.8641   331
27.8741   305
27.8841   303
27.8941   312
27.9041   329
27.9141   316
27.9241   293
27.9341   317
27.9441   330
27.9541   314
27.9641   321
27.9741   313
27.9841   330
27.9941   314
28.0041   307
28.0141   321
28.0241   307
28.0341   309
28.0441   299
28.0541   297
28.0641   307
28.0741   307
28.0841   320
28.0941   320
28.1041   308
28.1141   322
28.1241   282
28.1341   323
28.1441   336
28.1541   323
28.1641   293
28.1741   304
28.1841   315
28.1941   297
28.2041   291
28.2141   318
28.2241   303
28.2341   333
28.2441   299
28.2541   296
28.2641   305
28.2741   307
28.2841   294
28.2941   309
28.3041   299
28.3141   328
28.3241   303
28.3341   297
28.3441   298
28.3541   296
28.3641   317
28.3741   306
28.3841   321
28.3941   322
28.4041   291
28.4141   283
28.4241   288
28.4341   279
28.4441   318
28.4541   300
28.4641   314
28.4741   303
28.4841   312
28.4941   340
28.5041   305
28.5141   283
28.5241   287
28.5341   286
28.5441   314
28.5541   304
28.5641   301
28.5741   301
28.5841   307
28.5941   280
28.6041   306
28.6141   317
28.6241   313
28.6341   309
28.6441   295
28.6541   297
28.6641   281
28.6741   281
28.6841   273
28.6941   277
28.7041   286
28.7141   277
28.7241   259
28.7341   287
28.7441   276
28.7541   298
28.7641   280
28.7741   288
28.7841   293
28.7941   295
28.8041   321
28.8141   287
28.8241   279
28.8341   263
28.8441   275
28.8541   290
28.8641   297
28.8741   277
28.8841   268
28.8941   279
28.9041   288
28.9141   305
28.9241   258
28.9341   246
28.9441   285
28.9541   265
28.9641   257
28.9741   289
28.9841   275
28.9941   291
29.0041   257
29.0141   290
29.0241   279
29.0341   297
29.0441   263
29.0541   286
29.0641   286
29.0741   256
29.0841   251
29.0941   282
29.1041   264
29.1141   257
29.1241   246
29.1341   294
29.1441   291
29.1541   263
29.1641   289
29.1741   242
29.1841   273
29.1941   247
29.2041   265
29.2141   243
29.2241   259
29.2341   269
29.2441   265
29.2541   256
29.2641   268
29.2741   278
29.2841   242
29.2941   269
29.3041   286
29.3141   268
29.3241   274
29.3341   251
29.3441   276
29.3541   273
29.3641   275
29.3741   246
29.3841   252
29.3941   261
29.4041   250
29.4141   242
29.4241   246
29.4341   258
29.4441   286
29.4541   260
29.4641   239
29.4741   246
29.4841   233
29.4941   273
29.5041   260
29.5141   246
29.5241   255
29.5341   242
29.5441   251
29.5541   245
29.5641   272
29.5741   258
29.5841   257
29.5941   237
29.6041   245
29.6141   251
29.6241   256
29.6341   228
29.6441   260
29.6541   243
29.6641   249
29.6741   250
29.6841   273
29.6941   293
29.7041   233
29.7141   264
29.7241   252
29.7341   253
29.7441   226
29.7541   227
29.7641   256
29.7741   270
29.7841   273
29.7941   245
29.8041   248
29.8141   267
29.8241   224
29.8341   235
29.8441   238
29.8541   255
29.8641   265
29.8741   257
29.8841   225
29.8941   232
29.9041   208
29.9141   247
29.9241   257
29.9341   238
29.9441   246
29.9541   216
29.9641   251
29.9741   236
29.9841   267
29.9941   249
30.0041   229
30.0141   260
30.0241   225
30.0341   224
30.0441   234
30.0541   249
30.0641   235
30.0741   236
30.0841   243
30.0941   234
30.1041   238
30.1141   239
30.1241   224
30.1341   254
30.1441   233
30.1541   241
30.1641   213
30.1741   238
30.1841   233
30.1941   228
30.2041   203
30.2141   220
30.2241   250
30.2341   241
30.2441   229
30.2541   233
30.2641   233
30.2741   229
30.2841   243
30.2941   206
30.3041   228
30.3141   227
30.3241   209
30.3341   235
30.3441   230
30.3541   245
30.3641   230
30.3741   212
30.3841   201
30.3941   249
30.4041   238
30.4141   231
30.4241   208
30.4341   208
30.4441   226
30.4541   240
30.4641   257
30.4741   238
30.4841   229
30.4941   216
30.5041   200
30.5141   226
30.5241   198
30.5341   204
30.5441   229
30.5541   218
30.5641   238
30.5741   228
30.5841   205
30.5941   211
30.6041   224
30.6141   204
30.6241   218
30.6341   224
30.6441   236
30.6541   216
30.6641   220
30.6741   217
30.6841   201
30.6941   226
30.7041   223
30.7141   194
30.7241   202
30.7341   219
30.7441   216
30.7541   213
30.7641   222
30.7741   209
30.7841   193
30.7941   230
30.8041   215
30.8141   226
30.8241   210
30.8341   240
30.8441   189
30.8541   211
30.8641   203
30.8741   185
30.8841   204
30.8941   186
30.9041   210
30.9141   213
30.9241   227
30.9341   233
30.9441   205
30.9541   200
30.9641   218
30.9741   184
30.9841   230
30.9941   230
31.0041   220
31.0141   213
31.0241   238
31.0341   197
31.0441   188
31.0541   193
31.0641   208
31.0741   191
31.0841   207
31.0941   220
31.1041   219
31.1141   201
31.1241   192
31.1341   219
31.1441   221
31.1541   203
31.1641   219
31.1741   209
31.1841   195
31.1941   186
31.2041   194
31.2141   197
31.2241   182
31.2341   176
31.2441   196
31.2541   185
31.2641   174
31.2741   178
31.2841   215
31.2941   182
31.3041   206
31.3141   178
31.3241   184
31.3341   215
31.3441   208
31.3541   196
31.3641   206
31.3741   187
31.3841   192
31.3941   199
31.4041   184
31.4141   203
31.4241   184
31.4341   193
31.4441   159
31.4541   192
31.4641   179
31.4741   198
31.4841   181
31.4941   206
31.5041   165
31.5141   190
31.5241   184
31.5341   192
31.5441   201
31.5541   187
31.5641   175
31.5741   187
31.5841   180
31.5941   166
31.6041   173
31.6141   197
31.6241   187
31.6341   178
31.6441   196
31.6541   201
31.6641   196
31.6741   197
31.6841   185
31.6941   197
31.7041   205
31.7141   175
31.7241   187
31.7341   198
31.7441   166
31.7541   179
31.7641   174
31.7741   195
31.7841   199
31.7941   189
31.8041   185
31.8141   185
31.8241   196
31.8341   160
31.8441   208
31.8541   206
31.8641   189
31.8741   183
31.8841   161
31.8941   174
31.9041   170
31.9141   190
31.9241   175
31.9341   182
31.9441   149
31.9541   170
31.9641   193
31.9741   211
31.9841   169
31.9941   170
32.0041   176
32.0141   174
32.0241   188
32.0341   181
32.0441   154
32.0541   177
32.0641   170
32.0741   170
32.0841   177
32.0941   170
32.1041   177
32.1141   172
32.1241   166
32.1341   179
32.1441   174
32.1541   181
32.1641   169
32.1741   171
32.1841   170
32.1941   168
32.2041   170
32.2141   177
32.2241   155
32.2341   187
32.2441   164
32.2541   168
32.2641   161
32.2741   173
32.2841   167
32.2941   152
32.3041   197
32.3141   177
32.3241   171
32.3341   167
32.3441   149
32.3541   173
32.3641   150
32.3741   182
32.3841   161
32.3941   154
32.4041   173
32.4141   153
32.4241   173
32.4341   171
32.4441   131
32.4541   151
32.4641   173
32.4741   184
32.4841   163
32.4941   149
32.5041   158
32.5141   163
32.5241   192
32.5341   155
32.5441   176
32.5541   172
32.5641   190
32.5741   175
32.5841   174
32.5941   156
32.6041   151
32.6141   149
32.6241   168
32.6341   133
32.6441   152
32.6541   144
32.6641   151
32.6741   144
32.6841   155
32.6941   159
32.7041   149
32.7141   159
32.7241   130
32.7341   154
32.7441   149
32.7541   157
32.7641   153
32.7741   144
32.7841   152
32.7941   164
32.8041   135
32.8141   142
32.8241   144
32.8341   146
32.8441   146
32.8541   151
32.8641   160
32.8741   163
32.8841   166
32.8941   161
32.9041   153
32.9141   144
32.9241   147
32.9341   151
32.9441   156
32.9541   153
32.9641   134
32.9741   165
32.9841   143
32.9941   152
33.0041   159
33.0141   144
33.0241   151
33.0341   159
33.0441   151
33.0541   160
33.0641   143
33.0741   131
33.0841   148
33.0941   138
33.1041   137
33.1141   139
33.1241   162
33.1341   145
33.1441   155
33.1541   141
33.1641   142
33.1741   146
33.1841   142
33.1941   148
33.2041   118
33.2141   153
33.2241   140
33.2341   146
33.2441   148
33.2541   148
33.2641   155
33.2741   137
33.2841   135
33.2941   138
33.3041   119
33.3141   127
33.3241   129
33.3341   146
33.3441   129
33.3541   117
33.3641   138
33.3741   134
33.3841   133
33.3941   130
33.4041   152
33.4141   128
33.4241   148
33.4341   131
33.4441   130
33.4541   123
33.4641   133
33.4741   138
33.4841   144
33.4941   126
33.5041   131
33.5141   132
33.5241   142
33.5341   158
33.5441   128
33.5541   133
33.5641   125
33.5741   147
33.5841   132
33.5941   119
33.6041   123
33.6141   136
33.6241   126
33.6341   129
33.6441   123
33.6541   146
33.6641   134
33.6741   109
33.6841   116
33.6941   124
33.7041   139
33.7141   137
33.7241   120
33.7341   129
33.7441   162
33.7541   114
33.7641   127
33.7741   126
33.7841   127
33.7941   130
33.8041   127
33.8141   108
33.8241   125
33.8341   144
33.8441   136
33.8541   119
33.8641   112
33.8741   116
33.8841   126
33.8941   123
33.9041   128
33.9141   127
33.9241   126
33.9341   120
33.9441   123
33.9541   122
33.9641   148
33.9741   115
33.9841   129
33.9941   132
34.0041   122
34.0141   120
34.0241   126
34.0341   115
34.0441   112
34.0541   122
34.0641   125
34.0741   115
34.0841   125
34.0941   130
34.1041   124
34.1141   124
34.1241   127
34.1341   134
34.1441   116
34.1541    97
34.1641   125
34.1741   125
34.1841   106
34.1941   122
34.2041   139
34.2141   107
34.2241   122
34.2341   125
34.2441   122
34.2541   120
34.2641   115
34.2741   119
34.2841   128
34.2941   108
34.3041   116
34.3141   118
34.3241   131
34.3341   107
34.3441   102
34.3541   110
34.3641   114
34.3741   118
34.3841   107
34.3941   115
34.4041   114
34.4141    96
34.4241   114
34.4341   142
34.4441   110
34.4541   107
34.4641   111
34.4741   110
34.4841   107
34.4941   110
34.5041   111
34.5141    80
34.5241    94
34.5341   103
34.5441   102
34.5541   104
34.5641   108
34.5741   120
34.5841   104
34.5941   122
34.6041   104
34.6141    94
34.6241   110
34.6341   111
34.6441   104
34.6541    83
34.6641   108
34.6741   107
34.6841    96
34.6941   125
34.7041   115
34.7141   111
34.7241   108
34.7341   102
34.7441   106
34.7541   105
34.7641    84
34.7741   112
34.7841   112
34.7941    91
34.8041    97
34.8141   106
34.8241   104
34.8341   105
34.8441    87
34.8541    99
34.8641    92
34.8741   105
34.8841   112
34.8941    97
34.9041    98
34.9141   107
34.9241   117
34.9341    99
34.9441    98
34.9541    93
34.9641   111
34.9741    93
34.9841    96
34.9941    98
35.0041   112
35.0141   109
35.0241   107
35.0341   101
35.0441    83
35.0541   109
35.0641   103
35.0741   102
35.0841    95
35.0941    91
35.1041    99
35.1141   101
35.1241   113
35.1341    99
35.1441   110
35.1541   112
35.1641   107
35.1741   100
35.1841   105
35.1941   113
35.2041    95
35.2141    92
35.2241    94
35.2341    94
35.2441   115
35.2541    93
35.2641   105
35.2741   105
35.2841    95
35.2941    92
35.3041   106
35.3141    87
35.3241    89
35.3341    99
35.3441   114
35.3541    80
35.3641    99
35.3741    99
35.3841    87
35.3941    94
35.4041   102
35.4141    94
35.4241   100
35.4341   106
35.4441    88
35.4541    87
35.4641    99
35.4741   103
35.4841    98
35.4941    94
35.5041    89
35.5141    83
35.5241    78
35.5341   105
35.5441   115
35.5541    69
35.5641   106
35.5741    91
35.5841   101
35.5941    89
35.6041    94
35.6141    81
35.6241    68
35.6341    91
35.6441    79
35.6541    82
35.6641    79
35.6741    81
35.6841    76
35.6941    88
35.7041    95
35.7141    93
35.7241    84
35.7341    94
35.7441    74
35.7541   100
35.7641    89
35.7741    94
35.7841    76
35.7941    90
35.8041    80
35.8141    88
35.8241    90
35.8341    95
35.8441    73
35.8541    79
35.8641    88
35.8741    85
35.8841    97
35.8941    77
35.9041    74
35.9141    74
35.9241    79
35.9341    91
35.9441    89
35.9541    84
35.9641    74
35.9741    83
35.9841    78
35.9941    75
36.0041    82
36.0141    93
36.0241    93
36.0341    74
36.0441    76
36.0541    82
36.0641    77
36.0741   105
36.0841    75
36.0941    88
36.1041    74
36.1141    88
36.1241    87
36.1341    88
36.1441    92
36.1541    84
36.1641    83
36.1741    86
36.1841    73
36.1941    82
36.2041    88
36.2141    84
36.2241    77
36.2341    87
36.2441    78
36.2541    74
36.2641    73
36.2741    73
36.2841    92
36.2941    91
36.3041    72
36.3141    72
36.3241    78
36.3341    77
36.3441    83
36.3541    80
36.3641    77
36.3741    89
36.3841    85
36.3941    70
36.4041    58
36.4141    82
36.4241    55
36.4341    64
36.4441    77
36.4541    79
36.4641    72
36.4741    71
36.4841    56
36.4941    77
36.5041    69
36.5141    75
36.5241    59
36.5341    72
36.5441    57
36.5541    74
36.5641    74
36.5741    67
36.5841    66
36.5941    61
36.6041    66
36.6141    70
36.6241    64
36.6341    72
36.6441    70
36.6541    81
36.6641    78
36.6741    86
36.6841    72
36.6941    80
36.7041    72
36.7141    59
36.7241    70
36.7341    83
36.7441    75
36.7541    62
36.7641    61
36.7741    60
36.7841    71
36.7941    67
36.8041    69
36.8141    69
36.8241    61
36.8341    70
36.8441    65
36.8541    76
36.8641    75
36.8741    60
36.8841    84
36.8941    70
36.9041    60
36.9141    65
36.9241    66
36.9341    68
36.9441    86
36.9541    64
36.9641    71
36.9741    57
36.9841    89
36.9941    79
37.0041    83
37.0141    65
37.0241    73
37.0341    49
37.0441    66
37.0541    74
37.0641    65
37.0741    61
37.0841    59
37.0941    62
37.1041    60
37.1141    56
37.1241    58
37.1341    59
37.1441    53
37.1541    58
37.1641    52
37.1741    58
37.1841    62
37.1941    65
37.2041    46
37.2141    72
37.2241    68
37.2341    60
37.2441    58
37.2541    83
37.2641    74
37.2741    57
37.2841    62
37.2941    69
37.3041    63
37.3141    62
37.3241    72
37.3341    83
37.3441    59
37.3541    58
37.3641    59
37.3741    52
37.3841    47
37.3941    57
37.4041    62
37.4141    54
37.4241    59
37.4341    64
37.4441    46
37.4541    64
37.4641    68
37.4741    51
37.4841    58
37.4941    66
37.5041    57
37.5141    54
37.5241    50
37.5341    54
37.5441    68
37.5541    38
37.5641    46
37.5741    61
37.5841    56
37.5941    53
37.6041    51
37.6141    59
37.6241    60
37.6341    56
37.6441    43
37.6541    62
37.6641    61
37.6741    52
37.6841    48
37.6941    57
37.7041    49
37.7141    51
37.7241    53
37.7341    54
37.7441    52
37.7541    53
37.7641    50
37.7741    57
37.7841    54
37.7941    43
37.8041    57
37.8141    58
37.8241    56
37.8341    47
37.8441    47
37.8541    48
37.8641    41
37.8741    49
37.8841    59
37.8941    36
37.9041    59
37.9141    50
37.9241    56
37.9341    50
37.9441    42
37.9541    51
37.9641    52
37.9741    46
37.9841    41
37.9941    49
38.0041    41
38.0141    51
38.0241    59
38.0341    51
38.0441    51
38.0541    37
38.0641    41
38.0741    62
38.0841    47
38.0941    51
38.1041    46
38.1141    41
38.1241    46
38.1341    41
38.1441    44
38.1541    49
38.1641    48
38.1741    52
38.1841    36
38.1941    40
38.2041    42
38.2141    52
38.2241    52
38.2341    53
38.2441    33
38.2541    29
38.2641    47
38.2741    56
38.2841    45
38.2941    48
38.3041    54
38.3141    50
38.3241    45
38.3341    43
38.3441    52
38.3541    45
38.3641    40
38.3741    45
38.3841    38
38.3941    50
38.4041    43
38.4141    51
38.4241    52
38.4341    58
38.4441    51
38.4541    42
38.4641    39
38.4741    37
38.4841    39
38.4941    53
38.5041    45
38.5141    45
38.5241    36
38.5341    32
38.5441    44
38.5541    37
38.5641    33
38.5741    38
38.5841    48
38.5941    40
38.6041    40
38.6141    40
38.6241    33
38.6341    44
38.6441    34
38.6541    57
38.6641    42
38.6741    34
38.6841    37
38.6941    35
38.7041    30
38.7141    41
38.7241    53
38.7341    34
38.7441    41
38.7541    38
38.7641    41
38.7741    46
38.7841    43
38.7941    29
38.8041    44
38.8141    35
38.8241    36
38.8341    40
38.8441    38
38.8541    39
38.8641    51
38.8741    35
38.8841    36
38.8941    32
38.9041    41
38.9141    38
38.9241    47
38.9341    42
38.9441    33
38.9541    35
38.9641    32
38.9741    51
38.9841    35
38.9941    32
39.0041    41
39.0141    34
39.0241    30
39.0341    36
39.0441    40
39.0541    43
39.0641    35
39.0741    41
39.0841    35
39.0941    37
39.1041    36
39.1141    33
39.1241    31
39.1341    35
39.1441    42
39.1541    42
39.1641    27
39.1741    31
39.1841    33
39.1941    35
39.2041    21
39.2141    28
39.2241    31
39.2341    32
39.2441    27
39.2541    35
39.2641    30
39.2741    35
39.2841    28
39.2941    26
39.3041    31
39.3141    45
39.3241    43
39.3341    38
39.3441    29
39.3541    26
39.3641    35
39.3741    35
39.3841    39
39.3941    35
39.4041    39
39.4141    38
39.4241    35
39.4341    31
39.4441    27
39.4541    35
39.4641    33
39.4741    28
39.4841    31
39.4941    24
39.5041    25
39.5141    40
39.5241    30
39.5341    30
39.5441    24
39.5541    29
39.5641    27
39.5741    33
39.5841    35
39.5941    27
39.6041    27
39.6141    38
39.6241    29
39.6341    28
39.6441    32
39.6541    26
39.6641    31
39.6741    34
39.6841    24
39.6941    27
39.7041    27
39.7141    34
39.7241    20
39.7341    33
39.7441    27
39.7541    28
39.7641    26
39.7741    22
39.7841    25
39.7941    30
39.8041    30
39.8141    33
39.8241    23
39.8341    26
39.8441    24
39.8541    21
39.8641    26
39.8741    21
39.8841    26
39.8941    12
39.9041    18
39.9141    28
39.9241    21
39.9341    28
39.9441    29
39.9541    26
39.9641    25
39.9741    30
39.9841    29
