Bruker Nano GmbH Berlin, Germany
Esprit 1.9

Date: 5/14/2021 1:35:14 PM
Real time: 16234
Life time: 15188
Pulse density: 96341


Detector type: XFlash 430
Window type: Custom type
Detector thickness: 0.45
Si dead layer:0.029

Calibration, lin.: 10
Calibration, abs.: -955.9
Mn FWHM: 137.05
Fano factor: 0.121
Channels: 4095

Energy Counts
-0.9559     0
-0.9459     0
-0.9359     0
-0.9259     0
-0.9159     0
-0.9059     0
-0.8959     0
-0.8859     0
-0.8759     0
-0.8659     0
-0.8559     0
-0.8459     0
-0.8359     0
-0.8259     0
-0.8159     0
-0.8059     0
-0.7959     0
-0.7859     0
-0.7759     0
-0.7659     0
-0.7559     0
-0.7459     0
-0.7359     0
-0.7259     0
-0.7159     0
-0.7059     0
-0.6959     0
-0.6859     0
-0.6759     0
-0.6659     0
-0.6559     0
-0.6459     0
-0.6359     0
-0.6259     0
-0.6159     0
-0.6059     0
-0.5959     0
-0.5859     0
-0.5759     0
-0.5659     0
-0.5559     0
-0.5459     0
-0.5359     0
-0.5259     0
-0.5159     0
-0.5059     0
-0.4959     0
-0.4859     0
-0.4759     0
-0.4659     0
-0.4559     0
-0.4459     0
-0.4359     0
-0.4259     0
-0.4159     0
-0.4059     0
-0.3959     0
-0.3859     0
-0.3759     0
-0.3659     0
-0.3559     0
-0.3459     0
-0.3359     0
-0.3259     0
-0.3159     0
-0.3059     0
-0.2959     0
-0.2859     0
-0.2759     0
-0.2659     0
-0.2559     0
-0.2459     0
-0.2359     0
-0.2259     0
-0.2159     0
-0.2059     0
-0.1959     0
-0.1859     0
-0.1759     0
-0.1659     0
-0.1559     0
-0.1459     0
-0.1359     1
-0.1259     3
-0.1159     5
-0.1059     4
-0.0959    56
-0.0859   163
-0.0759   567
-0.0659  1736
-0.0559  4336
-0.0459  9685
-0.0359 18090
-0.0259 28828
-0.0159 39656
-0.0059 46481
 0.0041 47165
 0.0141 40230
 0.0241 29885
 0.0341 18720
 0.0441 10181
 0.0541  4704
 0.0641  1874
 0.0741   661
 0.0841   208
 0.0941    44
 0.1041    14
 0.1141     4
 0.1241     8
 0.1341     5
 0.1441     4
 0.1541     1
 0.1641     4
 0.1741     0
 0.1841   142
 0.1941   252
 0.2041   234
 0.2141   232
 0.2241   209
 0.2341   219
 0.2441   240
 0.2541   216
 0.2641   215
 0.2741   229
 0.2841   242
 0.2941   237
 0.3041   222
 0.3141   229
 0.3241   214
 0.3341   220
 0.3441   217
 0.3541   225
 0.3641   209
 0.3741   208
 0.3841   203
 0.3941   214
 0.4041   197
 0.4141   199
 0.4241   184
 0.4341   184
 0.4441   174
 0.4541   193
 0.4641   198
 0.4741   189
 0.4841   195
 0.4941   206
 0.5041   180
 0.5141   198
 0.5241   207
 0.5341   183
 0.5441   178
 0.5541   179
 0.5641   189
 0.5741   186
 0.5841   187
 0.5941   174
 0.6041   183
 0.6141   185
 0.6241   168
 0.6341   172
 0.6441   177
 0.6541   176
 0.6641   180
 0.6741   182
 0.6841   188
 0.6941   177
 0.7041   165
 0.7141   171
 0.7241   171
 0.7341   174
 0.7441   171
 0.7541   159
 0.7641   155
 0.7741   164
 0.7841   158
 0.7941   161
 0.8041   156
 0.8141   171
 0.8241   167
 0.8341   160
 0.8441   141
 0.8541   143
 0.8641   155
 0.8741   150
 0.8841   150
 0.8941   153
 0.9041   149
 0.9141   151
 0.9241   154
 0.9341   159
 0.9441   159
 0.9541   168
 0.9641   159
 0.9741   139
 0.9841   145
 0.9941   148
 1.0041   143
 1.0141   133
 1.0241   147
 1.0341   138
 1.0441   146
 1.0541   138
 1.0641   141
 1.0741   126
 1.0841   141
 1.0941   143
 1.1041   157
 1.1141   145
 1.1241   148
 1.1341   150
 1.1441   140
 1.1541   138
 1.1641   126
 1.1741   126
 1.1841   157
 1.1941   147
 1.2041   173
 1.2141   154
 1.2241   138
 1.2341   129
 1.2441   126
 1.2541   126
 1.2641   136
 1.2741   140
 1.2841   133
 1.2941   137
 1.3041   126
 1.3141   117
 1.3241   113
 1.3341   140
 1.3441   154
 1.3541   153
 1.3641   131
 1.3741   129
 1.3841   149
 1.3941   126
 1.4041   139
 1.4141   132
 1.4241   129
 1.4341   130
 1.4441   133
 1.4541   133
 1.4641   132
 1.4741   149
 1.4841   144
 1.4941   135
 1.5041   128
 1.5141   119
 1.5241   127
 1.5341   139
 1.5441   118
 1.5541   118
 1.5641   133
 1.5741   132
 1.5841   122
 1.5941   114
 1.6041   139
 1.6141   131
 1.6241   141
 1.6341   129
 1.6441   153
 1.6541   178
 1.6641   206
 1.6741   239
 1.6841   305
 1.6941   382
 1.7041   421
 1.7141   487
 1.7241   567
 1.7341   579
 1.7441   585
 1.7541   564
 1.7641   544
 1.7741   419
 1.7841   367
 1.7941   314
 1.8041   231
 1.8141   215
 1.8241   207
 1.8341   175
 1.8441   153
 1.8541   157
 1.8641   172
 1.8741   148
 1.8841   160
 1.8941   144
 1.9041   133
 1.9141   158
 1.9241   141
 1.9341   137
 1.9441   153
 1.9541   131
 1.9641   154
 1.9741   154
 1.9841   166
 1.9941   167
 2.0041   161
 2.0141   146
 2.0241   157
 2.0341   178
 2.0441   152
 2.0541   135
 2.0641   124
 2.0741   125
 2.0841   128
 2.0941   121
 2.1041   123
 2.1141   112
 2.1241   117
 2.1341   107
 2.1441   117
 2.1541   105
 2.1641   112
 2.1741   135
 2.1841   129
 2.1941   119
 2.2041   126
 2.2141   123
 2.2241   121
 2.2341   111
 2.2441   114
 2.2541   113
 2.2641   108
 2.2741   116
 2.2841   105
 2.2941   105
 2.3041   115
 2.3141   104
 2.3241   109
 2.3341   112
 2.3441   111
 2.3541   109
 2.3641    95
 2.3741   115
 2.3841   120
 2.3941   104
 2.4041   118
 2.4141    94
 2.4241    94
 2.4341   105
 2.4441   107
 2.4541   106
 2.4641   108
 2.4741   113
 2.4841    97
 2.4941   116
 2.5041    99
 2.5141    90
 2.5241   103
 2.5341    87
 2.5441    92
 2.5541   120
 2.5641   118
 2.5741    89
 2.5841    98
 2.5941   109
 2.6041   112
 2.6141   120
 2.6241   117
 2.6341   102
 2.6441    98
 2.6541    97
 2.6641   126
 2.6741   123
 2.6841    93
 2.6941   100
 2.7041    94
 2.7141   100
 2.7241   118
 2.7341    87
 2.7441   111
 2.7541    89
 2.7641    81
 2.7741   102
 2.7841    94
 2.7941   101
 2.8041   120
 2.8141   101
 2.8241   104
 2.8341   111
 2.8441   104
 2.8541   100
 2.8641    86
 2.8741   104
 2.8841   112
 2.8941   109
 2.9041   118
 2.9141   113
 2.9241    99
 2.9341    96
 2.9441    96
 2.9541   101
 2.9641    97
 2.9741   100
 2.9841   100
 2.9941   100
 3.0041    91
 3.0141   113
 3.0241    95
 3.0341    86
 3.0441    95
 3.0541    94
 3.0641    75
 3.0741    68
 3.0841    93
 3.0941    72
 3.1041    88
 3.1141    78
 3.1241    77
 3.1341    79
 3.1441    66
 3.1541    71
 3.1641    69
 3.1741    99
 3.1841    94
 3.1941    85
 3.2041    97
 3.2141    82
 3.2241   111
 3.2341   123
 3.2441   113
 3.2541   117
 3.2641   153
 3.2741   161
 3.2841   173
 3.2941   196
 3.3041   203
 3.3141   175
 3.3241   196
 3.3341   210
 3.3441   172
 3.3541   145
 3.3641   145
 3.3741   137
 3.3841   101
 3.3941   109
 3.4041    80
 3.4141    90
 3.4241    96
 3.4341    90
 3.4441    86
 3.4541    95
 3.4641    80
 3.4741    82
 3.4841    97
 3.4941    94
 3.5041    88
 3.5141    89
 3.5241   105
 3.5341   112
 3.5441   121
 3.5541   133
 3.5641   183
 3.5741   238
 3.5841   286
 3.5941   386
 3.6041   500
 3.6141   625
 3.6241   781
 3.6341  1055
 3.6441  1272
 3.6541  1503
 3.6641  1654
 3.6741  1790
 3.6841  1899
 3.6941  1926
 3.7041  1916
 3.7141  1701
 3.7241  1542
 3.7341  1367
 3.7441  1054
 3.7541   811
 3.7641   641
 3.7741   477
 3.7841   324
 3.7941   264
 3.8041   197
 3.8141   137
 3.8241   109
 3.8341   103
 3.8441    90
 3.8541    88
 3.8641    86
 3.8741    76
 3.8841    77
 3.8941   106
 3.9041   101
 3.9141   132
 3.9241   145
 3.9341   184
 3.9441   216
 3.9541   245
 3.9641   255
 3.9741   368
 3.9841   356
 3.9941   359
 4.0041   405
 4.0141   403
 4.0241   402
 4.0341   366
 4.0441   343
 4.0541   286
 4.0641   254
 4.0741   203
 4.0841   196
 4.0941   153
 4.1041   121
 4.1141   107
 4.1241    95
 4.1341    65
 4.1441    73
 4.1541    56
 4.1641    64
 4.1741    49
 4.1841    59
 4.1941    64
 4.2041    75
 4.2141    62
 4.2241    56
 4.2341    47
 4.2441    61
 4.2541    59
 4.2641    65
 4.2741    74
 4.2841    65
 4.2941    60
 4.3041    55
 4.3141    53
 4.3241    63
 4.3341    57
 4.3441    60
 4.3541    68
 4.3641    74
 4.3741    77
 4.3841    80
 4.3941   100
 4.4041   130
 4.4141   133
 4.4241   194
 4.4341   207
 4.4441   262
 4.4541   329
 4.4641   361
 4.4741   392
 4.4841   441
 4.4941   471
 4.5041   428
 4.5141   453
 4.5241   427
 4.5341   394
 4.5441   360
 4.5541   316
 4.5641   288
 4.5741   212
 4.5841   203
 4.5941   158
 4.6041   153
 4.6141   149
 4.6241   111
 4.6341    94
 4.6441    68
 4.6541    92
 4.6641    66
 4.6741    78
 4.6841    65
 4.6941    56
 4.7041    90
 4.7141    66
 4.7241    68
 4.7341    58
 4.7441    72
 4.7541    71
 4.7641    81
 4.7741    76
 4.7841    85
 4.7941    74
 4.8041    78
 4.8141    92
 4.8241    95
 4.8341    99
 4.8441   108
 4.8541   118
 4.8641   144
 4.8741   134
 4.8841   155
 4.8941   158
 4.9041   136
 4.9141   138
 4.9241   173
 4.9341   175
 4.9441   153
 4.9541   166
 4.9641   150
 4.9741   125
 4.9841   122
 4.9941   121
 5.0041   101
 5.0141    88
 5.0241    75
 5.0341    92
 5.0441   106
 5.0541    87
 5.0641    74
 5.0741    63
 5.0841    82
 5.0941    64
 5.1041    72
 5.1141    82
 5.1241    75
 5.1341    81
 5.1441    87
 5.1541    71
 5.1641    87
 5.1741    62
 5.1841    60
 5.1941    74
 5.2041    67
 5.2141    73
 5.2241    62
 5.2341    64
 5.2441    64
 5.2541    75
 5.2641    81
 5.2741    72
 5.2841    79
 5.2941    67
 5.3041    86
 5.3141    77
 5.3241    76
 5.3341    74
 5.3441    85
 5.3541   108
 5.3641    91
 5.3741    95
 5.3841   104
 5.3941   102
 5.4041    97
 5.4141    82
 5.4241   100
 5.4341   102
 5.4441   103
 5.4541   101
 5.4641   100
 5.4741    90
 5.4841    94
 5.4941    89
 5.5041    84
 5.5141    73
 5.5241    80
 5.5341    84
 5.5441    80
 5.5541    75
 5.5641    66
 5.5741    69
 5.5841    79
 5.5941    76
 5.6041    66
 5.6141    67
 5.6241    79
 5.6341    78
 5.6441    74
 5.6541    64
 5.6641    75
 5.6741    76
 5.6841    72
 5.6941    79
 5.7041    87
 5.7141    73
 5.7241    77
 5.7341    85
 5.7441    89
 5.7541   111
 5.7641   113
 5.7741   142
 5.7841   132
 5.7941   156
 5.8041   178
 5.8141   205
 5.8241   232
 5.8341   262
 5.8441   268
 5.8541   338
 5.8641   361
 5.8741   363
 5.8841   413
 5.8941   392
 5.9041   407
 5.9141   373
 5.9241   358
 5.9341   363
 5.9441   313
 5.9541   266
 5.9641   239
 5.9741   216
 5.9841   180
 5.9941   155
 6.0041   141
 6.0141   144
 6.0241   123
 6.0341   128
 6.0441   103
 6.0541   127
 6.0641   107
 6.0741   107
 6.0841   109
 6.0941   103
 6.1041   125
 6.1141   131
 6.1241   133
 6.1341   146
 6.1441   147
 6.1541   165
 6.1641   156
 6.1741   180
 6.1841   245
 6.1941   296
 6.2041   328
 6.2141   452
 6.2241   617
 6.2341   815
 6.2441  1211
 6.2541  1617
 6.2641  2239
 6.2741  2966
 6.2841  4140
 6.2941  5366
 6.3041  7242
 6.3141  9108
 6.3241 10943
 6.3341 13486
 6.3441 15702
 6.3541 17847
 6.3641 19620
 6.3741 21221
 6.3841 22738
 6.3941 23170
 6.4041 22865
 6.4141 22269
 6.4241 21013
 6.4341 19355
 6.4441 17364
 6.4541 15032
 6.4641 12584
 6.4741 10436
 6.4841  8493
 6.4941  6536
 6.5041  4898
 6.5141  3571
 6.5241  2648
 6.5341  1885
 6.5441  1344
 6.5541   914
 6.5641   668
 6.5741   440
 6.5841   345
 6.5941   250
 6.6041   213
 6.6141   193
 6.6241   169
 6.6341   145
 6.6441   145
 6.6541   148
 6.6641   145
 6.6741   141
 6.6841   152
 6.6941   150
 6.7041   155
 6.7141   140
 6.7241   140
 6.7341   128
 6.7441   144
 6.7541   157
 6.7641   155
 6.7741   151
 6.7841   159
 6.7941   142
 6.8041   166
 6.8141   165
 6.8241   195
 6.8341   216
 6.8441   230
 6.8541   226
 6.8641   268
 6.8741   297
 6.8841   340
 6.8941   392
 6.9041   522
 6.9141   581
 6.9241   692
 6.9341   910
 6.9441  1062
 6.9541  1351
 6.9641  1665
 6.9741  1986
 6.9841  2300
 6.9941  2643
 7.0041  3022
 7.0141  3280
 7.0241  3636
 7.0341  3804
 7.0441  3885
 7.0541  3952
 7.0641  3848
 7.0741  3710
 7.0841  3550
 7.0941  3222
 7.1041  2849
 7.1141  2572
 7.1241  2174
 7.1341  1782
 7.1441  1543
 7.1541  1231
 7.1641   996
 7.1741   761
 7.1841   624
 7.1941   455
 7.2041   379
 7.2141   306
 7.2241   237
 7.2341   224
 7.2441   195
 7.2541   167
 7.2641   168
 7.2741   152
 7.2841   169
 7.2941   165
 7.3041   177
 7.3141   144
 7.3241   170
 7.3341   193
 7.3441   187
 7.3541   199
 7.3641   225
 7.3741   196
 7.3841   215
 7.3941   229
 7.4041   242
 7.4141   234
 7.4241   216
 7.4341   226
 7.4441   188
 7.4541   220
 7.4641   200
 7.4741   215
 7.4841   212
 7.4941   207
 7.5041   202
 7.5141   175
 7.5241   171
 7.5341   174
 7.5441   135
 7.5541   153
 7.5641   164
 7.5741   147
 7.5841   137
 7.5941   154
 7.6041   132
 7.6141   163
 7.6241   140
 7.6341   143
 7.6441   151
 7.6541   136
 7.6641   134
 7.6741   167
 7.6841   147
 7.6941   176
 7.7041   162
 7.7141   174
 7.7241   163
 7.7341   174
 7.7441   163
 7.7541   182
 7.7641   174
 7.7741   189
 7.7841   183
 7.7941   182
 7.8041   201
 7.8141   192
 7.8241   201
 7.8341   206
 7.8441   228
 7.8541   211
 7.8641   202
 7.8741   222
 7.8841   233
 7.8941   240
 7.9041   262
 7.9141   274
 7.9241   275
 7.9341   312
 7.9441   327
 7.9541   318
 7.9641   398
 7.9741   397
 7.9841   465
 7.9941   475
 8.0041   513
 8.0141   496
 8.0241   592
 8.0341   631
 8.0441   602
 8.0541   645
 8.0641   680
 8.0741   758
 8.0841   808
 8.0941   829
 8.1041   924
 8.1141   931
 8.1241   962
 8.1341   932
 8.1441   992
 8.1541   982
 8.1641  1000
 8.1741  1079
 8.1841  1016
 8.1941  1007
 8.2041  1005
 8.2141  1015
 8.2241  1044
 8.2341  1042
 8.2441  1168
 8.2541  1100
 8.2641  1234
 8.2741  1258
 8.2841  1350
 8.2941  1439
 8.3041  1568
 8.3141  1759
 8.3241  1920
 8.3341  2053
 8.3441  2166
 8.3541  2284
 8.3641  2417
 8.3741  2443
 8.3841  2575
 8.3941  2551
 8.4041  2506
 8.4141  2338
 8.4241  2231
 8.4341  2145
 8.4441  1958
 8.4541  1714
 8.4641  1536
 8.4741  1293
 8.4841  1122
 8.4941   963
 8.5041   818
 8.5141   671
 8.5241   630
 8.5341   519
 8.5441   472
 8.5541   437
 8.5641   385
 8.5741   338
 8.5841   321
 8.5941   306
 8.6041   294
 8.6141   283
 8.6241   316
 8.6341   295
 8.6441   316
 8.6541   320
 8.6641   282
 8.6741   290
 8.6841   283
 8.6941   297
 8.7041   268
 8.7141   286
 8.7241   268
 8.7341   282
 8.7441   251
 8.7541   251
 8.7641   246
 8.7741   238
 8.7841   241
 8.7941   218
 8.8041   220
 8.8141   230
 8.8241   203
 8.8341   228
 8.8441   222
 8.8541   219
 8.8641   234
 8.8741   245
 8.8841   248
 8.8941   235
 8.9041   223
 8.9141   223
 8.9241   243
 8.9341   256
 8.9441   255
 8.9541   248
 8.9641   279
 8.9741   273
 8.9841   257
 8.9941   262
 9.0041   257
 9.0141   290
 9.0241   298
 9.0341   289
 9.0441   308
 9.0541   321
 9.0641   324
 9.0741   317
 9.0841   331
 9.0941   364
 9.1041   381
 9.1141   365
 9.1241   410
 9.1341   412
 9.1441   393
 9.1541   438
 9.1641   496
 9.1741   498
 9.1841   497
 9.1941   529
 9.2041   529
 9.2141   549
 9.2241   599
 9.2341   654
 9.2441   680
 9.2541   672
 9.2641   722
 9.2741   768
 9.2841   750
 9.2941   785
 9.3041   842
 9.3141   853
 9.3241   871
 9.3341   905
 9.3441   936
 9.3541   958
 9.3641   946
 9.3741   924
 9.3841   967
 9.3941   957
 9.4041   998
 9.4141  1003
 9.4241  1007
 9.4341  1036
 9.4441  1057
 9.4541  1036
 9.4641  1108
 9.4741  1097
 9.4841  1092
 9.4941  1156
 9.5041  1161
 9.5141  1162
 9.5241  1221
 9.5341  1328
 9.5441  1296
 9.5541  1417
 9.5641  1489
 9.5741  1469
 9.5841  1628
 9.5941  1702
 9.6041  1847
 9.6141  1911
 9.6241  1991
 9.6341  2100
 9.6441  2126
 9.6541  2207
 9.6641  2198
 9.6741  2264
 9.6841  2239
 9.6941  2127
 9.7041  2043
 9.7141  1934
 9.7241  1823
 9.7341  1768
 9.7441  1615
 9.7541  1472
 9.7641  1382
 9.7741  1247
 9.7841  1127
 9.7941  1056
 9.8041   982
 9.8141   949
 9.8241   859
 9.8341   841
 9.8441   824
 9.8541   842
 9.8641   867
 9.8741   869
 9.8841   857
 9.8941   897
 9.9041   900
 9.9141   929
 9.9241   979
 9.9341   937
 9.9441   928
 9.9541   966
 9.9641   925
 9.9741   922
 9.9841   912
 9.9941   882
10.0041   783
10.0141   742
10.0241   633
10.0341   629
10.0441   573
10.0541   500
10.0641   426
10.0741   407
10.0841   355
10.0941   326
10.1041   291
10.1141   255
10.1241   239
10.1341   255
10.1441   214
10.1541   189
10.1641   194
10.1741   200
10.1841   191
10.1941   178
10.2041   171
10.2141   168
10.2241   154
10.2341   155
10.2441   146
10.2541   151
10.2641   142
10.2741   143
10.2841   132
10.2941   128
10.3041   130
10.3141   132
10.3241   132
10.3341   122
10.3441   121
10.3541   127
10.3641   115
10.3741   115
10.3841   119
10.3941   121
10.4041   131
10.4141   134
10.4241   134
10.4341   140
10.4441   129
10.4541   122
10.4641   133
10.4741   150
10.4841   144
10.4941   133
10.5041   127
10.5141   126
10.5241   123
10.5341   136
10.5441   145
10.5541   130
10.5641   135
10.5741   138
10.5841   134
10.5941   155
10.6041   159
10.6141   148
10.6241   143
10.6341   165
10.6441   152
10.6541   149
10.6641   152
10.6741   147
10.6841   143
10.6941   149
10.7041   160
10.7141   174
10.7241   169
10.7341   172
10.7441   192
10.7541   186
10.7641   184
10.7741   180
10.7841   173
10.7941   187
10.8041   211
10.8141   195
10.8241   207
10.8341   206
10.8441   219
10.8541   199
10.8641   173
10.8741   191
10.8841   207
10.8941   215
10.9041   231
10.9141   218
10.9241   234
10.9341   223
10.9441   218
10.9541   204
10.9641   202
10.9741   189
10.9841   212
10.9941   207
11.0041   201
11.0141   215
11.0241   207
11.0341   180
11.0441   198
11.0541   207
11.0641   209
11.0741   189
11.0841   204
11.0941   194
11.1041   199
11.1141   203
11.1241   192
11.1341   182
11.1441   191
11.1541   207
11.1641   219
11.1741   217
11.1841   226
11.1941   238
11.2041   234
11.2141   257
11.2241   265
11.2341   293
11.2441   291
11.2541   300
11.2641   309
11.2741   324
11.2841   320
11.2941   306
11.3041   282
11.3141   276
11.3241   260
11.3341   298
11.3441   275
11.3541   261
11.3641   240
11.3741   228
11.3841   207
11.3941   197
11.4041   204
11.4141   204
11.4241   182
11.4341   159
11.4441   147
11.4541   153
11.4641   154
11.4741   143
11.4841   152
11.4941   163
11.5041   156
11.5141   152
11.5241   160
11.5341   170
11.5441   169
11.5541   156
11.5641   150
11.5741   151
11.5841   144
11.5941   164
11.6041   167
11.6141   166
11.6241   169
11.6341   150
11.6441   148
11.6541   158
11.6641   164
11.6741   166
11.6841   147
11.6941   164
11.7041   158
11.7141   155
11.7241   143
11.7341   133
11.7441   152
11.7541   133
11.7641   125
11.7741   126
11.7841   120
11.7941   129
11.8041   122
11.8141   110
11.8241   102
11.8341   102
11.8441   107
11.8541   107
11.8641   104
11.8741    99
11.8841   104
11.8941   105
11.9041   113
11.9141   101
11.9241   101
11.9341   108
11.9441   118
11.9541   114
11.9641   117
11.9741   116
11.9841   109
11.9941   113
12.0041   116
12.0141   113
12.0241   108
12.0341   112
12.0441   107
12.0541   115
12.0641   115
12.0741   115
12.0841   117
12.0941   114
12.1041   141
12.1141   125
12.1241   105
12.1341   113
12.1441   123
12.1541   112
12.1641   101
12.1741   105
12.1841   105
12.1941   104
12.2041   102
12.2141    97
12.2241    96
12.2341   103
12.2441   104
12.2541   114
12.2641   107
12.2741   113
12.2841   114
12.2941   110
12.3041   120
12.3141   111
12.3241   105
12.3341   107
12.3441   101
12.3541   106
12.3641   121
12.3741   125
12.3841   105
12.3941   102
12.4041   107
12.4141   107
12.4241   114
12.4341    99
12.4441   101
12.4541   110
12.4641   121
12.4741   125
12.4841   120
12.4941   111
12.5041   110
12.5141   109
12.5241   106
12.5341   114
12.5441   119
12.5541   116
12.5641   126
12.5741   133
12.5841   126
12.5941   127
12.6041   120
12.6141   114
12.6241   120
12.6341   128
12.6441   120
12.6541   118
12.6641   124
12.6741   126
12.6841   123
12.6941   123
12.7041   124
12.7141   124
12.7241   125
12.7341   128
12.7441   128
12.7541   126
12.7641   127
12.7741   132
12.7841   127
12.7941   118
12.8041   120
12.8141   123
12.8241   126
12.8341   131
12.8441   129
12.8541   126
12.8641   130
12.8741   135
12.8841   136
12.8941   133
12.9041   130
12.9141   128
12.9241   122
12.9341   116
12.9441   120
12.9541   130
12.9641   137
12.9741   137
12.9841   133
12.9941   133
13.0041   122
13.0141   128
13.0241   145
13.0341   137
13.0441   141
13.0541   150
13.0641   140
13.0741   127
13.0841   126
13.0941   119
13.1041   131
13.1141   151
13.1241   145
13.1341   135
13.1441   119
13.1541   121
13.1641   130
13.1741   137
13.1841   137
13.1941   140
13.2041   140
13.2141   148
13.2241   154
13.2341   146
13.2441   155
13.2541   163
13.2641   158
13.2741   159
13.2841   163
13.2941   174
13.3041   180
13.3141   172
13.3241   172
13.3341   179
13.3441   188
13.3541   198
13.3641   201
13.3741   198
13.3841   192
13.3941   185
13.4041   182
13.4141   181
13.4241   180
13.4341   182
13.4441   184
13.4541   185
13.4641   182
13.4741   173
13.4841   169
13.4941   175
13.5041   183
13.5141   175
13.5241   163
13.5341   161
13.5441   164
13.5541   166
13.5641   168
13.5741   165
13.5841   155
13.5941   139
13.6041   132
13.6141   138
13.6241   142
13.6341   142
13.6441   142
13.6541   162
13.6641   157
13.6741   142
13.6841   139
13.6941   147
13.7041   159
13.7141   158
13.7241   167
13.7341   164
13.7441   164
13.7541   166
13.7641   164
13.7741   165
13.7841   168
13.7941   166
13.8041   153
13.8141   143
13.8241   145
13.8341   153
13.8441   168
13.8541   172
13.8641   159
13.8741   156
13.8841   169
13.8941   169
13.9041   164
13.9141   178
13.9241   198
13.9341   223
13.9441   229
13.9541   235
13.9641   243
13.9741   251
13.9841   288
13.9941   330
14.0041   358
14.0141   378
14.0241   404
14.0341   443
14.0441   487
14.0541   530
14.0641   569
14.0741   600
14.0841   616
14.0941   628
14.1041   649
14.1141   676
14.1241   701
14.1341   712
14.1441   708
14.1541   709
14.1641   722
14.1741   714
14.1841   673
14.1941   623
14.2041   605
14.2141   588
14.2241   531
14.2341   517
14.2441   501
14.2541   435
14.2641   400
14.2741   375
14.2841   346
14.2941   331
14.3041   309
14.3141   269
14.3241   238
14.3341   227
14.3441   197
14.3541   206
14.3641   230
14.3741   201
14.3841   191
14.3941   191
14.4041   179
14.4141   171
14.4241   180
14.4341   184
14.4441   186
14.4541   198
14.4641   188
14.4741   184
14.4841   186
14.4941   186
14.5041   188
14.5141   186
14.5241   189
14.5341   182
14.5441   173
14.5541   183
14.5641   177
14.5741   172
14.5841   192
14.5941   202
14.6041   180
14.6141   173
14.6241   193
14.6341   204
14.6441   196
14.6541   195
14.6641   190
14.6741   182
14.6841   190
14.6941   192
14.7041   193
14.7141   197
14.7241   204
14.7341   211
14.7441   197
14.7541   196
14.7641   207
14.7741   212
14.7841   211
14.7941   198
14.8041   204
14.8141   222
14.8241   226
14.8341   201
14.8441   192
14.8541   215
14.8641   224
14.8741   227
14.8841   227
14.8941   231
14.9041   240
14.9141   242
14.9241   238
14.9341   239
14.9441   245
14.9541   245
14.9641   228
14.9741   212
14.9841   220
14.9941   220
15.0041   227
15.0141   230
15.0241   206
15.0341   207
15.0441   229
15.0541   224
15.0641   208
15.0741   204
15.0841   212
15.0941   208
15.1041   211
15.1141   202
15.1241   197
15.1341   207
15.1441   206
15.1541   234
15.1641   232
15.1741   217
15.1841   216
15.1941   213
15.2041   221
15.2141   223
15.2241   226
15.2341   212
15.2441   200
15.2541   199
15.2641   194
15.2741   197
15.2841   209
15.2941   209
15.3041   215
15.3141   239
15.3241   234
15.3341   217
15.3441   196
15.3541   202
15.3641   213
15.3741   211
15.3841   221
15.3941   230
15.4041   223
15.4141   219
15.4241   225
15.4341   219
15.4441   234
15.4541   251
15.4641   231
15.4741   213
15.4841   230
15.4941   245
15.5041   253
15.5141   236
15.5241   239
15.5341   245
15.5441   239
15.5541   254
15.5641   260
15.5741   268
15.5841   303
15.5941   313
15.6041   317
15.6141   314
15.6241   316
15.6341   336
15.6441   341
15.6541   375
15.6641   390
15.6741   398
15.6841   405
15.6941   432
15.7041   469
15.7141   478
15.7241   454
15.7341   482
15.7441   492
15.7541   486
15.7641   488
15.7741   481
15.7841   476
15.7941   472
15.8041   499
15.8141   466
15.8241   461
15.8341   490
15.8441   473
15.8541   434
15.8641   427
15.8741   418
15.8841   380
15.8941   378
15.9041   378
15.9141   365
15.9241   343
15.9341   340
15.9441   310
15.9541   308
15.9641   303
15.9741   316
15.9841   299
15.9941   289
16.0041   293
16.0141   273
16.0241   260
16.0341   235
16.0441   238
16.0541   265
16.0641   255
16.0741   251
16.0841   263
16.0941   265
16.1041   257
16.1141   283
16.1241   266
16.1341   261
16.1441   253
16.1541   273
16.1641   275
16.1741   233
16.1841   255
16.1941   281
16.2041   268
16.2141   256
16.2241   263
16.2341   272
16.2441   261
16.2541   246
16.2641   243
16.2741   273
16.2841   262
16.2941   246
16.3041   241
16.3141   260
16.3241   277
16.3341   279
16.3441   268
16.3541   270
16.3641   264
16.3741   265
16.3841   267
16.3941   264
16.4041   243
16.4141   261
16.4241   277
16.4341   269
16.4441   275
16.4541   280
16.4641   289
16.4741   289
16.4841   279
16.4941   285
16.5041   277
16.5141   277
16.5241   283
16.5341   280
16.5441   281
16.5541   282
16.5641   302
16.5741   306
16.5841   289
16.5941   278
16.6041   278
16.6141   289
16.6241   286
16.6341   279
16.6441   279
16.6541   291
16.6641   288
16.6741   284
16.6841   289
16.6941   293
16.7041   304
16.7141   281
16.7241   293
16.7341   302
16.7441   287
16.7541   300
16.7641   283
16.7741   310
16.7841   309
16.7941   292
16.8041   314
16.8141   309
16.8241   313
16.8341   313
16.8441   284
16.8541   270
16.8641   289
16.8741   297
16.8841   292
16.8941   294
16.9041   293
16.9141   291
16.9241   284
16.9341   299
16.9441   325
16.9541   282
16.9641   280
16.9741   288
16.9841   289
16.9941   310
17.0041   300
17.0141   294
17.0241   283
17.0341   311
17.0441   302
17.0541   292
17.0641   300
17.0741   298
17.0841   309
17.0941   312
17.1041   293
17.1141   284
17.1241   316
17.1341   311
17.1441   300
17.1541   296
17.1641   297
17.1741   308
17.1841   304
17.1941   317
17.2041   310
17.2141   302
17.2241   309
17.2341   293
17.2441   298
17.2541   314
17.2641   326
17.2741   307
17.2841   331
17.2941   321
17.3041   295
17.3141   302
17.3241   312
17.3341   311
17.3441   325
17.3541   306
17.3641   318
17.3741   341
17.3841   305
17.3941   316
17.4041   324
17.4141   302
17.4241   291
17.4341   320
17.4441   342
17.4541   326
17.4641   328
17.4741   342
17.4841   324
17.4941   331
17.5041   299
17.5141   336
17.5241   335
17.5341   339
17.5441   314
17.5541   351
17.5641   364
17.5741   334
17.5841   336
17.5941   347
17.6041   385
17.6141   356
17.6241   356
17.6341   365
17.6441   370
17.6541   359
17.6641   376
17.6741   396
17.6841   380
17.6941   365
17.7041   337
17.7141   356
17.7241   375
17.7341   369
17.7441   370
17.7541   361
17.7641   347
17.7741   350
17.7841   332
17.7941   333
17.8041   354
17.8141   351
17.8241   327
17.8341   340
17.8441   312
17.8541   316
17.8641   349
17.8741   356
17.8841   347
17.8941   344
17.9041   312
17.9141   304
17.9241   340
17.9341   360
17.9441   339
17.9541   329
17.9641   333
17.9741   344
17.9841   346
17.9941   338
18.0041   322
18.0141   319
18.0241   335
18.0341   355
18.0441   359
18.0541   350
18.0641   360
18.0741   363
18.0841   371
18.0941   356
18.1041   358
18.1141   356
18.1241   354
18.1341   327
18.1441   340
18.1541   351
18.1641   340
18.1741   331
18.1841   350
18.1941   350
18.2041   319
18.2141   338
18.2241   343
18.2341   354
18.2441   301
18.2541   322
18.2641   355
18.2741   360
18.2841   397
18.2941   370
18.3041   341
18.3141   338
18.3241   362
18.3341   347
18.3441   341
18.3541   366
18.3641   361
18.3741   360
18.3841   354
18.3941   370
18.4041   360
18.4141   364
18.4241   361
18.4341   395
18.4441   354
18.4541   355
18.4641   396
18.4741   366
18.4841   352
18.4941   334
18.5041   362
18.5141   367
18.5241   392
18.5341   372
18.5441   376
18.5541   373
18.5641   384
18.5741   389
18.5841   370
18.5941   368
18.6041   365
18.6141   367
18.6241   387
18.6341   351
18.6441   381
18.6541   384
18.6641   376
18.6741   363
18.6841   369
18.6941   362
18.7041   360
18.7141   362
18.7241   351
18.7341   368
18.7441   345
18.7541   385
18.7641   374
18.7741   361
18.7841   368
18.7941   368
18.8041   356
18.8141   385
18.8241   390
18.8341   388
18.8441   384
18.8541   377
18.8641   384
18.8741   387
18.8841   368
18.8941   353
18.9041   371
18.9141   363
18.9241   360
18.9341   387
18.9441   374
18.9541   348
18.9641   374
18.9741   380
18.9841   403
18.9941   401
19.0041   399
19.0141   371
19.0241   374
19.0341   405
19.0441   392
19.0541   385
19.0641   349
19.0741   407
19.0841   375
19.0941   388
19.1041   398
19.1141   373
19.1241   370
19.1341   380
19.1441   397
19.1541   380
19.1641   398
19.1741   367
19.1841   365
19.1941   393
19.2041   392
19.2141   385
19.2241   374
19.2341   390
19.2441   382
19.2541   380
19.2641   389
19.2741   401
19.2841   397
19.2941   393
19.3041   381
19.3141   356
19.3241   401
19.3341   387
19.3441   380
19.3541   391
19.3641   403
19.3741   406
19.3841   409
19.3941   342
19.4041   396
19.4141   411
19.4241   403
19.4341   400
19.4441   351
19.4541   368
19.4641   390
19.4741   374
19.4841   402
19.4941   405
19.5041   407
19.5141   345
19.5241   390
19.5341   398
19.5441   382
19.5541   400
19.5641   396
19.5741   410
19.5841   399
19.5941   397
19.6041   409
19.6141   387
19.6241   387
19.6341   378
19.6441   379
19.6541   393
19.6641   393
19.6741   378
19.6841   408
19.6941   390
19.7041   386
19.7141   416
19.7241   396
19.7341   393
19.7441   377
19.7541   416
19.7641   382
19.7741   375
19.7841   414
19.7941   401
19.8041   407
19.8141   434
19.8241   439
19.8341   417
19.8441   425
19.8541   405
19.8641   408
19.8741   409
19.8841   416
19.8941   387
19.9041   363
19.9141   400
19.9241   387
19.9341   418
19.9441   394
19.9541   417
19.9641   409
19.9741   394
19.9841   402
19.9941   421
20.0041   394
20.0141   415
20.0241   411
20.0341   404
20.0441   428
20.0541   428
20.0641   449
20.0741   393
20.0841   407
20.0941   447
20.1041   429
20.1141   375
20.1241   414
20.1341   401
20.1441   420
20.1541   397
20.1641   405
20.1741   415
20.1841   384
20.1941   421
20.2041   392
20.2141   424
20.2241   401
20.2341   420
20.2441   424
20.2541   406
20.2641   442
20.2741   437
20.2841   414
20.2941   419
20.3041   420
20.3141   407
20.3241   417
20.3341   405
20.3441   406
20.3541   428
20.3641   399
20.3741   429
20.3841   406
20.3941   400
20.4041   442
20.4141   484
20.4241   426
20.4341   435
20.4441   417
20.4541   388
20.4641   390
20.4741   377
20.4841   388
20.4941   425
20.5041   436
20.5141   408
20.5241   435
20.5341   464
20.5441   463
20.5541   414
20.5641   410
20.5741   435
20.5841   419
20.5941   443
20.6041   444
20.6141   442
20.6241   434
20.6341   443
20.6441   432
20.6541   408
20.6641   411
20.6741   425
20.6841   433
20.6941   410
20.7041   442
20.7141   379
20.7241   439
20.7341   420
20.7441   430
20.7541   432
20.7641   435
20.7741   414
20.7841   432
20.7941   419
20.8041   424
20.8141   448
20.8241   445
20.8341   434
20.8441   444
20.8541   468
20.8641   471
20.8741   442
20.8841   468
20.8941   436
20.9041   461
20.9141   478
20.9241   495
20.9341   483
20.9441   505
20.9541   491
20.9641   495
20.9741   509
20.9841   545
20.9941   536
21.0041   549
21.0141   580
21.0241   592
21.0341   597
21.0441   571
21.0541   636
21.0641   643
21.0741   600
21.0841   595
21.0941   585
21.1041   630
21.1141   615
21.1241   639
21.1341   636
21.1441   603
21.1541   637
21.1641   605
21.1741   629
21.1841   638
21.1941   647
21.2041   571
21.2141   580
21.2241   591
21.2341   577
21.2441   531
21.2541   524
21.2641   508
21.2741   553
21.2841   533
21.2941   538
21.3041   509
21.3141   493
21.3241   492
21.3341   469
21.3441   475
21.3541   447
21.3641   461
21.3741   486
21.3841   484
21.3941   413
21.4041   449
21.4141   455
21.4241   454
21.4341   411
21.4441   438
21.4541   432
21.4641   394
21.4741   388
21.4841   416
21.4941   424
21.5041   442
21.5141   374
21.5241   400
21.5341   437
21.5441   434
21.5541   440
21.5641   460
21.5741   418
21.5841   415
21.5941   422
21.6041   441
21.6141   430
21.6241   433
21.6341   402
21.6441   420
21.6541   430
21.6641   402
21.6741   401
21.6841   406
21.6941   456
21.7041   450
21.7141   422
21.7241   414
21.7341   425
21.7441   444
21.7541   428
21.7641   417
21.7741   439
21.7841   418
21.7941   442
21.8041   442
21.8141   389
21.8241   449
21.8341   401
21.8441   410
21.8541   403
21.8641   468
21.8741   408
21.8841   431
21.8941   446
21.9041   416
21.9141   395
21.9241   439
21.9341   412
21.9441   405
21.9541   417
21.9641   420
21.9741   395
21.9841   407
21.9941   407
22.0041   445
22.0141   435
22.0241   408
22.0341   421
22.0441   447
22.0541   435
22.0641   395
22.0741   408
22.0841   469
22.0941   473
22.1041   443
22.1141   416
22.1241   381
22.1341   442
22.1441   405
22.1541   429
22.1641   403
22.1741   456
22.1841   405
22.1941   410
22.2041   442
22.2141   411
22.2241   422
22.2341   427
22.2441   408
22.2541   442
22.2641   444
22.2741   405
22.2841   412
22.2941   413
22.3041   429
22.3141   443
22.3241   430
22.3341   408
22.3441   419
22.3541   406
22.3641   424
22.3741   441
22.3841   424
22.3941   421
22.4041   413
22.4141   450
22.4241   431
22.4341   410
22.4441   410
22.4541   427
22.4641   416
22.4741   403
22.4841   385
22.4941   424
22.5041   424
22.5141   438
22.5241   418
22.5341   415
22.5441   426
22.5541   416
22.5641   423
22.5741   409
22.5841   400
22.5941   427
22.6041   416
22.6141   397
22.6241   351
22.6341   430
22.6441   421
22.6541   408
22.6641   421
22.6741   411
22.6841   420
22.6941   443
22.7041   463
22.7141   402
22.7241   400
22.7341   423
22.7441   424
22.7541   436
22.7641   420
22.7741   416
22.7841   425
22.7941   422
22.8041   439
22.8141   412
22.8241   427
22.8341   438
22.8441   385
22.8541   410
22.8641   395
22.8741   380
22.8841   423
22.8941   399
22.9041   381
22.9141   403
22.9241   433
22.9341   405
22.9441   397
22.9541   415
22.9641   421
22.9741   386
22.9841   371
22.9941   390
23.0041   380
23.0141   443
23.0241   446
23.0341   435
23.0441   440
23.0541   448
23.0641   404
23.0741   420
23.0841   389
23.0941   425
23.1041   435
23.1141   383
23.1241   440
23.1341   430
23.1441   409
23.1541   402
23.1641   407
23.1741   476
23.1841   464
23.1941   402
23.2041   411
23.2141   437
23.2241   423
23.2341   445
23.2441   402
23.2541   388
23.2641   424
23.2741   396
23.2841   431
23.2941   351
23.3041   369
23.3141   397
23.3241   371
23.3341   440
23.3441   409
23.3541   409
23.3641   410
23.3741   415
23.3841   425
23.3941   393
23.4041   387
23.4141   389
23.4241   402
23.4341   409
23.4441   398
23.4541   428
23.4641   387
23.4741   401
23.4841   385
23.4941   440
23.5041   429
23.5141   434
23.5241   377
23.5341   403
23.5441   385
23.5541   411
23.5641   429
23.5741   400
23.5841   369
23.5941   412
23.6041   393
23.6141   368
23.6241   387
23.6341   401
23.6441   416
23.6541   404
23.6641   418
23.6741   395
23.6841   391
23.6941   420
23.7041   452
23.7141   383
23.7241   422
23.7341   421
23.7441   429
23.7541   439
23.7641   445
23.7741   479
23.7841   454
23.7941   426
23.8041   439
23.8141   466
23.8241   426
23.8341   442
23.8441   433
23.8541   387
23.8641   429
23.8741   443
23.8841   430
23.8941   395
23.9041   397
23.9141   438
23.9241   402
23.9341   402
23.9441   404
23.9541   460
23.9641   417
23.9741   399
23.9841   417
23.9941   403
24.0041   403
24.0141   425
24.0241   412
24.0341   424
24.0441   398
24.0541   393
24.0641   371
24.0741   401
24.0841   400
24.0941   427
24.1041   400
24.1141   389
24.1241   363
24.1341   378
24.1441   373
24.1541   407
24.1641   377
24.1741   403
24.1841   392
24.1941   415
24.2041   400
24.2141   405
24.2241   412
24.2341   411
24.2441   408
24.2541   397
24.2641   384
24.2741   393
24.2841   410
24.2941   367
24.3041   432
24.3141   389
24.3241   371
24.3341   398
24.3441   396
24.3541   391
24.3641   376
24.3741   384
24.3841   382
24.3941   399
24.4041   425
24.4141   393
24.4241   367
24.4341   387
24.4441   368
24.4541   384
24.4641   345
24.4741   369
24.4841   388
24.4941   385
24.5041   374
24.5141   416
24.5241   356
24.5341   357
24.5441   349
24.5541   382
24.5641   373
24.5741   396
24.5841   406
24.5941   353
24.6041   376
24.6141   401
24.6241   304
24.6341   377
24.6441   356
24.6541   394
24.6641   375
24.6741   388
24.6841   348
24.6941   371
24.7041   370
24.7141   380
24.7241   376
24.7341   356
24.7441   378
24.7541   344
24.7641   379
24.7741   385
24.7841   366
24.7941   375
24.8041   414
24.8141   387
24.8241   356
24.8341   380
24.8441   390
24.8541   378
24.8641   358
24.8741   382
24.8841   383
24.8941   383
24.9041   423
24.9141   365
24.9241   353
24.9341   380
24.9441   401
24.9541   416
24.9641   391
24.9741   350
24.9841   401
24.9941   370
25.0041   398
25.0141   367
25.0241   368
25.0341   372
25.0441   382
25.0541   381
25.0641   380
25.0741   403
25.0841   370
25.0941   375
25.1041   400
25.1141   387
25.1241   406
25.1341   350
25.1441   393
25.1541   369
25.1641   360
25.1741   370
25.1841   384
25.1941   383
25.2041   371
25.2141   359
25.2241   371
25.2341   353
25.2441   359
25.2541   403
25.2641   369
25.2741   409
25.2841   372
25.2941   369
25.3041   375
25.3141   389
25.3241   391
25.3341   383
25.3441   347
25.3541   379
25.3641   381
25.3741   385
25.3841   343
25.3941   354
25.4041   368
25.4141   351
25.4241   347
25.4341   371
25.4441   347
25.4541   347
25.4641   387
25.4741   364
25.4841   366
25.4941   376
25.5041   377
25.5141   362
25.5241   345
25.5341   329
25.5441   343
25.5541   345
25.5641   335
25.5741   362
25.5841   351
25.5941   366
25.6041   367
25.6141   348
25.6241   344
25.6341   329
25.6441   328
25.6541   327
25.6641   346
25.6741   328
25.6841   357
25.6941   346
25.7041   346
25.7141   382
25.7241   351
25.7341   345
25.7441   347
25.7541   368
25.7641   322
25.7741   328
25.7841   335
25.7941   330
25.8041   341
25.8141   341
25.8241   337
25.8341   332
25.8441   322
25.8541   358
25.8641   355
25.8741   334
25.8841   341
25.8941   324
25.9041   359
25.9141   385
25.9241   363
25.9341   319
25.9441   319
25.9541   341
25.9641   331
25.9741   347
25.9841   345
25.9941   315
26.0041   336
26.0141   329
26.0241   327
26.0341   360
26.0441   359
26.0541   338
26.0641   346
26.0741   365
26.0841   334
26.0941   360
26.1041   363
26.1141   323
26.1241   323
26.1341   367
26.1441   335
26.1541   340
26.1641   349
26.1741   325
26.1841   323
26.1941   330
26.2041   349
26.2141   308
26.2241   339
26.2341   324
26.2441   306
26.2541   322
26.2641   346
26.2741   333
26.2841   347
26.2941   330
26.3041   304
26.3141   310
26.3241   331
26.3341   323
26.3441   338
26.3541   347
26.3641   318
26.3741   323
26.3841   349
26.3941   328
26.4041   319
26.4141   331
26.4241   331
26.4341   354
26.4441   298
26.4541   371
26.4641   321
26.4741   342
26.4841   320
26.4941   317
26.5041   315
26.5141   343
26.5241   327
26.5341   345
26.5441   314
26.5541   309
26.5641   352
26.5741   321
26.5841   329
26.5941   318
26.6041   318
26.6141   299
26.6241   341
26.6341   314
26.6441   288
26.6541   292
26.6641   301
26.6741   324
26.6841   345
26.6941   307
26.7041   311
26.7141   300
26.7241   300
26.7341   344
26.7441   324
26.7541   332
26.7641   306
26.7741   322
26.7841   313
26.7941   292
26.8041   311
26.8141   333
26.8241   338
26.8341   340
26.8441   316
26.8541   345
26.8641   308
26.8741   275
26.8841   311
26.8941   341
26.9041   311
26.9141   299
26.9241   301
26.9341   276
26.9441   321
26.9541   342
26.9641   336
26.9741   318
26.9841   276
26.9941   339
27.0041   333
27.0141   294
27.0241   309
27.0341   331
27.0441   309
27.0541   311
27.0641   300
27.0741   327
27.0841   312
27.0941   309
27.1041   314
27.1141   323
27.1241   313
27.1341   310
27.1441   313
27.1541   305
27.1641   302
27.1741   295
27.1841   311
27.1941   297
27.2041   313
27.2141   309
27.2241   286
27.2341   271
27.2441   286
27.2541   293
27.2641   283
27.2741   300
27.2841   289
27.2941   283
27.3041   318
27.3141   309
27.3241   318
27.3341   295
27.3441   268
27.3541   335
27.3641   298
27.3741   302
27.3841   292
27.3941   318
27.4041   310
27.4141   308
27.4241   285
27.4341   299
27.4441   304
27.4541   328
27.4641   340
27.4741   300
27.4841   290
27.4941   314
27.5041   287
27.5141   297
27.5241   282
27.5341   288
27.5441   280
27.5541   282
27.5641   300
27.5741   274
27.5841   294
27.5941   282
27.6041   306
27.6141   286
27.6241   290
27.6341   287
27.6441   266
27.6541   265
27.6641   286
27.6741   307
27.6841   291
27.6941   304
27.7041   296
27.7141   292
27.7241   295
27.7341   286
27.7441   268
27.7541   254
27.7641   254
27.7741   304
27.7841   279
27.7941   282
27.8041   272
27.8141   290
27.8241   336
27.8341   310
27.8441   279
27.8541   292
27.8641   273
27.8741   301
27.8841   267
27.8941   297
27.9041   263
27.9141   278
27.9241   296
27.9341   266
27.9441   280
27.9541   260
27.9641   267
27.9741   261
27.9841   267
27.9941   285
28.0041   273
28.0141   299
28.0241   283
28.0341   265
28.0441   253
28.0541   264
28.0641   276
28.0741   265
28.0841   261
28.0941   256
28.1041   263
28.1141   263
28.1241   245
28.1341   246
28.1441   270
28.1541   262
28.1641   270
28.1741   288
28.1841   238
28.1941   235
28.2041   244
28.2141   274
28.2241   287
28.2341   263
28.2441   265
28.2541   248
28.2641   264
28.2741   263
28.2841   257
28.2941   260
28.3041   279
28.3141   292
28.3241   313
28.3341   262
28.3441   251
28.3541   236
28.3641   257
28.3741   296
28.3841   280
28.3941   248
28.4041   239
28.4141   246
28.4241   275
28.4341   277
28.4441   264
28.4541   262
28.4641   271
28.4741   268
28.4841   275
28.4941   293
28.5041   250
28.5141   258
28.5241   267
28.5341   272
28.5441   263
28.5541   271
28.5641   271
28.5741   280
28.5841   257
28.5941   258
28.6041   249
28.6141   262
28.6241   272
28.6341   258
28.6441   264
28.6541   248
28.6641   257
28.6741   270
28.6841   241
28.6941   246
28.7041   262
28.7141   260
28.7241   254
28.7341   256
28.7441   252
28.7541   259
28.7641   277
28.7741   266
28.7841   230
28.7941   259
28.8041   251
28.8141   258
28.8241   235
28.8341   235
28.8441   271
28.8541   259
28.8641   232
28.8741   246
28.8841   240
28.8941   259
28.9041   251
28.9141   247
28.9241   252
28.9341   239
28.9441   241
28.9541   231
28.9641   236
28.9741   266
28.9841   258
28.9941   245
29.0041   248
29.0141   219
29.0241   243
29.0341   238
29.0441   237
29.0541   213
29.0641   271
29.0741   235
29.0841   260
29.0941   212
29.1041   251
29.1141   243
29.1241   229
29.1341   229
29.1441   248
29.1541   252
29.1641   244
29.1741   231
29.1841   218
29.1941   254
29.2041   226
29.2141   233
29.2241   226
29.2341   234
29.2441   251
29.2541   241
29.2641   243
29.2741   234
29.2841   244
29.2941   224
29.3041   202
29.3141   241
29.3241   230
29.3341   242
29.3441   246
29.3541   232
29.3641   253
29.3741   234
29.3841   255
29.3941   207
29.4041   227
29.4141   227
29.4241   224
29.4341   227
29.4441   224
29.4541   248
29.4641   231
29.4741   227
29.4841   236
29.4941   235
29.5041   218
29.5141   236
29.5241   230
29.5341   226
29.5441   224
29.5541   206
29.5641   202
29.5741   201
29.5841   195
29.5941   230
29.6041   233
29.6141   242
29.6241   223
29.6341   233
29.6441   208
29.6541   224
29.6641   221
29.6741   224
29.6841   200
29.6941   213
29.7041   212
29.7141   215
29.7241   236
29.7341   236
29.7441   224
29.7541   213
29.7641   210
29.7741   198
29.7841   226
29.7941   225
29.8041   212
29.8141   222
29.8241   226
29.8341   209
29.8441   207
29.8541   228
29.8641   202
29.8741   214
29.8841   224
29.8941   204
29.9041   191
29.9141   234
29.9241   222
29.9341   221
29.9441   190
29.9541   205
29.9641   219
29.9741   215
29.9841   207
29.9941   197
30.0041   198
30.0141   208
30.0241   210
30.0341   185
30.0441   203
30.0541   211
30.0641   207
30.0741   203
30.0841   211
30.0941   218
30.1041   204
30.1141   218
30.1241   214
30.1341   224
30.1441   204
30.1541   226
30.1641   220
30.1741   192
30.1841   195
30.1941   179
30.2041   203
30.2141   193
30.2241   206
30.2341   212
30.2441   212
30.2541   210
30.2641   185
30.2741   202
30.2841   217
30.2941   211
30.3041   219
30.3141   200
30.3241   199
30.3341   173
30.3441   191
30.3541   187
30.3641   217
30.3741   181
30.3841   226
30.3941   204
30.4041   205
30.4141   173
30.4241   190
30.4341   212
30.4441   200
30.4541   184
30.4641   206
30.4741   190
30.4841   177
30.4941   183
30.5041   173
30.5141   187
30.5241   207
30.5341   223
30.5441   190
30.5541   196
30.5641   203
30.5741   189
30.5841   203
30.5941   218
30.6041   201
30.6141   216
30.6241   195
30.6341   187
30.6441   212
30.6541   192
30.6641   196
30.6741   206
30.6841   187
30.6941   182
30.7041   230
30.7141   201
30.7241   195
30.7341   187
30.7441   198
30.7541   189
30.7641   190
30.7741   179
30.7841   184
30.7941   205
30.8041   180
30.8141   207
30.8241   195
30.8341   179
30.8441   200
30.8541   193
30.8641   182
30.8741   189
30.8841   185
30.8941   187
30.9041   181
30.9141   191
30.9241   185
30.9341   193
30.9441   185
30.9541   174
30.9641   171
30.9741   186
30.9841   208
30.9941   184
31.0041   171
31.0141   181
31.0241   205
31.0341   171
31.0441   212
31.0541   205
31.0641   178
31.0741   198
31.0841   193
31.0941   190
31.1041   189
31.1141   168
31.1241   179
31.1341   191
31.1441   183
31.1541   193
31.1641   166
31.1741   157
31.1841   191
31.1941   186
31.2041   183
31.2141   171
31.2241   172
31.2341   168
31.2441   202
31.2541   176
31.2641   171
31.2741   189
31.2841   154
31.2941   171
31.3041   199
31.3141   179
31.3241   171
31.3341   181
31.3441   158
31.3541   168
31.3641   189
31.3741   183
31.3841   191
31.3941   161
31.4041   183
31.4141   180
31.4241   162
31.4341   167
31.4441   164
31.4541   152
31.4641   178
31.4741   167
31.4841   158
31.4941   180
31.5041   174
31.5141   173
31.5241   186
31.5341   174
31.5441   174
31.5541   154
31.5641   159
31.5741   158
31.5841   156
31.5941   165
31.6041   164
31.6141   167
31.6241   175
31.6341   162
31.6441   199
31.6541   160
31.6641   156
31.6741   163
31.6841   181
31.6941   163
31.7041   175
31.7141   169
31.7241   145
31.7341   193
31.7441   161
31.7541   185
31.7641   164
31.7741   173
31.7841   167
31.7941   155
31.8041   160
31.8141   146
31.8241   168
31.8341   168
31.8441   177
31.8541   176
31.8641   162
31.8741   160
31.8841   163
31.8941   183
31.9041   171
31.9141   166
31.9241   168
31.9341   170
31.9441   169
31.9541   163
31.9641   144
31.9741   154
31.9841   179
31.9941   148
32.0041   147
32.0141   159
32.0241   148
32.0341   150
32.0441   167
32.0541   180
32.0641   166
32.0741   166
32.0841   173
32.0941   154
32.1041   142
32.1141   159
32.1241   171
32.1341   160
32.1441   175
32.1541   175
32.1641   174
32.1741   170
32.1841   160
32.1941   162
32.2041   155
32.2141   161
32.2241   176
32.2341   178
32.2441   160
32.2541   171
32.2641   144
32.2741   155
32.2841   135
32.2941   151
32.3041   165
32.3141   154
32.3241   167
32.3341   169
32.3441   165
32.3541   157
32.3641   143
32.3741   148
32.3841   151
32.3941   150
32.4041   150
32.4141   140
32.4241   150
32.4341   149
32.4441   146
32.4541   158
32.4641   132
32.4741   158
32.4841   120
32.4941   157
32.5041   137
32.5141   123
32.5241   127
32.5341   139
32.5441   139
32.5541   131
32.5641   145
32.5741   152
32.5841   133
32.5941   128
32.6041   129
32.6141   135
32.6241   137
32.6341   162
32.6441   125
32.6541   135
32.6641   138
32.6741   154
32.6841   143
32.6941   126
32.7041   139
32.7141   133
32.7241   128
32.7341   131
32.7441   116
32.7541   118
32.7641   122
32.7741   146
32.7841   115
32.7941   132
32.8041   132
32.8141   142
32.8241   127
32.8341   139
32.8441   140
32.8541   120
32.8641   122
32.8741   134
32.8841   134
32.8941   120
32.9041   133
32.9141   115
32.9241   139
32.9341   119
32.9441   138
32.9541   141
32.9641   142
32.9741   129
32.9841   118
32.9941   118
33.0041   136
33.0141   126
33.0241   152
33.0341   129
33.0441   133
33.0541   110
33.0641   136
33.0741   149
33.0841   115
33.0941   142
33.1041   123
33.1141   126
33.1241   113
33.1341   121
33.1441   128
33.1541   146
33.1641   118
33.1741   130
33.1841   124
33.1941   126
33.2041   110
33.2141   119
33.2241   112
33.2341   104
33.2441   145
33.2541   139
33.2641   126
33.2741   140
33.2841   136
33.2941   125
33.3041   139
33.3141   139
33.3241   130
33.3341   115
33.3441   126
33.3541   101
33.3641   121
33.3741   115
33.3841   122
33.3941   125
33.4041   125
33.4141   118
33.4241   110
33.4341   122
33.4441   108
33.4541    99
33.4641   130
33.4741   116
33.4841   121
33.4941   112
33.5041   125
33.5141   117
33.5241   117
33.5341   107
33.5441   115
33.5541   116
33.5641   137
33.5741   133
33.5841   113
33.5941   125
33.6041   116
33.6141   130
33.6241   111
33.6341   133
33.6441   132
33.6541   115
33.6641   117
33.6741   126
33.6841   120
33.6941   125
33.7041   126
33.7141   102
33.7241   116
33.7341   131
33.7441    93
33.7541   134
33.7641   104
33.7741   131
33.7841   136
33.7941   128
33.8041   134
33.8141   119
33.8241   111
33.8341   112
33.8441   106
33.8541   121
33.8641   112
33.8741   124
33.8841    96
33.8941   107
33.9041    94
33.9141   101
33.9241   108
33.9341   105
33.9441   116
33.9541   108
33.9641   115
33.9741   113
33.9841   110
33.9941   121
34.0041   113
34.0141    96
34.0241   131
34.0341   118
34.0441   106
34.0541   115
34.0641    97
34.0741    97
34.0841   108
34.0941   110
34.1041   121
34.1141   125
34.1241   112
34.1341    99
34.1441    92
34.1541   116
34.1641    98
34.1741   112
34.1841   115
34.1941   103
34.2041   113
34.2141   100
34.2241   112
34.2341   108
34.2441   112
34.2541   134
34.2641   118
34.2741   113
34.2841   110
34.2941    97
34.3041   105
34.3141   107
34.3241   118
34.3341    97
34.3441    98
34.3541    89
34.3641   103
34.3741    80
34.3841   100
34.3941    94
34.4041   111
34.4141    90
34.4241    97
34.4341    92
34.4441    84
34.4541    95
34.4641   101
34.4741    88
34.4841    90
34.4941   100
34.5041    82
34.5141   104
34.5241    99
34.5341    96
34.5441   105
34.5541   103
34.5641    98
34.5741    96
34.5841    89
34.5941    94
34.6041    97
34.6141    84
34.6241   106
34.6341   111
34.6441    91
34.6541   102
34.6641   111
34.6741   101
34.6841   101
34.6941    82
34.7041   106
34.7141    88
34.7241    88
34.7341    96
34.7441   112
34.7541    92
34.7641    98
34.7741    85
34.7841    94
34.7941   102
34.8041    91
34.8141    88
34.8241    96
34.8341    97
34.8441   108
34.8541   101
34.8641    93
34.8741    95
34.8841    92
34.8941    93
34.9041    99
34.9141    71
34.9241    86
34.9341    96
34.9441   105
34.9541    91
34.9641    91
34.9741    96
34.9841    86
34.9941    92
35.0041    78
35.0141    89
35.0241    83
35.0341    97
35.0441   103
35.0541    92
35.0641    78
35.0741    80
35.0841    95
35.0941    98
35.1041    95
35.1141    71
35.1241    85
35.1341    89
35.1441    90
35.1541    84
35.1641    91
35.1741    86
35.1841    85
35.1941    89
35.2041    87
35.2141    86
35.2241    96
35.2341    80
35.2441    97
35.2541    85
35.2641    75
35.2741    82
35.2841    80
35.2941    98
35.3041   102
35.3141    90
35.3241    62
35.3341    76
35.3441    90
35.3541    87
35.3641    74
35.3741    93
35.3841    81
35.3941    98
35.4041    83
35.4141    69
35.4241    79
35.4341    85
35.4441    75
35.4541    87
35.4641    84
35.4741    83
35.4841    76
35.4941    76
35.5041    79
35.5141    84
35.5241    84
35.5341    77
35.5441    81
35.5541    85
35.5641    91
35.5741    87
35.5841    74
35.5941    78
35.6041    68
35.6141    86
35.6241    74
35.6341    83
35.6441    80
35.6541    75
35.6641    88
35.6741    76
35.6841    76
35.6941    93
35.7041    71
35.7141    75
35.7241    61
35.7341    80
35.7441    87
35.7541    70
35.7641    62
35.7741    82
35.7841    69
35.7941    71
35.8041    74
35.8141    62
35.8241    72
35.8341    89
35.8441    81
35.8541    79
35.8641    87
35.8741    83
35.8841    78
35.8941    65
35.9041    75
35.9141    75
35.9241    96
35.9341    80
35.9441    72
35.9541    76
35.9641    73
35.9741    67
35.9841    76
35.9941    67
36.0041    73
36.0141    66
36.0241    75
36.0341    74
36.0441    74
36.0541    78
36.0641    76
36.0741    65
36.0841    76
36.0941    74
36.1041    69
36.1141    77
36.1241    59
36.1341    62
36.1441    69
36.1541    66
36.1641    62
36.1741    74
36.1841    78
36.1941    58
36.2041    63
36.2141    65
36.2241    65
36.2341    75
36.2441    50
36.2541    52
36.2641    79
36.2741    85
36.2841    73
36.2941    63
36.3041    76
36.3141    69
36.3241    74
36.3341    79
36.3441    65
36.3541    54
36.3641    74
36.3741    60
36.3841    77
36.3941    75
36.4041    67
36.4141    67
36.4241    76
36.4341    76
36.4441    76
36.4541    77
36.4641    59
36.4741    71
36.4841    69
36.4941    70
36.5041    60
36.5141    74
36.5241    73
36.5341    59
36.5441    63
36.5541    57
36.5641    69
36.5741    77
36.5841    55
36.5941    71
36.6041    55
36.6141    67
36.6241    65
36.6341    63
36.6441    71
36.6541    68
36.6641    69
36.6741    55
36.6841    75
36.6941    69
36.7041    60
36.7141    67
36.7241    64
36.7341    41
36.7441    59
36.7541    53
36.7641    57
36.7741    62
36.7841    52
36.7941    69
36.8041    79
36.8141    51
36.8241    66
36.8341    60
36.8441    68
36.8541    59
36.8641    67
36.8741    69
36.8841    56
36.8941    56
36.9041    64
36.9141    62
36.9241    62
36.9341    54
36.9441    56
36.9541    69
36.9641    53
36.9741    49
36.9841    59
36.9941    55
37.0041    71
37.0141    63
37.0241    72
37.0341    72
37.0441    46
37.0541    51
37.0641    54
37.0741    47
37.0841    49
37.0941    48
37.1041    49
37.1141    62
37.1241    48
37.1341    63
37.1441    65
37.1541    52
37.1641    48
37.1741    60
37.1841    53
37.1941    45
37.2041    54
37.2141    46
37.2241    58
37.2341    52
37.2441    59
37.2541    47
37.2641    59
37.2741    55
37.2841    57
37.2941    44
37.3041    62
37.3141    47
37.3241    51
37.3341    59
37.3441    63
37.3541    52
37.3641    40
37.3741    50
37.3841    58
37.3941    44
37.4041    71
37.4141    52
37.4241    49
37.4341    51
37.4441    44
37.4541    43
37.4641    49
37.4741    56
37.4841    54
37.4941    53
37.5041    57
37.5141    50
37.5241    45
37.5341    42
37.5441    56
37.5541    48
37.5641    58
37.5741    46
37.5841    53
37.5941    48
37.6041    57
37.6141    46
37.6241    43
37.6341    46
37.6441    48
37.6541    53
37.6641    51
37.6741    47
37.6841    54
37.6941    51
37.7041    55
37.7141    47
37.7241    35
37.7341    42
37.7441    58
37.7541    42
37.7641    48
37.7741    48
37.7841    40
37.7941    44
37.8041    45
37.8141    49
37.8241    37
37.8341    47
37.8441    47
37.8541    55
37.8641    49
37.8741    49
37.8841    55
37.8941    47
37.9041    62
37.9141    37
37.9241    40
37.9341    54
37.9441    35
37.9541    50
37.9641    41
37.9741    41
37.9841    48
37.9941    45
38.0041    42
38.0141    36
38.0241    42
38.0341    36
38.0441    34
38.0541    38
38.0641    50
38.0741    46
38.0841    54
38.0941    55
38.1041    48
38.1141    40
38.1241    48
38.1341    36
38.1441    40
38.1541    31
38.1641    47
38.1741    31
38.1841    45
38.1941    34
38.2041    41
38.2141    49
38.2241    38
38.2341    34
38.2441    39
38.2541    49
38.2641    41
38.2741    40
38.2841    47
38.2941    30
38.3041    37
38.3141    36
38.3241    47
38.3341    32
38.3441    28
38.3541    58
38.3641    42
38.3741    45
38.3841    42
38.3941    32
38.4041    35
38.4141    40
38.4241    29
38.4341    34
38.4441    33
38.4541    38
38.4641    43
38.4741    43
38.4841    43
38.4941    48
38.5041    51
38.5141    43
38.5241    46
38.5341    33
38.5441    22
38.5541    38
38.5641    41
38.5741    29
38.5841    30
38.5941    41
38.6041    33
38.6141    43
38.6241    43
38.6341    39
38.6441    33
38.6541    34
38.6641    33
38.6741    44
38.6841    30
38.6941    31
38.7041    44
38.7141    32
38.7241    34
38.7341    35
38.7441    28
38.7541    44
38.7641    31
38.7741    37
38.7841    29
38.7941    30
38.8041    33
38.8141    35
38.8241    29
38.8341    29
38.8441    48
38.8541    33
38.8641    29
38.8741    34
38.8841    25
38.8941    36
38.9041    29
38.9141    37
38.9241    33
38.9341    31
38.9441    41
38.9541    32
38.9641    32
38.9741    38
38.9841    29
38.9941    23
39.0041    32
39.0141    30
39.0241    30
39.0341    35
39.0441    32
39.0541    31
39.0641    28
39.0741    37
39.0841    23
39.0941    35
39.1041    33
39.1141    30
39.1241    30
39.1341    26
39.1441    27
39.1541    39
39.1641    32
39.1741    25
39.1841    48
39.1941    28
39.2041    23
39.2141    33
39.2241    33
39.2341    38
39.2441    29
39.2541    24
39.2641    30
39.2741    20
39.2841    32
39.2941    34
39.3041    25
39.3141    30
39.3241    24
39.3341    27
39.3441    28
39.3541    32
39.3641    24
39.3741    29
39.3841    35
39.3941    29
39.4041    41
39.4141    32
39.4241    24
39.4341    30
39.4441    22
39.4541    30
39.4641    30
39.4741    26
39.4841    27
39.4941    31
39.5041    30
39.5141    33
39.5241    22
39.5341    27
39.5441    22
39.5541    23
39.5641    23
39.5741    28
39.5841    22
39.5941    24
39.6041    22
39.6141    18
39.6241    27
39.6341    21
39.6441    29
39.6541    24
39.6641    34
39.6741    28
39.6841    25
39.6941    25
39.7041    24
39.7141    21
39.7241    22
39.7341    16
39.7441    15
39.7541    21
39.7641    20
39.7741    33
39.7841    32
39.7941    19
39.8041    24
39.8141    19
39.8241    26
39.8341    20
39.8441    27
39.8541    25
39.8641    22
39.8741    13
39.8841    19
39.8941    25
39.9041    26
39.9141    21
39.9241    22
39.9341    26
39.9441    23
39.9541    25
39.9641    24
39.9741    24
39.9841    22
