Bruker Nano GmbH Berlin, Germany
Esprit 1.9

Date: 4/21/2021 1:45:45 PM
Real time: 19050
Life time: 17745
Pulse density: 102496


Detector type: XFlash 430
Window type: Custom type
Detector thickness: 0.45
Si dead layer:0.029

Calibration, lin.: 10
Calibration, abs.: -955.9
Mn FWHM: 137.05
Fano factor: 0.121
Channels: 4095

Energy Counts
-0.9559     0
-0.9459     0
-0.9359     0
-0.9259     0
-0.9159     0
-0.9059     0
-0.8959     0
-0.8859     0
-0.8759     0
-0.8659     0
-0.8559     0
-0.8459     0
-0.8359     0
-0.8259     0
-0.8159     0
-0.8059     0
-0.7959     0
-0.7859     0
-0.7759     0
-0.7659     0
-0.7559     0
-0.7459     0
-0.7359     0
-0.7259     0
-0.7159     0
-0.7059     0
-0.6959     0
-0.6859     0
-0.6759     0
-0.6659     0
-0.6559     0
-0.6459     0
-0.6359     0
-0.6259     0
-0.6159     0
-0.6059     0
-0.5959     0
-0.5859     0
-0.5759     0
-0.5659     0
-0.5559     0
-0.5459     0
-0.5359     0
-0.5259     0
-0.5159     0
-0.5059     0
-0.4959     0
-0.4859     0
-0.4759     0
-0.4659     0
-0.4559     0
-0.4459     0
-0.4359     0
-0.4259     0
-0.4159     0
-0.4059     0
-0.3959     0
-0.3859     0
-0.3759     0
-0.3659     0
-0.3559     0
-0.3459     0
-0.3359     0
-0.3259     0
-0.3159     0
-0.3059     0
-0.2959     0
-0.2859     0
-0.2759     0
-0.2659     0
-0.2559     0
-0.2459     0
-0.2359     0
-0.2259     0
-0.2159     0
-0.2059     0
-0.1959     0
-0.1859     0
-0.1759     0
-0.1659     0
-0.1559     0
-0.1459     0
-0.1359     0
-0.1259     1
-0.1159     3
-0.1059     8
-0.0959    68
-0.0859   227
-0.0759   645
-0.0659  2027
-0.0559  5088
-0.0459 11154
-0.0359 21440
-0.0259 33725
-0.0159 46535
-0.0059 54369
 0.0041 54666
 0.0141 47215
 0.0241 34590
 0.0341 21910
 0.0441 11885
 0.0541  5527
 0.0641  2247
 0.0741   789
 0.0841   233
 0.0941    63
 0.1041    15
 0.1141     8
 0.1241     5
 0.1341     4
 0.1441     6
 0.1541     4
 0.1641     5
 0.1741     2
 0.1841   173
 0.1941   288
 0.2041   273
 0.2141   293
 0.2241   283
 0.2341   287
 0.2441   284
 0.2541   281
 0.2641   261
 0.2741   280
 0.2841   281
 0.2941   278
 0.3041   287
 0.3141   266
 0.3241   267
 0.3341   284
 0.3441   269
 0.3541   262
 0.3641   257
 0.3741   249
 0.3841   233
 0.3941   242
 0.4041   246
 0.4141   248
 0.4241   266
 0.4341   260
 0.4441   251
 0.4541   250
 0.4641   219
 0.4741   247
 0.4841   234
 0.4941   232
 0.5041   224
 0.5141   219
 0.5241   214
 0.5341   202
 0.5441   229
 0.5541   249
 0.5641   242
 0.5741   237
 0.5841   232
 0.5941   222
 0.6041   240
 0.6141   219
 0.6241   203
 0.6341   213
 0.6441   213
 0.6541   208
 0.6641   205
 0.6741   222
 0.6841   215
 0.6941   209
 0.7041   209
 0.7141   202
 0.7241   207
 0.7341   214
 0.7441   215
 0.7541   211
 0.7641   191
 0.7741   185
 0.7841   197
 0.7941   204
 0.8041   196
 0.8141   198
 0.8241   209
 0.8341   192
 0.8441   193
 0.8541   194
 0.8641   185
 0.8741   198
 0.8841   199
 0.8941   192
 0.9041   198
 0.9141   193
 0.9241   169
 0.9341   191
 0.9441   199
 0.9541   196
 0.9641   180
 0.9741   185
 0.9841   171
 0.9941   175
 1.0041   196
 1.0141   193
 1.0241   187
 1.0341   190
 1.0441   181
 1.0541   177
 1.0641   170
 1.0741   167
 1.0841   201
 1.0941   181
 1.1041   183
 1.1141   173
 1.1241   181
 1.1341   160
 1.1441   159
 1.1541   175
 1.1641   171
 1.1741   189
 1.1841   182
 1.1941   172
 1.2041   154
 1.2141   180
 1.2241   161
 1.2341   176
 1.2441   194
 1.2541   183
 1.2641   182
 1.2741   168
 1.2841   183
 1.2941   184
 1.3041   175
 1.3141   163
 1.3241   167
 1.3341   147
 1.3441   138
 1.3541   137
 1.3641   174
 1.3741   163
 1.3841   177
 1.3941   173
 1.4041   157
 1.4141   164
 1.4241   160
 1.4341   157
 1.4441   169
 1.4541   167
 1.4641   171
 1.4741   172
 1.4841   155
 1.4941   178
 1.5041   165
 1.5141   157
 1.5241   161
 1.5341   159
 1.5441   172
 1.5541   168
 1.5641   150
 1.5741   162
 1.5841   156
 1.5941   144
 1.6041   153
 1.6141   164
 1.6241   161
 1.6341   158
 1.6441   185
 1.6541   210
 1.6641   239
 1.6741   276
 1.6841   366
 1.6941   479
 1.7041   562
 1.7141   609
 1.7241   725
 1.7341   756
 1.7441   701
 1.7541   666
 1.7641   631
 1.7741   519
 1.7841   457
 1.7941   385
 1.8041   280
 1.8141   239
 1.8241   237
 1.8341   215
 1.8441   206
 1.8541   184
 1.8641   189
 1.8741   180
 1.8841   166
 1.8941   177
 1.9041   160
 1.9141   171
 1.9241   171
 1.9341   165
 1.9441   170
 1.9541   179
 1.9641   163
 1.9741   167
 1.9841   183
 1.9941   203
 2.0041   225
 2.0141   190
 2.0241   196
 2.0341   210
 2.0441   194
 2.0541   205
 2.0641   180
 2.0741   153
 2.0841   152
 2.0941   167
 2.1041   130
 2.1141   162
 2.1241   148
 2.1341   152
 2.1441   134
 2.1541   130
 2.1641   128
 2.1741   144
 2.1841   144
 2.1941   147
 2.2041   144
 2.2141   131
 2.2241   135
 2.2341   146
 2.2441   143
 2.2541   138
 2.2641   163
 2.2741   154
 2.2841   134
 2.2941   144
 2.3041   132
 2.3141   138
 2.3241   126
 2.3341   138
 2.3441   143
 2.3541   132
 2.3641   140
 2.3741   136
 2.3841   136
 2.3941   132
 2.4041   127
 2.4141   134
 2.4241   124
 2.4341   130
 2.4441   138
 2.4541   125
 2.4641   111
 2.4741   131
 2.4841   131
 2.4941   126
 2.5041   118
 2.5141   149
 2.5241   127
 2.5341   137
 2.5441   142
 2.5541   134
 2.5641   113
 2.5741   153
 2.5841   127
 2.5941   120
 2.6041   141
 2.6141   108
 2.6241   148
 2.6341   119
 2.6441   128
 2.6541   115
 2.6641   128
 2.6741   122
 2.6841   116
 2.6941   116
 2.7041   113
 2.7141   127
 2.7241   118
 2.7341   134
 2.7441    99
 2.7541   133
 2.7641   121
 2.7741   144
 2.7841   117
 2.7941   128
 2.8041   135
 2.8141   127
 2.8241   141
 2.8341   133
 2.8441   140
 2.8541   139
 2.8641   107
 2.8741   126
 2.8841   122
 2.8941   125
 2.9041   107
 2.9141   113
 2.9241   117
 2.9341   110
 2.9441   115
 2.9541   112
 2.9641   113
 2.9741   133
 2.9841   121
 2.9941   131
 3.0041   110
 3.0141   113
 3.0241   121
 3.0341    98
 3.0441    97
 3.0541   108
 3.0641    95
 3.0741   123
 3.0841   105
 3.0941    96
 3.1041   106
 3.1141   109
 3.1241   105
 3.1341    84
 3.1441   121
 3.1541    94
 3.1641   114
 3.1741    97
 3.1841   107
 3.1941   116
 3.2041   104
 3.2141   105
 3.2241   142
 3.2341   155
 3.2441   184
 3.2541   193
 3.2641   233
 3.2741   286
 3.2841   312
 3.2941   339
 3.3041   376
 3.3141   381
 3.3241   348
 3.3341   323
 3.3441   274
 3.3541   288
 3.3641   267
 3.3741   230
 3.3841   178
 3.3941   139
 3.4041   117
 3.4141   113
 3.4241   110
 3.4341   101
 3.4441    92
 3.4541   100
 3.4641    98
 3.4741    93
 3.4841    89
 3.4941    95
 3.5041   107
 3.5141   131
 3.5241   129
 3.5341   137
 3.5441   125
 3.5541   179
 3.5641   205
 3.5741   243
 3.5841   248
 3.5941   292
 3.6041   327
 3.6141   464
 3.6241   526
 3.6341   679
 3.6441   764
 3.6541   877
 3.6641   992
 3.6741  1060
 3.6841  1112
 3.6941  1097
 3.7041  1055
 3.7141   992
 3.7241   907
 3.7341   729
 3.7441   609
 3.7541   495
 3.7641   402
 3.7741   297
 3.7841   236
 3.7941   192
 3.8041   108
 3.8141    95
 3.8241   101
 3.8341    91
 3.8441    80
 3.8541    76
 3.8641    68
 3.8741    89
 3.8841    85
 3.8941   108
 3.9041    86
 3.9141   110
 3.9241   124
 3.9341   128
 3.9441   157
 3.9541   144
 3.9641   195
 3.9741   166
 3.9841   206
 3.9941   210
 4.0041   224
 4.0141   233
 4.0241   212
 4.0341   219
 4.0441   206
 4.0541   172
 4.0641   151
 4.0741   150
 4.0841   137
 4.0941   122
 4.1041   111
 4.1141    97
 4.1241    87
 4.1341    77
 4.1441    83
 4.1541    83
 4.1641    67
 4.1741    68
 4.1841    77
 4.1941    68
 4.2041    74
 4.2141    61
 4.2241    78
 4.2341    88
 4.2441    75
 4.2541    61
 4.2641    66
 4.2741    76
 4.2841    81
 4.2941    71
 4.3041    71
 4.3141    64
 4.3241    88
 4.3341    69
 4.3441    72
 4.3541    86
 4.3641    96
 4.3741   113
 4.3841   123
 4.3941   147
 4.4041   144
 4.4141   192
 4.4241   226
 4.4341   275
 4.4441   310
 4.4541   361
 4.4641   397
 4.4741   482
 4.4841   520
 4.4941   536
 4.5041   513
 4.5141   538
 4.5241   510
 4.5341   450
 4.5441   407
 4.5541   359
 4.5641   321
 4.5741   274
 4.5841   245
 4.5941   205
 4.6041   166
 4.6141   150
 4.6241   141
 4.6341   119
 4.6441    98
 4.6541   101
 4.6641    80
 4.6741   105
 4.6841   110
 4.6941    90
 4.7041   110
 4.7141    78
 4.7241    85
 4.7341    86
 4.7441    96
 4.7541   118
 4.7641   103
 4.7741   112
 4.7841   108
 4.7941   115
 4.8041   122
 4.8141   132
 4.8241   123
 4.8341   131
 4.8441   144
 4.8541   148
 4.8641   163
 4.8741   156
 4.8841   142
 4.8941   173
 4.9041   161
 4.9141   180
 4.9241   182
 4.9341   165
 4.9441   177
 4.9541   184
 4.9641   161
 4.9741   177
 4.9841   169
 4.9941   126
 5.0041   128
 5.0141   114
 5.0241   108
 5.0341   122
 5.0441   105
 5.0541    99
 5.0641   107
 5.0741    90
 5.0841    90
 5.0941   115
 5.1041    85
 5.1141   100
 5.1241    96
 5.1341    96
 5.1441   101
 5.1541    97
 5.1641    94
 5.1741    99
 5.1841   116
 5.1941    95
 5.2041   108
 5.2141   108
 5.2241    81
 5.2341   104
 5.2441    95
 5.2541   105
 5.2641   104
 5.2741   121
 5.2841   113
 5.2941   129
 5.3041   108
 5.3141   122
 5.3241   121
 5.3341   139
 5.3441   140
 5.3541   154
 5.3641   180
 5.3741   220
 5.3841   202
 5.3941   223
 5.4041   224
 5.4141   190
 5.4241   225
 5.4341   196
 5.4441   206
 5.4541   186
 5.4641   190
 5.4741   185
 5.4841   165
 5.4941   147
 5.5041   141
 5.5141   132
 5.5241    98
 5.5341   120
 5.5441   118
 5.5541   112
 5.5641   114
 5.5741    94
 5.5841    90
 5.5941   102
 5.6041   107
 5.6141    97
 5.6241    89
 5.6341    85
 5.6441    87
 5.6541   100
 5.6641    84
 5.6741   103
 5.6841   114
 5.6941   103
 5.7041   107
 5.7141   100
 5.7241   110
 5.7341    91
 5.7441   127
 5.7541   133
 5.7641   121
 5.7741   133
 5.7841   136
 5.7941   156
 5.8041   154
 5.8141   187
 5.8241   214
 5.8341   233
 5.8441   274
 5.8541   293
 5.8641   302
 5.8741   334
 5.8841   324
 5.8941   314
 5.9041   328
 5.9141   323
 5.9241   301
 5.9341   298
 5.9441   255
 5.9541   273
 5.9641   236
 5.9741   234
 5.9841   211
 5.9941   169
 6.0041   137
 6.0141   146
 6.0241   149
 6.0341   136
 6.0441   103
 6.0541   147
 6.0641   122
 6.0741   159
 6.0841   131
 6.0941   149
 6.1041   164
 6.1141   145
 6.1241   156
 6.1341   168
 6.1441   175
 6.1541   191
 6.1641   203
 6.1741   215
 6.1841   270
 6.1941   321
 6.2041   382
 6.2141   476
 6.2241   758
 6.2341   997
 6.2441  1332
 6.2541  1946
 6.2641  2634
 6.2741  3589
 6.2841  4871
 6.2941  6414
 6.3041  8483
 6.3141 10450
 6.3241 13153
 6.3341 15949
 6.3441 18722
 6.3541 21011
 6.3641 23394
 6.3741 25377
 6.3841 26775
 6.3941 27378
 6.4041 27489
 6.4141 26575
 6.4241 25187
 6.4341 22893
 6.4441 20423
 6.4541 17740
 6.4641 15251
 6.4741 12386
 6.4841 10066
 6.4941  7802
 6.5041  5873
 6.5141  4375
 6.5241  3235
 6.5341  2266
 6.5441  1600
 6.5541  1102
 6.5641   798
 6.5741   525
 6.5841   440
 6.5941   301
 6.6041   225
 6.6141   234
 6.6241   205
 6.6341   177
 6.6441   179
 6.6541   185
 6.6641   168
 6.6741   170
 6.6841   164
 6.6941   181
 6.7041   189
 6.7141   197
 6.7241   150
 6.7341   173
 6.7441   174
 6.7541   206
 6.7641   170
 6.7741   202
 6.7841   185
 6.7941   190
 6.8041   197
 6.8141   215
 6.8241   229
 6.8341   259
 6.8441   236
 6.8541   270
 6.8641   278
 6.8741   331
 6.8841   426
 6.8941   448
 6.9041   590
 6.9141   685
 6.9241   806
 6.9341  1029
 6.9441  1305
 6.9541  1576
 6.9641  1843
 6.9741  2284
 6.9841  2639
 6.9941  3112
 7.0041  3383
 7.0141  3669
 7.0241  3999
 7.0341  4311
 7.0441  4474
 7.0541  4529
 7.0641  4579
 7.0741  4118
 7.0841  4008
 7.0941  3799
 7.1041  3335
 7.1141  2912
 7.1241  2517
 7.1341  2188
 7.1441  1729
 7.1541  1418
 7.1641  1171
 7.1741   885
 7.1841   721
 7.1941   555
 7.2041   438
 7.2141   327
 7.2241   325
 7.2341   281
 7.2441   238
 7.2541   230
 7.2641   216
 7.2741   211
 7.2841   228
 7.2941   205
 7.3041   220
 7.3141   214
 7.3241   239
 7.3341   272
 7.3441   277
 7.3541   268
 7.3641   307
 7.3741   305
 7.3841   321
 7.3941   314
 7.4041   363
 7.4141   352
 7.4241   399
 7.4341   394
 7.4441   392
 7.4541   384
 7.4641   411
 7.4741   373
 7.4841   355
 7.4941   358
 7.5041   340
 7.5141   352
 7.5241   290
 7.5341   305
 7.5441   288
 7.5541   256
 7.5641   222
 7.5741   234
 7.5841   226
 7.5941   215
 7.6041   219
 7.6141   213
 7.6241   197
 7.6341   191
 7.6441   209
 7.6541   197
 7.6641   216
 7.6741   206
 7.6841   192
 7.6941   203
 7.7041   198
 7.7141   211
 7.7241   214
 7.7341   197
 7.7441   207
 7.7541   224
 7.7641   199
 7.7741   245
 7.7841   257
 7.7941   246
 7.8041   245
 7.8141   228
 7.8241   231
 7.8341   276
 7.8441   262
 7.8541   266
 7.8641   259
 7.8741   302
 7.8841   286
 7.8941   317
 7.9041   317
 7.9141   347
 7.9241   360
 7.9341   359
 7.9441   377
 7.9541   385
 7.9641   414
 7.9741   443
 7.9841   500
 7.9941   539
 8.0041   587
 8.0141   653
 8.0241   705
 8.0341   759
 8.0441   792
 8.0541   842
 8.0641   872
 8.0741   948
 8.0841   996
 8.0941  1027
 8.1041  1031
 8.1141  1089
 8.1241  1163
 8.1341  1206
 8.1441  1244
 8.1541  1250
 8.1641  1313
 8.1741  1262
 8.1841  1362
 8.1941  1380
 8.2041  1420
 8.2141  1431
 8.2241  1456
 8.2341  1420
 8.2441  1443
 8.2541  1543
 8.2641  1565
 8.2741  1638
 8.2841  1775
 8.2941  1908
 8.3041  2052
 8.3141  2178
 8.3241  2330
 8.3341  2503
 8.3441  2650
 8.3541  2841
 8.3641  2968
 8.3741  2916
 8.3841  3026
 8.3941  3009
 8.4041  2870
 8.4141  2815
 8.4241  2728
 8.4341  2556
 8.4441  2273
 8.4541  2062
 8.4641  1862
 8.4741  1556
 8.4841  1262
 8.4941  1118
 8.5041   984
 8.5141   843
 8.5241   693
 8.5341   604
 8.5441   552
 8.5541   528
 8.5641   457
 8.5741   431
 8.5841   422
 8.5941   444
 8.6041   389
 8.6141   404
 8.6241   414
 8.6341   384
 8.6441   382
 8.6541   394
 8.6641   389
 8.6741   397
 8.6841   373
 8.6941   378
 8.7041   367
 8.7141   339
 8.7241   379
 8.7341   300
 8.7441   343
 8.7541   323
 8.7641   293
 8.7741   313
 8.7841   309
 8.7941   296
 8.8041   268
 8.8141   285
 8.8241   301
 8.8341   280
 8.8441   297
 8.8541   291
 8.8641   314
 8.8741   293
 8.8841   303
 8.8941   307
 8.9041   319
 8.9141   302
 8.9241   295
 8.9341   306
 8.9441   304
 8.9541   321
 8.9641   338
 8.9741   357
 8.9841   327
 8.9941   322
 9.0041   376
 9.0141   348
 9.0241   370
 9.0341   384
 9.0441   387
 9.0541   393
 9.0641   401
 9.0741   431
 9.0841   464
 9.0941   450
 9.1041   475
 9.1141   498
 9.1241   535
 9.1341   532
 9.1441   541
 9.1541   541
 9.1641   565
 9.1741   685
 9.1841   677
 9.1941   683
 9.2041   728
 9.2141   811
 9.2241   805
 9.2341   826
 9.2441   860
 9.2541   901
 9.2641   898
 9.2741   959
 9.2841  1015
 9.2941  1067
 9.3041  1075
 9.3141  1133
 9.3241  1122
 9.3341  1193
 9.3441  1234
 9.3541  1244
 9.3641  1220
 9.3741  1297
 9.3841  1311
 9.3941  1312
 9.4041  1345
 9.4141  1341
 9.4241  1305
 9.4341  1322
 9.4441  1327
 9.4541  1386
 9.4641  1423
 9.4741  1434
 9.4841  1514
 9.4941  1546
 9.5041  1509
 9.5141  1513
 9.5241  1527
 9.5341  1598
 9.5441  1708
 9.5541  1684
 9.5641  1794
 9.5741  1894
 9.5841  2032
 9.5941  2122
 9.6041  2207
 9.6141  2307
 9.6241  2392
 9.6341  2554
 9.6441  2559
 9.6541  2634
 9.6641  2611
 9.6741  2623
 9.6841  2595
 9.6941  2630
 9.7041  2446
 9.7141  2341
 9.7241  2220
 9.7341  2097
 9.7441  1902
 9.7541  1752
 9.7641  1664
 9.7741  1517
 9.7841  1410
 9.7941  1309
 9.8041  1180
 9.8141  1164
 9.8241  1083
 9.8341  1051
 9.8441  1000
 9.8541  1033
 9.8641   997
 9.8741  1019
 9.8841  1015
 9.8941   969
 9.9041  1044
 9.9141  1058
 9.9241  1044
 9.9341  1104
 9.9441  1085
 9.9541  1095
 9.9641  1050
 9.9741  1065
 9.9841  1010
 9.9941   980
10.0041   920
10.0141   861
10.0241   793
10.0341   724
10.0441   632
10.0541   597
10.0641   532
10.0741   461
10.0841   456
10.0941   412
10.1041   384
10.1141   334
10.1241   307
10.1341   284
10.1441   265
10.1541   270
10.1641   238
10.1741   242
10.1841   224
10.1941   223
10.2041   203
10.2141   195
10.2241   207
10.2341   201
10.2441   207
10.2541   212
10.2641   185
10.2741   192
10.2841   199
10.2941   193
10.3041   195
10.3141   173
10.3241   169
10.3341   168
10.3441   160
10.3541   158
10.3641   182
10.3741   173
10.3841   167
10.3941   177
10.4041   179
10.4141   161
10.4241   150
10.4341   149
10.4441   156
10.4541   158
10.4641   164
10.4741   156
10.4841   190
10.4941   200
10.5041   191
10.5141   178
10.5241   184
10.5341   176
10.5441   193
10.5541   203
10.5641   193
10.5741   197
10.5841   197
10.5941   191
10.6041   198
10.6141   199
10.6241   196
10.6341   203
10.6441   177
10.6541   186
10.6641   218
10.6741   218
10.6841   204
10.6941   206
10.7041   217
10.7141   224
10.7241   240
10.7341   235
10.7441   207
10.7541   228
10.7641   238
10.7741   214
10.7841   230
10.7941   253
10.8041   244
10.8141   274
10.8241   274
10.8341   272
10.8441   266
10.8541   285
10.8641   293
10.8741   288
10.8841   282
10.8941   296
10.9041   301
10.9141   310
10.9241   285
10.9341   295
10.9441   304
10.9541   289
10.9641   273
10.9741   297
10.9841   315
10.9941   267
11.0041   278
11.0141   277
11.0241   261
11.0341   269
11.0441   266
11.0541   253
11.0641   257
11.0741   263
11.0841   269
11.0941   249
11.1041   250
11.1141   267
11.1241   278
11.1341   282
11.1441   305
11.1541   316
11.1641   312
11.1741   302
11.1841   325
11.1941   339
11.2041   366
11.2141   415
11.2241   413
11.2341   430
11.2441   441
11.2541   450
11.2641   462
11.2741   468
11.2841   491
11.2941   497
11.3041   482
11.3141   434
11.3241   462
11.3341   450
11.3441   413
11.3541   351
11.3641   362
11.3741   345
11.3841   334
11.3941   322
11.4041   282
11.4141   260
11.4241   247
11.4341   244
11.4441   239
11.4541   216
11.4641   208
11.4741   188
11.4841   189
11.4941   184
11.5041   187
11.5141   202
11.5241   198
11.5341   193
11.5441   212
11.5541   218
11.5641   225
11.5741   203
11.5841   218
11.5941   211
11.6041   214
11.6141   209
11.6241   198
11.6341   206
11.6441   203
11.6541   217
11.6641   211
11.6741   207
11.6841   195
11.6941   192
11.7041   195
11.7141   201
11.7241   192
11.7341   190
11.7441   174
11.7541   178
11.7641   195
11.7741   185
11.7841   171
11.7941   176
11.8041   178
11.8141   160
11.8241   162
11.8341   169
11.8441   168
11.8541   177
11.8641   166
11.8741   164
11.8841   183
11.8941   188
11.9041   174
11.9141   167
11.9241   177
11.9341   172
11.9441   178
11.9541   166
11.9641   165
11.9741   172
11.9841   186
11.9941   198
12.0041   196
12.0141   183
12.0241   169
12.0341   161
12.0441   173
12.0541   167
12.0641   166
12.0741   185
12.0841   159
12.0941   155
12.1041   171
12.1141   153
12.1241   152
12.1341   179
12.1441   166
12.1541   151
12.1641   161
12.1741   168
12.1841   154
12.1941   152
12.2041   147
12.2141   146
12.2241   165
12.2341   163
12.2441   162
12.2541   146
12.2641   139
12.2741   158
12.2841   171
12.2941   181
12.3041   167
12.3141   146
12.3241   146
12.3341   158
12.3441   152
12.3541   140
12.3641   159
12.3741   168
12.3841   165
12.3941   158
12.4041   159
12.4141   162
12.4241   160
12.4341   151
12.4441   151
12.4541   163
12.4641   158
12.4741   159
12.4841   171
12.4941   166
12.5041   166
12.5141   169
12.5241   178
12.5341   183
12.5441   179
12.5541   158
12.5641   165
12.5741   170
12.5841   169
12.5941   171
12.6041   175
12.6141   180
12.6241   172
12.6341   180
12.6441   198
12.6541   203
12.6641   205
12.6741   201
12.6841   186
12.6941   183
12.7041   195
12.7141   194
12.7241   189
12.7341   197
12.7441   200
12.7541   197
12.7641   191
12.7741   185
12.7841   193
12.7941   205
12.8041   198
12.8141   182
12.8241   179
12.8341   185
12.8441   193
12.8541   193
12.8641   183
12.8741   179
12.8841   185
12.8941   188
12.9041   192
12.9141   197
12.9241   196
12.9341   190
12.9441   188
12.9541   188
12.9641   192
12.9741   192
12.9841   186
12.9941   175
13.0041   189
13.0141   203
13.0241   187
13.0341   180
13.0441   221
13.0541   215
13.0641   185
13.0741   186
13.0841   197
13.0941   196
13.1041   192
13.1141   197
13.1241   215
13.1341   208
13.1441   206
13.1541   219
13.1641   220
13.1741   206
13.1841   207
13.1941   220
13.2041   220
13.2141   214
13.2241   233
13.2341   246
13.2441   255
13.2541   285
13.2641   301
13.2741   311
13.2841   323
13.2941   341
13.3041   348
13.3141   360
13.3241   383
13.3341   389
13.3441   382
13.3541   377
13.3641   388
13.3741   404
13.3841   400
13.3941   380
13.4041   366
13.4141   369
13.4241   375
13.4341   368
13.4441   351
13.4541   338
13.4641   328
13.4741   312
13.4841   297
13.4941   287
13.5041   272
13.5141   254
13.5241   242
13.5341   235
13.5441   233
13.5541   236
13.5641   236
13.5741   228
13.5841   222
13.5941   222
13.6041   221
13.6141   215
13.6241   207
13.6341   205
13.6441   221
13.6541   211
13.6641   192
13.6741   195
13.6841   209
13.6941   221
13.7041   213
13.7141   217
13.7241   234
13.7341   226
13.7441   201
13.7541   210
13.7641   229
13.7741   227
13.7841   229
13.7941   227
13.8041   227
13.8141   240
13.8241   231
13.8341   211
13.8441   214
13.8541   219
13.8641   225
13.8741   242
13.8841   247
13.8941   251
13.9041   259
13.9141   254
13.9241   254
13.9341   265
13.9441   265
13.9541   257
13.9641   268
13.9741   288
13.9841   310
13.9941   325
14.0041   343
14.0141   363
14.0241   373
14.0341   380
14.0441   400
14.0541   432
14.0641   460
14.0741   475
14.0841   487
14.0941   497
14.1041   507
14.1141   530
14.1241   553
14.1341   556
14.1441   548
14.1541   546
14.1641   544
14.1741   538
14.1841   534
14.1941   522
14.2041   501
14.2141   455
14.2241   435
14.2341   445
14.2441   431
14.2541   416
14.2641   391
14.2741   363
14.2841   346
14.2941   342
14.3041   325
14.3141   309
14.3241   306
14.3341   311
14.3441   303
14.3541   292
14.3641   294
14.3741   281
14.3841   265
14.3941   269
14.4041   272
14.4141   258
14.4241   262
14.4341   274
14.4441   267
14.4541   252
14.4641   254
14.4741   269
14.4841   275
14.4941   273
14.5041   266
14.5141   275
14.5241   292
14.5341   267
14.5441   262
14.5541   253
14.5641   243
14.5741   259
14.5841   263
14.5941   276
14.6041   276
14.6141   281
14.6241   287
14.6341   262
14.6441   257
14.6541   245
14.6641   255
14.6741   276
14.6841   270
14.6941   286
14.7041   271
14.7141   263
14.7241   278
14.7341   267
14.7441   278
14.7541   307
14.7641   295
14.7741   296
14.7841   289
14.7941   283
14.8041   308
14.8141   313
14.8241   314
14.8341   308
14.8441   324
14.8541   318
14.8641   302
14.8741   328
14.8841   328
14.8941   322
14.9041   345
14.9141   350
14.9241   345
14.9341   345
14.9441   341
14.9541   334
14.9641   352
14.9741   354
14.9841   349
14.9941   345
15.0041   336
15.0141   318
15.0241   318
15.0341   328
15.0441   333
15.0541   314
15.0641   306
15.0741   316
15.0841   318
15.0941   316
15.1041   331
15.1141   324
15.1241   299
15.1341   293
15.1441   293
15.1541   304
15.1641   328
15.1741   326
15.1841   319
15.1941   314
15.2041   306
15.2141   315
15.2241   332
15.2341   331
15.2441   326
15.2541   307
15.2641   286
15.2741   297
15.2841   315
15.2941   315
15.3041   315
15.3141   323
15.3241   320
15.3341   308
15.3441   311
15.3541   343
15.3641   321
15.3741   313
15.3841   300
15.3941   314
15.4041   326
15.4141   322
15.4241   335
15.4341   337
15.4441   309
15.4541   314
15.4641   309
15.4741   320
15.4841   315
15.4941   315
15.5041   345
15.5141   340
15.5241   355
15.5341   374
15.5441   350
15.5541   376
15.5641   385
15.5741   372
15.5841   365
15.5941   384
15.6041   393
15.6141   456
15.6241   476
15.6341   453
15.6441   443
15.6541   464
15.6641   491
15.6741   502
15.6841   537
15.6941   550
15.7041   547
15.7141   555
15.7241   542
15.7341   571
15.7441   597
15.7541   561
15.7641   557
15.7741   600
15.7841   595
15.7941   557
15.8041   546
15.8141   531
15.8241   541
15.8341   528
15.8441   497
15.8541   512
15.8641   501
15.8741   467
15.8841   466
15.8941   476
15.9041   474
15.9141   470
15.9241   430
15.9341   389
15.9441   389
15.9541   417
15.9641   402
15.9741   394
15.9841   397
15.9941   384
16.0041   370
16.0141   374
16.0241   367
16.0341   375
16.0441   376
16.0541   353
16.0641   347
16.0741   364
16.0841   385
16.0941   371
16.1041   359
16.1141   379
16.1241   384
16.1341   367
16.1441   367
16.1541   368
16.1641   352
16.1741   358
16.1841   377
16.1941   383
16.2041   360
16.2141   354
16.2241   398
16.2341   374
16.2441   364
16.2541   378
16.2641   377
16.2741   371
16.2841   370
16.2941   381
16.3041   374
16.3141   366
16.3241   367
16.3341   383
16.3441   379
16.3541   403
16.3641   402
16.3741   391
16.3841   383
16.3941   379
16.4041   379
16.4141   366
16.4241   404
16.4341   399
16.4441   382
16.4541   394
16.4641   400
16.4741   416
16.4841   394
16.4941   381
16.5041   395
16.5141   396
16.5241   400
16.5341   400
16.5441   388
16.5541   368
16.5641   408
16.5741   418
16.5841   418
16.5941   392
16.6041   409
16.6141   430
16.6241   434
16.6341   438
16.6441   424
16.6541   411
16.6641   424
16.6741   428
16.6841   414
16.6941   414
16.7041   404
16.7141   415
16.7241   441
16.7341   389
16.7441   408
16.7541   436
16.7641   442
16.7741   409
16.7841   402
16.7941   410
16.8041   426
16.8141   409
16.8241   397
16.8341   410
16.8441   448
16.8541   399
16.8641   414
16.8741   402
16.8841   414
16.8941   412
16.9041   413
16.9141   404
16.9241   409
16.9341   402
16.9441   420
16.9541   420
16.9641   418
16.9741   407
16.9841   408
16.9941   418
17.0041   423
17.0141   452
17.0241   419
17.0341   402
17.0441   423
17.0541   425
17.0641   423
17.0741   428
17.0841   431
17.0941   427
17.1041   417
17.1141   415
17.1241   428
17.1341   431
17.1441   455
17.1541   410
17.1641   416
17.1741   409
17.1841   415
17.1941   420
17.2041   450
17.2141   462
17.2241   429
17.2341   413
17.2441   423
17.2541   462
17.2641   476
17.2741   471
17.2841   453
17.2941   444
17.3041   428
17.3141   434
17.3241   420
17.3341   425
17.3441   425
17.3541   418
17.3641   408
17.3741   431
17.3841   459
17.3941   477
17.4041   463
17.4141   458
17.4241   448
17.4341   463
17.4441   454
17.4541   474
17.4641   454
17.4741   473
17.4841   472
17.4941   471
17.5041   472
17.5141   462
17.5241   489
17.5341   495
17.5441   503
17.5541   487
17.5641   475
17.5741   486
17.5841   479
17.5941   496
17.6041   511
17.6141   506
17.6241   482
17.6341   502
17.6441   513
17.6541   526
17.6641   496
17.6741   490
17.6841   492
17.6941   499
17.7041   488
17.7141   476
17.7241   478
17.7341   492
17.7441   518
17.7541   504
17.7641   501
17.7741   482
17.7841   455
17.7941   485
17.8041   454
17.8141   440
17.8241   463
17.8341   466
17.8441   458
17.8541   502
17.8641   465
17.8741   484
17.8841   485
17.8941   493
17.9041   505
17.9141   497
17.9241   512
17.9341   476
17.9441   481
17.9541   497
17.9641   460
17.9741   497
17.9841   477
17.9941   479
18.0041   477
18.0141   460
18.0241   464
18.0341   471
18.0441   471
18.0541   475
18.0641   448
18.0741   456
18.0841   486
18.0941   507
18.1041   499
18.1141   503
18.1241   509
18.1341   509
18.1441   467
18.1541   485
18.1641   488
18.1741   471
18.1841   506
18.1941   482
18.2041   469
18.2141   471
18.2241   482
18.2341   496
18.2441   516
18.2541   500
18.2641   499
18.2741   465
18.2841   520
18.2941   524
18.3041   517
18.3141   495
18.3241   480
18.3341   490
18.3441   507
18.3541   478
18.3641   490
18.3741   485
18.3841   482
18.3941   482
18.4041   470
18.4141   508
18.4241   484
18.4341   528
18.4441   507
18.4541   518
18.4641   514
18.4741   532
18.4841   497
18.4941   470
18.5041   536
18.5141   529
18.5241   521
18.5341   488
18.5441   503
18.5541   491
18.5641   507
18.5741   533
18.5841   518
18.5941   496
18.6041   497
18.6141   498
18.6241   538
18.6341   543
18.6441   513
18.6541   534
18.6641   495
18.6741   523
18.6841   520
18.6941   525
18.7041   551
18.7141   504
18.7241   512
18.7341   516
18.7441   526
18.7541   503
18.7641   521
18.7741   536
18.7841   536
18.7941   549
18.8041   513
18.8141   511
18.8241   521
18.8341   539
18.8441   489
18.8541   517
18.8641   565
18.8741   549
18.8841   515
18.8941   515
18.9041   512
18.9141   519
18.9241   549
18.9341   527
18.9441   552
18.9541   527
18.9641   519
18.9741   539
18.9841   510
18.9941   532
19.0041   543
19.0141   496
19.0241   539
19.0341   511
19.0441   496
19.0541   518
19.0641   549
19.0741   531
19.0841   523
19.0941   532
19.1041   510
19.1141   503
19.1241   507
19.1341   538
19.1441   534
19.1541   501
19.1641   549
19.1741   501
19.1841   576
19.1941   569
19.2041   581
19.2141   542
19.2241   541
19.2341   531
19.2441   541
19.2541   522
19.2641   515
19.2741   533
19.2841   540
19.2941   510
19.3041   535
19.3141   534
19.3241   562
19.3341   559
19.3441   565
19.3541   572
19.3641   556
19.3741   552
19.3841   556
19.3941   550
19.4041   536
19.4141   519
19.4241   535
19.4341   584
19.4441   582
19.4541   563
19.4641   540
19.4741   545
19.4841   538
19.4941   533
19.5041   556
19.5141   559
19.5241   577
19.5341   519
19.5441   567
19.5541   544
19.5641   517
19.5741   563
19.5841   562
19.5941   555
19.6041   541
19.6141   569
19.6241   560
19.6341   543
19.6441   585
19.6541   558
19.6641   568
19.6741   573
19.6841   556
19.6941   531
19.7041   562
19.7141   563
19.7241   542
19.7341   559
19.7441   551
19.7541   587
19.7641   564
19.7741   552
19.7841   512
19.7941   533
19.8041   534
19.8141   529
19.8241   588
19.8341   556
19.8441   556
19.8541   523
19.8641   549
19.8741   542
19.8841   538
19.8941   541
19.9041   541
19.9141   542
19.9241   565
19.9341   520
19.9441   511
19.9541   530
19.9641   578
19.9741   539
19.9841   578
19.9941   597
20.0041   538
20.0141   585
20.0241   570
20.0341   572
20.0441   563
20.0541   593
20.0641   572
20.0741   542
20.0841   549
20.0941   545
20.1041   546
20.1141   544
20.1241   580
20.1341   549
20.1441   572
20.1541   532
20.1641   556
20.1741   562
20.1841   555
20.1941   520
20.2041   560
20.2141   526
20.2241   525
20.2341   602
20.2441   531
20.2541   536
20.2641   561
20.2741   552
20.2841   566
20.2941   541
20.3041   557
20.3141   544
20.3241   544
20.3341   533
20.3441   580
20.3541   549
20.3641   527
20.3741   526
20.3841   565
20.3941   562
20.4041   545
20.4141   579
20.4241   567
20.4341   571
20.4441   585
20.4541   607
20.4641   593
20.4741   548
20.4841   560
20.4941   562
20.5041   545
20.5141   534
20.5241   561
20.5341   564
20.5441   532
20.5541   566
20.5641   531
20.5741   564
20.5841   542
20.5941   533
20.6041   539
20.6141   556
20.6241   583
20.6341   529
20.6441   508
20.6541   582
20.6641   587
20.6741   573
20.6841   588
20.6941   581
20.7041   553
20.7141   504
20.7241   552
20.7341   579
20.7441   575
20.7541   581
20.7641   591
20.7741   574
20.7841   549
20.7941   535
20.8041   581
20.8141   567
20.8241   591
20.8341   584
20.8441   574
20.8541   595
20.8641   577
20.8741   599
20.8841   645
20.8941   630
20.9041   616
20.9141   633
20.9241   637
20.9341   638
20.9441   652
20.9541   705
20.9641   685
20.9741   680
20.9841   681
20.9941   720
21.0041   770
21.0141   766
21.0241   775
21.0341   770
21.0441   729
21.0541   742
21.0641   795
21.0741   819
21.0841   829
21.0941   795
21.1041   789
21.1141   829
21.1241   804
21.1341   868
21.1441   856
21.1541   784
21.1641   838
21.1741   779
21.1841   777
21.1941   816
21.2041   761
21.2141   755
21.2241   770
21.2341   735
21.2441   733
21.2541   741
21.2641   747
21.2741   674
21.2841   717
21.2941   737
21.3041   698
21.3141   668
21.3241   610
21.3341   604
21.3441   632
21.3541   607
21.3641   606
21.3741   576
21.3841   619
21.3941   571
21.4041   599
21.4141   583
21.4241   558
21.4341   555
21.4441   582
21.4541   586
21.4641   546
21.4741   632
21.4841   598
21.4941   547
21.5041   560
21.5141   561
21.5241   577
21.5341   532
21.5441   556
21.5541   545
21.5641   608
21.5741   566
21.5841   582
21.5941   557
21.6041   558
21.6141   576
21.6241   550
21.6341   584
21.6441   584
21.6541   577
21.6641   534
21.6741   561
21.6841   552
21.6941   560
21.7041   540
21.7141   558
21.7241   532
21.7341   559
21.7441   559
21.7541   531
21.7641   584
21.7741   576
21.7841   545
21.7941   592
21.8041   579
21.8141   563
21.8241   586
21.8341   543
21.8441   555
21.8541   590
21.8641   591
21.8741   553
21.8841   604
21.8941   531
21.9041   565
21.9141   577
21.9241   581
21.9341   588
21.9441   562
21.9541   555
21.9641   592
21.9741   541
21.9841   571
21.9941   551
22.0041   587
22.0141   552
22.0241   568
22.0341   583
22.0441   547
22.0541   553
22.0641   585
22.0741   548
22.0841   556
22.0941   575
22.1041   573
22.1141   603
22.1241   542
22.1341   555
22.1441   553
22.1541   580
22.1641   582
22.1741   560
22.1841   554
22.1941   574
22.2041   569
22.2141   547
22.2241   581
22.2341   561
22.2441   536
22.2541   526
22.2641   542
22.2741   554
22.2841   584
22.2941   592
22.3041   548
22.3141   545
22.3241   565
22.3341   567
22.3441   476
22.3541   513
22.3641   537
22.3741   542
22.3841   548
22.3941   534
22.4041   526
22.4141   516
22.4241   562
22.4341   596
22.4441   536
22.4541   559
22.4641   548
22.4741   520
22.4841   552
22.4941   534
22.5041   546
22.5141   529
22.5241   518
22.5341   526
22.5441   536
22.5541   529
22.5641   595
22.5741   579
22.5841   534
22.5941   558
22.6041   527
22.6141   600
22.6241   547
22.6341   518
22.6441   571
22.6541   529
22.6641   534
22.6741   571
22.6841   553
22.6941   548
22.7041   565
22.7141   550
22.7241   543
22.7341   543
22.7441   544
22.7541   586
22.7641   521
22.7741   540
22.7841   534
22.7941   550
22.8041   517
22.8141   548
22.8241   506
22.8341   532
22.8441   515
22.8541   569
22.8641   537
22.8741   551
22.8841   555
22.8941   589
22.9041   510
22.9141   563
22.9241   545
22.9341   531
22.9441   508
22.9541   533
22.9641   507
22.9741   527
22.9841   519
22.9941   538
23.0041   542
23.0141   538
23.0241   508
23.0341   507
23.0441   529
23.0541   548
23.0641   532
23.0741   514
23.0841   558
23.0941   522
23.1041   534
23.1141   539
23.1241   545
23.1341   500
23.1441   531
23.1541   482
23.1641   551
23.1741   529
23.1841   502
23.1941   563
23.2041   550
23.2141   528
23.2241   502
23.2341   531
23.2441   486
23.2541   553
23.2641   545
23.2741   511
23.2841   559
23.2941   501
23.3041   517
23.3141   502
23.3241   511
23.3341   527
23.3441   533
23.3541   548
23.3641   529
23.3741   561
23.3841   517
23.3941   533
23.4041   506
23.4141   532
23.4241   477
23.4341   498
23.4441   555
23.4541   544
23.4641   541
23.4741   533
23.4841   554
23.4941   523
23.5041   542
23.5141   518
23.5241   505
23.5341   475
23.5441   504
23.5541   558
23.5641   489
23.5741   552
23.5841   501
23.5941   555
23.6041   538
23.6141   521
23.6241   533
23.6341   563
23.6441   531
23.6541   529
23.6641   560
23.6741   570
23.6841   510
23.6941   522
23.7041   545
23.7141   549
23.7241   530
23.7341   577
23.7441   594
23.7541   591
23.7641   556
23.7741   582
23.7841   608
23.7941   554
23.8041   560
23.8141   590
23.8241   594
23.8341   559
23.8441   555
23.8541   537
23.8641   554
23.8741   532
23.8841   581
23.8941   552
23.9041   586
23.9141   533
23.9241   521
23.9341   606
23.9441   541
23.9541   517
23.9641   538
23.9741   510
23.9841   498
23.9941   497
24.0041   541
24.0141   504
24.0241   547
24.0341   514
24.0441   494
24.0541   525
24.0641   528
24.0741   558
24.0841   497
24.0941   515
24.1041   505
24.1141   522
24.1241   513
24.1341   514
24.1441   497
24.1541   482
24.1641   481
24.1741   514
24.1841   468
24.1941   520
24.2041   488
24.2141   478
24.2241   518
24.2341   530
24.2441   476
24.2541   517
24.2641   515
24.2741   486
24.2841   478
24.2941   481
24.3041   482
24.3141   475
24.3241   499
24.3341   525
24.3441   551
24.3541   519
24.3641   476
24.3741   493
24.3841   512
24.3941   489
24.4041   502
24.4141   477
24.4241   511
24.4341   483
24.4441   508
24.4541   478
24.4641   487
24.4741   505
24.4841   485
24.4941   475
24.5041   495
24.5141   534
24.5241   504
24.5341   442
24.5441   485
24.5541   495
24.5641   485
24.5741   469
24.5841   505
24.5941   468
24.6041   481
24.6141   514
24.6241   463
24.6341   476
24.6441   475
24.6541   516
24.6641   466
24.6741   504
24.6841   476
24.6941   490
24.7041   477
24.7141   503
24.7241   472
24.7341   485
24.7441   487
24.7541   474
24.7641   471
24.7741   487
24.7841   456
24.7941   471
24.8041   487
24.8141   462
24.8241   444
24.8341   494
24.8441   461
24.8541   477
24.8641   456
24.8741   468
24.8841   421
24.8941   495
24.9041   511
24.9141   436
24.9241   462
24.9341   450
24.9441   455
24.9541   452
24.9641   496
24.9741   470
24.9841   475
24.9941   466
25.0041   478
25.0141   513
25.0241   498
25.0341   473
25.0441   461
25.0541   514
25.0641   482
25.0741   471
25.0841   442
25.0941   435
25.1041   478
25.1141   463
25.1241   458
25.1341   502
25.1441   470
25.1541   466
25.1641   527
25.1741   472
25.1841   477
25.1941   459
25.2041   507
25.2141   481
25.2241   453
25.2341   503
25.2441   486
25.2541   469
25.2641   442
25.2741   495
25.2841   453
25.2941   446
25.3041   486
25.3141   484
25.3241   495
25.3341   449
25.3441   445
25.3541   432
25.3641   483
25.3741   467
25.3841   444
25.3941   450
25.4041   448
25.4141   415
25.4241   478
25.4341   469
25.4441   466
25.4541   466
25.4641   450
25.4741   467
25.4841   465
25.4941   414
25.5041   430
25.5141   446
25.5241   417
25.5341   440
25.5441   447
25.5541   440
25.5641   471
25.5741   466
25.5841   417
25.5941   450
25.6041   430
25.6141   439
25.6241   457
25.6341   426
25.6441   430
25.6541   477
25.6641   418
25.6741   441
25.6841   456
25.6941   443
25.7041   444
25.7141   451
25.7241   445
25.7341   432
25.7441   427
25.7541   441
25.7641   437
25.7741   432
25.7841   442
25.7941   456
25.8041   433
25.8141   450
25.8241   460
25.8341   408
25.8441   423
25.8541   418
25.8641   421
25.8741   453
25.8841   431
25.8941   423
25.9041   438
25.9141   406
25.9241   423
25.9341   456
25.9441   421
25.9541   438
25.9641   454
25.9741   432
25.9841   400
25.9941   423
26.0041   435
26.0141   428
26.0241   433
26.0341   424
26.0441   428
26.0541   384
26.0641   431
26.0741   431
26.0841   418
26.0941   431
26.1041   440
26.1141   422
26.1241   434
26.1341   436
26.1441   403
26.1541   422
26.1641   418
26.1741   418
26.1841   440
26.1941   442
26.2041   417
26.2141   456
26.2241   421
26.2341   420
26.2441   420
26.2541   406
26.2641   418
26.2741   423
26.2841   455
26.2941   404
26.3041   378
26.3141   416
26.3241   424
26.3341   427
26.3441   430
26.3541   426
26.3641   426
26.3741   410
26.3841   434
26.3941   423
26.4041   400
26.4141   423
26.4241   409
26.4341   423
26.4441   430
26.4541   423
26.4641   399
26.4741   407
26.4841   381
26.4941   410
26.5041   392
26.5141   432
26.5241   412
26.5341   406
26.5441   402
26.5541   408
26.5641   391
26.5741   414
26.5841   417
26.5941   402
26.6041   410
26.6141   419
26.6241   380
26.6341   453
26.6441   397
26.6541   377
26.6641   398
26.6741   403
26.6841   404
26.6941   410
26.7041   412
26.7141   410
26.7241   407
26.7341   407
26.7441   416
26.7541   382
26.7641   392
26.7741   377
26.7841   386
26.7941   394
26.8041   409
26.8141   388
26.8241   408
26.8341   407
26.8441   382
26.8541   380
26.8641   408
26.8741   414
26.8841   385
26.8941   365
26.9041   377
26.9141   420
26.9241   366
26.9341   340
26.9441   393
26.9541   377
26.9641   402
26.9741   396
26.9841   392
26.9941   380
27.0041   397
27.0141   392
27.0241   404
27.0341   374
27.0441   388
27.0541   395
27.0641   402
27.0741   368
27.0841   379
27.0941   398
27.1041   368
27.1141   368
27.1241   387
27.1341   399
27.1441   372
27.1541   371
27.1641   366
27.1741   397
27.1841   392
27.1941   374
27.2041   394
27.2141   366
27.2241   380
27.2341   368
27.2441   351
27.2541   385
27.2641   389
27.2741   375
27.2841   364
27.2941   363
27.3041   350
27.3141   353
27.3241   403
27.3341   359
27.3441   372
27.3541   379
27.3641   370
27.3741   383
27.3841   374
27.3941   397
27.4041   387
27.4141   385
27.4241   361
27.4341   369
27.4441   369
27.4541   381
27.4641   376
27.4741   395
27.4841   382
27.4941   401
27.5041   374
27.5141   358
27.5241   324
27.5341   365
27.5441   364
27.5541   362
27.5641   381
27.5741   349
27.5841   350
27.5941   339
27.6041   367
27.6141   360
27.6241   328
27.6341   378
27.6441   325
27.6541   346
27.6641   359
27.6741   376
27.6841   339
27.6941   361
27.7041   373
27.7141   344
27.7241   332
27.7341   356
27.7441   382
27.7541   377
27.7641   339
27.7741   340
27.7841   353
27.7941   345
27.8041   380
27.8141   355
27.8241   348
27.8341   357
27.8441   329
27.8541   341
27.8641   343
27.8741   340
27.8841   300
27.8941   331
27.9041   351
27.9141   356
27.9241   337
27.9341   372
27.9441   326
27.9541   354
27.9641   340
27.9741   330
27.9841   318
27.9941   347
28.0041   336
28.0141   342
28.0241   322
28.0341   329
28.0441   327
28.0541   351
28.0641   356
28.0741   330
28.0841   349
28.0941   359
28.1041   355
28.1141   311
28.1241   309
28.1341   340
28.1441   322
28.1541   292
28.1641   328
28.1741   308
28.1841   297
28.1941   307
28.2041   329
28.2141   325
28.2241   316
28.2341   359
28.2441   349
28.2541   375
28.2641   348
28.2741   348
28.2841   289
28.2941   340
28.3041   316
28.3141   330
28.3241   342
28.3341   327
28.3441   321
28.3541   315
28.3641   289
28.3741   311
28.3841   284
28.3941   339
28.4041   326
28.4141   324
28.4241   314
28.4341   316
28.4441   346
28.4541   332
28.4641   345
28.4741   317
28.4841   336
28.4941   340
28.5041   309
28.5141   301
28.5241   347
28.5341   332
28.5441   316
28.5541   325
28.5641   316
28.5741   306
28.5841   344
28.5941   332
28.6041   307
28.6141   322
28.6241   331
28.6341   322
28.6441   305
28.6541   316
28.6641   308
28.6741   327
28.6841   297
28.6941   315
28.7041   302
28.7141   270
28.7241   291
28.7341   314
28.7441   350
28.7541   334
28.7641   291
28.7741   286
28.7841   301
28.7941   305
28.8041   301
28.8141   303
28.8241   304
28.8341   286
28.8441   307
28.8541   299
28.8641   279
28.8741   325
28.8841   319
28.8941   310
28.9041   279
28.9141   300
28.9241   311
28.9341   296
28.9441   296
28.9541   307
28.9641   308
28.9741   312
28.9841   311
28.9941   307
29.0041   295
29.0141   313
29.0241   304
29.0341   310
29.0441   278
29.0541   310
29.0641   312
29.0741   295
29.0841   282
29.0941   316
29.1041   303
29.1141   293
29.1241   296
29.1341   298
29.1441   278
29.1541   305
29.1641   269
29.1741   310
29.1841   314
29.1941   295
29.2041   311
29.2141   274
29.2241   300
29.2341   296
29.2441   299
29.2541   305
29.2641   313
29.2741   283
29.2841   261
29.2941   283
29.3041   282
29.3141   284
29.3241   291
29.3341   278
29.3441   272
29.3541   284
29.3641   294
29.3741   291
29.3841   277
29.3941   291
29.4041   286
29.4141   269
29.4241   300
29.4341   282
29.4441   275
29.4541   277
29.4641   300
29.4741   284
29.4841   271
29.4941   252
29.5041   267
29.5141   276
29.5241   258
29.5341   257
29.5441   275
29.5541   272
29.5641   256
29.5741   286
29.5841   274
29.5941   284
29.6041   268
29.6141   289
29.6241   293
29.6341   298
29.6441   271
29.6541   266
29.6641   300
29.6741   281
29.6841   274
29.6941   267
29.7041   284
29.7141   265
29.7241   296
29.7341   279
29.7441   278
29.7541   276
29.7641   272
29.7741   279
29.7841   279
29.7941   293
29.8041   278
29.8141   259
29.8241   298
29.8341   264
29.8441   266
29.8541   269
29.8641   250
29.8741   256
29.8841   284
29.8941   256
29.9041   268
29.9141   268
29.9241   271
29.9341   271
29.9441   257
29.9541   247
29.9641   266
29.9741   263
29.9841   282
29.9941   249
30.0041   230
30.0141   250
30.0241   248
30.0341   263
30.0441   266
30.0541   247
30.0641   265
30.0741   263
30.0841   268
30.0941   247
30.1041   238
30.1141   261
30.1241   256
30.1341   262
30.1441   260
30.1541   245
30.1641   272
30.1741   232
30.1841   273
30.1941   273
30.2041   264
30.2141   244
30.2241   269
30.2341   241
30.2441   252
30.2541   266
30.2641   229
30.2741   253
30.2841   239
30.2941   247
30.3041   220
30.3141   263
30.3241   269
30.3341   238
30.3441   237
30.3541   261
30.3641   267
30.3741   242
30.3841   222
30.3941   239
30.4041   242
30.4141   250
30.4241   255
30.4341   263
30.4441   238
30.4541   218
30.4641   254
30.4741   232
30.4841   281
30.4941   208
30.5041   269
30.5141   240
30.5241   239
30.5341   255
30.5441   251
30.5541   235
30.5641   212
30.5741   246
30.5841   261
30.5941   249
30.6041   234
30.6141   235
30.6241   227
30.6341   249
30.6441   217
30.6541   229
30.6641   245
30.6741   240
30.6841   218
30.6941   240
30.7041   237
30.7141   234
30.7241   238
30.7341   219
30.7441   216
30.7541   249
30.7641   250
30.7741   217
30.7841   202
30.7941   230
30.8041   235
30.8141   242
30.8241   225
30.8341   248
30.8441   228
30.8541   226
30.8641   227
30.8741   226
30.8841   240
30.8941   205
30.9041   222
30.9141   244
30.9241   234
30.9341   238
30.9441   247
30.9541   239
30.9641   254
30.9741   231
30.9841   238
30.9941   217
31.0041   207
31.0141   240
31.0241   227
31.0341   236
31.0441   224
31.0541   209
31.0641   211
31.0741   223
31.0841   221
31.0941   246
31.1041   197
31.1141   224
31.1241   206
31.1341   221
31.1441   237
31.1541   211
31.1641   200
31.1741   237
31.1841   201
31.1941   228
31.2041   198
31.2141   206
31.2241   205
31.2341   247
31.2441   210
31.2541   212
31.2641   204
31.2741   238
31.2841   215
31.2941   205
31.3041   198
31.3141   189
31.3241   206
31.3341   202
31.3441   197
31.3541   217
31.3641   210
31.3741   199
31.3841   201
31.3941   197
31.4041   216
31.4141   196
31.4241   207
31.4341   194
31.4441   216
31.4541   220
31.4641   209
31.4741   205
31.4841   209
31.4941   191
31.5041   224
31.5141   185
31.5241   195
31.5341   199
31.5441   193
31.5541   219
31.5641   195
31.5741   202
31.5841   194
31.5941   187
31.6041   207
31.6141   208
31.6241   218
31.6341   247
31.6441   226
31.6541   186
31.6641   218
31.6741   208
31.6841   194
31.6941   184
31.7041   187
31.7141   196
31.7241   216
31.7341   219
31.7441   213
31.7541   212
31.7641   192
31.7741   208
31.7841   200
31.7941   201
31.8041   206
31.8141   213
31.8241   197
31.8341   207
31.8441   192
31.8541   220
31.8641   201
31.8741   222
31.8841   205
31.8941   244
31.9041   202
31.9141   218
31.9241   212
31.9341   214
31.9441   187
31.9541   213
31.9641   186
31.9741   211
31.9841   183
31.9941   187
32.0041   205
32.0141   206
32.0241   225
32.0341   213
32.0441   211
32.0541   194
32.0641   206
32.0741   174
32.0841   215
32.0941   203
32.1041   180
32.1141   208
32.1241   194
32.1341   199
32.1441   209
32.1541   223
32.1641   201
32.1741   194
32.1841   199
32.1941   197
32.2041   202
32.2141   198
32.2241   196
32.2341   190
32.2441   191
32.2541   199
32.2641   203
32.2741   176
32.2841   197
32.2941   203
32.3041   235
32.3141   229
32.3241   202
32.3341   202
32.3441   225
32.3541   197
32.3641   206
32.3741   208
32.3841   187
32.3941   182
32.4041   182
32.4141   197
32.4241   205
32.4341   175
32.4441   196
32.4541   167
32.4641   173
32.4741   194
32.4841   175
32.4941   211
32.5041   187
32.5141   181
32.5241   162
32.5341   161
32.5441   173
32.5541   159
32.5641   164
32.5741   173
32.5841   163
32.5941   168
32.6041   176
32.6141   163
32.6241   202
32.6341   159
32.6441   167
32.6541   178
32.6641   170
32.6741   179
32.6841   172
32.6941   158
32.7041   176
32.7141   171
32.7241   163
32.7341   170
32.7441   164
32.7541   166
32.7641   163
32.7741   182
32.7841   169
32.7941   188
32.8041   168
32.8141   178
32.8241   164
32.8341   168
32.8441   167
32.8541   146
32.8641   170
32.8741   148
32.8841   152
32.8941   149
32.9041   157
32.9141   141
32.9241   156
32.9341   159
32.9441   176
32.9541   186
32.9641   148
32.9741   158
32.9841   175
32.9941   197
33.0041   151
33.0141   154
33.0241   155
33.0341   148
33.0441   146
33.0541   149
33.0641   155
33.0741   175
33.0841   152
33.0941   162
33.1041   164
33.1141   164
33.1241   152
33.1341   172
33.1441   159
33.1541   170
33.1641   172
33.1741   158
33.1841   160
33.1941   160
33.2041   153
33.2141   142
33.2241   146
33.2341   145
33.2441   154
33.2541   155
33.2641   148
33.2741   144
33.2841   145
33.2941   152
33.3041   153
33.3141   146
33.3241   158
33.3341   140
33.3441   145
33.3541   143
33.3641   164
33.3741   135
33.3841   159
33.3941   131
33.4041   167
33.4141   160
33.4241   153
33.4341   139
33.4441   137
33.4541   142
33.4641   170
33.4741   148
33.4841   139
33.4941   156
33.5041   137
33.5141   143
33.5241   142
33.5341   141
33.5441   125
33.5541   124
33.5641   142
33.5741   142
33.5841   154
33.5941   149
33.6041   141
33.6141   148
33.6241   141
33.6341   123
33.6441   143
33.6541   132
33.6641   141
33.6741   130
33.6841   120
33.6941   144
33.7041   134
33.7141   140
33.7241   130
33.7341   147
33.7441   153
33.7541   132
33.7641   140
33.7741   156
33.7841   139
33.7941   146
33.8041   146
33.8141   116
33.8241   121
33.8341   126
33.8441   137
33.8541   117
33.8641   122
33.8741   140
33.8841   137
33.8941   145
33.9041   138
33.9141   118
33.9241   131
33.9341   127
33.9441   129
33.9541   132
33.9641   144
33.9741   132
33.9841   120
33.9941   124
34.0041   134
34.0141   146
34.0241   129
34.0341   129
34.0441   141
34.0541   127
34.0641   132
34.0741   141
34.0841   122
34.0941   131
34.1041   136
34.1141   130
34.1241   132
34.1341   111
34.1441   114
34.1541   119
34.1641   118
34.1741   127
34.1841   132
34.1941   127
34.2041   129
34.2141   134
34.2241   131
34.2341   137
34.2441   121
34.2541   135
34.2641   126
34.2741   114
34.2841   116
34.2941   111
34.3041   125
34.3141   123
34.3241   111
34.3341   108
34.3441   121
34.3541   110
34.3641   119
34.3741   123
34.3841    95
34.3941   115
34.4041   101
34.4141   111
34.4241   111
34.4341   117
34.4441   120
34.4541   114
34.4641   113
34.4741   117
34.4841   120
34.4941   108
34.5041   117
34.5141   108
34.5241   131
34.5341   106
34.5441   123
34.5541   128
34.5641   122
34.5741   120
34.5841   122
34.5941   139
34.6041   122
34.6141    98
34.6241   110
34.6341   117
34.6441   114
34.6541   102
34.6641   116
34.6741   110
34.6841   130
34.6941   111
34.7041   102
34.7141   124
34.7241   118
34.7341   100
34.7441   133
34.7541   113
34.7641    90
34.7741   108
34.7841   119
34.7941   105
34.8041   109
34.8141   111
34.8241   125
34.8341   105
34.8441   113
34.8541   116
34.8641   111
34.8741   104
34.8841   106
34.8941    93
34.9041   115
34.9141    90
34.9241   116
34.9341   110
34.9441   113
34.9541   129
34.9641   108
34.9741   110
34.9841   106
34.9941   101
35.0041   102
35.0141   113
35.0241   124
35.0341    92
35.0441    93
35.0541   112
35.0641   106
35.0741   108
35.0841    98
35.0941   109
35.1041   106
35.1141   102
35.1241   113
35.1341   114
35.1441   104
35.1541    92
35.1641    96
35.1741   112
35.1841   104
35.1941    92
35.2041    95
35.2141   105
35.2241   110
35.2341   102
35.2441    99
35.2541    91
35.2641   103
35.2741   103
35.2841    86
35.2941   105
35.3041    97
35.3141   111
35.3241    83
35.3341    98
35.3441   107
35.3541   100
35.3641    92
35.3741   115
35.3841    88
35.3941    94
35.4041   115
35.4141    85
35.4241    82
35.4341    92
35.4441    93
35.4541   110
35.4641    94
35.4741    90
35.4841    93
35.4941    98
35.5041   101
35.5141   110
35.5241    90
35.5341    97
35.5441    89
35.5541   105
35.5641   103
35.5741   108
35.5841    90
35.5941    97
35.6041    90
35.6141    86
35.6241    82
35.6341    86
35.6441    96
35.6541   103
35.6641    92
35.6741   111
35.6841    92
35.6941   101
35.7041    98
35.7141   107
35.7241    96
35.7341    93
35.7441    86
35.7541   101
35.7641   104
35.7741    88
35.7841    87
35.7941    81
35.8041   101
35.8141    83
35.8241   103
35.8341   105
35.8441    90
35.8541    98
35.8641    91
35.8741    84
35.8841    92
35.8941    84
35.9041    87
35.9141    91
35.9241   108
35.9341    93
35.9441    97
35.9541    85
35.9641    81
35.9741    91
35.9841    97
35.9941    77
36.0041    66
36.0141   104
36.0241    99
36.0341    80
36.0441    80
36.0541    87
36.0641   107
36.0741   100
36.0841    98
36.0941    81
36.1041    94
36.1141    85
36.1241    73
36.1341    98
36.1441    63
36.1541    78
36.1641    91
36.1741    73
36.1841    82
36.1941    94
36.2041    74
36.2141    92
36.2241    74
36.2341    79
36.2441    84
36.2541    80
36.2641    73
36.2741    83
36.2841    82
36.2941    97
36.3041    82
36.3141    77
36.3241    80
36.3341    84
36.3441    82
36.3541    78
36.3641    74
36.3741    95
36.3841    94
36.3941    89
36.4041    84
36.4141    84
36.4241    88
36.4341    97
36.4441    81
36.4541    95
36.4641    73
36.4741    74
36.4841    80
36.4941    76
36.5041    65
36.5141    90
36.5241    88
36.5341    89
36.5441    80
36.5541    83
36.5641    63
36.5741    80
36.5841    93
36.5941    73
36.6041    70
36.6141    73
36.6241    62
36.6341    81
36.6441    76
36.6541    86
36.6641    89
36.6741    83
36.6841    76
36.6941    66
36.7041    67
36.7141    80
36.7241    74
36.7341    74
36.7441    72
36.7541    84
36.7641    78
36.7741    68
36.7841    77
36.7941    72
36.8041    63
36.8141    69
36.8241    75
36.8341    79
36.8441    66
36.8541    78
36.8641    72
36.8741    73
36.8841    74
36.8941    77
36.9041    74
36.9141    67
36.9241    67
36.9341    67
36.9441    69
36.9541    70
36.9641    67
36.9741    62
36.9841    60
36.9941    68
37.0041    59
37.0141    81
37.0241    77
37.0341    62
37.0441    71
37.0541    74
37.0641    73
37.0741    67
37.0841    62
37.0941    71
37.1041    74
37.1141    67
37.1241    62
37.1341    79
37.1441    73
37.1541    56
37.1641    80
37.1741    58
37.1841    54
37.1941    61
37.2041    65
37.2141    62
37.2241    58
37.2341    63
37.2441    71
37.2541    59
37.2641    69
37.2741    67
37.2841    58
37.2941    61
37.3041    76
37.3141    57
37.3241    65
37.3341    52
37.3441    37
37.3541    60
37.3641    55
37.3741    69
37.3841    63
37.3941    59
37.4041    68
37.4141    68
37.4241    61
37.4341    77
37.4441    54
37.4541    69
37.4641    69
37.4741    66
37.4841    75
37.4941    67
37.5041    66
37.5141    57
37.5241    59
37.5341    55
37.5441    51
37.5541    55
37.5641    59
37.5741    56
37.5841    46
37.5941    72
37.6041    65
37.6141    56
37.6241    69
37.6341    53
37.6441    45
37.6541    48
37.6641    65
37.6741    65
37.6841    51
37.6941    58
37.7041    57
37.7141    55
37.7241    58
37.7341    53
37.7441    44
37.7541    79
37.7641    60
37.7741    77
37.7841    54
37.7941    59
37.8041    55
37.8141    58
37.8241    62
37.8341    58
37.8441    65
37.8541    50
37.8641    45
37.8741    48
37.8841    57
37.8941    58
37.9041    50
37.9141    57
37.9241    51
37.9341    51
37.9441    59
37.9541    62
37.9641    59
37.9741    39
37.9841    56
37.9941    45
38.0041    52
38.0141    56
38.0241    54
38.0341    46
38.0441    57
38.0541    53
38.0641    55
38.0741    59
38.0841    64
38.0941    59
38.1041    52
38.1141    54
38.1241    50
38.1341    55
38.1441    62
38.1541    47
38.1641    41
38.1741    58
38.1841    50
38.1941    41
38.2041    48
38.2141    49
38.2241    48
38.2341    40
38.2441    46
38.2541    47
38.2641    55
38.2741    36
38.2841    52
38.2941    58
38.3041    57
38.3141    58
38.3241    46
38.3341    52
38.3441    45
38.3541    50
38.3641    49
38.3741    72
38.3841    60
38.3941    52
38.4041    33
38.4141    49
38.4241    47
38.4341    53
38.4441    57
38.4541    48
38.4641    35
38.4741    48
38.4841    39
38.4941    35
38.5041    37
38.5141    38
38.5241    42
38.5341    40
38.5441    60
38.5541    54
38.5641    43
38.5741    35
38.5841    44
38.5941    30
38.6041    49
38.6141    40
38.6241    43
38.6341    46
38.6441    40
38.6541    62
38.6641    41
38.6741    46
38.6841    45
38.6941    46
38.7041    41
38.7141    43
38.7241    41
38.7341    43
38.7441    39
38.7541    39
38.7641    30
38.7741    46
38.7841    35
38.7941    47
38.8041    41
38.8141    58
38.8241    25
38.8341    41
38.8441    37
38.8541    37
38.8641    26
38.8741    43
38.8841    40
38.8941    42
38.9041    39
38.9141    35
38.9241    37
38.9341    42
38.9441    32
38.9541    42
38.9641    36
38.9741    34
38.9841    39
38.9941    40
39.0041    48
39.0141    40
39.0241    44
39.0341    48
39.0441    38
39.0541    38
39.0641    35
39.0741    50
39.0841    32
39.0941    49
39.1041    32
39.1141    32
39.1241    26
39.1341    42
39.1441    41
39.1541    38
39.1641    49
39.1741    40
39.1841    43
39.1941    40
39.2041    33
39.2141    30
39.2241    44
39.2341    38
39.2441    36
39.2541    29
39.2641    37
39.2741    32
39.2841    29
39.2941    28
39.3041    31
39.3141    39
39.3241    26
39.3341    37
39.3441    41
39.3541    29
39.3641    44
39.3741    32
39.3841    31
39.3941    36
39.4041    40
39.4141    38
39.4241    38
39.4341    38
39.4441    30
39.4541    33
39.4641    33
39.4741    31
39.4841    33
39.4941    43
39.5041    22
39.5141    30
39.5241    31
39.5341    34
39.5441    40
39.5541    33
39.5641    22
39.5741    35
39.5841    29
39.5941    32
39.6041    28
39.6141    43
39.6241    37
39.6341    33
39.6441    34
39.6541    32
39.6641    37
39.6741    32
39.6841    34
39.6941    33
39.7041    25
39.7141    36
39.7241    22
39.7341    40
39.7441    27
39.7541    43
39.7641    37
39.7741    24
39.7841    26
39.7941    30
39.8041    36
39.8141    31
39.8241    36
39.8341    35
39.8441    30
39.8541    35
39.8641    22
39.8741    27
39.8841    25
39.8941    36
39.9041    33
39.9141    32
39.9241    31
39.9341    22
39.9441    24
39.9541    27
39.9641    26
39.9741    27
39.9841    33
