Bruker Nano GmbH Berlin, Germany
Esprit 1.9

Date: 4/21/2021 2:27:32 PM
Real time: 19170
Life time: 17748
Pulse density: 108752


Detector type: XFlash 430
Window type: Custom type
Detector thickness: 0.45
Si dead layer:0.029

Calibration, lin.: 10
Calibration, abs.: -955.9
Mn FWHM: 137.05
Fano factor: 0.121
Channels: 4095

Energy Counts
-0.9559     0
-0.9459     0
-0.9359     0
-0.9259     0
-0.9159     0
-0.9059     0
-0.8959     0
-0.8859     0
-0.8759     0
-0.8659     0
-0.8559     0
-0.8459     0
-0.8359     0
-0.8259     0
-0.8159     0
-0.8059     0
-0.7959     0
-0.7859     0
-0.7759     0
-0.7659     0
-0.7559     0
-0.7459     0
-0.7359     0
-0.7259     0
-0.7159     0
-0.7059     0
-0.6959     0
-0.6859     0
-0.6759     0
-0.6659     0
-0.6559     0
-0.6459     0
-0.6359     0
-0.6259     0
-0.6159     0
-0.6059     0
-0.5959     0
-0.5859     0
-0.5759     0
-0.5659     0
-0.5559     0
-0.5459     0
-0.5359     0
-0.5259     0
-0.5159     0
-0.5059     0
-0.4959     0
-0.4859     0
-0.4759     0
-0.4659     0
-0.4559     0
-0.4459     0
-0.4359     0
-0.4259     0
-0.4159     0
-0.4059     0
-0.3959     0
-0.3859     0
-0.3759     0
-0.3659     0
-0.3559     0
-0.3459     0
-0.3359     0
-0.3259     0
-0.3159     0
-0.3059     0
-0.2959     0
-0.2859     0
-0.2759     0
-0.2659     0
-0.2559     0
-0.2459     0
-0.2359     0
-0.2259     0
-0.2159     0
-0.2059     0
-0.1959     0
-0.1859     0
-0.1759     0
-0.1659     0
-0.1559     0
-0.1459     0
-0.1359     0
-0.1259     0
-0.1159     5
-0.1059     5
-0.0959    58
-0.0859   196
-0.0759   703
-0.0659  1997
-0.0559  5241
-0.0459 11280
-0.0359 21078
-0.0259 33836
-0.0159 46228
-0.0059 54439
 0.0041 54545
 0.0141 46957
 0.0241 35053
 0.0341 22024
 0.0441 11862
 0.0541  5632
 0.0641  2242
 0.0741   780
 0.0841   247
 0.0941    73
 0.1041    23
 0.1141    12
 0.1241     7
 0.1341     8
 0.1441     4
 0.1541     5
 0.1641     3
 0.1741    21
 0.1841   169
 0.1941   355
 0.2041   328
 0.2141   303
 0.2241   313
 0.2341   301
 0.2441   309
 0.2541   328
 0.2641   351
 0.2741   324
 0.2841   330
 0.2941   334
 0.3041   311
 0.3141   321
 0.3241   316
 0.3341   307
 0.3441   319
 0.3541   318
 0.3641   319
 0.3741   297
 0.3841   299
 0.3941   308
 0.4041   307
 0.4141   307
 0.4241   277
 0.4341   267
 0.4441   289
 0.4541   287
 0.4641   281
 0.4741   278
 0.4841   269
 0.4941   265
 0.5041   279
 0.5141   284
 0.5241   288
 0.5341   257
 0.5441   258
 0.5541   273
 0.5641   267
 0.5741   260
 0.5841   265
 0.5941   272
 0.6041   262
 0.6141   240
 0.6241   242
 0.6341   249
 0.6441   234
 0.6541   232
 0.6641   251
 0.6741   263
 0.6841   262
 0.6941   246
 0.7041   234
 0.7141   235
 0.7241   237
 0.7341   236
 0.7441   223
 0.7541   224
 0.7641   220
 0.7741   235
 0.7841   233
 0.7941   212
 0.8041   221
 0.8141   223
 0.8241   220
 0.8341   215
 0.8441   207
 0.8541   207
 0.8641   237
 0.8741   244
 0.8841   218
 0.8941   234
 0.9041   227
 0.9141   226
 0.9241   218
 0.9341   214
 0.9441   219
 0.9541   217
 0.9641   210
 0.9741   228
 0.9841   219
 0.9941   205
 1.0041   208
 1.0141   220
 1.0241   217
 1.0341   193
 1.0441   203
 1.0541   216
 1.0641   203
 1.0741   209
 1.0841   204
 1.0941   198
 1.1041   194
 1.1141   209
 1.1241   194
 1.1341   211
 1.1441   202
 1.1541   203
 1.1641   214
 1.1741   187
 1.1841   197
 1.1941   203
 1.2041   195
 1.2141   200
 1.2241   209
 1.2341   190
 1.2441   184
 1.2541   194
 1.2641   187
 1.2741   203
 1.2841   193
 1.2941   182
 1.3041   177
 1.3141   176
 1.3241   174
 1.3341   181
 1.3441   199
 1.3541   185
 1.3641   183
 1.3741   163
 1.3841   175
 1.3941   188
 1.4041   179
 1.4141   203
 1.4241   200
 1.4341   212
 1.4441   206
 1.4541   164
 1.4641   194
 1.4741   193
 1.4841   172
 1.4941   180
 1.5041   183
 1.5141   187
 1.5241   190
 1.5341   182
 1.5441   165
 1.5541   178
 1.5641   156
 1.5741   188
 1.5841   184
 1.5941   170
 1.6041   156
 1.6141   163
 1.6241   164
 1.6341   200
 1.6441   176
 1.6541   217
 1.6641   274
 1.6741   312
 1.6841   348
 1.6941   420
 1.7041   515
 1.7141   588
 1.7241   652
 1.7341   687
 1.7441   679
 1.7541   636
 1.7641   567
 1.7741   521
 1.7841   467
 1.7941   339
 1.8041   320
 1.8141   263
 1.8241   248
 1.8341   248
 1.8441   222
 1.8541   191
 1.8641   199
 1.8741   192
 1.8841   183
 1.8941   200
 1.9041   179
 1.9141   180
 1.9241   191
 1.9341   202
 1.9441   190
 1.9541   187
 1.9641   194
 1.9741   180
 1.9841   209
 1.9941   211
 2.0041   222
 2.0141   216
 2.0241   208
 2.0341   225
 2.0441   192
 2.0541   177
 2.0641   182
 2.0741   193
 2.0841   179
 2.0941   190
 2.1041   174
 2.1141   180
 2.1241   178
 2.1341   180
 2.1441   172
 2.1541   169
 2.1641   170
 2.1741   175
 2.1841   182
 2.1941   151
 2.2041   154
 2.2141   140
 2.2241   170
 2.2341   155
 2.2441   154
 2.2541   167
 2.2641   145
 2.2741   157
 2.2841   136
 2.2941   140
 2.3041   148
 2.3141   147
 2.3241   158
 2.3341   171
 2.3441   171
 2.3541   157
 2.3641   152
 2.3741   154
 2.3841   174
 2.3941   159
 2.4041   153
 2.4141   153
 2.4241   152
 2.4341   173
 2.4441   152
 2.4541   147
 2.4641   165
 2.4741   152
 2.4841   154
 2.4941   154
 2.5041   141
 2.5141   137
 2.5241   139
 2.5341   146
 2.5441   159
 2.5541   127
 2.5641   139
 2.5741   142
 2.5841   135
 2.5941   141
 2.6041   140
 2.6141   146
 2.6241   145
 2.6341   130
 2.6441   162
 2.6541   136
 2.6641   127
 2.6741   139
 2.6841   157
 2.6941   151
 2.7041   139
 2.7141   140
 2.7241   115
 2.7341   145
 2.7441   126
 2.7541   121
 2.7641   127
 2.7741   123
 2.7841   140
 2.7941   157
 2.8041   121
 2.8141   135
 2.8241   128
 2.8341   149
 2.8441   161
 2.8541   128
 2.8641   137
 2.8741   144
 2.8841   149
 2.8941   128
 2.9041   128
 2.9141   132
 2.9241   109
 2.9341   121
 2.9441   120
 2.9541   118
 2.9641   122
 2.9741   136
 2.9841   149
 2.9941   128
 3.0041   119
 3.0141   117
 3.0241   144
 3.0341   124
 3.0441   122
 3.0541   104
 3.0641    83
 3.0741   118
 3.0841   122
 3.0941   117
 3.1041   100
 3.1141   113
 3.1241   107
 3.1341   128
 3.1441   112
 3.1541   105
 3.1641   110
 3.1741   113
 3.1841    98
 3.1941   113
 3.2041   104
 3.2141   133
 3.2241   134
 3.2341   153
 3.2441   160
 3.2541   178
 3.2641   197
 3.2741   234
 3.2841   232
 3.2941   273
 3.3041   268
 3.3141   286
 3.3241   273
 3.3341   247
 3.3441   280
 3.3541   249
 3.3641   218
 3.3741   165
 3.3841   159
 3.3941   125
 3.4041   137
 3.4141   140
 3.4241   112
 3.4341   101
 3.4441   104
 3.4541   102
 3.4641   101
 3.4741   104
 3.4841   107
 3.4941   114
 3.5041   117
 3.5141   128
 3.5241   132
 3.5341   132
 3.5441   144
 3.5541   133
 3.5641   173
 3.5741   181
 3.5841   243
 3.5941   273
 3.6041   340
 3.6141   406
 3.6241   549
 3.6341   648
 3.6441   720
 3.6541   876
 3.6641   989
 3.6741  1054
 3.6841  1109
 3.6941  1080
 3.7041  1060
 3.7141  1024
 3.7241   906
 3.7341   772
 3.7441   635
 3.7541   540
 3.7641   419
 3.7741   281
 3.7841   243
 3.7941   199
 3.8041   141
 3.8141   123
 3.8241   103
 3.8341    96
 3.8441   100
 3.8541    90
 3.8641    95
 3.8741    92
 3.8841    95
 3.8941    92
 3.9041    98
 3.9141   109
 3.9241   109
 3.9341   128
 3.9441   143
 3.9541   190
 3.9641   172
 3.9741   205
 3.9841   214
 3.9941   232
 4.0041   232
 4.0141   239
 4.0241   224
 4.0341   220
 4.0441   213
 4.0541   212
 4.0641   167
 4.0741   122
 4.0841   147
 4.0941   124
 4.1041   106
 4.1141   101
 4.1241    96
 4.1341    70
 4.1441    86
 4.1541    70
 4.1641    73
 4.1741    81
 4.1841    73
 4.1941    67
 4.2041    71
 4.2141    60
 4.2241    70
 4.2341    80
 4.2441    63
 4.2541    64
 4.2641    78
 4.2741    82
 4.2841    76
 4.2941    83
 4.3041    90
 4.3141    77
 4.3241    80
 4.3341    78
 4.3441    76
 4.3541    84
 4.3641    96
 4.3741   103
 4.3841   120
 4.3941   125
 4.4041   135
 4.4141   181
 4.4241   192
 4.4341   241
 4.4441   331
 4.4541   330
 4.4641   393
 4.4741   419
 4.4841   491
 4.4941   462
 4.5041   471
 4.5141   452
 4.5241   468
 4.5341   392
 4.5441   377
 4.5541   375
 4.5641   310
 4.5741   286
 4.5841   229
 4.5941   203
 4.6041   169
 4.6141   130
 4.6241   120
 4.6341   107
 4.6441    89
 4.6541    68
 4.6641   107
 4.6741    91
 4.6841    84
 4.6941   108
 4.7041    79
 4.7141   107
 4.7241   105
 4.7341    84
 4.7441    85
 4.7541    84
 4.7641    97
 4.7741    81
 4.7841   105
 4.7941    98
 4.8041   110
 4.8141   135
 4.8241   101
 4.8341   122
 4.8441   127
 4.8541   121
 4.8641   140
 4.8741   145
 4.8841   169
 4.8941   177
 4.9041   195
 4.9141   162
 4.9241   160
 4.9341   174
 4.9441   172
 4.9541   173
 4.9641   143
 4.9741   157
 4.9841   147
 4.9941   127
 5.0041   107
 5.0141   129
 5.0241   128
 5.0341   115
 5.0441   108
 5.0541   104
 5.0641    67
 5.0741    79
 5.0841    93
 5.0941    99
 5.1041    94
 5.1141   105
 5.1241    97
 5.1341    96
 5.1441   107
 5.1541   101
 5.1641    99
 5.1741   107
 5.1841    92
 5.1941    96
 5.2041    95
 5.2141    96
 5.2241    89
 5.2341    93
 5.2441    99
 5.2541    81
 5.2641   109
 5.2741    95
 5.2841   101
 5.2941   111
 5.3041   123
 5.3141   128
 5.3241   100
 5.3341   129
 5.3441   119
 5.3541   120
 5.3641   145
 5.3741   161
 5.3841   163
 5.3941   181
 5.4041   148
 5.4141   186
 5.4241   144
 5.4341   148
 5.4441   150
 5.4541   164
 5.4641   137
 5.4741   136
 5.4841   129
 5.4941   144
 5.5041   101
 5.5141    97
 5.5241   106
 5.5341    94
 5.5441    97
 5.5541    95
 5.5641    96
 5.5741    87
 5.5841    94
 5.5941   111
 5.6041    84
 5.6141   100
 5.6241    94
 5.6341   105
 5.6441   110
 5.6541    95
 5.6641    87
 5.6741   100
 5.6841   106
 5.6941   109
 5.7041    99
 5.7141    98
 5.7241   117
 5.7341   104
 5.7441   120
 5.7541   127
 5.7641   134
 5.7741   146
 5.7841   143
 5.7941   180
 5.8041   172
 5.8141   194
 5.8241   224
 5.8341   224
 5.8441   253
 5.8541   316
 5.8641   312
 5.8741   304
 5.8841   319
 5.8941   366
 5.9041   331
 5.9141   304
 5.9241   289
 5.9341   299
 5.9441   269
 5.9541   250
 5.9641   212
 5.9741   193
 5.9841   199
 5.9941   180
 6.0041   158
 6.0141   147
 6.0241   154
 6.0341   146
 6.0441   138
 6.0541   139
 6.0641   134
 6.0741   132
 6.0841   144
 6.0941   148
 6.1041   141
 6.1141   125
 6.1241   178
 6.1341   166
 6.1441   181
 6.1541   196
 6.1641   196
 6.1741   214
 6.1841   234
 6.1941   322
 6.2041   405
 6.2141   502
 6.2241   732
 6.2341   935
 6.2441  1307
 6.2541  1818
 6.2641  2566
 6.2741  3551
 6.2841  4661
 6.2941  6344
 6.3041  8238
 6.3141 10365
 6.3241 12684
 6.3341 15043
 6.3441 17842
 6.3541 20958
 6.3641 23025
 6.3741 24846
 6.3841 26195
 6.3941 26863
 6.4041 26994
 6.4141 25980
 6.4241 24434
 6.4341 22511
 6.4441 20046
 6.4541 17345
 6.4641 14886
 6.4741 12314
 6.4841  9638
 6.4941  7630
 6.5041  5655
 6.5141  4227
 6.5241  3172
 6.5341  2204
 6.5441  1620
 6.5541  1068
 6.5641   780
 6.5741   575
 6.5841   404
 6.5941   304
 6.6041   220
 6.6141   211
 6.6241   192
 6.6341   187
 6.6441   197
 6.6541   170
 6.6641   179
 6.6741   154
 6.6841   160
 6.6941   171
 6.7041   184
 6.7141   172
 6.7241   177
 6.7341   147
 6.7441   178
 6.7541   179
 6.7641   178
 6.7741   190
 6.7841   218
 6.7941   215
 6.8041   225
 6.8141   231
 6.8241   226
 6.8341   248
 6.8441   241
 6.8541   273
 6.8641   327
 6.8741   360
 6.8841   393
 6.8941   477
 6.9041   565
 6.9141   700
 6.9241   870
 6.9341  1064
 6.9441  1271
 6.9541  1554
 6.9641  1801
 6.9741  2284
 6.9841  2614
 6.9941  3097
 7.0041  3491
 7.0141  3813
 7.0241  4200
 7.0341  4356
 7.0441  4518
 7.0541  4585
 7.0641  4439
 7.0741  4385
 7.0841  4189
 7.0941  3794
 7.1041  3443
 7.1141  3080
 7.1241  2587
 7.1341  2283
 7.1441  1834
 7.1541  1479
 7.1641  1192
 7.1741   905
 7.1841   737
 7.1941   582
 7.2041   462
 7.2141   393
 7.2241   309
 7.2341   250
 7.2441   229
 7.2541   239
 7.2641   213
 7.2741   204
 7.2841   197
 7.2941   175
 7.3041   188
 7.3141   213
 7.3241   224
 7.3341   216
 7.3441   243
 7.3541   237
 7.3641   274
 7.3741   258
 7.3841   298
 7.3941   295
 7.4041   276
 7.4141   332
 7.4241   340
 7.4341   329
 7.4441   311
 7.4541   311
 7.4641   337
 7.4741   319
 7.4841   320
 7.4941   325
 7.5041   282
 7.5141   281
 7.5241   251
 7.5341   252
 7.5441   228
 7.5541   241
 7.5641   205
 7.5741   205
 7.5841   197
 7.5941   186
 7.6041   183
 7.6141   174
 7.6241   180
 7.6341   187
 7.6441   181
 7.6541   203
 7.6641   176
 7.6741   198
 7.6841   202
 7.6941   210
 7.7041   178
 7.7141   164
 7.7241   197
 7.7341   218
 7.7441   192
 7.7541   189
 7.7641   208
 7.7741   192
 7.7841   205
 7.7941   213
 7.8041   253
 7.8141   219
 7.8241   261
 7.8341   236
 7.8441   267
 7.8541   272
 7.8641   266
 7.8741   255
 7.8841   285
 7.8941   304
 7.9041   302
 7.9141   339
 7.9241   319
 7.9341   394
 7.9441   365
 7.9541   392
 7.9641   434
 7.9741   464
 7.9841   502
 7.9941   512
 8.0041   526
 8.0141   599
 8.0241   660
 8.0341   707
 8.0441   738
 8.0541   773
 8.0641   867
 8.0741   962
 8.0841   973
 8.0941   997
 8.1041  1009
 8.1141  1107
 8.1241  1170
 8.1341  1180
 8.1441  1212
 8.1541  1246
 8.1641  1281
 8.1741  1308
 8.1841  1278
 8.1941  1398
 8.2041  1386
 8.2141  1448
 8.2241  1379
 8.2341  1476
 8.2441  1450
 8.2541  1514
 8.2641  1552
 8.2741  1650
 8.2841  1763
 8.2941  1876
 8.3041  2055
 8.3141  2123
 8.3241  2311
 8.3341  2482
 8.3441  2761
 8.3541  2789
 8.3641  3074
 8.3741  3079
 8.3841  3114
 8.3941  3150
 8.4041  2955
 8.4141  2959
 8.4241  2832
 8.4341  2549
 8.4441  2284
 8.4541  2091
 8.4641  1854
 8.4741  1603
 8.4841  1375
 8.4941  1245
 8.5041   997
 8.5141   840
 8.5241   769
 8.5341   637
 8.5441   546
 8.5541   491
 8.5641   461
 8.5741   449
 8.5841   419
 8.5941   393
 8.6041   379
 8.6141   438
 8.6241   420
 8.6341   398
 8.6441   393
 8.6541   394
 8.6641   395
 8.6741   369
 8.6841   398
 8.6941   360
 8.7041   338
 8.7141   374
 8.7241   344
 8.7341   326
 8.7441   316
 8.7541   334
 8.7641   327
 8.7741   300
 8.7841   313
 8.7941   300
 8.8041   317
 8.8141   319
 8.8241   308
 8.8341   319
 8.8441   314
 8.8541   315
 8.8641   310
 8.8741   306
 8.8841   284
 8.8941   317
 8.9041   321
 8.9141   314
 8.9241   303
 8.9341   323
 8.9441   332
 8.9541   340
 8.9641   362
 8.9741   356
 8.9841   345
 8.9941   336
 9.0041   342
 9.0141   354
 9.0241   374
 9.0341   348
 9.0441   360
 9.0541   399
 9.0641   386
 9.0741   414
 9.0841   428
 9.0941   428
 9.1041   456
 9.1141   464
 9.1241   470
 9.1341   496
 9.1441   517
 9.1541   545
 9.1641   554
 9.1741   573
 9.1841   625
 9.1941   643
 9.2041   691
 9.2141   715
 9.2241   712
 9.2341   767
 9.2441   840
 9.2541   824
 9.2641   879
 9.2741   935
 9.2841   986
 9.2941   983
 9.3041  1079
 9.3141  1079
 9.3241  1148
 9.3341  1125
 9.3441  1126
 9.3541  1234
 9.3641  1239
 9.3741  1238
 9.3841  1315
 9.3941  1308
 9.4041  1343
 9.4141  1350
 9.4241  1331
 9.4341  1338
 9.4441  1383
 9.4541  1404
 9.4641  1409
 9.4741  1465
 9.4841  1428
 9.4941  1461
 9.5041  1503
 9.5141  1472
 9.5241  1486
 9.5341  1560
 9.5441  1675
 9.5541  1812
 9.5641  1820
 9.5741  1877
 9.5841  1971
 9.5941  2107
 9.6041  2208
 9.6141  2326
 9.6241  2415
 9.6341  2555
 9.6441  2526
 9.6541  2635
 9.6641  2648
 9.6741  2556
 9.6841  2692
 9.6941  2519
 9.7041  2442
 9.7141  2331
 9.7241  2195
 9.7341  2082
 9.7441  1948
 9.7541  1821
 9.7641  1706
 9.7741  1528
 9.7841  1383
 9.7941  1331
 9.8041  1327
 9.8141  1202
 9.8241  1128
 9.8341  1103
 9.8441  1142
 9.8541  1091
 9.8641  1127
 9.8741  1162
 9.8841  1150
 9.8941  1183
 9.9041  1238
 9.9141  1277
 9.9241  1254
 9.9341  1337
 9.9441  1317
 9.9541  1301
 9.9641  1332
 9.9741  1288
 9.9841  1191
 9.9941  1174
10.0041  1092
10.0141  1014
10.0241   922
10.0341   816
10.0441   758
10.0541   649
10.0641   609
10.0741   539
10.0841   497
10.0941   438
10.1041   398
10.1141   357
10.1241   328
10.1341   312
10.1441   292
10.1541   261
10.1641   272
10.1741   251
10.1841   231
10.1941   204
10.2041   199
10.2141   201
10.2241   193
10.2341   188
10.2441   186
10.2541   173
10.2641   179
10.2741   191
10.2841   177
10.2941   184
10.3041   181
10.3141   183
10.3241   149
10.3341   169
10.3441   184
10.3541   178
10.3641   171
10.3741   175
10.3841   159
10.3941   184
10.4041   191
10.4141   180
10.4241   177
10.4341   176
10.4441   191
10.4541   184
10.4641   148
10.4741   184
10.4841   180
10.4941   183
10.5041   200
10.5141   188
10.5241   202
10.5341   204
10.5441   187
10.5541   218
10.5641   208
10.5741   200
10.5841   200
10.5941   215
10.6041   202
10.6141   212
10.6241   203
10.6341   204
10.6441   205
10.6541   217
10.6641   205
10.6741   198
10.6841   203
10.6941   213
10.7041   222
10.7141   231
10.7241   228
10.7341   210
10.7441   223
10.7541   231
10.7641   234
10.7741   234
10.7841   234
10.7941   249
10.8041   250
10.8141   264
10.8241   263
10.8341   277
10.8441   298
10.8541   283
10.8641   280
10.8741   274
10.8841   278
10.8941   295
10.9041   310
10.9141   303
10.9241   321
10.9341   304
10.9441   303
10.9541   320
10.9641   278
10.9741   276
10.9841   290
10.9941   298
11.0041   281
11.0141   271
11.0241   261
11.0341   282
11.0441   267
11.0541   244
11.0641   248
11.0741   247
11.0841   262
11.0941   252
11.1041   256
11.1141   253
11.1241   259
11.1341   253
11.1441   246
11.1541   266
11.1641   295
11.1741   313
11.1841   317
11.1941   306
11.2041   346
11.2141   369
11.2241   362
11.2341   356
11.2441   367
11.2541   399
11.2641   382
11.2741   419
11.2841   419
11.2941   426
11.3041   395
11.3141   408
11.3241   402
11.3341   375
11.3441   370
11.3541   354
11.3641   325
11.3741   321
11.3841   284
11.3941   260
11.4041   269
11.4141   243
11.4241   255
11.4341   245
11.4441   208
11.4541   205
11.4641   224
11.4741   217
11.4841   205
11.4941   218
11.5041   204
11.5141   187
11.5241   197
11.5341   196
11.5441   192
11.5541   203
11.5641   183
11.5741   204
11.5841   205
11.5941   210
11.6041   202
11.6141   184
11.6241   196
11.6341   212
11.6441   215
11.6541   222
11.6641   209
11.6741   212
11.6841   200
11.6941   197
11.7041   210
11.7141   209
11.7241   203
11.7341   193
11.7441   190
11.7541   191
11.7641   184
11.7741   170
11.7841   179
11.7941   177
11.8041   179
11.8141   188
11.8241   186
11.8341   179
11.8441   172
11.8541   186
11.8641   210
11.8741   212
11.8841   199
11.8941   199
11.9041   207
11.9141   205
11.9241   198
11.9341   191
11.9441   191
11.9541   186
11.9641   188
11.9741   200
11.9841   196
11.9941   171
12.0041   172
12.0141   168
12.0241   161
12.0341   171
12.0441   161
12.0541   156
12.0641   174
12.0741   184
12.0841   165
12.0941   146
12.1041   157
12.1141   154
12.1241   151
12.1341   148
12.1441   157
12.1541   154
12.1641   153
12.1741   170
12.1841   167
12.1941   154
12.2041   150
12.2141   157
12.2241   146
12.2341   154
12.2441   169
12.2541   186
12.2641   177
12.2741   158
12.2841   150
12.2941   156
12.3041   156
12.3141   166
12.3241   165
12.3341   160
12.3441   153
12.3541   149
12.3641   148
12.3741   171
12.3841   167
12.3941   159
12.4041   152
12.4141   154
12.4241   157
12.4341   158
12.4441   156
12.4541   160
12.4641   157
12.4741   163
12.4841   171
12.4941   171
12.5041   159
12.5141   160
12.5241   177
12.5341   172
12.5441   174
12.5541   184
12.5641   180
12.5741   171
12.5841   181
12.5941   180
12.6041   184
12.6141   183
12.6241   180
12.6341   196
12.6441   186
12.6541   180
12.6641   187
12.6741   190
12.6841   198
12.6941   206
12.7041   202
12.7141   191
12.7241   185
12.7341   182
12.7441   181
12.7541   184
12.7641   189
12.7741   192
12.7841   203
12.7941   215
12.8041   210
12.8141   195
12.8241   187
12.8341   183
12.8441   183
12.8541   188
12.8641   197
12.8741   205
12.8841   204
12.8941   193
12.9041   189
12.9141   192
12.9241   196
12.9341   193
12.9441   186
12.9541   188
12.9641   200
12.9741   205
12.9841   197
12.9941   195
13.0041   205
13.0141   202
13.0241   193
13.0341   191
13.0441   187
13.0541   188
13.0641   178
13.0741   184
13.0841   192
13.0941   206
13.1041   190
13.1141   186
13.1241   202
13.1341   203
13.1441   211
13.1541   219
13.1641   212
13.1741   203
13.1841   217
13.1941   211
13.2041   205
13.2141   227
13.2241   253
13.2341   262
13.2441   265
13.2541   268
13.2641   283
13.2741   295
13.2841   312
13.2941   339
13.3041   342
13.3141   351
13.3241   368
13.3341   359
13.3441   355
13.3541   372
13.3641   387
13.3741   391
13.3841   387
13.3941   374
13.4041   364
13.4141   360
13.4241   350
13.4341   342
13.4441   345
13.4541   343
13.4641   327
13.4741   311
13.4841   303
13.4941   293
13.5041   283
13.5141   282
13.5241   283
13.5341   271
13.5441   251
13.5541   234
13.5641   224
13.5741   230
13.5841   243
13.5941   247
13.6041   250
13.6141   251
13.6241   244
13.6341   243
13.6441   251
13.6541   235
13.6641   238
13.6741   238
13.6841   225
13.6941   241
13.7041   235
13.7141   232
13.7241   237
13.7341   239
13.7441   248
13.7541   253
13.7641   238
13.7741   217
13.7841   215
13.7941   225
13.8041   237
13.8141   255
13.8241   253
13.8341   239
13.8441   242
13.8541   238
13.8641   252
13.8741   271
13.8841   260
13.8941   257
13.9041   269
13.9141   270
13.9241   267
13.9341   275
13.9441   284
13.9541   295
13.9641   313
13.9741   333
13.9841   346
13.9941   352
14.0041   358
14.0141   364
14.0241   374
14.0341   393
14.0441   415
14.0541   438
14.0641   453
14.0741   466
14.0841   493
14.0941   509
14.1041   511
14.1141   531
14.1241   550
14.1341   548
14.1441   552
14.1541   561
14.1641   557
14.1741   547
14.1841   535
14.1941   518
14.2041   504
14.2141   482
14.2241   468
14.2341   460
14.2441   441
14.2541   440
14.2641   426
14.2741   393
14.2841   373
14.2941   357
14.3041   347
14.3141   339
14.3241   322
14.3341   312
14.3441   294
14.3541   279
14.3641   278
14.3741   284
14.3841   284
14.3941   281
14.4041   294
14.4141   286
14.4241   277
14.4341   273
14.4441   268
14.4541   269
14.4641   266
14.4741   277
14.4841   300
14.4941   280
14.5041   258
14.5141   273
14.5241   279
14.5341   268
14.5441   276
14.5541   273
14.5641   268
14.5741   268
14.5841   279
14.5941   289
14.6041   285
14.6141   275
14.6241   274
14.6341   283
14.6441   286
14.6541   285
14.6641   281
14.6741   283
14.6841   300
14.6941   311
14.7041   308
14.7141   303
14.7241   296
14.7341   303
14.7441   320
14.7541   318
14.7641   322
14.7741   317
14.7841   296
14.7941   300
14.8041   306
14.8141   327
14.8241   332
14.8341   346
14.8441   366
14.8541   353
14.8641   339
14.8741   366
14.8841   379
14.8941   370
14.9041   365
14.9141   392
14.9241   399
14.9341   381
14.9441   387
14.9541   393
14.9641   399
14.9741   395
14.9841   388
14.9941   387
15.0041   376
15.0141   367
15.0241   375
15.0341   364
15.0441   360
15.0541   349
15.0641   334
15.0741   357
15.0841   359
15.0941   327
15.1041   346
15.1141   347
15.1241   339
15.1341   328
15.1441   339
15.1541   330
15.1641   332
15.1741   356
15.1841   341
15.1941   344
15.2041   343
15.2141   335
15.2241   350
15.2341   341
15.2441   335
15.2541   337
15.2641   360
15.2741   379
15.2841   330
15.2941   313
15.3041   330
15.3141   351
15.3241   347
15.3341   347
15.3441   338
15.3541   324
15.3641   321
15.3741   343
15.3841   348
15.3941   335
15.4041   333
15.4141   336
15.4241   359
15.4341   365
15.4441   369
15.4541   362
15.4641   362
15.4741   371
15.4841   369
15.4941   371
15.5041   369
15.5141   374
15.5241   402
15.5341   409
15.5441   409
15.5541   399
15.5641   402
15.5741   415
15.5841   417
15.5941   456
15.6041   489
15.6141   518
15.6241   522
15.6341   548
15.6441   576
15.6541   593
15.6641   599
15.6741   629
15.6841   677
15.6941   691
15.7041   687
15.7141   717
15.7241   737
15.7341   730
15.7441   736
15.7541   761
15.7641   756
15.7741   731
15.7841   746
15.7941   770
15.8041   711
15.8141   723
15.8241   719
15.8341   695
15.8441   664
15.8541   643
15.8641   611
15.8741   597
15.8841   570
15.8941   530
15.9041   502
15.9141   498
15.9241   489
15.9341   467
15.9441   452
15.9541   438
15.9641   431
15.9741   415
15.9841   411
15.9941   405
16.0041   428
16.0141   405
16.0241   393
16.0341   386
16.0441   408
16.0541   393
16.0641   386
16.0741   385
16.0841   394
16.0941   424
16.1041   423
16.1141   430
16.1241   426
16.1341   412
16.1441   387
16.1541   404
16.1641   418
16.1741   411
16.1841   401
16.1941   413
16.2041   410
16.2141   412
16.2241   423
16.2341   419
16.2441   415
16.2541   416
16.2641   419
16.2741   431
16.2841   424
16.2941   439
16.3041   413
16.3141   417
16.3241   403
16.3341   371
16.3441   373
16.3541   414
16.3641   441
16.3741   435
16.3841   424
16.3941   427
16.4041   425
16.4141   422
16.4241   424
16.4341   414
16.4441   444
16.4541   440
16.4641   420
16.4741   423
16.4841   436
16.4941   436
16.5041   421
16.5141   421
16.5241   428
16.5341   424
16.5441   425
16.5541   435
16.5641   412
16.5741   405
16.5841   446
16.5941   456
16.6041   448
16.6141   450
16.6241   438
16.6341   438
16.6441   451
16.6541   478
16.6641   472
16.6741   482
16.6841   487
16.6941   452
16.7041   433
16.7141   441
16.7241   429
16.7341   466
16.7441   468
16.7541   469
16.7641   462
16.7741   463
16.7841   476
16.7941   449
16.8041   446
16.8141   445
16.8241   448
16.8341   443
16.8441   472
16.8541   503
16.8641   473
16.8741   449
16.8841   436
16.8941   463
16.9041   434
16.9141   434
16.9241   486
16.9341   459
16.9441   451
16.9541   448
16.9641   471
16.9741   461
16.9841   493
16.9941   482
17.0041   455
17.0141   483
17.0241   469
17.0341   458
17.0441   472
17.0541   474
17.0641   469
17.0741   478
17.0841   477
17.0941   502
17.1041   449
17.1141   454
17.1241   461
17.1341   470
17.1441   498
17.1541   457
17.1641   481
17.1741   493
17.1841   487
17.1941   512
17.2041   480
17.2141   494
17.2241   486
17.2341   483
17.2441   483
17.2541   481
17.2641   485
17.2741   463
17.2841   457
17.2941   467
17.3041   469
17.3141   470
17.3241   495
17.3341   491
17.3441   494
17.3541   527
17.3641   524
17.3741   496
17.3841   468
17.3941   499
17.4041   505
17.4141   509
17.4241   494
17.4341   512
17.4441   518
17.4541   537
17.4641   546
17.4741   526
17.4841   520
17.4941   511
17.5041   520
17.5141   548
17.5241   552
17.5341   555
17.5441   525
17.5541   553
17.5641   544
17.5741   528
17.5841   511
17.5941   543
17.6041   557
17.6141   562
17.6241   576
17.6341   577
17.6441   533
17.6541   558
17.6641   586
17.6741   620
17.6841   625
17.6941   564
17.7041   528
17.7141   553
17.7241   606
17.7341   594
17.7441   562
17.7541   553
17.7641   568
17.7741   580
17.7841   567
17.7941   526
17.8041   533
17.8141   514
17.8241   558
17.8341   574
17.8441   547
17.8541   520
17.8641   507
17.8741   524
17.8841   544
17.8941   588
17.9041   553
17.9141   533
17.9241   552
17.9341   522
17.9441   517
17.9541   526
17.9641   516
17.9741   530
17.9841   541
17.9941   530
18.0041   527
18.0141   531
18.0241   556
18.0341   562
18.0441   578
18.0541   539
18.0641   533
18.0741   538
18.0841   538
18.0941   548
18.1041   522
18.1141   555
18.1241   574
18.1341   557
18.1441   556
18.1541   574
18.1641   540
18.1741   563
18.1841   576
18.1941   568
18.2041   546
18.2141   547
18.2241   564
18.2341   577
18.2441   578
18.2541   585
18.2641   553
18.2741   534
18.2841   586
18.2941   574
18.3041   574
18.3141   569
18.3241   577
18.3341   552
18.3441   567
18.3541   571
18.3641   552
18.3741   525
18.3841   534
18.3941   566
18.4041   566
18.4141   556
18.4241   564
18.4341   563
18.4441   572
18.4541   547
18.4641   552
18.4741   565
18.4841   559
18.4941   551
18.5041   555
18.5141   543
18.5241   560
18.5341   571
18.5441   577
18.5541   548
18.5641   563
18.5741   574
18.5841   572
18.5941   596
18.6041   599
18.6141   590
18.6241   574
18.6341   556
18.6441   563
18.6541   596
18.6641   569
18.6741   569
18.6841   574
18.6941   566
18.7041   569
18.7141   565
18.7241   605
18.7341   601
18.7441   594
18.7541   587
18.7641   552
18.7741   568
18.7841   564
18.7941   578
18.8041   607
18.8141   564
18.8241   562
18.8341   576
18.8441   578
18.8541   581
18.8641   597
18.8741   640
18.8841   623
18.8941   614
18.9041   589
18.9141   604
18.9241   596
18.9341   570
18.9441   572
18.9541   579
18.9641   579
18.9741   568
18.9841   589
18.9941   566
19.0041   630
19.0141   610
19.0241   596
19.0341   562
19.0441   578
19.0541   564
19.0641   590
19.0741   571
19.0841   595
19.0941   618
19.1041   600
19.1141   604
19.1241   585
19.1341   591
19.1441   594
19.1541   616
19.1641   575
19.1741   584
19.1841   606
19.1941   649
19.2041   584
19.2141   587
19.2241   594
19.2341   601
19.2441   571
19.2541   576
19.2641   607
19.2741   593
19.2841   572
19.2941   617
19.3041   636
19.3141   630
19.3241   613
19.3341   587
19.3441   603
19.3541   589
19.3641   601
19.3741   593
19.3841   582
19.3941   574
19.4041   560
19.4141   580
19.4241   596
19.4341   607
19.4441   614
19.4541   627
19.4641   626
19.4741   607
19.4841   647
19.4941   651
19.5041   622
19.5141   581
19.5241   597
19.5341   637
19.5441   595
19.5541   632
19.5641   673
19.5741   624
19.5841   614
19.5941   629
19.6041   602
19.6141   631
19.6241   633
19.6341   590
19.6441   623
19.6541   641
19.6641   634
19.6741   626
19.6841   612
19.6941   590
19.7041   575
19.7141   610
19.7241   633
19.7341   607
19.7441   634
19.7541   644
19.7641   642
19.7741   591
19.7841   612
19.7941   606
19.8041   599
19.8141   592
19.8241   614
19.8341   588
19.8441   581
19.8541   640
19.8641   605
19.8741   585
19.8841   647
19.8941   609
19.9041   624
19.9141   647
19.9241   630
19.9341   634
19.9441   601
19.9541   592
19.9641   597
19.9741   619
19.9841   616
19.9941   573
20.0041   624
20.0141   592
20.0241   621
20.0341   607
20.0441   621
20.0541   614
20.0641   604
20.0741   632
20.0841   652
20.0941   638
20.1041   621
20.1141   628
20.1241   585
20.1341   597
20.1441   599
20.1541   618
20.1641   644
20.1741   580
20.1841   560
20.1941   576
20.2041   574
20.2141   598
20.2241   594
20.2341   651
20.2441   617
20.2541   635
20.2641   611
20.2741   626
20.2841   581
20.2941   640
20.3041   634
20.3141   629
20.3241   587
20.3341   642
20.3441   643
20.3541   632
20.3641   650
20.3741   624
20.3841   626
20.3941   634
20.4041   630
20.4141   602
20.4241   656
20.4341   638
20.4441   609
20.4541   594
20.4641   623
20.4741   623
20.4841   583
20.4941   617
20.5041   639
20.5141   606
20.5241   637
20.5341   641
20.5441   628
20.5541   603
20.5641   623
20.5741   663
20.5841   651
20.5941   618
20.6041   651
20.6141   659
20.6241   641
20.6341   621
20.6441   603
20.6541   638
20.6641   661
20.6741   627
20.6841   679
20.6941   592
20.7041   620
20.7141   605
20.7241   666
20.7341   653
20.7441   644
20.7541   638
20.7641   660
20.7741   642
20.7841   650
20.7941   658
20.8041   626
20.8141   625
20.8241   606
20.8341   652
20.8441   660
20.8541   695
20.8641   717
20.8741   699
20.8841   699
20.8941   707
20.9041   708
20.9141   724
20.9241   716
20.9341   719
20.9441   733
20.9541   789
20.9641   820
20.9741   805
20.9841   826
20.9941   843
21.0041   850
21.0141   871
21.0241   892
21.0341   856
21.0441   897
21.0541   849
21.0641   906
21.0741   879
21.0841   918
21.0941   918
21.1041   922
21.1141   901
21.1241   927
21.1341   977
21.1441   949
21.1541   971
21.1641   912
21.1741   896
21.1841   885
21.1941   922
21.2041   927
21.2141   879
21.2241   895
21.2341   802
21.2441   803
21.2541   830
21.2641   804
21.2741   785
21.2841   786
21.2941   777
21.3041   757
21.3141   716
21.3241   719
21.3341   707
21.3441   728
21.3541   704
21.3641   657
21.3741   706
21.3841   605
21.3941   681
21.4041   623
21.4141   705
21.4241   663
21.4341   665
21.4441   681
21.4541   637
21.4641   671
21.4741   655
21.4841   653
21.4941   687
21.5041   646
21.5141   646
21.5241   636
21.5341   638
21.5441   608
21.5541   592
21.5641   606
21.5741   596
21.5841   678
21.5941   620
21.6041   600
21.6141   640
21.6241   644
21.6341   672
21.6441   637
21.6541   635
21.6641   628
21.6741   624
21.6841   636
21.6941   648
21.7041   629
21.7141   589
21.7241   631
21.7341   629
21.7441   663
21.7541   627
21.7641   592
21.7741   644
21.7841   593
21.7941   599
21.8041   644
21.8141   613
21.8241   631
21.8341   625
21.8441   597
21.8541   674
21.8641   654
21.8741   656
21.8841   572
21.8941   636
21.9041   616
21.9141   645
21.9241   605
21.9341   659
21.9441   589
21.9541   656
21.9641   625
21.9741   625
21.9841   640
21.9941   615
22.0041   617
22.0141   603
22.0241   645
22.0341   624
22.0441   667
22.0541   604
22.0641   630
22.0741   641
22.0841   603
22.0941   582
22.1041   639
22.1141   651
22.1241   664
22.1341   638
22.1441   630
22.1541   604
22.1641   641
22.1741   664
22.1841   658
22.1941   631
22.2041   633
22.2141   617
22.2241   629
22.2341   609
22.2441   653
22.2541   645
22.2641   634
22.2741   627
22.2841   624
22.2941   629
22.3041   701
22.3141   630
22.3241   607
22.3341   627
22.3441   594
22.3541   600
22.3641   606
22.3741   594
22.3841   558
22.3941   618
22.4041   623
22.4141   610
22.4241   586
22.4341   618
22.4441   641
22.4541   632
22.4641   594
22.4741   649
22.4841   644
22.4941   628
22.5041   609
22.5141   612
22.5241   609
22.5341   592
22.5441   590
22.5541   618
22.5641   628
22.5741   613
22.5841   639
22.5941   586
22.6041   617
22.6141   577
22.6241   636
22.6341   662
22.6441   623
22.6541   599
22.6641   586
22.6741   606
22.6841   649
22.6941   625
22.7041   683
22.7141   624
22.7241   656
22.7341   618
22.7441   621
22.7541   607
22.7641   590
22.7741   603
22.7841   620
22.7941   594
22.8041   619
22.8141   659
22.8241   580
22.8341   591
22.8441   591
22.8541   599
22.8641   638
22.8741   595
22.8841   580
22.8941   611
22.9041   598
22.9141   590
22.9241   625
22.9341   572
22.9441   686
22.9541   618
22.9641   626
22.9741   662
22.9841   610
22.9941   623
23.0041   635
23.0141   662
23.0241   596
23.0341   572
23.0441   575
23.0541   617
23.0641   581
23.0741   581
23.0841   623
23.0941   582
23.1041   582
23.1141   616
23.1241   618
23.1341   607
23.1441   582
23.1541   642
23.1641   593
23.1741   641
23.1841   586
23.1941   574
23.2041   611
23.2141   600
23.2241   625
23.2341   598
23.2441   580
23.2541   620
23.2641   600
23.2741   614
23.2841   577
23.2941   610
23.3041   631
23.3141   631
23.3241   588
23.3341   644
23.3441   589
23.3541   653
23.3641   575
23.3741   626
23.3841   610
23.3941   587
23.4041   627
23.4141   609
23.4241   622
23.4341   605
23.4441   618
23.4541   605
23.4641   631
23.4741   569
23.4841   577
23.4941   576
23.5041   609
23.5141   578
23.5241   567
23.5341   633
23.5441   611
23.5541   602
23.5641   641
23.5741   605
23.5841   591
23.5941   584
23.6041   591
23.6141   612
23.6241   608
23.6341   606
23.6441   611
23.6541   617
23.6641   594
23.6741   576
23.6841   595
23.6941   619
23.7041   643
23.7141   644
23.7241   609
23.7341   658
23.7441   659
23.7541   610
23.7641   636
23.7741   639
23.7841   640
23.7941   617
23.8041   645
23.8141   650
23.8241   663
23.8341   637
23.8441   663
23.8541   642
23.8641   599
23.8741   601
23.8841   590
23.8941   577
23.9041   626
23.9141   596
23.9241   589
23.9341   617
23.9441   611
23.9541   581
23.9641   598
23.9741   576
23.9841   622
23.9941   578
24.0041   558
24.0141   581
24.0241   583
24.0341   559
24.0441   572
24.0541   597
24.0641   573
24.0741   589
24.0841   548
24.0941   579
24.1041   590
24.1141   552
24.1241   580
24.1341   556
24.1441   583
24.1541   581
24.1641   543
24.1741   561
24.1841   598
24.1941   575
24.2041   615
24.2141   577
24.2241   564
24.2341   605
24.2441   593
24.2541   575
24.2641   603
24.2741   560
24.2841   544
24.2941   562
24.3041   589
24.3141   575
24.3241   595
24.3341   582
24.3441   559
24.3541   508
24.3641   578
24.3741   567
24.3841   556
24.3941   537
24.4041   562
24.4141   551
24.4241   540
24.4341   574
24.4441   572
24.4541   613
24.4641   547
24.4741   566
24.4841   538
24.4941   525
24.5041   574
24.5141   528
24.5241   535
24.5341   568
24.5441   528
24.5541   572
24.5641   563
24.5741   600
24.5841   532
24.5941   535
24.6041   550
24.6141   522
24.6241   557
24.6341   557
24.6441   504
24.6541   546
24.6641   582
24.6741   545
24.6841   554
24.6941   545
24.7041   554
24.7141   602
24.7241   568
24.7341   559
24.7441   575
24.7541   505
24.7641   570
24.7741   534
24.7841   521
24.7941   549
24.8041   518
24.8141   539
24.8241   570
24.8341   543
24.8441   575
24.8541   503
24.8641   534
24.8741   514
24.8841   534
24.8941   536
24.9041   525
24.9141   524
24.9241   556
24.9341   527
24.9441   598
24.9541   530
24.9641   542
24.9741   516
24.9841   549
24.9941   557
25.0041   579
25.0141   543
25.0241   547
25.0341   539
25.0441   527
25.0541   549
25.0641   521
25.0741   544
25.0841   540
25.0941   566
25.1041   510
25.1141   530
25.1241   571
25.1341   541
25.1441   514
25.1541   488
25.1641   566
25.1741   575
25.1841   569
25.1941   529
25.2041   538
25.2141   520
25.2241   510
25.2341   558
25.2441   528
25.2541   510
25.2641   530
25.2741   586
25.2841   555
25.2941   554
25.3041   544
25.3141   516
25.3241   545
25.3341   493
25.3441   577
25.3541   527
25.3641   543
25.3741   512
25.3841   543
25.3941   538
25.4041   511
25.4141   556
25.4241   515
25.4341   519
25.4441   543
25.4541   526
25.4641   528
25.4741   528
25.4841   515
25.4941   497
25.5041   532
25.5141   497
25.5241   526
25.5341   495
25.5441   501
25.5541   516
25.5641   496
25.5741   524
25.5841   513
25.5941   503
25.6041   493
25.6141   519
25.6241   472
25.6341   475
25.6441   503
25.6541   498
25.6641   488
25.6741   517
25.6841   514
25.6941   514
25.7041   486
25.7141   519
25.7241   493
25.7341   509
25.7441   464
25.7541   493
25.7641   488
25.7741   495
25.7841   525
25.7941   508
25.8041   510
25.8141   465
25.8241   494
25.8341   517
25.8441   496
25.8541   497
25.8641   515
25.8741   515
25.8841   470
25.8941   477
25.9041   519
25.9141   542
25.9241   485
25.9341   479
25.9441   508
25.9541   479
25.9641   493
25.9741   488
25.9841   505
25.9941   493
26.0041   518
26.0141   467
26.0241   479
26.0341   519
26.0441   470
26.0541   473
26.0641   439
26.0741   448
26.0841   488
26.0941   490
26.1041   501
26.1141   468
26.1241   468
26.1341   451
26.1441   508
26.1541   473
26.1641   495
26.1741   504
26.1841   468
26.1941   494
26.2041   463
26.2141   462
26.2241   489
26.2341   479
26.2441   480
26.2541   493
26.2641   454
26.2741   494
26.2841   494
26.2941   482
26.3041   480
26.3141   512
26.3241   489
26.3341   471
26.3441   485
26.3541   486
26.3641   504
26.3741   518
26.3841   471
26.3941   456
26.4041   444
26.4141   481
26.4241   438
26.4341   445
26.4441   435
26.4541   455
26.4641   442
26.4741   454
26.4841   445
26.4941   460
26.5041   479
26.5141   467
26.5241   474
26.5341   480
26.5441   491
26.5541   451
26.5641   472
26.5741   418
26.5841   437
26.5941   437
26.6041   477
26.6141   482
26.6241   491
26.6341   506
26.6441   470
26.6541   463
26.6641   438
26.6741   467
26.6841   488
26.6941   437
26.7041   465
26.7141   464
26.7241   458
26.7341   458
26.7441   421
26.7541   436
26.7641   487
26.7741   479
26.7841   453
26.7941   493
26.8041   450
26.8141   456
26.8241   447
26.8341   442
26.8441   447
26.8541   423
26.8641   464
26.8741   443
26.8841   408
26.8941   434
26.9041   444
26.9141   433
26.9241   463
26.9341   440
26.9441   445
26.9541   457
26.9641   463
26.9741   433
26.9841   459
26.9941   431
27.0041   438
27.0141   449
27.0241   419
27.0341   404
27.0441   435
27.0541   428
27.0641   454
27.0741   458
27.0841   433
27.0941   405
27.1041   451
27.1141   439
27.1241   432
27.1341   421
27.1441   433
27.1541   442
27.1641   428
27.1741   456
27.1841   417
27.1941   411
27.2041   427
27.2141   423
27.2241   427
27.2341   466
27.2441   432
27.2541   427
27.2641   445
27.2741   427
27.2841   430
27.2941   418
27.3041   442
27.3141   450
27.3241   406
27.3341   443
27.3441   432
27.3541   424
27.3641   393
27.3741   433
27.3841   394
27.3941   443
27.4041   431
27.4141   462
27.4241   406
27.4341   403
27.4441   416
27.4541   376
27.4641   461
27.4741   407
27.4841   414
27.4941   422
27.5041   385
27.5141   426
27.5241   442
27.5341   442
27.5441   434
27.5541   402
27.5641   405
27.5741   424
27.5841   380
27.5941   385
27.6041   411
27.6141   430
27.6241   408
27.6341   418
27.6441   420
27.6541   402
27.6641   432
27.6741   431
27.6841   425
27.6941   382
27.7041   384
27.7141   401
27.7241   401
27.7341   387
27.7441   394
27.7541   388
27.7641   393
27.7741   416
27.7841   402
27.7941   407
27.8041   376
27.8141   400
27.8241   408
27.8341   400
27.8441   407
27.8541   396
27.8641   395
27.8741   385
27.8841   389
27.8941   375
27.9041   392
27.9141   392
27.9241   418
27.9341   423
27.9441   385
27.9541   437
27.9641   381
27.9741   396
27.9841   413
27.9941   392
28.0041   383
28.0141   408
28.0241   416
28.0341   430
28.0441   391
28.0541   371
28.0641   456
28.0741   432
28.0841   393
28.0941   371
28.1041   369
28.1141   378
28.1241   375
28.1341   386
28.1441   398
28.1541   379
28.1641   363
28.1741   393
28.1841   375
28.1941   402
28.2041   375
28.2141   357
28.2241   385
28.2341   338
28.2441   369
28.2541   382
28.2641   372
28.2741   381
28.2841   373
28.2941   354
28.3041   388
28.3141   380
28.3241   373
28.3341   349
28.3441   384
28.3541   375
28.3641   372
28.3741   345
28.3841   377
28.3941   401
28.4041   370
28.4141   369
28.4241   367
28.4341   375
28.4441   411
28.4541   405
28.4641   376
28.4741   414
28.4841   395
28.4941   371
28.5041   402
28.5141   389
28.5241   349
28.5341   405
28.5441   351
28.5541   372
28.5641   362
28.5741   390
28.5841   377
28.5941   349
28.6041   356
28.6141   341
28.6241   339
28.6341   349
28.6441   372
28.6541   347
28.6641   400
28.6741   379
28.6841   357
28.6941   352
28.7041   349
28.7141   357
28.7241   366
28.7341   385
28.7441   379
28.7541   353
28.7641   359
28.7741   357
28.7841   354
28.7941   348
28.8041   364
28.8141   365
28.8241   368
28.8341   362
28.8441   360
28.8541   340
28.8641   335
28.8741   316
28.8841   378
28.8941   367
28.9041   366
28.9141   340
28.9241   346
28.9341   335
28.9441   350
28.9541   375
28.9641   353
28.9741   328
28.9841   317
28.9941   301
29.0041   352
29.0141   341
29.0241   372
29.0341   363
29.0441   350
29.0541   343
29.0641   354
29.0741   321
29.0841   368
29.0941   349
29.1041   380
29.1141   361
29.1241   334
29.1341   332
29.1441   325
29.1541   300
29.1641   339
29.1741   339
29.1841   349
29.1941   322
29.2041   311
29.2141   336
29.2241   333
29.2341   309
29.2441   345
29.2541   347
29.2641   347
29.2741   331
29.2841   348
29.2941   325
29.3041   288
29.3141   312
29.3241   344
29.3341   321
29.3441   340
29.3541   294
29.3641   340
29.3741   337
29.3841   327
29.3941   320
29.4041   323
29.4141   331
29.4241   329
29.4341   341
29.4441   301
29.4541   319
29.4641   322
29.4741   313
29.4841   335
29.4941   301
29.5041   326
29.5141   365
29.5241   324
29.5341   319
29.5441   304
29.5541   281
29.5641   300
29.5741   312
29.5841   296
29.5941   310
29.6041   318
29.6141   306
29.6241   301
29.6341   327
29.6441   320
29.6541   334
29.6641   297
29.6741   324
29.6841   302
29.6941   285
29.7041   317
29.7141   300
29.7241   331
29.7341   303
29.7441   308
29.7541   332
29.7641   311
29.7741   320
29.7841   335
29.7941   326
29.8041   324
29.8141   314
29.8241   320
29.8341   314
29.8441   316
29.8541   337
29.8641   308
29.8741   279
29.8841   276
29.8941   267
29.9041   288
29.9141   307
29.9241   337
29.9341   308
29.9441   292
29.9541   283
29.9641   300
29.9741   285
29.9841   304
29.9941   310
30.0041   293
30.0141   328
30.0241   301
30.0341   269
30.0441   306
30.0541   292
30.0641   277
30.0741   293
30.0841   342
30.0941   331
30.1041   307
30.1141   306
30.1241   305
30.1341   312
30.1441   296
30.1541   279
30.1641   297
30.1741   303
30.1841   280
30.1941   311
30.2041   291
30.2141   297
30.2241   253
30.2341   250
30.2441   280
30.2541   286
30.2641   283
30.2741   298
30.2841   285
30.2941   290
30.3041   306
30.3141   271
30.3241   300
30.3341   299
30.3441   299
30.3541   272
30.3641   270
30.3741   260
30.3841   279
30.3941   291
30.4041   295
30.4141   278
30.4241   264
30.4341   304
30.4441   283
30.4541   242
30.4641   295
30.4741   269
30.4841   265
30.4941   267
30.5041   272
30.5141   283
30.5241   273
30.5341   283
30.5441   247
30.5541   274
30.5641   283
30.5741   262
30.5841   299
30.5941   285
30.6041   273
30.6141   280
30.6241   290
30.6341   284
30.6441   297
30.6541   246
30.6641   279
30.6741   272
30.6841   255
30.6941   253
30.7041   252
30.7141   271
30.7241   270
30.7341   256
30.7441   265
30.7541   291
30.7641   268
30.7741   278
30.7841   279
30.7941   265
30.8041   273
30.8141   273
30.8241   273
30.8341   279
30.8441   251
30.8541   259
30.8641   257
30.8741   263
30.8841   257
30.8941   268
30.9041   277
30.9141   261
30.9241   282
30.9341   266
30.9441   264
30.9541   253
30.9641   266
30.9741   240
30.9841   255
30.9941   256
31.0041   271
31.0141   246
31.0241   245
31.0341   270
31.0441   249
31.0541   253
31.0641   266
31.0741   294
31.0841   279
31.0941   265
31.1041   240
31.1141   266
31.1241   246
31.1341   267
31.1441   275
31.1541   273
31.1641   233
31.1741   270
31.1841   219
31.1941   253
31.2041   250
31.2141   279
31.2241   263
31.2341   256
31.2441   227
31.2541   259
31.2641   250
31.2741   257
31.2841   252
31.2941   241
31.3041   240
31.3141   228
31.3241   246
31.3341   253
31.3441   259
31.3541   231
31.3641   227
31.3741   232
31.3841   242
31.3941   235
31.4041   214
31.4141   252
31.4241   251
31.4341   244
31.4441   244
31.4541   251
31.4641   224
31.4741   230
31.4841   224
31.4941   249
31.5041   237
31.5141   232
31.5241   218
31.5341   220
31.5441   234
31.5541   255
31.5641   236
31.5741   236
31.5841   252
31.5941   231
31.6041   217
31.6141   235
31.6241   249
31.6341   221
31.6441   231
31.6541   216
31.6641   230
31.6741   209
31.6841   233
31.6941   259
31.7041   219
31.7141   216
31.7241   215
31.7341   234
31.7441   251
31.7541   244
31.7641   227
31.7741   224
31.7841   237
31.7941   234
31.8041   236
31.8141   248
31.8241   251
31.8341   242
31.8441   219
31.8541   231
31.8641   228
31.8741   198
31.8841   234
31.8941   243
31.9041   262
31.9141   221
31.9241   232
31.9341   241
31.9441   219
31.9541   211
31.9641   223
31.9741   232
31.9841   244
31.9941   212
32.0041   236
32.0141   229
32.0241   212
32.0341   224
32.0441   218
32.0541   225
32.0641   237
32.0741   240
32.0841   279
32.0941   218
32.1041   230
32.1141   206
32.1241   212
32.1341   244
32.1441   228
32.1541   219
32.1641   237
32.1741   236
32.1841   215
32.1941   209
32.2041   227
32.2141   243
32.2241   225
32.2341   231
32.2441   235
32.2541   203
32.2641   225
32.2741   221
32.2841   236
32.2941   242
32.3041   220
32.3141   251
32.3241   241
32.3341   228
32.3441   204
32.3541   208
32.3641   203
32.3741   220
32.3841   208
32.3941   204
32.4041   214
32.4141   200
32.4241   192
32.4341   213
32.4441   200
32.4541   216
32.4641   211
32.4741   209
32.4841   192
32.4941   194
32.5041   223
32.5141   214
32.5241   201
32.5341   201
32.5441   189
32.5541   207
32.5641   195
32.5741   184
32.5841   174
32.5941   218
32.6041   190
32.6141   183
32.6241   192
32.6341   182
32.6441   199
32.6541   199
32.6641   183
32.6741   196
32.6841   194
32.6941   155
32.7041   208
32.7141   217
32.7241   222
32.7341   200
32.7441   191
32.7541   167
32.7641   183
32.7741   207
32.7841   207
32.7941   183
32.8041   208
32.8141   181
32.8241   196
32.8341   205
32.8441   223
32.8541   181
32.8641   187
32.8741   218
32.8841   189
32.8941   170
32.9041   171
32.9141   204
32.9241   167
32.9341   206
32.9441   193
32.9541   194
32.9641   206
32.9741   206
32.9841   204
32.9941   176
33.0041   189
33.0141   170
33.0241   166
33.0341   198
33.0441   188
33.0541   181
33.0641   179
33.0741   185
33.0841   188
33.0941   190
33.1041   178
33.1141   183
33.1241   173
33.1341   179
33.1441   190
33.1541   178
33.1641   151
33.1741   168
33.1841   158
33.1941   190
33.2041   212
33.2141   176
33.2241   147
33.2341   154
33.2441   172
33.2541   190
33.2641   176
33.2741   170
33.2841   151
33.2941   171
33.3041   189
33.3141   188
33.3241   162
33.3341   171
33.3441   167
33.3541   190
33.3641   175
33.3741   176
33.3841   170
33.3941   173
33.4041   186
33.4141   184
33.4241   170
33.4341   165
33.4441   174
33.4541   186
33.4641   169
33.4741   182
33.4841   171
33.4941   156
33.5041   198
33.5141   167
33.5241   167
33.5341   185
33.5441   178
33.5541   167
33.5641   166
33.5741   142
33.5841   157
33.5941   160
33.6041   156
33.6141   166
33.6241   165
33.6341   184
33.6441   196
33.6541   173
33.6641   175
33.6741   176
33.6841   168
33.6941   183
33.7041   161
33.7141   168
33.7241   151
33.7341   156
33.7441   159
33.7541   166
33.7641   171
33.7741   180
33.7841   161
33.7941   177
33.8041   171
33.8141   164
33.8241   150
33.8341   153
33.8441   171
33.8541   195
33.8641   175
33.8741   149
33.8841   155
33.8941   158
33.9041   155
33.9141   160
33.9241   150
33.9341   165
33.9441   173
33.9541   157
33.9641   151
33.9741   159
33.9841   170
33.9941   151
34.0041   153
34.0141   143
34.0241   162
34.0341   150
34.0441   151
34.0541   148
34.0641   141
34.0741   157
34.0841   147
34.0941   143
34.1041   149
34.1141   148
34.1241   148
34.1341   164
34.1441   129
34.1541   149
34.1641   133
34.1741   136
34.1841   142
34.1941   158
34.2041   137
34.2141   150
34.2241   144
34.2341   153
34.2441   147
34.2541   125
34.2641   131
34.2741   138
34.2841   129
34.2941   160
34.3041   132
34.3141   164
34.3241   138
34.3341   146
34.3441   140
34.3541   153
34.3641   139
34.3741   154
34.3841   156
34.3941   132
34.4041   141
34.4141   141
34.4241   147
34.4341   147
34.4441   120
34.4541   131
34.4641   120
34.4741   146
34.4841   135
34.4941   133
34.5041   148
34.5141   138
34.5241   129
34.5341   138
34.5441   132
34.5541   135
34.5641   137
34.5741   143
34.5841   133
34.5941   127
34.6041   131
34.6141   122
34.6241   143
34.6341   110
34.6441   127
34.6541   123
34.6641   132
34.6741   152
34.6841   126
34.6941   145
34.7041   137
34.7141   135
34.7241   149
34.7341   135
34.7441   133
34.7541   154
34.7641   137
34.7741   138
34.7841   157
34.7941   142
34.8041   122
34.8141   130
34.8241   107
34.8341   137
34.8441   124
34.8541   129
34.8641   142
34.8741   112
34.8841   119
34.8941   125
34.9041   132
34.9141   140
34.9241   139
34.9341   130
34.9441   137
34.9541   148
34.9641   140
34.9741   144
34.9841   120
34.9941   141
35.0041   126
35.0141   125
35.0241   126
35.0341   132
35.0441   131
35.0541   135
35.0641   125
35.0741   118
35.0841   140
35.0941   111
35.1041   104
35.1141   104
35.1241   106
35.1341   126
35.1441   111
35.1541   144
35.1641   126
35.1741   112
35.1841   117
35.1941   117
35.2041   128
35.2141   121
35.2241   106
35.2341   116
35.2441   119
35.2541   110
35.2641   116
35.2741   118
35.2841   117
35.2941   124
35.3041   115
35.3141   129
35.3241   114
35.3341   105
35.3441   118
35.3541   125
35.3641   102
35.3741   110
35.3841   127
35.3941   110
35.4041   116
35.4141   124
35.4241   132
35.4341   130
35.4441   128
35.4541   120
35.4641   119
35.4741   102
35.4841   117
35.4941   111
35.5041   114
35.5141   108
35.5241   102
35.5341   115
35.5441   103
35.5541   102
35.5641   112
35.5741   103
35.5841   107
35.5941   124
35.6041   113
35.6141   106
35.6241   111
35.6341    93
35.6441   116
35.6541   103
35.6641   103
35.6741   124
35.6841   101
35.6941   108
35.7041   117
35.7141   108
35.7241   130
35.7341   114
35.7441   109
35.7541   102
35.7641    95
35.7741   106
35.7841   108
35.7941   108
35.8041   116
35.8141    91
35.8241   101
35.8341    85
35.8441    80
35.8541   108
35.8641   122
35.8741   101
35.8841    94
35.8941   119
35.9041    79
35.9141   108
35.9241   110
35.9341   119
35.9441    99
35.9541   104
35.9641   115
35.9741   108
35.9841   116
35.9941   109
36.0041   111
36.0141    94
36.0241   102
36.0341   102
36.0441    94
36.0541    98
36.0641   108
36.0741    93
36.0841    92
36.0941   112
36.1041   109
36.1141   102
36.1241   102
36.1341    89
36.1441    98
36.1541    90
36.1641   102
36.1741   100
36.1841   100
36.1941   111
36.2041    91
36.2141    83
36.2241   122
36.2341   116
36.2441    91
36.2541   110
36.2641   115
36.2741    85
36.2841   108
36.2941    95
36.3041    87
36.3141   100
36.3241    86
36.3341    95
36.3441    99
36.3541    99
36.3641   104
36.3741   104
36.3841    94
36.3941    99
36.4041    96
36.4141    73
36.4241   111
36.4341    83
36.4441    89
36.4541    99
36.4641   108
36.4741    91
36.4841    90
36.4941    87
36.5041    95
36.5141    91
36.5241    95
36.5341    79
36.5441    81
36.5541    84
36.5641    86
36.5741    82
36.5841    78
36.5941    90
36.6041    85
36.6141    70
36.6241    82
36.6341   107
36.6441   105
36.6541    90
36.6641    90
36.6741    89
36.6841    75
36.6941    78
36.7041    95
36.7141    84
36.7241    94
36.7341    85
36.7441    80
36.7541    83
36.7641    94
36.7741    97
36.7841    85
36.7941    78
36.8041    80
36.8141    73
36.8241    98
36.8341    79
36.8441    76
36.8541    88
36.8641    84
36.8741    84
36.8841    84
36.8941    78
36.9041    81
36.9141    85
36.9241    75
36.9341    72
36.9441    94
36.9541    83
36.9641    79
36.9741    88
36.9841    83
36.9941    77
37.0041    80
37.0141    83
37.0241    85
37.0341   103
37.0441    94
37.0541    97
37.0641    81
37.0741    65
37.0841    77
37.0941    74
37.1041    84
37.1141    81
37.1241    79
37.1341    81
37.1441    79
37.1541    71
37.1641    65
37.1741    78
37.1841    78
37.1941    78
37.2041    75
37.2141    76
37.2241    83
37.2341    77
37.2441    85
37.2541    76
37.2641    79
37.2741    88
37.2841    77
37.2941    72
37.3041    74
37.3141    79
37.3241    88
37.3341    81
37.3441    66
37.3541    70
37.3641    91
37.3741    90
37.3841    73
37.3941    66
37.4041    74
37.4141    66
37.4241    69
37.4341    71
37.4441    68
37.4541    81
37.4641    60
37.4741    68
37.4841    71
37.4941    62
37.5041    70
37.5141    68
37.5241    80
37.5341    71
37.5441    71
37.5541    66
37.5641    72
37.5741    65
37.5841    72
37.5941    86
37.6041    67
37.6141    60
37.6241    65
37.6341    79
37.6441    71
37.6541    60
37.6641    76
37.6741    76
37.6841    76
37.6941    57
37.7041    64
37.7141    71
37.7241    69
37.7341    54
37.7441    66
37.7541    68
37.7641    67
37.7741    60
37.7841    69
37.7941    71
37.8041    61
37.8141    89
37.8241    51
37.8341    53
37.8441    69
37.8541    87
37.8641    51
37.8741    62
37.8841    72
37.8941    68
37.9041    67
37.9141    57
37.9241    74
37.9341    54
37.9441    59
37.9541    74
37.9641    52
37.9741    64
37.9841    54
37.9941    59
38.0041    67
38.0141    58
38.0241    70
38.0341    66
38.0441    53
38.0541    67
38.0641    71
38.0741    52
38.0841    68
38.0941    64
38.1041    56
38.1141    69
38.1241    53
38.1341    57
38.1441    54
38.1541    60
38.1641    47
38.1741    48
38.1841    62
38.1941    57
38.2041    51
38.2141    47
38.2241    54
38.2341    43
38.2441    57
38.2541    53
38.2641    47
38.2741    54
38.2841    49
38.2941    61
38.3041    39
38.3141    64
38.3241    64
38.3341    59
38.3441    58
38.3541    61
38.3641    54
38.3741    62
38.3841    51
38.3941    42
38.4041    65
38.4141    59
38.4241    44
38.4341    52
38.4441    60
38.4541    56
38.4641    53
38.4741    47
38.4841    58
38.4941    65
38.5041    49
38.5141    55
38.5241    53
38.5341    50
38.5441    37
38.5541    54
38.5641    45
38.5741    51
38.5841    52
38.5941    48
38.6041    53
38.6141    52
38.6241    40
38.6341    48
38.6441    51
38.6541    34
38.6641    39
38.6741    49
38.6841    48
38.6941    57
38.7041    47
38.7141    43
38.7241    47
38.7341    65
38.7441    48
38.7541    44
38.7641    47
38.7741    51
38.7841    61
38.7941    58
38.8041    46
38.8141    46
38.8241    53
38.8341    50
38.8441    49
38.8541    46
38.8641    37
38.8741    48
38.8841    58
38.8941    40
38.9041    36
38.9141    43
38.9241    39
38.9341    52
38.9441    69
38.9541    39
38.9641    44
38.9741    41
38.9841    61
38.9941    49
39.0041    47
39.0141    53
39.0241    54
39.0341    45
39.0441    49
39.0541    42
39.0641    46
39.0741    49
39.0841    47
39.0941    49
39.1041    52
39.1141    44
39.1241    37
39.1341    47
39.1441    56
39.1541    52
39.1641    43
39.1741    43
39.1841    41
39.1941    54
39.2041    43
39.2141    39
39.2241    33
39.2341    40
39.2441    38
39.2541    50
39.2641    46
39.2741    43
39.2841    41
39.2941    34
39.3041    32
39.3141    48
39.3241    49
39.3341    36
39.3441    34
39.3541    40
39.3641    39
39.3741    49
39.3841    31
39.3941    46
39.4041    48
39.4141    46
39.4241    43
39.4341    41
39.4441    41
39.4541    39
39.4641    42
39.4741    40
39.4841    26
39.4941    34
39.5041    42
39.5141    44
39.5241    43
39.5341    36
39.5441    55
39.5541    42
39.5641    33
39.5741    33
39.5841    51
39.5941    28
39.6041    38
39.6141    34
39.6241    39
39.6341    28
39.6441    26
39.6541    37
39.6641    32
39.6741    31
39.6841    37
39.6941    43
39.7041    39
39.7141    40
39.7241    27
39.7341    41
39.7441    34
39.7541    25
39.7641    46
39.7741    37
39.7841    26
39.7941    26
39.8041    30
39.8141    35
39.8241    21
39.8341    31
39.8441    42
39.8541    33
39.8641    31
39.8741    35
39.8841    35
39.8941    26
39.9041    18
39.9141    40
39.9241    36
39.9341    35
39.9441    32
39.9541    34
39.9641    30
39.9741    26
39.9841    23
