Bruker Nano GmbH Berlin, Germany
Esprit 1.9

Date: 4/21/2021 2:31:52 PM
Real time: 17398
Life time: 16170
Pulse density: 105252


Detector type: XFlash 430
Window type: Custom type
Detector thickness: 0.45
Si dead layer:0.029

Calibration, lin.: 10
Calibration, abs.: -955.9
Mn FWHM: 137.05
Fano factor: 0.121
Channels: 4095

Energy Counts
-0.9559     0
-0.9459     0
-0.9359     0
-0.9259     0
-0.9159     0
-0.9059     0
-0.8959     0
-0.8859     0
-0.8759     0
-0.8659     0
-0.8559     0
-0.8459     0
-0.8359     0
-0.8259     0
-0.8159     0
-0.8059     0
-0.7959     0
-0.7859     0
-0.7759     0
-0.7659     0
-0.7559     0
-0.7459     0
-0.7359     0
-0.7259     0
-0.7159     0
-0.7059     0
-0.6959     0
-0.6859     0
-0.6759     0
-0.6659     0
-0.6559     0
-0.6459     0
-0.6359     0
-0.6259     0
-0.6159     0
-0.6059     0
-0.5959     0
-0.5859     0
-0.5759     0
-0.5659     0
-0.5559     0
-0.5459     0
-0.5359     0
-0.5259     0
-0.5159     0
-0.5059     0
-0.4959     0
-0.4859     0
-0.4759     0
-0.4659     0
-0.4559     0
-0.4459     0
-0.4359     0
-0.4259     0
-0.4159     0
-0.4059     0
-0.3959     0
-0.3859     0
-0.3759     0
-0.3659     0
-0.3559     0
-0.3459     0
-0.3359     0
-0.3259     0
-0.3159     0
-0.3059     0
-0.2959     0
-0.2859     0
-0.2759     0
-0.2659     0
-0.2559     0
-0.2459     0
-0.2359     0
-0.2259     0
-0.2159     0
-0.2059     0
-0.1959     0
-0.1859     0
-0.1759     0
-0.1659     0
-0.1559     0
-0.1459     0
-0.1359     0
-0.1259     1
-0.1159     1
-0.1059    16
-0.0959    59
-0.0859   176
-0.0759   634
-0.0659  1891
-0.0559  4695
-0.0459 10345
-0.0359 19104
-0.0259 30958
-0.0159 42352
-0.0059 49560
 0.0041 49958
 0.0141 42644
 0.0241 31776
 0.0341 19906
 0.0441 10844
 0.0541  5004
 0.0641  2012
 0.0741   678
 0.0841   227
 0.0941    62
 0.1041    23
 0.1141     7
 0.1241     9
 0.1341     6
 0.1441     5
 0.1541     2
 0.1641     4
 0.1741     0
 0.1841   132
 0.1941   281
 0.2041   254
 0.2141   251
 0.2241   262
 0.2341   261
 0.2441   259
 0.2541   249
 0.2641   244
 0.2741   300
 0.2841   246
 0.2941   228
 0.3041   224
 0.3141   260
 0.3241   268
 0.3341   277
 0.3441   224
 0.3541   224
 0.3641   239
 0.3741   223
 0.3841   217
 0.3941   225
 0.4041   225
 0.4141   233
 0.4241   235
 0.4341   225
 0.4441   217
 0.4541   233
 0.4641   227
 0.4741   192
 0.4841   200
 0.4941   228
 0.5041   206
 0.5141   217
 0.5241   199
 0.5341   192
 0.5441   228
 0.5541   214
 0.5641   208
 0.5741   216
 0.5841   229
 0.5941   220
 0.6041   227
 0.6141   217
 0.6241   210
 0.6341   214
 0.6441   205
 0.6541   201
 0.6641   185
 0.6741   188
 0.6841   197
 0.6941   190
 0.7041   187
 0.7141   189
 0.7241   187
 0.7341   179
 0.7441   190
 0.7541   190
 0.7641   175
 0.7741   184
 0.7841   183
 0.7941   184
 0.8041   177
 0.8141   166
 0.8241   176
 0.8341   185
 0.8441   179
 0.8541   181
 0.8641   182
 0.8741   189
 0.8841   183
 0.8941   185
 0.9041   172
 0.9141   152
 0.9241   184
 0.9341   188
 0.9441   180
 0.9541   189
 0.9641   194
 0.9741   180
 0.9841   174
 0.9941   173
 1.0041   190
 1.0141   159
 1.0241   160
 1.0341   181
 1.0441   152
 1.0541   157
 1.0641   169
 1.0741   178
 1.0841   155
 1.0941   150
 1.1041   166
 1.1141   176
 1.1241   164
 1.1341   171
 1.1441   177
 1.1541   159
 1.1641   176
 1.1741   153
 1.1841   167
 1.1941   159
 1.2041   155
 1.2141   166
 1.2241   157
 1.2341   166
 1.2441   152
 1.2541   161
 1.2641   151
 1.2741   151
 1.2841   165
 1.2941   164
 1.3041   151
 1.3141   162
 1.3241   162
 1.3341   151
 1.3441   158
 1.3541   147
 1.3641   138
 1.3741   158
 1.3841   167
 1.3941   148
 1.4041   162
 1.4141   163
 1.4241   153
 1.4341   150
 1.4441   150
 1.4541   158
 1.4641   146
 1.4741   149
 1.4841   155
 1.4941   164
 1.5041   155
 1.5141   143
 1.5241   144
 1.5341   150
 1.5441   148
 1.5541   143
 1.5641   139
 1.5741   146
 1.5841   158
 1.5941   146
 1.6041   153
 1.6141   153
 1.6241   154
 1.6341   172
 1.6441   163
 1.6541   201
 1.6641   209
 1.6741   255
 1.6841   322
 1.6941   398
 1.7041   471
 1.7141   502
 1.7241   628
 1.7341   652
 1.7441   622
 1.7541   618
 1.7641   570
 1.7741   480
 1.7841   393
 1.7941   318
 1.8041   300
 1.8141   249
 1.8241   204
 1.8341   199
 1.8441   194
 1.8541   175
 1.8641   187
 1.8741   161
 1.8841   183
 1.8941   157
 1.9041   141
 1.9141   155
 1.9241   152
 1.9341   156
 1.9441   143
 1.9541   166
 1.9641   146
 1.9741   159
 1.9841   176
 1.9941   189
 2.0041   183
 2.0141   196
 2.0241   196
 2.0341   170
 2.0441   166
 2.0541   154
 2.0641   170
 2.0741   144
 2.0841   159
 2.0941   152
 2.1041   131
 2.1141   134
 2.1241   141
 2.1341   149
 2.1441   138
 2.1541   144
 2.1641   150
 2.1741   147
 2.1841   131
 2.1941   136
 2.2041   145
 2.2141   135
 2.2241   120
 2.2341   139
 2.2441   109
 2.2541   144
 2.2641   137
 2.2741   142
 2.2841   146
 2.2941   145
 2.3041   134
 2.3141   152
 2.3241   116
 2.3341   142
 2.3441   108
 2.3541   131
 2.3641   126
 2.3741   123
 2.3841   124
 2.3941   110
 2.4041   133
 2.4141   117
 2.4241   110
 2.4341   130
 2.4441   134
 2.4541   140
 2.4641   126
 2.4741   121
 2.4841   124
 2.4941   133
 2.5041   107
 2.5141   108
 2.5241   116
 2.5341   140
 2.5441   110
 2.5541   123
 2.5641   130
 2.5741   136
 2.5841   126
 2.5941   121
 2.6041   110
 2.6141   124
 2.6241   123
 2.6341   118
 2.6441   112
 2.6541   128
 2.6641   123
 2.6741   105
 2.6841   114
 2.6941   118
 2.7041   100
 2.7141   120
 2.7241   100
 2.7341   115
 2.7441   130
 2.7541   119
 2.7641   126
 2.7741   121
 2.7841   121
 2.7941   120
 2.8041   136
 2.8141   114
 2.8241   117
 2.8341   151
 2.8441   127
 2.8541   133
 2.8641   143
 2.8741   120
 2.8841   119
 2.8941   106
 2.9041   108
 2.9141   103
 2.9241   118
 2.9341   108
 2.9441   103
 2.9541   110
 2.9641   115
 2.9741   102
 2.9841   130
 2.9941   132
 3.0041    90
 3.0141    97
 3.0241   100
 3.0341   113
 3.0441   133
 3.0541   102
 3.0641    95
 3.0741   108
 3.0841    99
 3.0941    94
 3.1041   102
 3.1141   102
 3.1241    88
 3.1341   114
 3.1441    82
 3.1541    95
 3.1641   107
 3.1741   102
 3.1841    97
 3.1941    88
 3.2041    88
 3.2141   108
 3.2241   107
 3.2341   108
 3.2441    90
 3.2541   108
 3.2641   139
 3.2741   130
 3.2841   150
 3.2941   116
 3.3041   131
 3.3141   142
 3.3241   140
 3.3341   126
 3.3441   124
 3.3541   139
 3.3641   107
 3.3741    98
 3.3841    98
 3.3941    87
 3.4041    89
 3.4141    84
 3.4241   100
 3.4341    86
 3.4441    85
 3.4541    74
 3.4641    84
 3.4741    82
 3.4841    79
 3.4941    85
 3.5041    90
 3.5141    77
 3.5241   105
 3.5341   105
 3.5441   109
 3.5541   131
 3.5641   136
 3.5741   152
 3.5841   179
 3.5941   226
 3.6041   272
 3.6141   355
 3.6241   398
 3.6341   517
 3.6441   625
 3.6541   762
 3.6641   820
 3.6741   834
 3.6841   945
 3.6941   956
 3.7041   955
 3.7141   835
 3.7241   795
 3.7341   635
 3.7441   545
 3.7541   441
 3.7641   351
 3.7741   274
 3.7841   213
 3.7941   173
 3.8041   116
 3.8141   107
 3.8241    93
 3.8341    85
 3.8441    82
 3.8541    79
 3.8641   104
 3.8741    76
 3.8841    93
 3.8941    92
 3.9041    96
 3.9141    88
 3.9241   113
 3.9341   130
 3.9441   145
 3.9541   104
 3.9641   156
 3.9741   167
 3.9841   168
 3.9941   190
 4.0041   182
 4.0141   196
 4.0241   188
 4.0341   180
 4.0441   194
 4.0541   162
 4.0641   144
 4.0741   126
 4.0841   102
 4.0941   104
 4.1041   100
 4.1141    71
 4.1241    68
 4.1341    79
 4.1441    92
 4.1541    75
 4.1641    69
 4.1741    63
 4.1841    83
 4.1941    73
 4.2041    69
 4.2141    66
 4.2241    54
 4.2341    63
 4.2441    59
 4.2541    68
 4.2641    80
 4.2741    67
 4.2841    72
 4.2941    83
 4.3041    75
 4.3141    76
 4.3241    63
 4.3341    68
 4.3441    84
 4.3541    66
 4.3641    89
 4.3741    65
 4.3841    75
 4.3941    94
 4.4041    88
 4.4141    94
 4.4241   124
 4.4341   123
 4.4441   162
 4.4541   155
 4.4641   195
 4.4741   224
 4.4841   216
 4.4941   214
 4.5041   261
 4.5141   231
 4.5241   248
 4.5341   245
 4.5441   223
 4.5541   187
 4.5641   169
 4.5741   144
 4.5841   123
 4.5941    95
 4.6041   118
 4.6141    95
 4.6241    79
 4.6341    93
 4.6441    91
 4.6541    80
 4.6641    66
 4.6741    87
 4.6841    76
 4.6941    86
 4.7041   113
 4.7141    77
 4.7241    82
 4.7341    65
 4.7441    76
 4.7541    83
 4.7641    64
 4.7741    71
 4.7841    70
 4.7941    79
 4.8041    78
 4.8141    82
 4.8241    83
 4.8341    83
 4.8441    96
 4.8541    89
 4.8641    95
 4.8741    99
 4.8841   101
 4.8941   112
 4.9041   120
 4.9141   121
 4.9241   113
 4.9341   116
 4.9441   116
 4.9541   123
 4.9641   119
 4.9741   114
 4.9841   113
 4.9941    93
 5.0041   101
 5.0141   100
 5.0241    89
 5.0341    78
 5.0441    78
 5.0541    87
 5.0641    84
 5.0741    98
 5.0841    85
 5.0941    90
 5.1041    82
 5.1141    75
 5.1241    70
 5.1341    74
 5.1441    86
 5.1541    79
 5.1641    77
 5.1741    83
 5.1841    89
 5.1941    85
 5.2041    88
 5.2141    69
 5.2241    68
 5.2341    89
 5.2441    85
 5.2541    79
 5.2641    77
 5.2741    88
 5.2841    76
 5.2941    83
 5.3041   103
 5.3141   104
 5.3241   115
 5.3341   126
 5.3441   125
 5.3541   122
 5.3641   128
 5.3741   110
 5.3841   142
 5.3941   160
 5.4041   142
 5.4141   152
 5.4241   156
 5.4341   160
 5.4441   150
 5.4541   105
 5.4641   126
 5.4741   121
 5.4841    90
 5.4941   114
 5.5041    93
 5.5141   106
 5.5241    88
 5.5341    88
 5.5441    88
 5.5541    99
 5.5641    91
 5.5741    85
 5.5841    83
 5.5941    90
 5.6041    82
 5.6141    82
 5.6241    98
 5.6341    78
 5.6441    83
 5.6541    96
 5.6641    86
 5.6741    78
 5.6841    92
 5.6941   113
 5.7041    89
 5.7141   100
 5.7241   103
 5.7341   133
 5.7441   113
 5.7541   156
 5.7641   160
 5.7741   211
 5.7841   251
 5.7941   326
 5.8041   381
 5.8141   437
 5.8241   572
 5.8341   662
 5.8441   772
 5.8541   841
 5.8641   988
 5.8741  1013
 5.8841  1089
 5.8941  1074
 5.9041  1092
 5.9141  1056
 5.9241   939
 5.9341   908
 5.9441   833
 5.9541   673
 5.9641   615
 5.9741   502
 5.9841   426
 5.9941   329
 6.0041   265
 6.0141   238
 6.0241   225
 6.0341   158
 6.0441   149
 6.0541   153
 6.0641   146
 6.0741   145
 6.0841   144
 6.0941   152
 6.1041   152
 6.1141   166
 6.1241   175
 6.1341   159
 6.1441   196
 6.1541   160
 6.1641   230
 6.1741   244
 6.1841   266
 6.1941   333
 6.2041   395
 6.2141   580
 6.2241   743
 6.2341  1059
 6.2441  1519
 6.2541  2080
 6.2641  2945
 6.2741  4001
 6.2841  5331
 6.2941  7115
 6.3041  9397
 6.3141 11658
 6.3241 14633
 6.3341 17742
 6.3441 20925
 6.3541 23659
 6.3641 26803
 6.3741 28931
 6.3841 30472
 6.3941 30973
 6.4041 31199
 6.4141 30308
 6.4241 29062
 6.4341 26229
 6.4441 23349
 6.4541 20567
 6.4641 17645
 6.4741 14239
 6.4841 11618
 6.4941  9045
 6.5041  6818
 6.5141  5207
 6.5241  3694
 6.5341  2675
 6.5441  1891
 6.5541  1256
 6.5641   909
 6.5741   636
 6.5841   470
 6.5941   374
 6.6041   308
 6.6141   235
 6.6241   168
 6.6341   170
 6.6441   172
 6.6541   190
 6.6641   154
 6.6741   165
 6.6841   166
 6.6941   162
 6.7041   139
 6.7141   190
 6.7241   151
 6.7341   156
 6.7441   166
 6.7541   188
 6.7641   200
 6.7741   201
 6.7841   202
 6.7941   180
 6.8041   223
 6.8141   228
 6.8241   268
 6.8341   237
 6.8441   266
 6.8541   305
 6.8641   315
 6.8741   363
 6.8841   456
 6.8941   521
 6.9041   618
 6.9141   759
 6.9241   971
 6.9341  1173
 6.9441  1378
 6.9541  1773
 6.9641  2155
 6.9741  2701
 6.9841  2940
 6.9941  3544
 7.0041  3933
 7.0141  4498
 7.0241  4694
 7.0341  5012
 7.0441  5244
 7.0541  5272
 7.0641  5234
 7.0741  4938
 7.0841  4743
 7.0941  4437
 7.1041  3888
 7.1141  3364
 7.1241  2932
 7.1341  2447
 7.1441  2018
 7.1541  1648
 7.1641  1335
 7.1741  1022
 7.1841   791
 7.1941   603
 7.2041   526
 7.2141   343
 7.2241   300
 7.2341   246
 7.2441   211
 7.2541   170
 7.2641   177
 7.2741   163
 7.2841   167
 7.2941   194
 7.3041   167
 7.3141   212
 7.3241   196
 7.3341   194
 7.3441   186
 7.3541   202
 7.3641   228
 7.3741   253
 7.3841   243
 7.3941   244
 7.4041   280
 7.4141   231
 7.4241   306
 7.4341   264
 7.4441   267
 7.4541   261
 7.4641   286
 7.4741   284
 7.4841   263
 7.4941   277
 7.5041   237
 7.5141   217
 7.5241   211
 7.5341   219
 7.5441   178
 7.5541   175
 7.5641   171
 7.5741   174
 7.5841   176
 7.5941   157
 7.6041   179
 7.6141   156
 7.6241   154
 7.6341   176
 7.6441   175
 7.6541   167
 7.6641   160
 7.6741   184
 7.6841   179
 7.6941   208
 7.7041   187
 7.7141   172
 7.7241   177
 7.7341   190
 7.7441   180
 7.7541   195
 7.7641   223
 7.7741   224
 7.7841   215
 7.7941   207
 7.8041   219
 7.8141   236
 7.8241   218
 7.8341   248
 7.8441   240
 7.8541   244
 7.8641   236
 7.8741   254
 7.8841   251
 7.8941   267
 7.9041   274
 7.9141   278
 7.9241   303
 7.9341   340
 7.9441   353
 7.9541   354
 7.9641   369
 7.9741   417
 7.9841   443
 7.9941   448
 8.0041   485
 8.0141   517
 8.0241   541
 8.0341   593
 8.0441   657
 8.0541   636
 8.0641   717
 8.0741   729
 8.0841   832
 8.0941   882
 8.1041   883
 8.1141   910
 8.1241   981
 8.1341   961
 8.1441  1040
 8.1541  1103
 8.1641  1043
 8.1741  1067
 8.1841  1139
 8.1941  1108
 8.2041  1155
 8.2141  1165
 8.2241  1219
 8.2341  1176
 8.2441  1216
 8.2541  1350
 8.2641  1395
 8.2741  1406
 8.2841  1517
 8.2941  1570
 8.3041  1667
 8.3141  1842
 8.3241  1938
 8.3341  2176
 8.3441  2304
 8.3541  2335
 8.3641  2392
 8.3741  2506
 8.3841  2508
 8.3941  2527
 8.4041  2609
 8.4141  2406
 8.4241  2280
 8.4341  2071
 8.4441  1917
 8.4541  1801
 8.4641  1549
 8.4741  1337
 8.4841  1131
 8.4941  1047
 8.5041   886
 8.5141   768
 8.5241   693
 8.5341   607
 8.5441   544
 8.5541   547
 8.5641   568
 8.5741   522
 8.5841   516
 8.5941   497
 8.6041   522
 8.6141   562
 8.6241   517
 8.6341   545
 8.6441   500
 8.6541   577
 8.6641   541
 8.6741   473
 8.6841   456
 8.6941   438
 8.7041   452
 8.7141   392
 8.7241   367
 8.7341   320
 8.7441   324
 8.7541   319
 8.7641   279
 8.7741   283
 8.7841   259
 8.7941   276
 8.8041   242
 8.8141   254
 8.8241   255
 8.8341   240
 8.8441   254
 8.8541   244
 8.8641   256
 8.8741   276
 8.8841   276
 8.8941   261
 8.9041   259
 8.9141   251
 8.9241   251
 8.9341   287
 8.9441   288
 8.9541   245
 8.9641   296
 8.9741   277
 8.9841   287
 8.9941   319
 9.0041   300
 9.0141   280
 9.0241   289
 9.0341   318
 9.0441   336
 9.0541   348
 9.0641   341
 9.0741   356
 9.0841   338
 9.0941   332
 9.1041   385
 9.1141   382
 9.1241   375
 9.1341   404
 9.1441   412
 9.1541   436
 9.1641   474
 9.1741   484
 9.1841   514
 9.1941   586
 9.2041   565
 9.2141   578
 9.2241   635
 9.2341   662
 9.2441   661
 9.2541   723
 9.2641   728
 9.2741   761
 9.2841   815
 9.2941   850
 9.3041   876
 9.3141   834
 9.3241   906
 9.3341   952
 9.3441   959
 9.3541  1024
 9.3641  1066
 9.3741  1092
 9.3841  1054
 9.3941  1073
 9.4041  1135
 9.4141  1151
 9.4241  1160
 9.4341  1142
 9.4441  1217
 9.4541  1215
 9.4641  1254
 9.4741  1226
 9.4841  1269
 9.4941  1334
 9.5041  1393
 9.5141  1385
 9.5241  1439
 9.5341  1489
 9.5441  1601
 9.5541  1618
 9.5641  1746
 9.5741  1807
 9.5841  1925
 9.5941  2025
 9.6041  2220
 9.6141  2315
 9.6241  2361
 9.6341  2425
 9.6441  2502
 9.6541  2631
 9.6641  2641
 9.6741  2638
 9.6841  2602
 9.6941  2440
 9.7041  2387
 9.7141  2286
 9.7241  2134
 9.7341  1899
 9.7441  1834
 9.7541  1660
 9.7641  1566
 9.7741  1436
 9.7841  1346
 9.7941  1190
 9.8041  1170
 9.8141  1072
 9.8241   982
 9.8341   977
 9.8441  1018
 9.8541  1000
 9.8641   954
 9.8741   989
 9.8841   976
 9.8941   985
 9.9041  1039
 9.9141  1045
 9.9241   983
 9.9341  1063
 9.9441  1098
 9.9541  1044
 9.9641  1071
 9.9741   989
 9.9841   985
 9.9941   924
10.0041   834
10.0141   814
10.0241   741
10.0341   695
10.0441   616
10.0541   556
10.0641   508
10.0741   465
10.0841   407
10.0941   375
10.1041   337
10.1141   285
10.1241   299
10.1341   260
10.1441   239
10.1541   231
10.1641   224
10.1741   203
10.1841   179
10.1941   183
10.2041   179
10.2141   184
10.2241   191
10.2341   162
10.2441   168
10.2541   157
10.2641   162
10.2741   154
10.2841   161
10.2941   152
10.3041   138
10.3141   133
10.3241   131
10.3341   126
10.3441   136
10.3541   124
10.3641   133
10.3741   151
10.3841   141
10.3941   145
10.4041   151
10.4141   150
10.4241   138
10.4341   141
10.4441   158
10.4541   161
10.4641   175
10.4741   167
10.4841   161
10.4941   167
10.5041   174
10.5141   156
10.5241   169
10.5341   192
10.5441   166
10.5541   196
10.5641   204
10.5741   181
10.5841   175
10.5941   183
10.6041   169
10.6141   151
10.6241   155
10.6341   180
10.6441   166
10.6541   160
10.6641   164
10.6741   164
10.6841   177
10.6941   176
10.7041   181
10.7141   181
10.7241   167
10.7341   187
10.7441   191
10.7541   166
10.7641   185
10.7741   193
10.7841   198
10.7941   204
10.8041   204
10.8141   216
10.8241   236
10.8341   230
10.8441   215
10.8541   209
10.8641   218
10.8741   239
10.8841   247
10.8941   245
10.9041   243
10.9141   248
10.9241   268
10.9341   241
10.9441   218
10.9541   230
10.9641   247
10.9741   238
10.9841   211
10.9941   227
11.0041   222
11.0141   241
11.0241   240
11.0341   223
11.0441   224
11.0541   217
11.0641   200
11.0741   197
11.0841   195
11.0941   213
11.1041   201
11.1141   206
11.1241   219
11.1341   216
11.1441   236
11.1541   237
11.1641   236
11.1741   235
11.1841   250
11.1941   262
11.2041   263
11.2141   269
11.2241   273
11.2341   283
11.2441   313
11.2541   322
11.2641   314
11.2741   307
11.2841   341
11.2941   356
11.3041   339
11.3141   326
11.3241   300
11.3341   295
11.3441   298
11.3541   276
11.3641   273
11.3741   249
11.3841   245
11.3941   234
11.4041   207
11.4141   210
11.4241   192
11.4341   166
11.4441   184
11.4541   188
11.4641   161
11.4741   153
11.4841   155
11.4941   172
11.5041   178
11.5141   181
11.5241   171
11.5341   176
11.5441   161
11.5541   161
11.5641   172
11.5741   161
11.5841   181
11.5941   181
11.6041   179
11.6141   165
11.6241   183
11.6341   187
11.6441   172
11.6541   169
11.6641   162
11.6741   165
11.6841   160
11.6941   165
11.7041   165
11.7141   164
11.7241   147
11.7341   159
11.7441   146
11.7541   155
11.7641   143
11.7741   143
11.7841   152
11.7941   155
11.8041   150
11.8141   141
11.8241   130
11.8341   135
11.8441   136
11.8541   142
11.8641   144
11.8741   141
11.8841   135
11.8941   132
11.9041   120
11.9141   125
11.9241   140
11.9341   126
11.9441   146
11.9541   136
11.9641   124
11.9741   140
11.9841   152
11.9941   152
12.0041   135
12.0141   133
12.0241   126
12.0341   127
12.0441   130
12.0541   137
12.0641   127
12.0741   131
12.0841   135
12.0941   131
12.1041   151
12.1141   142
12.1241   128
12.1341   138
12.1441   139
12.1541   129
12.1641   120
12.1741   119
12.1841   124
12.1941   121
12.2041   133
12.2141   126
12.2241   113
12.2341   118
12.2441   131
12.2541   119
12.2641   114
12.2741   122
12.2841   127
12.2941   126
12.3041   126
12.3141   122
12.3241   118
12.3341   117
12.3441   124
12.3541   128
12.3641   131
12.3741   129
12.3841   117
12.3941   111
12.4041   124
12.4141   133
12.4241   128
12.4341   129
12.4441   123
12.4541   121
12.4641   119
12.4741   125
12.4841   121
12.4941   117
12.5041   120
12.5141   124
12.5241   132
12.5341   135
12.5441   144
12.5541   148
12.5641   139
12.5741   132
12.5841   135
12.5941   129
12.6041   116
12.6141   127
12.6241   142
12.6341   144
12.6441   130
12.6541   131
12.6641   139
12.6741   142
12.6841   141
12.6941   136
12.7041   136
12.7141   141
12.7241   145
12.7341   143
12.7441   141
12.7541   142
12.7641   143
12.7741   144
12.7841   143
12.7941   139
12.8041   136
12.8141   133
12.8241   134
12.8341   138
12.8441   142
12.8541   146
12.8641   143
12.8741   134
12.8841   136
12.8941   145
12.9041   147
12.9141   144
12.9241   141
12.9341   142
12.9441   140
12.9541   138
12.9641   141
12.9741   140
12.9841   142
12.9941   144
13.0041   131
13.0141   139
13.0241   140
13.0341   137
13.0441   143
13.0541   143
13.0641   149
13.0741   154
13.0841   157
13.0941   148
13.1041   144
13.1141   146
13.1241   151
13.1341   162
13.1441   145
13.1541   146
13.1641   167
13.1741   161
13.1841   156
13.1941   155
13.2041   153
13.2141   160
13.2241   156
13.2341   147
13.2441   143
13.2541   165
13.2641   168
13.2741   151
13.2841   162
13.2941   179
13.3041   167
13.3141   159
13.3241   166
13.3341   171
13.3441   173
13.3541   167
13.3641   161
13.3741   159
13.3841   163
13.3941   169
13.4041   173
13.4141   174
13.4241   172
13.4341   169
13.4441   171
13.4541   181
13.4641   186
13.4741   183
13.4841   178
13.4941   171
13.5041   165
13.5141   165
13.5241   167
13.5341   163
13.5441   158
13.5541   159
13.5641   165
13.5741   164
13.5841   158
13.5941   155
13.6041   155
13.6141   161
13.6241   171
13.6341   177
13.6441   177
13.6541   174
13.6641   172
13.6741   171
13.6841   173
13.6941   178
13.7041   182
13.7141   172
13.7241   153
13.7341   149
13.7441   164
13.7541   175
13.7641   157
13.7741   173
13.7841   192
13.7941   166
13.8041   178
13.8141   188
13.8241   171
13.8341   174
13.8441   184
13.8541   176
13.8641   171
13.8741   171
13.8841   162
13.8941   181
13.9041   191
13.9141   165
13.9241   158
13.9341   178
13.9441   181
13.9541   172
13.9641   170
13.9741   186
13.9841   183
13.9941   172
14.0041   183
14.0141   186
14.0241   193
14.0341   191
14.0441   179
14.0541   175
14.0641   180
14.0741   191
14.0841   193
14.0941   181
14.1041   181
14.1141   185
14.1241   187
14.1341   190
14.1441   181
14.1541   191
14.1641   203
14.1741   196
14.1841   204
14.1941   211
14.2041   197
14.2141   186
14.2241   191
14.2341   195
14.2441   194
14.2541   195
14.2641   194
14.2741   202
14.2841   197
14.2941   179
14.3041   184
14.3141   199
14.3241   209
14.3341   196
14.3441   191
14.3541   184
14.3641   174
14.3741   191
14.3841   217
14.3941   208
14.4041   189
14.4141   202
14.4241   215
14.4341   208
14.4441   191
14.4541   191
14.4641   194
14.4741   194
14.4841   188
14.4941   206
14.5041   205
14.5141   202
14.5241   220
14.5341   219
14.5441   196
14.5541   202
14.5641   203
14.5741   191
14.5841   181
14.5941   187
14.6041   207
14.6141   213
14.6241   208
14.6341   225
14.6441   216
14.6541   215
14.6641   227
14.6741   224
14.6841   206
14.6941   197
14.7041   203
14.7141   197
14.7241   207
14.7341   218
14.7441   218
14.7541   223
14.7641   212
14.7741   212
14.7841   222
14.7941   215
14.8041   207
14.8141   217
14.8241   226
14.8341   213
14.8441   208
14.8541   222
14.8641   232
14.8741   228
14.8841   224
14.8941   207
14.9041   216
14.9141   223
14.9241   239
14.9341   245
14.9441   231
14.9541   246
14.9641   249
14.9741   232
14.9841   238
14.9941   242
15.0041   234
15.0141   237
15.0241   232
15.0341   223
15.0441   241
15.0541   244
15.0641   252
15.0741   235
15.0841   225
15.0941   233
15.1041   219
15.1141   213
15.1241   219
15.1341   218
15.1441   219
15.1541   227
15.1641   235
15.1741   225
15.1841   221
15.1941   222
15.2041   219
15.2141   222
15.2241   239
15.2341   235
15.2441   224
15.2541   222
15.2641   228
15.2741   230
15.2841   229
15.2941   224
15.3041   232
15.3141   231
15.3241   217
15.3341   220
15.3441   221
15.3541   231
15.3641   228
15.3741   217
15.3841   210
15.3941   228
15.4041   233
15.4141   221
15.4241   237
15.4341   245
15.4441   254
15.4541   258
15.4641   241
15.4741   229
15.4841   227
15.4941   227
15.5041   251
15.5141   272
15.5241   257
15.5341   255
15.5441   259
15.5541   241
15.5641   245
15.5741   263
15.5841   254
15.5941   264
15.6041   278
15.6141   267
15.6241   277
15.6341   293
15.6441   311
15.6541   302
15.6641   296
15.6741   329
15.6841   337
15.6941   333
15.7041   310
15.7141   332
15.7241   333
15.7341   336
15.7441   358
15.7541   360
15.7641   357
15.7741   360
15.7841   328
15.7941   328
15.8041   342
15.8141   340
15.8241   320
15.8341   329
15.8441   319
15.8541   302
15.8641   291
15.8741   296
15.8841   313
15.8941   302
15.9041   301
15.9141   308
15.9241   303
15.9341   294
15.9441   278
15.9541   280
15.9641   275
15.9741   271
15.9841   280
15.9941   272
16.0041   260
16.0141   268
16.0241   262
16.0341   265
16.0441   262
16.0541   258
16.0641   257
16.0741   262
16.0841   266
16.0941   267
16.1041   263
16.1141   278
16.1241   271
16.1341   257
16.1441   249
16.1541   279
16.1641   275
16.1741   273
16.1841   275
16.1941   254
16.2041   267
16.2141   284
16.2241   288
16.2341   267
16.2441   283
16.2541   278
16.2641   264
16.2741   279
16.2841   290
16.2941   271
16.3041   285
16.3141   291
16.3241   282
16.3341   279
16.3441   279
16.3541   289
16.3641   275
16.3741   272
16.3841   287
16.3941   273
16.4041   269
16.4141   276
16.4241   272
16.4341   276
16.4441   269
16.4541   286
16.4641   307
16.4741   278
16.4841   282
16.4941   294
16.5041   279
16.5141   302
16.5241   284
16.5341   286
16.5441   309
16.5541   302
16.5641   279
16.5741   292
16.5841   309
16.5941   280
16.6041   277
16.6141   301
16.6241   303
16.6341   304
16.6441   300
16.6541   306
16.6641   300
16.6741   285
16.6841   273
16.6941   277
16.7041   284
16.7141   298
16.7241   289
16.7341   298
16.7441   317
16.7541   308
16.7641   308
16.7741   312
16.7841   317
16.7941   304
16.8041   301
16.8141   295
16.8241   285
16.8341   298
16.8441   323
16.8541   302
16.8641   286
16.8741   316
16.8841   301
16.8941   310
16.9041   307
16.9141   305
16.9241   301
16.9341   314
16.9441   309
16.9541   304
16.9641   313
16.9741   323
16.9841   312
16.9941   333
17.0041   343
17.0141   330
17.0241   325
17.0341   308
17.0441   307
17.0541   305
17.0641   305
17.0741   318
17.0841   322
17.0941   315
17.1041   336
17.1141   329
17.1241   323
17.1341   305
17.1441   292
17.1541   286
17.1641   306
17.1741   304
17.1841   322
17.1941   326
17.2041   322
17.2141   317
17.2241   312
17.2341   297
17.2441   337
17.2541   340
17.2641   333
17.2741   346
17.2841   338
17.2941   333
17.3041   334
17.3141   324
17.3241   329
17.3341   335
17.3441   333
17.3541   335
17.3641   359
17.3741   358
17.3841   340
17.3941   324
17.4041   327
17.4141   318
17.4241   345
17.4341   339
17.4441   349
17.4541   335
17.4641   344
17.4741   333
17.4841   333
17.4941   322
17.5041   332
17.5141   366
17.5241   364
17.5341   338
17.5441   359
17.5541   344
17.5641   347
17.5741   361
17.5841   355
17.5941   351
17.6041   350
17.6141   386
17.6241   376
17.6341   348
17.6441   363
17.6541   359
17.6641   365
17.6741   380
17.6841   369
17.6941   333
17.7041   384
17.7141   371
17.7241   343
17.7341   353
17.7441   347
17.7541   364
17.7641   387
17.7741   384
17.7841   356
17.7941   362
17.8041   381
17.8141   362
17.8241   380
17.8341   374
17.8441   373
17.8541   371
17.8641   368
17.8741   334
17.8841   367
17.8941   367
17.9041   333
17.9141   347
17.9241   370
17.9341   367
17.9441   345
17.9541   358
17.9641   341
17.9741   355
17.9841   364
17.9941   348
18.0041   356
18.0141   366
18.0241   362
18.0341   369
18.0441   363
18.0541   355
18.0641   374
18.0741   367
18.0841   370
18.0941   360
18.1041   366
18.1141   379
18.1241   391
18.1341   357
18.1441   364
18.1541   367
18.1641   365
18.1741   349
18.1841   389
18.1941   397
18.2041   384
18.2141   371
18.2241   383
18.2341   398
18.2441   383
18.2541   374
18.2641   389
18.2741   404
18.2841   382
18.2941   339
18.3041   369
18.3141   352
18.3241   366
18.3341   380
18.3441   382
18.3541   378
18.3641   374
18.3741   386
18.3841   375
18.3941   380
18.4041   355
18.4141   360
18.4241   376
18.4341   372
18.4441   365
18.4541   387
18.4641   411
18.4741   394
18.4841   377
18.4941   364
18.5041   393
18.5141   377
18.5241   366
18.5341   385
18.5441   392
18.5541   399
18.5641   374
18.5741   366
18.5841   382
18.5941   382
18.6041   376
18.6141   392
18.6241   402
18.6341   377
18.6441   402
18.6541   374
18.6641   381
18.6741   403
18.6841   372
18.6941   372
18.7041   393
18.7141   382
18.7241   375
18.7341   395
18.7441   413
18.7541   397
18.7641   378
18.7741   388
18.7841   402
18.7941   379
18.8041   400
18.8141   401
18.8241   405
18.8341   395
18.8441   383
18.8541   400
18.8641   397
18.8741   385
18.8841   405
18.8941   390
18.9041   404
18.9141   413
18.9241   407
18.9341   412
18.9441   417
18.9541   385
18.9641   399
18.9741   396
18.9841   401
18.9941   402
19.0041   387
19.0141   417
19.0241   414
19.0341   412
19.0441   418
19.0541   386
19.0641   405
19.0741   418
19.0841   402
19.0941   390
19.1041   371
19.1141   388
19.1241   412
19.1341   378
19.1441   370
19.1541   390
19.1641   406
19.1741   420
19.1841   424
19.1941   409
19.2041   402
19.2141   423
19.2241   429
19.2341   399
19.2441   405
19.2541   414
19.2641   460
19.2741   459
19.2841   397
19.2941   370
19.3041   371
19.3141   409
19.3241   432
19.3341   406
19.3441   402
19.3541   441
19.3641   427
19.3741   432
19.3841   415
19.3941   412
19.4041   390
19.4141   412
19.4241   426
19.4341   432
19.4441   439
19.4541   436
19.4641   435
19.4741   407
19.4841   434
19.4941   424
19.5041   451
19.5141   426
19.5241   403
19.5341   408
19.5441   467
19.5541   467
19.5641   442
19.5741   429
19.5841   391
19.5941   408
19.6041   415
19.6141   462
19.6241   447
19.6341   420
19.6441   436
19.6541   422
19.6641   441
19.6741   451
19.6841   431
19.6941   433
19.7041   473
19.7141   452
19.7241   446
19.7341   413
19.7441   392
19.7541   416
19.7641   441
19.7741   437
19.7841   443
19.7941   463
19.8041   468
19.8141   437
19.8241   406
19.8341   430
19.8441   393
19.8541   418
19.8641   428
19.8741   430
19.8841   417
19.8941   414
19.9041   427
19.9141   418
19.9241   422
19.9341   447
19.9441   451
19.9541   438
19.9641   415
19.9741   456
19.9841   442
19.9941   436
20.0041   441
20.0141   433
20.0241   396
20.0341   429
20.0441   432
20.0541   450
20.0641   442
20.0741   414
20.0841   440
20.0941   438
20.1041   457
20.1141   428
20.1241   425
20.1341   434
20.1441   458
20.1541   434
20.1641   442
20.1741   441
20.1841   453
20.1941   453
20.2041   416
20.2141   470
20.2241   453
20.2341   442
20.2441   452
20.2541   471
20.2641   460
20.2741   442
20.2841   459
20.2941   449
20.3041   449
20.3141   390
20.3241   417
20.3341   465
20.3441   429
20.3541   427
20.3641   434
20.3741   437
20.3841   455
20.3941   458
20.4041   445
20.4141   448
20.4241   437
20.4341   445
20.4441   440
20.4541   441
20.4641   475
20.4741   445
20.4841   456
20.4941   445
20.5041   468
20.5141   466
20.5241   453
20.5341   450
20.5441   438
20.5541   439
20.5641   446
20.5741   421
20.5841   463
20.5941   466
20.6041   420
20.6141   473
20.6241   479
20.6341   470
20.6441   452
20.6541   461
20.6641   456
20.6741   469
20.6841   426
20.6941   422
20.7041   481
20.7141   457
20.7241   439
20.7341   442
20.7441   466
20.7541   455
20.7641   437
20.7741   452
20.7841   462
20.7941   471
20.8041   461
20.8141   462
20.8241   463
20.8341   478
20.8441   456
20.8541   521
20.8641   514
20.8741   511
20.8841   521
20.8941   496
20.9041   525
20.9141   523
20.9241   549
20.9341   546
20.9441   557
20.9541   588
20.9641   567
20.9741   603
20.9841   631
20.9941   590
21.0041   590
21.0141   603
21.0241   659
21.0341   682
21.0441   695
21.0541   635
21.0641   678
21.0741   683
21.0841   715
21.0941   720
21.1041   686
21.1141   709
21.1241   708
21.1341   756
21.1441   766
21.1541   733
21.1641   709
21.1741   701
21.1841   705
21.1941   675
21.2041   710
21.2141   672
21.2241   642
21.2341   645
21.2441   666
21.2541   644
21.2641   606
21.2741   589
21.2841   567
21.2941   589
21.3041   553
21.3141   561
21.3241   513
21.3341   560
21.3441   525
21.3541   478
21.3641   496
21.3741   487
21.3841   496
21.3941   516
21.4041   510
21.4141   487
21.4241   464
21.4341   530
21.4441   463
21.4541   458
21.4641   474
21.4741   445
21.4841   474
21.4941   460
21.5041   487
21.5141   490
21.5241   496
21.5341   445
21.5441   471
21.5541   471
21.5641   468
21.5741   461
21.5841   465
21.5941   465
21.6041   466
21.6141   462
21.6241   441
21.6341   439
21.6441   437
21.6541   490
21.6641   436
21.6741   448
21.6841   479
21.6941   432
21.7041   473
21.7141   449
21.7241   457
21.7341   418
21.7441   460
21.7541   441
21.7641   428
21.7741   451
21.7841   464
21.7941   448
21.8041   445
21.8141   466
21.8241   455
21.8341   455
21.8441   465
21.8541   447
21.8641   428
21.8741   443
21.8841   458
21.8941   474
21.9041   481
21.9141   448
21.9241   460
21.9341   488
21.9441   479
21.9541   481
21.9641   444
21.9741   450
21.9841   480
21.9941   465
22.0041   497
22.0141   461
22.0241   480
22.0341   475
22.0441   464
22.0541   476
22.0641   456
22.0741   463
22.0841   481
22.0941   476
22.1041   444
22.1141   462
22.1241   481
22.1341   437
22.1441   463
22.1541   457
22.1641   447
22.1741   447
22.1841   461
22.1941   458
22.2041   434
22.2141   450
22.2241   466
22.2341   495
22.2441   506
22.2541   490
22.2641   506
22.2741   443
22.2841   450
22.2941   457
22.3041   420
22.3141   458
22.3241   463
22.3341   467
22.3441   466
22.3541   487
22.3641   475
22.3741   468
22.3841   491
22.3941   452
22.4041   447
22.4141   460
22.4241   468
22.4341   472
22.4441   456
22.4541   488
22.4641   460
22.4741   440
22.4841   451
22.4941   475
22.5041   478
22.5141   466
22.5241   467
22.5341   470
22.5441   444
22.5541   475
22.5641   495
22.5741   487
22.5841   470
22.5941   436
22.6041   470
22.6141   471
22.6241   484
22.6341   493
22.6441   465
22.6541   454
22.6641   474
22.6741   460
22.6841   478
22.6941   440
22.7041   504
22.7141   479
22.7241   454
22.7341   458
22.7441   427
22.7541   442
22.7641   470
22.7741   487
22.7841   444
22.7941   477
22.8041   457
22.8141   428
22.8241   431
22.8341   463
22.8441   462
22.8541   449
22.8641   444
22.8741   468
22.8841   478
22.8941   475
22.9041   459
22.9141   448
22.9241   470
22.9341   437
22.9441   441
22.9541   435
22.9641   482
22.9741   490
22.9841   492
22.9941   436
23.0041   447
23.0141   472
23.0241   483
23.0341   495
23.0441   430
23.0541   467
23.0641   452
23.0741   429
23.0841   462
23.0941   452
23.1041   457
23.1141   475
23.1241   459
23.1341   454
23.1441   475
23.1541   497
23.1641   439
23.1741   432
23.1841   450
23.1941   458
23.2041   478
23.2141   435
23.2241   508
23.2341   494
23.2441   436
23.2541   514
23.2641   451
23.2741   452
23.2841   478
23.2941   443
23.3041   469
23.3141   454
23.3241   458
23.3341   467
23.3441   439
23.3541   454
23.3641   435
23.3741   417
23.3841   476
23.3941   456
23.4041   445
23.4141   459
23.4241   464
23.4341   453
23.4441   432
23.4541   439
23.4641   380
23.4741   467
23.4841   414
23.4941   409
23.5041   428
23.5141   472
23.5241   475
23.5341   464
23.5441   479
23.5541   466
23.5641   459
23.5741   443
23.5841   441
23.5941   465
23.6041   501
23.6141   431
23.6241   477
23.6341   480
23.6441   477
23.6541   463
23.6641   424
23.6741   452
23.6841   461
23.6941   434
23.7041   474
23.7141   430
23.7241   506
23.7341   521
23.7441   479
23.7541   522
23.7641   499
23.7741   495
23.7841   513
23.7941   470
23.8041   490
23.8141   480
23.8241   518
23.8341   491
23.8441   436
23.8541   501
23.8641   494
23.8741   506
23.8841   481
23.8941   462
23.9041   465
23.9141   479
23.9241   461
23.9341   483
23.9441   422
23.9541   453
23.9641   422
23.9741   490
23.9841   456
23.9941   473
24.0041   421
24.0141   425
24.0241   446
24.0341   450
24.0441   449
24.0541   445
24.0641   429
24.0741   461
24.0841   447
24.0941   427
24.1041   492
24.1141   459
24.1241   432
24.1341   432
24.1441   448
24.1541   387
24.1641   457
24.1741   460
24.1841   462
24.1941   440
24.2041   426
24.2141   416
24.2241   445
24.2341   442
24.2441   411
24.2541   430
24.2641   454
24.2741   455
24.2841   426
24.2941   458
24.3041   451
24.3141   448
24.3241   441
24.3341   432
24.3441   466
24.3541   431
24.3641   426
24.3741   447
24.3841   430
24.3941   481
24.4041   414
24.4141   427
24.4241   393
24.4341   453
24.4441   409
24.4541   491
24.4641   472
24.4741   425
24.4841   405
24.4941   460
24.5041   440
24.5141   443
24.5241   435
24.5341   440
24.5441   406
24.5541   425
24.5641   451
24.5741   451
24.5841   432
24.5941   435
24.6041   396
24.6141   409
24.6241   442
24.6341   423
24.6441   443
24.6541   452
24.6641   420
24.6741   376
24.6841   413
24.6941   437
24.7041   420
24.7141   407
24.7241   416
24.7341   421
24.7441   404
24.7541   450
24.7641   380
24.7741   421
24.7841   403
24.7941   437
24.8041   394
24.8141   423
24.8241   453
24.8341   419
24.8441   419
24.8541   392
24.8641   418
24.8741   423
24.8841   391
24.8941   429
24.9041   442
24.9141   410
24.9241   402
24.9341   465
24.9441   403
24.9541   433
24.9641   422
24.9741   419
24.9841   427
24.9941   436
25.0041   410
25.0141   424
25.0241   399
25.0341   419
25.0441   438
25.0541   418
25.0641   423
25.0741   433
25.0841   390
25.0941   400
25.1041   423
25.1141   421
25.1241   439
25.1341   437
25.1441   443
25.1541   429
25.1641   451
25.1741   434
25.1841   414
25.1941   422
25.2041   432
25.2141   443
25.2241   412
25.2341   449
25.2441   419
25.2541   447
25.2641   403
25.2741   405
25.2841   411
25.2941   393
25.3041   398
25.3141   433
25.3241   450
25.3341   462
25.3441   442
25.3541   428
25.3641   444
25.3741   416
25.3841   443
25.3941   428
25.4041   416
25.4141   420
25.4241   410
25.4341   398
25.4441   391
25.4541   417
25.4641   398
25.4741   420
25.4841   410
25.4941   414
25.5041   430
25.5141   407
25.5241   390
25.5341   394
25.5441   391
25.5541   415
25.5641   402
25.5741   371
25.5841   378
25.5941   431
25.6041   374
25.6141   372
25.6241   374
25.6341   432
25.6441   408
25.6541   431
25.6641   409
25.6741   409
25.6841   431
25.6941   356
25.7041   397
25.7141   386
25.7241   385
25.7341   420
25.7441   403
25.7541   396
25.7641   349
25.7741   414
25.7841   409
25.7941   438
25.8041   373
25.8141   407
25.8241   405
25.8341   415
25.8441   435
25.8541   386
25.8641   385
25.8741   407
25.8841   370
25.8941   356
25.9041   385
25.9141   417
25.9241   360
25.9341   420
25.9441   408
25.9541   374
25.9641   414
25.9741   376
25.9841   386
25.9941   380
26.0041   393
26.0141   399
26.0241   386
26.0341   369
26.0441   384
26.0541   373
26.0641   390
26.0741   373
26.0841   385
26.0941   392
26.1041   370
26.1141   374
26.1241   412
26.1341   380
26.1441   361
26.1541   412
26.1641   396
26.1741   362
26.1841   391
26.1941   389
26.2041   364
26.2141   388
26.2241   359
26.2341   373
26.2441   369
26.2541   376
26.2641   417
26.2741   374
26.2841   370
26.2941   386
26.3041   384
26.3141   363
26.3241   375
26.3341   369
26.3441   387
26.3541   384
26.3641   392
26.3741   347
26.3841   365
26.3941   409
26.4041   388
26.4141   384
26.4241   386
26.4341   364
26.4441   354
26.4541   381
26.4641   402
26.4741   381
26.4841   361
26.4941   365
26.5041   384
26.5141   382
26.5241   367
26.5341   362
26.5441   396
26.5541   376
26.5641   369
26.5741   358
26.5841   365
26.5941   347
26.6041   358
26.6141   365
26.6241   385
26.6341   349
26.6441   350
26.6541   363
26.6641   340
26.6741   357
26.6841   349
26.6941   395
26.7041   360
26.7141   382
26.7241   333
26.7341   381
26.7441   357
26.7541   359
26.7641   356
26.7741   389
26.7841   354
26.7941   347
26.8041   338
26.8141   351
26.8241   339
26.8341   362
26.8441   358
26.8541   372
26.8641   345
26.8741   362
26.8841   370
26.8941   353
26.9041   358
26.9141   375
26.9241   378
26.9341   363
26.9441   349
26.9541   360
26.9641   365
26.9741   361
26.9841   339
26.9941   361
27.0041   350
27.0141   344
27.0241   363
27.0341   369
27.0441   376
27.0541   338
27.0641   347
27.0741   337
27.0841   340
27.0941   353
27.1041   331
27.1141   340
27.1241   352
27.1341   337
27.1441   348
27.1541   320
27.1641   358
27.1741   321
27.1841   354
27.1941   330
27.2041   338
27.2141   362
27.2241   346
27.2341   329
27.2441   351
27.2541   350
27.2641   381
27.2741   346
27.2841   338
27.2941   386
27.3041   339
27.3141   353
27.3241   347
27.3341   352
27.3441   357
27.3541   338
27.3641   371
27.3741   368
27.3841   337
27.3941   347
27.4041   367
27.4141   366
27.4241   352
27.4341   347
27.4441   365
27.4541   352
27.4641   358
27.4741   333
27.4841   356
27.4941   324
27.5041   357
27.5141   330
27.5241   328
27.5341   327
27.5441   357
27.5541   327
27.5641   311
27.5741   317
27.5841   345
27.5941   358
27.6041   316
27.6141   312
27.6241   309
27.6341   332
27.6441   351
27.6541   323
27.6641   324
27.6741   340
27.6841   351
27.6941   324
27.7041   338
27.7141   335
27.7241   338
27.7341   337
27.7441   304
27.7541   325
27.7641   318
27.7741   300
27.7841   318
27.7941   341
27.8041   318
27.8141   302
27.8241   314
27.8341   318
27.8441   325
27.8541   348
27.8641   313
27.8741   314
27.8841   341
27.8941   324
27.9041   326
27.9141   335
27.9241   316
27.9341   338
27.9441   323
27.9541   304
27.9641   342
27.9741   315
27.9841   327
27.9941   313
28.0041   325
28.0141   320
28.0241   317
28.0341   313
28.0441   310
28.0541   303
28.0641   317
28.0741   335
28.0841   324
28.0941   295
28.1041   347
28.1141   293
28.1241   313
28.1341   310
28.1441   307
28.1541   317
28.1641   304
28.1741   285
28.1841   278
28.1941   335
28.2041   333
28.2141   317
28.2241   315
28.2341   338
28.2441   330
28.2541   328
28.2641   325
28.2741   319
28.2841   302
28.2941   314
28.3041   341
28.3141   309
28.3241   296
28.3341   308
28.3441   305
28.3541   306
28.3641   302
28.3741   325
28.3841   321
28.3941   305
28.4041   319
28.4141   317
28.4241   312
28.4341   329
28.4441   295
28.4541   344
28.4641   321
28.4741   338
28.4841   320
28.4941   276
28.5041   287
28.5141   270
28.5241   308
28.5341   294
28.5441   329
28.5541   320
28.5641   291
28.5741   279
28.5841   297
28.5941   269
28.6041   280
28.6141   331
28.6241   283
28.6341   294
28.6441   293
28.6541   340
28.6641   318
28.6741   318
28.6841   288
28.6941   311
28.7041   355
28.7141   314
28.7241   317
28.7341   319
28.7441   322
28.7541   309
28.7641   280
28.7741   288
28.7841   287
28.7941   287
28.8041   312
28.8141   287
28.8241   289
28.8341   283
28.8441   285
28.8541   286
28.8641   318
28.8741   295
28.8841   316
28.8941   294
28.9041   297
28.9141   313
28.9241   299
28.9341   264
28.9441   289
28.9541   288
28.9641   311
28.9741   283
28.9841   298
28.9941   326
29.0041   296
29.0141   311
29.0241   289
29.0341   274
29.0441   298
29.0541   272
29.0641   304
29.0741   300
29.0841   291
29.0941   307
29.1041   297
29.1141   255
29.1241   266
29.1341   284
29.1441   290
29.1541   258
29.1641   280
29.1741   265
29.1841   292
29.1941   286
29.2041   255
29.2141   285
29.2241   280
29.2341   294
29.2441   284
29.2541   306
29.2641   270
29.2741   242
29.2841   268
29.2941   286
29.3041   285
29.3141   277
29.3241   271
29.3341   289
29.3441   262
29.3541   273
29.3641   269
29.3741   280
29.3841   278
29.3941   265
29.4041   257
29.4141   271
29.4241   266
29.4341   280
29.4441   293
29.4541   286
29.4641   276
29.4741   238
29.4841   288
29.4941   278
29.5041   258
29.5141   281
29.5241   276
29.5341   270
29.5441   279
29.5541   264
29.5641   270
29.5741   262
29.5841   261
29.5941   222
29.6041   263
29.6141   272
29.6241   240
29.6341   263
29.6441   272
29.6541   252
29.6641   262
29.6741   278
29.6841   257
29.6941   241
29.7041   276
29.7141   241
29.7241   236
29.7341   232
29.7441   287
29.7541   269
29.7641   277
29.7741   260
29.7841   241
29.7941   265
29.8041   248
29.8141   273
29.8241   246
29.8341   260
29.8441   236
29.8541   250
29.8641   253
29.8741   290
29.8841   272
29.8941   256
29.9041   259
29.9141   266
29.9241   257
29.9341   252
29.9441   233
29.9541   283
29.9641   256
29.9741   255
29.9841   265
29.9941   269
30.0041   243
30.0141   270
30.0241   277
30.0341   255
30.0441   266
30.0541   270
30.0641   262
30.0741   260
30.0841   238
30.0941   249
30.1041   235
30.1141   243
30.1241   253
30.1341   233
30.1441   233
30.1541   232
30.1641   266
30.1741   237
30.1841   256
30.1941   258
30.2041   249
30.2141   270
30.2241   274
30.2341   267
30.2441   255
30.2541   252
30.2641   245
30.2741   225
30.2841   216
30.2941   249
30.3041   269
30.3141   243
30.3241   232
30.3341   230
30.3441   230
30.3541   237
30.3641   251
30.3741   245
30.3841   242
30.3941   252
30.4041   220
30.4141   229
30.4241   237
30.4341   239
30.4441   264
30.4541   220
30.4641   217
30.4741   257
30.4841   225
30.4941   225
30.5041   230
30.5141   234
30.5241   219
30.5341   242
30.5441   232
30.5541   235
30.5641   240
30.5741   216
30.5841   217
30.5941   232
30.6041   218
30.6141   219
30.6241   206
30.6341   239
30.6441   227
30.6541   243
30.6641   199
30.6741   239
30.6841   227
30.6941   220
30.7041   231
30.7141   215
30.7241   206
30.7341   224
30.7441   207
30.7541   244
30.7641   245
30.7741   236
30.7841   229
30.7941   244
30.8041   221
30.8141   211
30.8241   216
30.8341   240
30.8441   218
30.8541   239
30.8641   229
30.8741   252
30.8841   203
30.8941   224
30.9041   238
30.9141   239
30.9241   229
30.9341   232
30.9441   228
30.9541   233
30.9641   245
30.9741   245
30.9841   214
30.9941   212
31.0041   214
31.0141   235
31.0241   208
31.0341   206
31.0441   215
31.0541   205
31.0641   208
31.0741   234
31.0841   217
31.0941   227
31.1041   215
31.1141   217
31.1241   201
31.1341   212
31.1441   215
31.1541   213
31.1641   208
31.1741   249
31.1841   220
31.1941   232
31.2041   223
31.2141   214
31.2241   196
31.2341   187
31.2441   218
31.2541   203
31.2641   221
31.2741   216
31.2841   227
31.2941   216
31.3041   206
31.3141   208
31.3241   238
31.3341   211
31.3441   194
31.3541   197
31.3641   205
31.3741   201
31.3841   190
31.3941   219
31.4041   180
31.4141   197
31.4241   195
31.4341   191
31.4441   173
31.4541   224
31.4641   196
31.4741   179
31.4841   208
31.4941   215
31.5041   202
31.5141   214
31.5241   219
31.5341   213
31.5441   197
31.5541   200
31.5641   216
31.5741   211
31.5841   204
31.5941   204
31.6041   191
31.6141   208
31.6241   223
31.6341   217
31.6441   180
31.6541   185
31.6641   206
31.6741   203
31.6841   203
31.6941   210
31.7041   183
31.7141   185
31.7241   164
31.7341   203
31.7441   204
31.7541   190
31.7641   195
31.7741   204
31.7841   181
31.7941   194
31.8041   191
31.8141   176
31.8241   180
31.8341   179
31.8441   187
31.8541   198
31.8641   194
31.8741   178
31.8841   197
31.8941   223
31.9041   191
31.9141   206
31.9241   195
31.9341   166
31.9441   168
31.9541   194
31.9641   194
31.9741   199
31.9841   202
31.9941   190
32.0041   186
32.0141   176
32.0241   181
32.0341   181
32.0441   218
32.0541   178
32.0641   188
32.0741   195
32.0841   192
32.0941   212
32.1041   199
32.1141   204
32.1241   193
32.1341   211
32.1441   196
32.1541   204
32.1641   223
32.1741   204
32.1841   177
32.1941   192
32.2041   182
32.2141   198
32.2241   189
32.2341   197
32.2441   200
32.2541   193
32.2641   203
32.2741   180
32.2841   179
32.2941   187
32.3041   153
32.3141   156
32.3241   179
32.3341   187
32.3441   187
32.3541   168
32.3641   187
32.3741   168
32.3841   166
32.3941   196
32.4041   199
32.4141   188
32.4241   168
32.4341   180
32.4441   188
32.4541   185
32.4641   172
32.4741   148
32.4841   164
32.4941   174
32.5041   171
32.5141   156
32.5241   188
32.5341   174
32.5441   180
32.5541   149
32.5641   172
32.5741   162
32.5841   156
32.5941   167
32.6041   173
32.6141   162
32.6241   193
32.6341   170
32.6441   181
32.6541   180
32.6641   163
32.6741   155
32.6841   153
32.6941   154
32.7041   171
32.7141   156
32.7241   161
32.7341   149
32.7441   188
32.7541   157
32.7641   153
32.7741   166
32.7841   174
32.7941   166
32.8041   167
32.8141   159
32.8241   163
32.8341   158
32.8441   165
32.8541   153
32.8641   157
32.8741   178
32.8841   179
32.8941   155
32.9041   151
32.9141   176
32.9241   149
32.9341   179
32.9441   152
32.9541   163
32.9641   158
32.9741   174
32.9841   165
32.9941   148
33.0041   145
33.0141   170
33.0241   161
33.0341   160
33.0441   156
33.0541   165
33.0641   146
33.0741   166
33.0841   162
33.0941   162
33.1041   177
33.1141   169
33.1241   155
33.1341   150
33.1441   163
33.1541   141
33.1641   179
33.1741   138
33.1841   143
33.1941   148
33.2041   164
33.2141   153
33.2241   146
33.2341   154
33.2441   144
33.2541   184
33.2641   156
33.2741   144
33.2841   146
33.2941   140
33.3041   151
33.3141   133
33.3241   142
33.3341   147
33.3441   149
33.3541   154
33.3641   162
33.3741   152
33.3841   145
33.3941   116
33.4041   164
33.4141   149
33.4241   140
33.4341   155
33.4441   127
33.4541   153
33.4641   129
33.4741   146
33.4841   143
33.4941   144
33.5041   137
33.5141   129
33.5241   153
33.5341   150
33.5441   153
33.5541   146
33.5641   167
33.5741   157
33.5841   141
33.5941   122
33.6041   117
33.6141   137
33.6241   119
33.6341   115
33.6441   146
33.6541   149
33.6641   143
33.6741   162
33.6841   142
33.6941   145
33.7041   153
33.7141   121
33.7241   143
33.7341   144
33.7441   124
33.7541   159
33.7641   142
33.7741   135
33.7841   108
33.7941   132
33.8041   146
33.8141   151
33.8241   136
33.8341   128
33.8441   128
33.8541   153
33.8641   122
33.8741   137
33.8841   151
33.8941   147
33.9041   150
33.9141   125
33.9241   120
33.9341   135
33.9441   142
33.9541   143
33.9641   137
33.9741   115
33.9841   147
33.9941   133
34.0041   139
34.0141   140
34.0241   123
34.0341   136
34.0441   145
34.0541   131
34.0641   126
34.0741   128
34.0841   153
34.0941   128
34.1041   115
34.1141   142
34.1241   150
34.1341   122
34.1441   130
34.1541   125
34.1641   125
34.1741   147
34.1841   119
34.1941   123
34.2041   140
34.2141   139
34.2241   142
34.2341   120
34.2441   126
34.2541   131
34.2641   129
34.2741   130
34.2841   124
34.2941   133
34.3041   140
34.3141   142
34.3241   132
34.3341   129
34.3441   111
34.3541   111
34.3641   137
34.3741   129
34.3841   125
34.3941   135
34.4041   137
34.4141   120
34.4241   130
34.4341   126
34.4441   130
34.4541   138
34.4641   127
34.4741   107
34.4841   116
34.4941   120
34.5041   128
34.5141   118
34.5241   101
34.5341   125
34.5441   115
34.5541   121
34.5641   122
34.5741   117
34.5841   130
34.5941   122
34.6041   109
34.6141   130
34.6241   128
34.6341   114
34.6441   111
34.6541   114
34.6641   123
34.6741   115
34.6841   115
34.6941   118
34.7041   102
34.7141   128
34.7241   128
34.7341   110
34.7441   117
34.7541   114
34.7641   121
34.7741   115
34.7841   126
34.7941    99
34.8041   112
34.8141   121
34.8241   106
34.8341   107
34.8441   119
34.8541    98
34.8641   115
34.8741   123
34.8841   109
34.8941   111
34.9041   130
34.9141   113
34.9241   103
34.9341   114
34.9441   112
34.9541   113
34.9641   115
34.9741   122
34.9841    99
34.9941   114
35.0041   124
35.0141   129
35.0241   123
35.0341   108
35.0441   112
35.0541   103
35.0641   122
35.0741   103
35.0841    95
35.0941   119
35.1041    87
35.1141    94
35.1241   105
35.1341   114
35.1441   115
35.1541   113
35.1641   109
35.1741   103
35.1841    90
35.1941    97
35.2041    96
35.2141    81
35.2241   101
35.2341   112
35.2441   107
35.2541   101
35.2641   112
35.2741   126
35.2841   109
35.2941    97
35.3041    96
35.3141   109
35.3241   107
35.3341   104
35.3441    98
35.3541    97
35.3641   104
35.3741   110
35.3841    99
35.3941    99
35.4041   101
35.4141   107
35.4241   111
35.4341   109
35.4441   105
35.4541    98
35.4641   104
35.4741   105
35.4841   102
35.4941   107
35.5041   104
35.5141   109
35.5241   114
35.5341   102
35.5441   113
35.5541    91
35.5641   101
35.5741    92
35.5841   101
35.5941   107
35.6041   104
35.6141   103
35.6241    92
35.6341    87
35.6441   104
35.6541    88
35.6641    97
35.6741    99
35.6841    85
35.6941    96
35.7041    98
35.7141    99
35.7241    99
35.7341    94
35.7441    84
35.7541    93
35.7641   114
35.7741    99
35.7841    76
35.7941    88
35.8041    89
35.8141    86
35.8241   101
35.8341    92
35.8441    93
35.8541   100
35.8641    91
35.8741    83
35.8841    87
35.8941    89
35.9041   106
35.9141    86
35.9241    96
35.9341    80
35.9441    86
35.9541   100
35.9641    85
35.9741    91
35.9841   112
35.9941   100
36.0041    78
36.0141    80
36.0241    85
36.0341    85
36.0441    79
36.0541    74
36.0641    90
36.0741    95
36.0841    89
36.0941    83
36.1041    93
36.1141    78
36.1241    87
36.1341    83
36.1441    79
36.1541    87
36.1641    83
36.1741    86
36.1841    84
36.1941    75
36.2041    99
36.2141    89
36.2241    84
36.2341   104
36.2441    92
36.2541    91
36.2641    80
36.2741    71
36.2841    87
36.2941    86
36.3041    92
36.3141   117
36.3241    77
36.3341    75
36.3441    81
36.3541    79
36.3641    83
36.3741    83
36.3841    75
36.3941    83
36.4041    73
36.4141    74
36.4241    77
36.4341    81
36.4441    70
36.4541    68
36.4641    85
36.4741    72
36.4841    85
36.4941    84
36.5041    73
36.5141    84
36.5241    82
36.5341    81
36.5441    55
36.5541    82
36.5641    72
36.5741    78
36.5841    79
36.5941    78
36.6041    80
36.6141    69
36.6241    90
36.6341    83
36.6441    69
36.6541    82
36.6641    92
36.6741    76
36.6841    75
36.6941    84
36.7041    77
36.7141    69
36.7241    73
36.7341    69
36.7441    64
36.7541    63
36.7641    69
36.7741    96
36.7841    85
36.7941    73
36.8041    79
36.8141    69
36.8241    67
36.8341    61
36.8441    70
36.8541    74
36.8641    72
36.8741    83
36.8841    64
36.8941    73
36.9041    62
36.9141    65
36.9241    82
36.9341    65
36.9441    60
36.9541    77
36.9641    82
36.9741    83
36.9841    72
36.9941    70
37.0041    65
37.0141    64
37.0241    77
37.0341    78
37.0441    67
37.0541    66
37.0641    73
37.0741    69
37.0841    64
37.0941    63
37.1041    76
37.1141    60
37.1241    72
37.1341    87
37.1441    70
37.1541    69
37.1641    75
37.1741    52
37.1841    70
37.1941    76
37.2041    67
37.2141    67
37.2241    67
37.2341    74
37.2441    69
37.2541    57
37.2641    62
37.2741    65
37.2841    71
37.2941    82
37.3041    52
37.3141    66
37.3241    71
37.3341    66
37.3441    56
37.3541    63
37.3641    65
37.3741    63
37.3841    56
37.3941    57
37.4041    57
37.4141    72
37.4241    66
37.4341    54
37.4441    70
37.4541    66
37.4641    51
37.4741    62
37.4841    70
37.4941    76
37.5041    63
37.5141    61
37.5241    61
37.5341    64
37.5441    70
37.5541    58
37.5641    62
37.5741    58
37.5841    53
37.5941    59
37.6041    59
37.6141    59
37.6241    58
37.6341    68
37.6441    65
37.6541    67
37.6641    53
37.6741    68
37.6841    75
37.6941    55
37.7041    57
37.7141    63
37.7241    71
37.7341    67
37.7441    57
37.7541    49
37.7641    50
37.7741    71
37.7841    53
37.7941    62
37.8041    64
37.8141    51
37.8241    59
37.8341    56
37.8441    78
37.8541    63
37.8641    59
37.8741    56
37.8841    51
37.8941    62
37.9041    61
37.9141    63
37.9241    59
37.9341    55
37.9441    66
37.9541    51
37.9641    54
37.9741    57
37.9841    67
37.9941    69
38.0041    56
38.0141    56
38.0241    51
38.0341    60
38.0441    60
38.0541    50
38.0641    60
38.0741    64
38.0841    58
38.0941    48
38.1041    56
38.1141    48
38.1241    52
38.1341    54
38.1441    51
38.1541    47
38.1641    53
38.1741    56
38.1841    56
38.1941    56
38.2041    59
38.2141    63
38.2241    46
38.2341    50
38.2441    63
38.2541    43
38.2641    62
38.2741    53
38.2841    50
38.2941    52
38.3041    39
38.3141    60
38.3241    53
38.3341    49
38.3441    40
38.3541    43
38.3641    58
38.3741    48
38.3841    44
38.3941    44
38.4041    65
38.4141    42
38.4241    42
38.4341    55
38.4441    53
38.4541    43
38.4641    50
38.4741    44
38.4841    42
38.4941    43
38.5041    47
38.5141    59
38.5241    55
38.5341    51
38.5441    60
38.5541    42
38.5641    40
38.5741    43
38.5841    49
38.5941    53
38.6041    46
38.6141    43
38.6241    57
38.6341    45
38.6441    49
38.6541    41
38.6641    37
38.6741    52
38.6841    48
38.6941    50
38.7041    54
38.7141    39
38.7241    38
38.7341    44
38.7441    43
38.7541    41
38.7641    49
38.7741    55
38.7841    41
38.7941    45
38.8041    40
38.8141    37
38.8241    39
38.8341    43
38.8441    43
38.8541    35
38.8641    40
38.8741    51
38.8841    38
38.8941    33
38.9041    45
38.9141    50
38.9241    39
38.9341    54
38.9441    44
38.9541    41
38.9641    31
38.9741    42
38.9841    38
38.9941    42
39.0041    46
39.0141    41
39.0241    49
39.0341    36
39.0441    40
39.0541    36
39.0641    41
39.0741    39
39.0841    43
39.0941    39
39.1041    36
39.1141    36
39.1241    33
39.1341    37
39.1441    27
39.1541    38
39.1641    43
39.1741    25
39.1841    35
39.1941    45
39.2041    42
39.2141    47
39.2241    45
39.2341    37
39.2441    34
39.2541    34
39.2641    30
39.2741    32
39.2841    37
39.2941    39
39.3041    27
39.3141    35
39.3241    41
39.3341    40
39.3441    28
39.3541    37
39.3641    38
39.3741    33
39.3841    39
39.3941    26
39.4041    32
39.4141    37
39.4241    32
39.4341    39
39.4441    33
39.4541    30
39.4641    28
39.4741    34
39.4841    41
39.4941    39
39.5041    30
39.5141    42
39.5241    43
39.5341    36
39.5441    32
39.5541    38
39.5641    36
39.5741    27
39.5841    31
39.5941    34
39.6041    29
39.6141    31
39.6241    40
39.6341    36
39.6441    41
39.6541    38
39.6641    30
39.6741    33
39.6841    30
39.6941    45
39.7041    33
39.7141    33
39.7241    39
39.7341    40
39.7441    32
39.7541    32
39.7641    30
39.7741    35
39.7841    29
39.7941    34
39.8041    30
39.8141    28
39.8241    33
39.8341    18
39.8441    43
39.8541    31
39.8641    32
39.8741    33
39.8841    32
39.8941    33
39.9041    21
39.9141    27
39.9241    33
39.9341    30
39.9441    30
39.9541    33
39.9641    27
39.9741    26
39.9841    46
