Bruker Nano GmbH Berlin, Germany
Esprit 1.9

Date: 4/21/2021 2:35:42 PM
Real time: 26174
Life time: 24545
Pulse density: 90230


Detector type: XFlash 430
Window type: Custom type
Detector thickness: 0.45
Si dead layer:0.029

Calibration, lin.: 10
Calibration, abs.: -955.9
Mn FWHM: 137.05
Fano factor: 0.121
Channels: 4096

Energy Counts
-0.9559     0
-0.9459     0
-0.9359     0
-0.9259     0
-0.9159     0
-0.9059     0
-0.8959     0
-0.8859     0
-0.8759     0
-0.8659     0
-0.8559     0
-0.8459     0
-0.8359     0
-0.8259     0
-0.8159     0
-0.8059     0
-0.7959     0
-0.7859     0
-0.7759     0
-0.7659     0
-0.7559     0
-0.7459     0
-0.7359     0
-0.7259     0
-0.7159     0
-0.7059     0
-0.6959     0
-0.6859     0
-0.6759     0
-0.6659     0
-0.6559     0
-0.6459     0
-0.6359     0
-0.6259     0
-0.6159     0
-0.6059     0
-0.5959     0
-0.5859     0
-0.5759     0
-0.5659     0
-0.5559     0
-0.5459     0
-0.5359     0
-0.5259     0
-0.5159     0
-0.5059     0
-0.4959     0
-0.4859     0
-0.4759     0
-0.4659     0
-0.4559     0
-0.4459     0
-0.4359     0
-0.4259     0
-0.4159     0
-0.4059     0
-0.3959     0
-0.3859     0
-0.3759     0
-0.3659     0
-0.3559     0
-0.3459     0
-0.3359     0
-0.3259     0
-0.3159     0
-0.3059     0
-0.2959     0
-0.2859     0
-0.2759     0
-0.2659     0
-0.2559     0
-0.2459     0
-0.2359     0
-0.2259     0
-0.2159     0
-0.2059     0
-0.1959     0
-0.1859     0
-0.1759     0
-0.1659     0
-0.1559     0
-0.1459     0
-0.1359     0
-0.1259     0
-0.1159     6
-0.1059    16
-0.0959    72
-0.0859   281
-0.0759   985
-0.0659  2835
-0.0559  7220
-0.0459 15541
-0.0359 29289
-0.0259 46961
-0.0159 63727
-0.0059 75467
 0.0041 75720
 0.0141 64908
 0.0241 48177
 0.0341 30175
 0.0441 16514
 0.0541  7719
 0.0641  3088
 0.0741  1009
 0.0841   304
 0.0941    88
 0.1041    30
 0.1141    17
 0.1241    11
 0.1341    11
 0.1441    13
 0.1541     8
 0.1641     6
 0.1741    27
 0.1841   232
 0.1941   463
 0.2041   407
 0.2141   427
 0.2241   445
 0.2341   426
 0.2441   397
 0.2541   379
 0.2641   405
 0.2741   424
 0.2841   393
 0.2941   384
 0.3041   421
 0.3141   432
 0.3241   375
 0.3341   375
 0.3441   368
 0.3541   398
 0.3641   365
 0.3741   382
 0.3841   367
 0.3941   353
 0.4041   388
 0.4141   377
 0.4241   384
 0.4341   392
 0.4441   365
 0.4541   345
 0.4641   372
 0.4741   357
 0.4841   392
 0.4941   368
 0.5041   355
 0.5141   354
 0.5241   362
 0.5341   364
 0.5441   340
 0.5541   351
 0.5641   339
 0.5741   310
 0.5841   341
 0.5941   328
 0.6041   311
 0.6141   294
 0.6241   289
 0.6341   297
 0.6441   300
 0.6541   317
 0.6641   334
 0.6741   317
 0.6841   302
 0.6941   299
 0.7041   312
 0.7141   312
 0.7241   307
 0.7341   299
 0.7441   298
 0.7541   312
 0.7641   309
 0.7741   292
 0.7841   294
 0.7941   285
 0.8041   277
 0.8141   290
 0.8241   275
 0.8341   291
 0.8441   288
 0.8541   296
 0.8641   288
 0.8741   281
 0.8841   291
 0.8941   281
 0.9041   275
 0.9141   305
 0.9241   276
 0.9341   263
 0.9441   283
 0.9541   288
 0.9641   276
 0.9741   282
 0.9841   299
 0.9941   279
 1.0041   268
 1.0141   271
 1.0241   268
 1.0341   273
 1.0441   260
 1.0541   273
 1.0641   241
 1.0741   274
 1.0841   254
 1.0941   269
 1.1041   260
 1.1141   247
 1.1241   246
 1.1341   262
 1.1441   263
 1.1541   259
 1.1641   256
 1.1741   260
 1.1841   242
 1.1941   224
 1.2041   262
 1.2141   260
 1.2241   250
 1.2341   248
 1.2441   273
 1.2541   238
 1.2641   263
 1.2741   253
 1.2841   238
 1.2941   239
 1.3041   254
 1.3141   238
 1.3241   242
 1.3341   247
 1.3441   244
 1.3541   239
 1.3641   240
 1.3741   223
 1.3841   258
 1.3941   228
 1.4041   241
 1.4141   242
 1.4241   237
 1.4341   227
 1.4441   259
 1.4541   241
 1.4641   238
 1.4741   239
 1.4841   270
 1.4941   251
 1.5041   247
 1.5141   258
 1.5241   245
 1.5341   251
 1.5441   252
 1.5541   230
 1.5641   238
 1.5741   210
 1.5841   225
 1.5941   237
 1.6041   241
 1.6141   242
 1.6241   227
 1.6341   251
 1.6441   266
 1.6541   294
 1.6641   311
 1.6741   411
 1.6841   486
 1.6941   578
 1.7041   711
 1.7141   815
 1.7241   948
 1.7341   987
 1.7441  1013
 1.7541   915
 1.7641   800
 1.7741   676
 1.7841   625
 1.7941   530
 1.8041   448
 1.8141   369
 1.8241   346
 1.8341   323
 1.8441   270
 1.8541   286
 1.8641   267
 1.8741   278
 1.8841   236
 1.8941   239
 1.9041   249
 1.9141   246
 1.9241   239
 1.9341   253
 1.9441   200
 1.9541   228
 1.9641   244
 1.9741   271
 1.9841   292
 1.9941   267
 2.0041   257
 2.0141   281
 2.0241   270
 2.0341   261
 2.0441   255
 2.0541   256
 2.0641   258
 2.0741   214
 2.0841   201
 2.0941   202
 2.1041   234
 2.1141   219
 2.1241   197
 2.1341   208
 2.1441   201
 2.1541   217
 2.1641   200
 2.1741   213
 2.1841   214
 2.1941   203
 2.2041   218
 2.2141   215
 2.2241   202
 2.2341   202
 2.2441   197
 2.2541   220
 2.2641   200
 2.2741   218
 2.2841   206
 2.2941   211
 2.3041   223
 2.3141   191
 2.3241   182
 2.3341   197
 2.3441   208
 2.3541   218
 2.3641   211
 2.3741   192
 2.3841   209
 2.3941   192
 2.4041   205
 2.4141   215
 2.4241   214
 2.4341   194
 2.4441   181
 2.4541   203
 2.4641   176
 2.4741   198
 2.4841   175
 2.4941   199
 2.5041   175
 2.5141   177
 2.5241   197
 2.5341   153
 2.5441   163
 2.5541   193
 2.5641   183
 2.5741   180
 2.5841   172
 2.5941   174
 2.6041   178
 2.6141   204
 2.6241   172
 2.6341   149
 2.6441   166
 2.6541   157
 2.6641   163
 2.6741   221
 2.6841   172
 2.6941   168
 2.7041   197
 2.7141   165
 2.7241   163
 2.7341   171
 2.7441   143
 2.7541   165
 2.7641   167
 2.7741   163
 2.7841   181
 2.7941   171
 2.8041   179
 2.8141   187
 2.8241   170
 2.8341   181
 2.8441   149
 2.8541   190
 2.8641   178
 2.8741   182
 2.8841   173
 2.8941   161
 2.9041   161
 2.9141   170
 2.9241   173
 2.9341   160
 2.9441   182
 2.9541   168
 2.9641   178
 2.9741   164
 2.9841   169
 2.9941   159
 3.0041   145
 3.0141   160
 3.0241   160
 3.0341   159
 3.0441   143
 3.0541   160
 3.0641   166
 3.0741   159
 3.0841   140
 3.0941   151
 3.1041   151
 3.1141   156
 3.1241   158
 3.1341   155
 3.1441   127
 3.1541   117
 3.1641   140
 3.1741   128
 3.1841   145
 3.1941   135
 3.2041   155
 3.2141   135
 3.2241   146
 3.2341   164
 3.2441   184
 3.2541   169
 3.2641   198
 3.2741   186
 3.2841   212
 3.2941   214
 3.3041   245
 3.3141   216
 3.3241   235
 3.3341   229
 3.3441   202
 3.3541   199
 3.3641   174
 3.3741   153
 3.3841   157
 3.3941   173
 3.4041   139
 3.4141   135
 3.4241   148
 3.4341   129
 3.4441   111
 3.4541   125
 3.4641   134
 3.4741   127
 3.4841   143
 3.4941   146
 3.5041   136
 3.5141   141
 3.5241   147
 3.5341   149
 3.5441   143
 3.5541   183
 3.5641   202
 3.5741   221
 3.5841   240
 3.5941   309
 3.6041   449
 3.6141   530
 3.6241   626
 3.6341   738
 3.6441   970
 3.6541  1088
 3.6641  1214
 3.6741  1433
 3.6841  1393
 3.6941  1412
 3.7041  1361
 3.7141  1210
 3.7241  1122
 3.7341   988
 3.7441   817
 3.7541   627
 3.7641   494
 3.7741   382
 3.7841   306
 3.7941   214
 3.8041   187
 3.8141   162
 3.8241   146
 3.8341   124
 3.8441   119
 3.8541   111
 3.8641   112
 3.8741   133
 3.8841   137
 3.8941   112
 3.9041   115
 3.9141   134
 3.9241   138
 3.9341   157
 3.9441   166
 3.9541   193
 3.9641   219
 3.9741   231
 3.9841   236
 3.9941   259
 4.0041   284
 4.0141   245
 4.0241   284
 4.0341   264
 4.0441   247
 4.0541   221
 4.0641   200
 4.0741   184
 4.0841   159
 4.0941   147
 4.1041   133
 4.1141   137
 4.1241   109
 4.1341   113
 4.1441   105
 4.1541   108
 4.1641   115
 4.1741   108
 4.1841   102
 4.1941   105
 4.2041   112
 4.2141    98
 4.2241   100
 4.2341   110
 4.2441    94
 4.2541    99
 4.2641   113
 4.2741   100
 4.2841    98
 4.2941    85
 4.3041   103
 4.3141   103
 4.3241   106
 4.3341    95
 4.3441   107
 4.3541   103
 4.3641   101
 4.3741   119
 4.3841   124
 4.3941   121
 4.4041   152
 4.4141   173
 4.4241   187
 4.4341   221
 4.4441   268
 4.4541   303
 4.4641   343
 4.4741   371
 4.4841   414
 4.4941   440
 4.5041   405
 4.5141   411
 4.5241   433
 4.5341   404
 4.5441   365
 4.5541   326
 4.5641   262
 4.5741   277
 4.5841   236
 4.5941   213
 4.6041   189
 4.6141   172
 4.6241   166
 4.6341   126
 4.6441   121
 4.6541   125
 4.6641   115
 4.6741   117
 4.6841   106
 4.6941   122
 4.7041   118
 4.7141   126
 4.7241   105
 4.7341    98
 4.7441   112
 4.7541   110
 4.7641    86
 4.7741    96
 4.7841   127
 4.7941   127
 4.8041   108
 4.8141   116
 4.8241   130
 4.8341   155
 4.8441   142
 4.8541   143
 4.8641   142
 4.8741   133
 4.8841   149
 4.8941   139
 4.9041   173
 4.9141   165
 4.9241   164
 4.9341   170
 4.9441   157
 4.9541   185
 4.9641   163
 4.9741   148
 4.9841   144
 4.9941   133
 5.0041   143
 5.0141   140
 5.0241   130
 5.0341   135
 5.0441   136
 5.0541   127
 5.0641   124
 5.0741   113
 5.0841   121
 5.0941   128
 5.1041   122
 5.1141   121
 5.1241   110
 5.1341   109
 5.1441   117
 5.1541   113
 5.1641   109
 5.1741   114
 5.1841   118
 5.1941   122
 5.2041   104
 5.2141    92
 5.2241   146
 5.2341   129
 5.2441   134
 5.2541   143
 5.2641   133
 5.2741   117
 5.2841   115
 5.2941   121
 5.3041   140
 5.3141   136
 5.3241   139
 5.3341   147
 5.3441   129
 5.3541   161
 5.3641   151
 5.3741   175
 5.3841   176
 5.3941   193
 5.4041   178
 5.4141   177
 5.4241   181
 5.4341   171
 5.4441   152
 5.4541   193
 5.4641   171
 5.4741   167
 5.4841   160
 5.4941   144
 5.5041   136
 5.5141   144
 5.5241   145
 5.5341   125
 5.5441   127
 5.5541   124
 5.5641   131
 5.5741   130
 5.5841   125
 5.5941   120
 5.6041   126
 5.6141   121
 5.6241   137
 5.6341   126
 5.6441   120
 5.6541   138
 5.6641   119
 5.6741   120
 5.6841   115
 5.6941   156
 5.7041   115
 5.7141   135
 5.7241   130
 5.7341   129
 5.7441   153
 5.7541   139
 5.7641   169
 5.7741   151
 5.7841   138
 5.7941   161
 5.8041   168
 5.8141   200
 5.8241   213
 5.8341   242
 5.8441   273
 5.8541   278
 5.8641   295
 5.8741   308
 5.8841   309
 5.8941   322
 5.9041   326
 5.9141   325
 5.9241   307
 5.9341   292
 5.9441   277
 5.9541   247
 5.9641   250
 5.9741   222
 5.9841   213
 5.9941   187
 6.0041   169
 6.0141   180
 6.0241   168
 6.0341   172
 6.0441   151
 6.0541   153
 6.0641   148
 6.0741   149
 6.0841   168
 6.0941   160
 6.1041   168
 6.1141   176
 6.1241   177
 6.1341   191
 6.1441   183
 6.1541   181
 6.1641   184
 6.1741   211
 6.1841   221
 6.1941   269
 6.2041   269
 6.2141   373
 6.2241   438
 6.2341   558
 6.2441   844
 6.2541  1096
 6.2641  1516
 6.2741  2058
 6.2841  2664
 6.2941  3701
 6.3041  4705
 6.3141  5715
 6.3241  7280
 6.3341  8700
 6.3441 10375
 6.3541 11795
 6.3641 12877
 6.3741 14187
 6.3841 15053
 6.3941 15189
 6.4041 15347
 6.4141 14667
 6.4241 13830
 6.4341 13024
 6.4441 11507
 6.4541 10023
 6.4641  8672
 6.4741  7064
 6.4841  5800
 6.4941  4427
 6.5041  3535
 6.5141  2480
 6.5241  1855
 6.5341  1403
 6.5441   959
 6.5541   736
 6.5641   544
 6.5741   430
 6.5841   347
 6.5941   259
 6.6041   243
 6.6141   207
 6.6241   226
 6.6341   178
 6.6441   184
 6.6541   183
 6.6641   182
 6.6741   173
 6.6841   191
 6.6941   176
 6.7041   198
 6.7141   182
 6.7241   197
 6.7341   179
 6.7441   193
 6.7541   215
 6.7641   220
 6.7741   214
 6.7841   195
 6.7941   193
 6.8041   219
 6.8141   254
 6.8241   215
 6.8341   262
 6.8441   255
 6.8541   242
 6.8641   302
 6.8741   316
 6.8841   297
 6.8941   386
 6.9041   432
 6.9141   510
 6.9241   581
 6.9341   687
 6.9441   824
 6.9541  1021
 6.9641  1204
 6.9741  1338
 6.9841  1580
 6.9941  1875
 7.0041  2041
 7.0141  2249
 7.0241  2487
 7.0341  2571
 7.0441  2569
 7.0541  2709
 7.0641  2608
 7.0741  2646
 7.0841  2297
 7.0941  2235
 7.1041  2065
 7.1141  1844
 7.1241  1535
 7.1341  1345
 7.1441  1091
 7.1541   962
 7.1641   793
 7.1741   679
 7.1841   561
 7.1941   461
 7.2041   380
 7.2141   342
 7.2241   361
 7.2341   306
 7.2441   268
 7.2541   290
 7.2641   262
 7.2741   306
 7.2841   272
 7.2941   268
 7.3041   348
 7.3141   310
 7.3241   290
 7.3341   370
 7.3441   326
 7.3541   350
 7.3641   362
 7.3741   376
 7.3841   374
 7.3941   409
 7.4041   358
 7.4141   390
 7.4241   377
 7.4341   372
 7.4441   364
 7.4541   394
 7.4641   381
 7.4741   323
 7.4841   352
 7.4941   349
 7.5041   315
 7.5141   300
 7.5241   314
 7.5341   282
 7.5441   279
 7.5541   277
 7.5641   284
 7.5741   286
 7.5841   268
 7.5941   262
 7.6041   275
 7.6141   289
 7.6241   286
 7.6341   287
 7.6441   272
 7.6541   301
 7.6641   316
 7.6741   318
 7.6841   313
 7.6941   325
 7.7041   325
 7.7141   308
 7.7241   307
 7.7341   313
 7.7441   326
 7.7541   368
 7.7641   373
 7.7741   332
 7.7841   362
 7.7941   355
 7.8041   363
 7.8141   381
 7.8241   370
 7.8341   387
 7.8441   397
 7.8541   438
 7.8641   444
 7.8741   410
 7.8841   457
 7.8941   452
 7.9041   465
 7.9141   502
 7.9241   491
 7.9341   521
 7.9441   568
 7.9541   602
 7.9641   612
 7.9741   642
 7.9841   697
 7.9941   749
 8.0041   858
 8.0141   874
 8.0241   906
 8.0341  1018
 8.0441  1070
 8.0541  1193
 8.0641  1214
 8.0741  1327
 8.0841  1437
 8.0941  1482
 8.1041  1529
 8.1141  1617
 8.1241  1708
 8.1341  1741
 8.1441  1807
 8.1541  1845
 8.1641  1944
 8.1741  1844
 8.1841  1911
 8.1941  1930
 8.2041  1986
 8.2141  2022
 8.2241  2074
 8.2341  2082
 8.2441  2066
 8.2541  2198
 8.2641  2229
 8.2741  2287
 8.2841  2533
 8.2941  2672
 8.3041  2815
 8.3141  2974
 8.3241  3165
 8.3341  3514
 8.3441  3641
 8.3541  3840
 8.3641  4057
 8.3741  4219
 8.3841  4185
 8.3941  4111
 8.4041  3980
 8.4141  3893
 8.4241  3725
 8.4341  3425
 8.4441  3135
 8.4541  2832
 8.4641  2546
 8.4741  2207
 8.4841  1931
 8.4941  1587
 8.5041  1388
 8.5141  1158
 8.5241   997
 8.5341   839
 8.5441   756
 8.5541   676
 8.5641   632
 8.5741   575
 8.5841   552
 8.5941   525
 8.6041   520
 8.6141   502
 8.6241   510
 8.6341   526
 8.6441   510
 8.6541   519
 8.6641   496
 8.6741   496
 8.6841   524
 8.6941   511
 8.7041   557
 8.7141   500
 8.7241   459
 8.7341   493
 8.7441   488
 8.7541   475
 8.7641   450
 8.7741   489
 8.7841   469
 8.7941   490
 8.8041   433
 8.8141   452
 8.8241   450
 8.8341   451
 8.8441   448
 8.8541   457
 8.8641   444
 8.8741   424
 8.8841   463
 8.8941   445
 8.9041   455
 8.9141   455
 8.9241   468
 8.9341   466
 8.9441   490
 8.9541   472
 8.9641   471
 8.9741   493
 8.9841   530
 8.9941   521
 9.0041   550
 9.0141   503
 9.0241   561
 9.0341   599
 9.0441   577
 9.0541   600
 9.0641   641
 9.0741   600
 9.0841   656
 9.0941   653
 9.1041   652
 9.1141   742
 9.1241   735
 9.1341   767
 9.1441   766
 9.1541   851
 9.1641   885
 9.1741   912
 9.1841   951
 9.1941   917
 9.2041  1030
 9.2141  1078
 9.2241  1086
 9.2341  1121
 9.2441  1239
 9.2541  1296
 9.2641  1399
 9.2741  1375
 9.2841  1474
 9.2941  1515
 9.3041  1534
 9.3141  1649
 9.3241  1754
 9.3341  1759
 9.3441  1787
 9.3541  1863
 9.3641  1859
 9.3741  1930
 9.3841  2029
 9.3941  2034
 9.4041  2061
 9.4141  2039
 9.4241  2080
 9.4341  2131
 9.4441  2178
 9.4541  2198
 9.4641  2258
 9.4741  2235
 9.4841  2320
 9.4941  2332
 9.5041  2352
 9.5141  2399
 9.5241  2523
 9.5341  2659
 9.5441  2811
 9.5541  2901
 9.5641  2993
 9.5741  3193
 9.5841  3390
 9.5941  3518
 9.6041  3772
 9.6141  3904
 9.6241  4033
 9.6341  4165
 9.6441  4415
 9.6541  4468
 9.6641  4556
 9.6741  4449
 9.6841  4347
 9.6941  4193
 9.7041  4079
 9.7141  3936
 9.7241  3787
 9.7341  3426
 9.7441  3263
 9.7541  3001
 9.7641  2770
 9.7741  2560
 9.7841  2409
 9.7941  2259
 9.8041  2062
 9.8141  1981
 9.8241  1944
 9.8341  1845
 9.8441  1830
 9.8541  1836
 9.8641  1889
 9.8741  1998
 9.8841  1990
 9.8941  2116
 9.9041  2090
 9.9141  2108
 9.9241  2099
 9.9341  2146
 9.9441  2180
 9.9541  2109
 9.9641  2087
 9.9741  2041
 9.9841  1972
 9.9941  1939
10.0041  1767
10.0141  1719
10.0241  1579
10.0341  1411
10.0441  1276
10.0541  1164
10.0641  1009
10.0741   916
10.0841   790
10.0941   765
10.1041   654
10.1141   610
10.1241   549
10.1341   503
10.1441   493
10.1541   477
10.1641   414
10.1741   390
10.1841   377
10.1941   358
10.2041   365
10.2141   364
10.2241   341
10.2341   348
10.2441   326
10.2541   302
10.2641   303
10.2741   313
10.2841   283
10.2941   278
10.3041   278
10.3141   280
10.3241   276
10.3341   257
10.3441   259
10.3541   260
10.3641   258
10.3741   271
10.3841   258
10.3941   255
10.4041   247
10.4141   250
10.4241   246
10.4341   251
10.4441   268
10.4541   262
10.4641   257
10.4741   262
10.4841   306
10.4941   277
10.5041   256
10.5141   276
10.5241   285
10.5341   305
10.5441   294
10.5541   277
10.5641   278
10.5741   290
10.5841   273
10.5941   288
10.6041   307
10.6141   303
10.6241   320
10.6341   328
10.6441   299
10.6541   311
10.6641   296
10.6741   312
10.6841   332
10.6941   327
10.7041   305
10.7141   334
10.7241   324
10.7341   345
10.7441   353
10.7541   368
10.7641   384
10.7741   386
10.7841   387
10.7941   395
10.8041   413
10.8141   414
10.8241   426
10.8341   445
10.8441   432
10.8541   430
10.8641   460
10.8741   444
10.8841   442
10.8941   449
10.9041   467
10.9141   456
10.9241   448
10.9341   454
10.9441   432
10.9541   456
10.9641   461
10.9741   421
10.9841   454
10.9941   423
11.0041   421
11.0141   400
11.0241   417
11.0341   406
11.0441   396
11.0541   392
11.0641   408
11.0741   418
11.0841   392
11.0941   404
11.1041   386
11.1141   411
11.1241   408
11.1341   397
11.1441   398
11.1541   449
11.1641   467
11.1741   478
11.1841   478
11.1941   483
11.2041   490
11.2141   526
11.2241   547
11.2341   566
11.2441   572
11.2541   583
11.2641   612
11.2741   629
11.2841   619
11.2941   601
11.3041   609
11.3141   618
11.3241   580
11.3341   557
11.3441   515
11.3541   495
11.3641   476
11.3741   484
11.3841   445
11.3941   451
11.4041   415
11.4141   376
11.4241   364
11.4341   350
11.4441   343
11.4541   320
11.4641   331
11.4741   314
11.4841   314
11.4941   311
11.5041   324
11.5141   330
11.5241   326
11.5341   321
11.5441   312
11.5541   309
11.5641   323
11.5741   304
11.5841   323
11.5941   332
11.6041   313
11.6141   297
11.6241   347
11.6341   340
11.6441   330
11.6541   338
11.6641   332
11.6741   322
11.6841   316
11.6941   321
11.7041   321
11.7141   338
11.7241   333
11.7341   267
11.7441   263
11.7541   260
11.7641   265
11.7741   266
11.7841   272
11.7941   265
11.8041   257
11.8141   265
11.8241   247
11.8341   243
11.8441   245
11.8541   239
11.8641   238
11.8741   229
11.8841   218
11.8941   230
11.9041   243
11.9141   228
11.9241   224
11.9341   238
11.9441   248
11.9541   252
11.9641   255
11.9741   258
11.9841   247
11.9941   237
12.0041   259
12.0141   253
12.0241   235
12.0341   254
12.0441   255
12.0541   250
12.0641   250
12.0741   252
12.0841   246
12.0941   238
12.1041   234
12.1141   262
12.1241   260
12.1341   239
12.1441   249
12.1541   234
12.1641   243
12.1741   272
12.1841   276
12.1941   265
12.2041   241
12.2141   247
12.2241   242
12.2341   238
12.2441   240
12.2541   229
12.2641   229
12.2741   231
12.2841   220
12.2941   224
12.3041   236
12.3141   254
12.3241   251
12.3341   233
12.3441   233
12.3541   243
12.3641   231
12.3741   225
12.3841   231
12.3941   244
12.4041   241
12.4141   235
12.4241   231
12.4341   224
12.4441   227
12.4541   246
12.4641   241
12.4741   238
12.4841   249
12.4941   264
12.5041   269
12.5141   240
12.5241   227
12.5341   251
12.5441   245
12.5541   246
12.5641   245
12.5741   247
12.5841   268
12.5941   282
12.6041   259
12.6141   253
12.6241   263
12.6341   250
12.6441   258
12.6541   264
12.6641   251
12.6741   254
12.6841   264
12.6941   253
12.7041   244
12.7141   255
12.7241   257
12.7341   267
12.7441   271
12.7541   256
12.7641   263
12.7741   256
12.7841   264
12.7941   274
12.8041   271
12.8141   263
12.8241   260
12.8341   270
12.8441   255
12.8541   265
12.8641   280
12.8741   278
12.8841   275
12.8941   285
12.9041   289
12.9141   285
12.9241   295
12.9341   286
12.9441   254
12.9541   264
12.9641   272
12.9741   252
12.9841   250
12.9941   272
13.0041   260
13.0141   253
13.0241   281
13.0341   294
13.0441   296
13.0541   274
13.0641   261
13.0741   249
13.0841   275
13.0941   292
13.1041   275
13.1141   256
13.1241   270
13.1341   294
13.1441   301
13.1541   285
13.1641   266
13.1741   299
13.1841   306
13.1941   282
13.2041   289
13.2141   290
13.2241   294
13.2341   305
13.2441   318
13.2541   349
13.2641   353
13.2741   332
13.2841   334
13.2941   348
13.3041   369
13.3141   382
13.3241   388
13.3341   386
13.3441   367
13.3541   380
13.3641   393
13.3741   388
13.3841   377
13.3941   373
13.4041   370
13.4141   372
13.4241   376
13.4341   362
13.4441   383
13.4541   410
13.4641   395
13.4741   371
13.4841   355
13.4941   344
13.5041   360
13.5141   350
13.5241   302
13.5341   314
13.5441   329
13.5541   317
13.5641   323
13.5741   329
13.5841   320
13.5941   342
13.6041   350
13.6141   324
13.6241   309
13.6341   322
13.6441   336
13.6541   334
13.6641   319
13.6741   311
13.6841   320
13.6941   332
13.7041   336
13.7141   320
13.7241   314
13.7341   326
13.7441   346
13.7541   349
13.7641   342
13.7741   322
13.7841   327
13.7941   336
13.8041   324
13.8141   339
13.8241   348
13.8341   350
13.8441   340
13.8541   330
13.8641   339
13.8741   342
13.8841   351
13.8941   357
13.9041   369
13.9141   365
13.9241   355
13.9341   377
13.9441   382
13.9541   387
13.9641   399
13.9741   393
13.9841   381
13.9941   379
14.0041   390
14.0141   405
14.0241   413
14.0341   438
14.0441   459
14.0541   444
14.0641   451
14.0741   470
14.0841   466
14.0941   482
14.1041   506
14.1141   507
14.1241   492
14.1341   472
14.1441   489
14.1541   508
14.1641   502
14.1741   493
14.1841   487
14.1941   490
14.2041   487
14.2141   485
14.2241   494
14.2341   489
14.2441   481
14.2541   469
14.2641   455
14.2741   435
14.2841   421
14.2941   424
14.3041   437
14.3141   421
14.3241   396
14.3341   402
14.3441   419
14.3541   403
14.3641   383
14.3741   383
14.3841   393
14.3941   423
14.4041   417
14.4141   397
14.4241   404
14.4341   400
14.4441   408
14.4541   413
14.4641   388
14.4741   396
14.4841   422
14.4941   443
14.5041   430
14.5141   415
14.5241   402
14.5341   392
14.5441   420
14.5541   425
14.5641   428
14.5741   421
14.5841   402
14.5941   403
14.6041   402
14.6141   408
14.6241   400
14.6341   406
14.6441   411
14.6541   429
14.6641   418
14.6741   401
14.6841   406
14.6941   410
14.7041   417
14.7141   418
14.7241   421
14.7341   415
14.7441   452
14.7541   463
14.7641   428
14.7741   426
14.7841   446
14.7941   464
14.8041   459
14.8141   475
14.8241   474
14.8341   470
14.8441   488
14.8541   462
14.8641   470
14.8741   500
14.8841   493
14.8941   468
14.9041   480
14.9141   495
14.9241   500
14.9341   500
14.9441   485
14.9541   485
14.9641   474
14.9741   485
14.9841   497
14.9941   489
15.0041   468
15.0141   472
15.0241   498
15.0341   486
15.0441   469
15.0541   462
15.0641   455
15.0741   457
15.0841   455
15.0941   451
15.1041   455
15.1141   435
15.1241   444
15.1341   462
15.1441   466
15.1541   457
15.1641   473
15.1741   479
15.1841   475
15.1941   472
15.2041   466
15.2141   446
15.2241   458
15.2341   472
15.2441   471
15.2541   475
15.2641   506
15.2741   478
15.2841   462
15.2941   461
15.3041   462
15.3141   452
15.3241   460
15.3341   478
15.3441   473
15.3541   459
15.3641   476
15.3741   506
15.3841   493
15.3941   497
15.4041   492
15.4141   505
15.4241   534
15.4341   511
15.4441   465
15.4541   471
15.4641   493
15.4741   498
15.4841   522
15.4941   540
15.5041   547
15.5141   546
15.5241   555
15.5341   578
15.5441   614
15.5541   667
15.5641   678
15.5741   719
15.5841   781
15.5941   803
15.6041   817
15.6141   864
15.6241   984
15.6341  1055
15.6441  1106
15.6541  1147
15.6641  1217
15.6741  1291
15.6841  1339
15.6941  1410
15.7041  1446
15.7141  1472
15.7241  1506
15.7341  1505
15.7441  1540
15.7541  1528
15.7641  1511
15.7741  1534
15.7841  1497
15.7941  1479
15.8041  1425
15.8141  1360
15.8241  1354
15.8341  1283
15.8441  1196
15.8541  1114
15.8641  1068
15.8741  1027
15.8841   959
15.8941   917
15.9041   852
15.9141   818
15.9241   749
15.9341   677
15.9441   650
15.9541   641
15.9641   590
15.9741   580
15.9841   571
15.9941   588
16.0041   570
16.0141   539
16.0241   574
16.0341   587
16.0441   529
16.0541   535
16.0641   560
16.0741   550
16.0841   535
16.0941   538
16.1041   546
16.1141   547
16.1241   525
16.1341   534
16.1441   561
16.1541   551
16.1641   545
16.1741   535
16.1841   509
16.1941   543
16.2041   528
16.2141   513
16.2241   527
16.2341   561
16.2441   600
16.2541   584
16.2641   529
16.2741   538
16.2841   579
16.2941   587
16.3041   547
16.3141   543
16.3241   557
16.3341   554
16.3441   558
16.3541   540
16.3641   582
16.3741   546
16.3841   534
16.3941   578
16.4041   610
16.4141   570
16.4241   604
16.4341   619
16.4441   575
16.4541   578
16.4641   580
16.4741   578
16.4841   588
16.4941   570
16.5041   575
16.5141   614
16.5241   628
16.5341   602
16.5441   590
16.5541   605
16.5641   614
16.5741   620
16.5841   628
16.5941   617
16.6041   615
16.6141   614
16.6241   628
16.6341   626
16.6441   609
16.6541   596
16.6641   594
16.6741   602
16.6841   636
16.6941   669
16.7041   673
16.7141   592
16.7241   596
16.7341   604
16.7441   615
16.7541   602
16.7641   600
16.7741   612
16.7841   606
16.7941   613
16.8041   642
16.8141   615
16.8241   622
16.8341   620
16.8441   612
16.8541   615
16.8641   604
16.8741   599
16.8841   617
16.8941   619
16.9041   624
16.9141   614
16.9241   583
16.9341   622
16.9441   628
16.9541   658
16.9641   626
16.9741   586
16.9841   600
16.9941   642
17.0041   654
17.0141   633
17.0241   642
17.0341   637
17.0441   638
17.0541   665
17.0641   638
17.0741   598
17.0841   611
17.0941   645
17.1041   635
17.1141   628
17.1241   646
17.1341   633
17.1441   643
17.1541   636
17.1641   633
17.1741   619
17.1841   659
17.1941   662
17.2041   643
17.2141   663
17.2241   626
17.2341   633
17.2441   669
17.2541   678
17.2641   680
17.2741   651
17.2841   667
17.2941   637
17.3041   647
17.3141   647
17.3241   653
17.3341   653
17.3441   635
17.3541   638
17.3641   643
17.3741   652
17.3841   655
17.3941   664
17.4041   678
17.4141   686
17.4241   665
17.4341   674
17.4441   713
17.4541   687
17.4641   668
17.4741   723
17.4841   694
17.4941   711
17.5041   735
17.5141   736
17.5241   724
17.5341   737
17.5441   724
17.5541   727
17.5641   794
17.5741   830
17.5841   810
17.5941   833
17.6041   808
17.6141   801
17.6241   829
17.6341   842
17.6441   852
17.6541   879
17.6641   884
17.6741   902
17.6841   895
17.6941   893
17.7041   858
17.7141   871
17.7241   885
17.7341   846
17.7441   863
17.7541   851
17.7641   824
17.7741   786
17.7841   808
17.7941   807
17.8041   815
17.8141   807
17.8241   759
17.8341   740
17.8441   739
17.8541   733
17.8641   745
17.8741   755
17.8841   704
17.8941   725
17.9041   765
17.9141   729
17.9241   713
17.9341   733
17.9441   700
17.9541   723
17.9641   753
17.9741   739
17.9841   737
17.9941   762
18.0041   755
18.0141   761
18.0241   764
18.0341   712
18.0441   705
18.0541   736
18.0641   748
18.0741   728
18.0841   704
18.0941   684
18.1041   714
18.1141   716
18.1241   717
18.1341   732
18.1441   728
18.1541   728
18.1641   746
18.1741   747
18.1841   703
18.1941   711
18.2041   705
18.2141   745
18.2241   713
18.2341   730
18.2441   723
18.2541   757
18.2641   735
18.2741   694
18.2841   746
18.2941   716
18.3041   719
18.3141   744
18.3241   749
18.3341   724
18.3441   725
18.3541   768
18.3641   705
18.3741   728
18.3841   723
18.3941   773
18.4041   778
18.4141   746
18.4241   774
18.4341   759
18.4441   745
18.4541   729
18.4641   733
18.4741   725
18.4841   729
18.4941   751
18.5041   749
18.5141   735
18.5241   749
18.5341   758
18.5441   766
18.5541   758
18.5641   748
18.5741   769
18.5841   799
18.5941   781
18.6041   734
18.6141   702
18.6241   725
18.6341   725
18.6441   741
18.6541   768
18.6641   796
18.6741   772
18.6841   752
18.6941   772
18.7041   719
18.7141   754
18.7241   763
18.7341   817
18.7441   735
18.7541   755
18.7641   729
18.7741   728
18.7841   748
18.7941   762
18.8041   743
18.8141   759
18.8241   769
18.8341   763
18.8441   758
18.8541   767
18.8641   763
18.8741   724
18.8841   775
18.8941   771
18.9041   775
18.9141   765
18.9241   789
18.9341   754
18.9441   766
18.9541   784
18.9641   778
18.9741   753
18.9841   781
18.9941   792
19.0041   784
19.0141   738
19.0241   774
19.0341   777
19.0441   751
19.0541   766
19.0641   781
19.0741   815
19.0841   780
19.0941   799
19.1041   806
19.1141   771
19.1241   792
19.1341   769
19.1441   769
19.1541   801
19.1641   777
19.1741   777
19.1841   779
19.1941   793
19.2041   807
19.2141   782
19.2241   769
19.2341   801
19.2441   806
19.2541   772
19.2641   776
19.2741   770
19.2841   768
19.2941   780
19.3041   786
19.3141   763
19.3241   838
19.3341   802
19.3441   801
19.3541   793
19.3641   765
19.3741   812
19.3841   809
19.3941   782
19.4041   784
19.4141   791
19.4241   816
19.4341   804
19.4441   791
19.4541   851
19.4641   827
19.4741   792
19.4841   807
19.4941   802
19.5041   777
19.5141   777
19.5241   827
19.5341   828
19.5441   789
19.5541   773
19.5641   811
19.5741   801
19.5841   830
19.5941   804
19.6041   812
19.6141   811
19.6241   808
19.6341   802
19.6441   811
19.6541   781
19.6641   808
19.6741   806
19.6841   823
19.6941   806
19.7041   792
19.7141   777
19.7241   766
19.7341   799
19.7441   799
19.7541   832
19.7641   846
19.7741   794
19.7841   812
19.7941   822
19.8041   827
19.8141   819
19.8241   791
19.8341   823
19.8441   789
19.8541   794
19.8641   774
19.8741   803
19.8841   856
19.8941   788
19.9041   806
19.9141   816
19.9241   809
19.9341   841
19.9441   818
19.9541   819
19.9641   794
19.9741   778
19.9841   836
19.9941   850
20.0041   813
20.0141   810
20.0241   835
20.0341   803
20.0441   803
20.0541   817
20.0641   836
20.0741   821
20.0841   817
20.0941   846
20.1041   847
20.1141   798
20.1241   853
20.1341   840
20.1441   759
20.1541   774
20.1641   817
20.1741   813
20.1841   845
20.1941   790
20.2041   798
20.2141   781
20.2241   813
20.2341   808
20.2441   827
20.2541   844
20.2641   813
20.2741   784
20.2841   820
20.2941   819
20.3041   820
20.3141   823
20.3241   779
20.3341   773
20.3441   790
20.3541   814
20.3641   784
20.3741   794
20.3841   820
20.3941   833
20.4041   828
20.4141   840
20.4241   814
20.4341   844
20.4441   797
20.4541   768
20.4641   799
20.4741   801
20.4841   860
20.4941   861
20.5041   860
20.5141   853
20.5241   828
20.5341   810
20.5441   853
20.5541   848
20.5641   832
20.5741   828
20.5841   844
20.5941   847
20.6041   814
20.6141   839
20.6241   835
20.6341   817
20.6441   825
20.6541   829
20.6641   867
20.6741   817
20.6841   856
20.6941   849
20.7041   820
20.7141   842
20.7241   836
20.7341   819
20.7441   787
20.7541   839
20.7641   915
20.7741   855
20.7841   825
20.7941   799
20.8041   856
20.8141   867
20.8241   859
20.8341   842
20.8441   945
20.8541   875
20.8641   872
20.8741   873
20.8841   885
20.8941   928
20.9041   927
20.9141   909
20.9241   953
20.9341   994
20.9441   978
20.9541   994
20.9641  1017
20.9741  1023
20.9841  1056
20.9941  1127
21.0041  1109
21.0141  1112
21.0241  1137
21.0341  1157
21.0441  1110
21.0541  1159
21.0641  1110
21.0741  1160
21.0841  1189
21.0941  1240
21.1041  1221
21.1141  1190
21.1241  1183
21.1341  1215
21.1441  1208
21.1541  1177
21.1641  1215
21.1741  1198
21.1841  1203
21.1941  1127
21.2041  1128
21.2141  1135
21.2241  1105
21.2341  1113
21.2441  1138
21.2541  1049
21.2641  1002
21.2741   991
21.2841   959
21.2941   977
21.3041   981
21.3141  1010
21.3241   945
21.3341   900
21.3441   910
21.3541   858
21.3641   843
21.3741   874
21.3841   863
21.3941   893
21.4041   896
21.4141   891
21.4241   874
21.4341   820
21.4441   824
21.4541   877
21.4641   823
21.4741   826
21.4841   836
21.4941   819
21.5041   822
21.5141   874
21.5241   817
21.5341   781
21.5441   837
21.5541   835
21.5641   840
21.5741   894
21.5841   837
21.5941   821
21.6041   790
21.6141   845
21.6241   812
21.6341   803
21.6441   850
21.6541   792
21.6641   823
21.6741   824
21.6841   832
21.6941   846
21.7041   851
21.7141   856
21.7241   860
21.7341   828
21.7441   809
21.7541   806
21.7641   796
21.7741   772
21.7841   825
21.7941   797
21.8041   840
21.8141   855
21.8241   807
21.8341   829
21.8441   871
21.8541   825
21.8641   774
21.8741   793
21.8841   811
21.8941   859
21.9041   807
21.9141   803
21.9241   804
21.9341   821
21.9441   823
21.9541   811
21.9641   835
21.9741   840
21.9841   814
21.9941   827
22.0041   774
22.0141   837
22.0241   842
22.0341   848
22.0441   831
22.0541   829
22.0641   838
22.0741   838
22.0841   834
22.0941   803
22.1041   830
22.1141   819
22.1241   836
22.1341   767
22.1441   813
22.1541   834
22.1641   853
22.1741   839
22.1841   817
22.1941   816
22.2041   827
22.2141   759
22.2241   812
22.2341   795
22.2441   782
22.2541   852
22.2641   777
22.2741   810
22.2841   855
22.2941   793
22.3041   806
22.3141   781
22.3241   838
22.3341   765
22.3441   806
22.3541   841
22.3641   776
22.3741   829
22.3841   782
22.3941   840
22.4041   827
22.4141   819
22.4241   786
22.4341   790
22.4441   799
22.4541   794
22.4641   808
22.4741   820
22.4841   831
22.4941   821
22.5041   765
22.5141   771
22.5241   814
22.5341   836
22.5441   799
22.5541   774
22.5641   813
22.5741   843
22.5841   843
22.5941   813
22.6041   799
22.6141   808
22.6241   733
22.6341   787
22.6441   777
22.6541   782
22.6641   809
22.6741   762
22.6841   818
22.6941   828
22.7041   748
22.7141   810
22.7241   787
22.7341   752
22.7441   825
22.7541   805
22.7641   743
22.7741   807
22.7841   748
22.7941   751
22.8041   772
22.8141   816
22.8241   744
22.8341   773
22.8441   822
22.8541   826
22.8641   831
22.8741   801
22.8841   808
22.8941   858
22.9041   806
22.9141   783
22.9241   787
22.9341   786
22.9441   844
22.9541   760
22.9641   789
22.9741   823
22.9841   769
22.9941   780
23.0041   824
23.0141   788
23.0241   777
23.0341   804
23.0441   768
23.0541   814
23.0641   770
23.0741   796
23.0841   779
23.0941   798
23.1041   774
23.1141   772
23.1241   805
23.1341   761
23.1441   763
23.1541   789
23.1641   785
23.1741   815
23.1841   754
23.1941   794
23.2041   739
23.2141   809
23.2241   766
23.2341   783
23.2441   762
23.2541   774
23.2641   773
23.2741   821
23.2841   755
23.2941   804
23.3041   756
23.3141   769
23.3241   805
23.3341   841
23.3441   786
23.3541   783
23.3641   761
23.3741   790
23.3841   741
23.3941   790
23.4041   771
23.4141   688
23.4241   778
23.4341   797
23.4441   739
23.4541   803
23.4641   792
23.4741   810
23.4841   738
23.4941   760
23.5041   766
23.5141   710
23.5241   788
23.5341   774
23.5441   789
23.5541   766
23.5641   786
23.5741   799
23.5841   742
23.5941   817
23.6041   789
23.6141   810
23.6241   776
23.6341   792
23.6441   760
23.6541   756
23.6641   757
23.6741   773
23.6841   786
23.6941   768
23.7041   782
23.7141   829
23.7241   795
23.7341   799
23.7441   858
23.7541   768
23.7641   798
23.7741   805
23.7841   814
23.7941   827
23.8041   848
23.8141   810
23.8241   838
23.8341   811
23.8441   831
23.8541   801
23.8641   794
23.8741   789
23.8841   804
23.8941   721
23.9041   818
23.9141   769
23.9241   793
23.9341   758
23.9441   764
23.9541   811
23.9641   750
23.9741   770
23.9841   752
23.9941   758
24.0041   775
24.0141   776
24.0241   798
24.0341   785
24.0441   705
24.0541   752
24.0641   754
24.0741   748
24.0841   751
24.0941   724
24.1041   739
24.1141   703
24.1241   750
24.1341   764
24.1441   696
24.1541   781
24.1641   705
24.1741   763
24.1841   735
24.1941   739
24.2041   757
24.2141   729
24.2241   761
24.2341   775
24.2441   732
24.2541   749
24.2641   722
24.2741   747
24.2841   678
24.2941   739
24.3041   705
24.3141   722
24.3241   765
24.3341   739
24.3441   716
24.3541   687
24.3641   717
24.3741   748
24.3841   720
24.3941   741
24.4041   740
24.4141   725
24.4241   734
24.4341   740
24.4441   698
24.4541   716
24.4641   685
24.4741   671
24.4841   700
24.4941   722
24.5041   691
24.5141   706
24.5241   664
24.5341   680
24.5441   684
24.5541   718
24.5641   767
24.5741   758
24.5841   728
24.5941   708
24.6041   758
24.6141   701
24.6241   752
24.6341   709
24.6441   697
24.6541   730
24.6641   676
24.6741   700
24.6841   682
24.6941   730
24.7041   700
24.7141   700
24.7241   722
24.7341   659
24.7441   696
24.7541   753
24.7641   705
24.7741   691
24.7841   639
24.7941   673
24.8041   700
24.8141   672
24.8241   669
24.8341   695
24.8441   674
24.8541   690
24.8641   718
24.8741   686
24.8841   690
24.8941   670
24.9041   668
24.9141   675
24.9241   718
24.9341   725
24.9441   731
24.9541   709
24.9641   718
24.9741   696
24.9841   714
24.9941   697
25.0041   697
25.0141   668
25.0241   689
25.0341   712
25.0441   676
25.0541   711
25.0641   743
25.0741   713
25.0841   671
25.0941   640
25.1041   691
25.1141   681
25.1241   712
25.1341   647
25.1441   691
25.1541   684
25.1641   704
25.1741   679
25.1841   661
25.1941   694
25.2041   693
25.2141   732
25.2241   757
25.2341   688
25.2441   700
25.2541   699
25.2641   699
25.2741   670
25.2841   734
25.2941   733
25.3041   712
25.3141   723
25.3241   710
25.3341   709
25.3441   726
25.3541   707
25.3641   729
25.3741   659
25.3841   676
25.3941   651
25.4041   672
25.4141   639
25.4241   654
25.4341   659
25.4441   648
25.4541   644
25.4641   659
25.4741   664
25.4841   630
25.4941   668
25.5041   679
25.5141   664
25.5241   635
25.5341   644
25.5441   652
25.5541   675
25.5641   676
25.5741   697
25.5841   643
25.5941   658
25.6041   642
25.6141   652
25.6241   613
25.6341   624
25.6441   659
25.6541   688
25.6641   640
25.6741   616
25.6841   669
25.6941   661
25.7041   643
25.7141   657
25.7241   647
25.7341   621
25.7441   653
25.7541   641
25.7641   617
25.7741   623
25.7841   684
25.7941   670
25.8041   656
25.8141   635
25.8241   649
25.8341   612
25.8441   643
25.8541   627
25.8641   609
25.8741   604
25.8841   619
25.8941   610
25.9041   623
25.9141   619
25.9241   609
25.9341   610
25.9441   631
25.9541   635
25.9641   644
25.9741   586
25.9841   651
25.9941   640
26.0041   615
26.0141   667
26.0241   622
26.0341   668
26.0441   639
26.0541   595
26.0641   630
26.0741   648
26.0841   628
26.0941   654
26.1041   640
26.1141   597
26.1241   623
26.1341   645
26.1441   632
26.1541   582
26.1641   660
26.1741   600
26.1841   613
26.1941   609
26.2041   642
26.2141   633
26.2241   604
26.2341   627
26.2441   627
26.2541   631
26.2641   617
26.2741   585
26.2841   627
26.2941   599
26.3041   632
26.3141   630
26.3241   617
26.3341   588
26.3441   551
26.3541   583
26.3641   605
26.3741   660
26.3841   565
26.3941   593
26.4041   591
26.4141   602
26.4241   577
26.4341   600
26.4441   629
26.4541   607
26.4641   584
26.4741   608
26.4841   591
26.4941   557
26.5041   594
26.5141   608
26.5241   638
26.5341   559
26.5441   569
26.5541   587
26.5641   597
26.5741   565
26.5841   586
26.5941   606
26.6041   612
26.6141   647
26.6241   592
26.6341   589
26.6441   605
26.6541   605
26.6641   575
26.6741   631
26.6841   560
26.6941   547
26.7041   587
26.7141   522
26.7241   562
26.7341   566
26.7441   572
26.7541   575
26.7641   562
26.7741   602
26.7841   553
26.7941   573
26.8041   550
26.8141   550
26.8241   586
26.8341   587
26.8441   583
26.8541   573
26.8641   555
26.8741   591
26.8841   584
26.8941   535
26.9041   559
26.9141   552
26.9241   573
26.9341   534
26.9441   535
26.9541   573
26.9641   510
26.9741   581
26.9841   570
26.9941   561
27.0041   571
27.0141   605
27.0241   603
27.0341   588
27.0441   604
27.0541   560
27.0641   551
27.0741   553
27.0841   562
27.0941   604
27.1041   580
27.1141   505
27.1241   527
27.1341   548
27.1441   522
27.1541   534
27.1641   537
27.1741   512
27.1841   518
27.1941   515
27.2041   531
27.2141   571
27.2241   577
27.2341   550
27.2441   544
27.2541   590
27.2641   599
27.2741   569
27.2841   583
27.2941   573
27.3041   567
27.3141   556
27.3241   516
27.3341   545
27.3441   545
27.3541   576
27.3641   549
27.3741   543
27.3841   546
27.3941   499
27.4041   550
27.4141   586
27.4241   593
27.4341   529
27.4441   541
27.4541   551
27.4641   531
27.4741   507
27.4841   563
27.4941   559
27.5041   552
27.5141   551
27.5241   515
27.5341   544
27.5441   520
27.5541   570
27.5641   589
27.5741   528
27.5841   505
27.5941   527
27.6041   533
27.6141   497
27.6241   547
27.6341   520
27.6441   481
27.6541   518
27.6641   507
27.6741   486
27.6841   570
27.6941   530
27.7041   486
27.7141   523
27.7241   508
27.7341   501
27.7441   509
27.7541   492
27.7641   499
27.7741   520
27.7841   492
27.7941   499
27.8041   507
27.8141   521
27.8241   495
27.8341   507
27.8441   528
27.8541   513
27.8641   497
27.8741   502
27.8841   501
27.8941   513
27.9041   541
27.9141   535
27.9241   508
27.9341   518
27.9441   485
27.9541   493
27.9641   509
27.9741   504
27.9841   499
27.9941   533
28.0041   504
28.0141   487
28.0241   504
28.0341   510
28.0441   475
28.0541   461
28.0641   477
28.0741   479
28.0841   499
28.0941   457
28.1041   470
28.1141   492
28.1241   501
28.1341   530
28.1441   530
28.1541   479
28.1641   513
28.1741   486
28.1841   481
28.1941   457
28.2041   492
28.2141   475
28.2241   480
28.2341   453
28.2441   475
28.2541   474
28.2641   460
28.2741   481
28.2841   485
28.2941   464
28.3041   501
28.3141   489
28.3241   463
28.3341   479
28.3441   501
28.3541   488
28.3641   493
28.3741   465
28.3841   488
28.3941   464
28.4041   463
28.4141   497
28.4241   477
28.4341   440
28.4441   435
28.4541   478
28.4641   484
28.4741   465
28.4841   494
28.4941   483
28.5041   487
28.5141   470
28.5241   480
28.5341   481
28.5441   467
28.5541   464
28.5641   474
28.5741   435
28.5841   470
28.5941   460
28.6041   475
28.6141   489
28.6241   484
28.6341   503
28.6441   473
28.6541   434
28.6641   473
28.6741   429
28.6841   440
28.6941   419
28.7041   451
28.7141   427
28.7241   453
28.7341   504
28.7441   468
28.7541   439
28.7641   477
28.7741   468
28.7841   431
28.7941   447
28.8041   442
28.8141   426
28.8241   450
28.8341   466
28.8441   422
28.8541   462
28.8641   431
28.8741   468
28.8841   435
28.8941   465
28.9041   461
28.9141   435
28.9241   429
28.9341   425
28.9441   495
28.9541   427
28.9641   425
28.9741   420
28.9841   434
28.9941   412
29.0041   417
29.0141   455
29.0241   433
29.0341   455
29.0441   402
29.0541   439
29.0641   445
29.0741   421
29.0841   401
29.0941   387
29.1041   409
29.1141   429
29.1241   420
29.1341   426
29.1441   435
29.1541   460
29.1641   437
29.1741   434
29.1841   419
29.1941   417
29.2041   438
29.2141   391
29.2241   421
29.2341   404
29.2441   444
29.2541   457
29.2641   416
29.2741   419
29.2841   432
29.2941   376
29.3041   405
29.3141   395
29.3241   428
29.3341   394
29.3441   422
29.3541   427
29.3641   411
29.3741   394
29.3841   434
29.3941   394
29.4041   399
29.4141   409
29.4241   393
29.4341   376
29.4441   413
29.4541   436
29.4641   393
29.4741   366
29.4841   393
29.4941   429
29.5041   420
29.5141   396
29.5241   410
29.5341   380
29.5441   398
29.5541   425
29.5641   407
29.5741   408
29.5841   412
29.5941   371
29.6041   395
29.6141   396
29.6241   404
29.6341   357
29.6441   389
29.6541   367
29.6641   392
29.6741   402
29.6841   382
29.6941   388
29.7041   395
29.7141   402
29.7241   395
29.7341   392
29.7441   396
29.7541   379
29.7641   404
29.7741   387
29.7841   381
29.7941   407
29.8041   392
29.8141   396
29.8241   405
29.8341   381
29.8441   373
29.8541   408
29.8641   393
29.8741   390
29.8841   382
29.8941   377
29.9041   357
29.9141   348
29.9241   372
29.9341   415
29.9441   357
29.9541   388
29.9641   353
29.9741   376
29.9841   374
29.9941   394
30.0041   376
30.0141   385
30.0241   362
30.0341   351
30.0441   368
30.0541   382
30.0641   384
30.0741   367
30.0841   369
30.0941   344
30.1041   394
30.1141   354
30.1241   358
30.1341   389
30.1441   353
30.1541   379
30.1641   356
30.1741   363
30.1841   378
30.1941   367
30.2041   358
30.2141   388
30.2241   365
30.2341   368
30.2441   375
30.2541   337
30.2641   359
30.2741   360
30.2841   366
30.2941   376
30.3041   358
30.3141   367
30.3241   336
30.3341   379
30.3441   357
30.3541   349
30.3641   352
30.3741   348
30.3841   367
30.3941   352
30.4041   362
30.4141   359
30.4241   362
30.4341   364
30.4441   365
30.4541   361
30.4641   362
30.4741   373
30.4841   358
30.4941   341
30.5041   335
30.5141   360
30.5241   347
30.5341   353
30.5441   343
30.5541   358
30.5641   353
30.5741   338
30.5841   367
30.5941   339
30.6041   375
30.6141   369
30.6241   306
30.6341   330
30.6441   345
30.6541   329
30.6641   346
30.6741   341
30.6841   336
30.6941   342
30.7041   340
30.7141   340
30.7241   324
30.7341   368
30.7441   340
30.7541   315
30.7641   361
30.7741   330
30.7841   347
30.7941   345
30.8041   364
30.8141   335
30.8241   350
30.8341   323
30.8441   337
30.8541   344
30.8641   313
30.8741   339
30.8841   323
30.8941   322
30.9041   371
30.9141   333
30.9241   333
30.9341   322
30.9441   326
30.9541   316
30.9641   340
30.9741   350
30.9841   309
30.9941   351
31.0041   326
31.0141   318
31.0241   346
31.0341   328
31.0441   322
31.0541   307
31.0641   292
31.0741   312
31.0841   316
31.0941   353
31.1041   341
31.1141   318
31.1241   309
31.1341   283
31.1441   317
31.1541   327
31.1641   321
31.1741   328
31.1841   313
31.1941   340
31.2041   302
31.2141   339
31.2241   317
31.2341   298
31.2441   297
31.2541   308
31.2641   332
31.2741   305
31.2841   305
31.2941   302
31.3041   300
31.3141   312
31.3241   308
31.3341   320
31.3441   285
31.3541   287
31.3641   288
31.3741   296
31.3841   313
31.3941   324
31.4041   297
31.4141   296
31.4241   313
31.4341   280
31.4441   322
31.4541   287
31.4641   323
31.4741   270
31.4841   322
31.4941   332
31.5041   318
31.5141   326
31.5241   307
31.5341   303
31.5441   314
31.5541   297
31.5641   303
31.5741   296
31.5841   310
31.5941   319
31.6041   295
31.6141   263
31.6241   268
31.6341   276
31.6441   272
31.6541   279
31.6641   276
31.6741   301
31.6841   305
31.6941   310
31.7041   282
31.7141   298
31.7241   286
31.7341   309
31.7441   297
31.7541   308
31.7641   297
31.7741   317
31.7841   316
31.7941   294
31.8041   288
31.8141   309
31.8241   296
31.8341   298
31.8441   285
31.8541   277
31.8641   319
31.8741   310
31.8841   281
31.8941   285
31.9041   277
31.9141   274
31.9241   286
31.9341   280
31.9441   255
31.9541   294
31.9641   305
31.9741   301
31.9841   296
31.9941   285
32.0041   282
32.0141   304
32.0241   268
32.0341   258
32.0441   269
32.0541   293
32.0641   269
32.0741   299
32.0841   268
32.0941   294
32.1041   290
32.1141   292
32.1241   292
32.1341   314
32.1441   289
32.1541   300
32.1641   278
32.1741   297
32.1841   290
32.1941   277
32.2041   269
32.2141   281
32.2241   302
32.2341   285
32.2441   268
32.2541   273
32.2641   272
32.2741   298
32.2841   294
32.2941   281
32.3041   262
32.3141   244
32.3241   279
32.3341   263
32.3441   252
32.3541   238
32.3641   271
32.3741   287
32.3841   282
32.3941   240
32.4041   245
32.4141   287
32.4241   271
32.4341   267
32.4441   258
32.4541   279
32.4641   254
32.4741   256
32.4841   252
32.4941   234
32.5041   225
32.5141   269
32.5241   258
32.5341   235
32.5441   261
32.5541   262
32.5641   253
32.5741   270
32.5841   242
32.5941   258
32.6041   252
32.6141   267
32.6241   252
32.6341   245
32.6441   244
32.6541   265
32.6641   258
32.6741   252
32.6841   227
32.6941   235
32.7041   256
32.7141   236
32.7241   242
32.7341   239
32.7441   217
32.7541   248
32.7641   248
32.7741   232
32.7841   225
32.7941   252
32.8041   243
32.8141   247
32.8241   264
32.8341   255
32.8441   251
32.8541   253
32.8641   240
32.8741   220
32.8841   234
32.8941   238
32.9041   226
32.9141   244
32.9241   250
32.9341   217
32.9441   244
32.9541   221
32.9641   234
32.9741   263
32.9841   225
32.9941   222
33.0041   216
33.0141   224
33.0241   215
33.0341   221
33.0441   223
33.0541   222
33.0641   247
33.0741   206
33.0841   227
33.0941   232
33.1041   248
33.1141   255
33.1241   202
33.1341   223
33.1441   246
33.1541   228
33.1641   237
33.1741   214
33.1841   235
33.1941   238
33.2041   215
33.2141   248
33.2241   223
33.2341   240
33.2441   224
33.2541   232
33.2641   227
33.2741   202
33.2841   225
33.2941   227
33.3041   196
33.3141   211
33.3241   236
33.3341   231
33.3441   204
33.3541   235
33.3641   214
33.3741   192
33.3841   236
33.3941   221
33.4041   225
33.4141   231
33.4241   213
33.4341   215
33.4441   200
33.4541   214
33.4641   218
33.4741   219
33.4841   234
33.4941   210
33.5041   192
33.5141   204
33.5241   190
33.5341   226
33.5441   232
33.5541   201
33.5641   208
33.5741   236
33.5841   220
33.5941   219
33.6041   207
33.6141   202
33.6241   205
33.6341   218
33.6441   213
33.6541   209
33.6641   211
33.6741   201
33.6841   228
33.6941   223
33.7041   228
33.7141   214
33.7241   199
33.7341   186
33.7441   173
33.7541   218
33.7641   201
33.7741   226
33.7841   191
33.7941   228
33.8041   202
33.8141   195
33.8241   197
33.8341   204
33.8441   203
33.8541   218
33.8641   208
33.8741   182
33.8841   179
33.8941   192
33.9041   185
33.9141   222
33.9241   181
33.9341   201
33.9441   187
33.9541   176
33.9641   203
33.9741   189
33.9841   210
33.9941   189
34.0041   193
34.0141   202
34.0241   200
34.0341   178
34.0441   185
34.0541   193
34.0641   200
34.0741   168
34.0841   191
34.0941   196
34.1041   196
34.1141   188
34.1241   196
34.1341   189
34.1441   197
34.1541   163
34.1641   179
34.1741   189
34.1841   179
34.1941   186
34.2041   198
34.2141   193
34.2241   204
34.2341   194
34.2441   162
34.2541   190
34.2641   178
34.2741   183
34.2841   205
34.2941   185
34.3041   189
34.3141   183
34.3241   192
34.3341   156
34.3441   174
34.3541   196
34.3641   195
34.3741   163
34.3841   184
34.3941   178
34.4041   189
34.4141   173
34.4241   156
34.4341   171
34.4441   168
34.4541   172
34.4641   168
34.4741   190
34.4841   184
34.4941   159
34.5041   195
34.5141   172
34.5241   176
34.5341   171
34.5441   184
34.5541   173
34.5641   176
34.5741   192
34.5841   169
34.5941   171
34.6041   190
34.6141   153
34.6241   171
34.6341   147
34.6441   184
34.6541   175
34.6641   157
34.6741   145
34.6841   183
34.6941   171
34.7041   186
34.7141   167
34.7241   175
34.7341   163
34.7441   196
34.7541   174
34.7641   201
34.7741   159
34.7841   168
34.7941   129
34.8041   164
34.8141   177
34.8241   162
34.8341   170
34.8441   162
34.8541   170
34.8641   180
34.8741   157
34.8841   157
34.8941   168
34.9041   159
34.9141   152
34.9241   157
34.9341   164
34.9441   172
34.9541   174
34.9641   168
34.9741   160
34.9841   169
34.9941   173
35.0041   157
35.0141   162
35.0241   159
35.0341   174
35.0441   190
35.0541   162
35.0641   173
35.0741   136
35.0841   132
35.0941   148
35.1041   152
35.1141   168
35.1241   153
35.1341   154
35.1441   162
35.1541   141
35.1641   144
35.1741   156
35.1841   160
35.1941   145
35.2041   160
35.2141   155
35.2241   135
35.2341   144
35.2441   141
35.2541   141
35.2641   156
35.2741   157
35.2841   142
35.2941   151
35.3041   156
35.3141   140
35.3241   142
35.3341   142
35.3441   140
35.3541   146
35.3641   139
35.3741   153
35.3841   139
35.3941   161
35.4041   149
35.4141   121
35.4241   151
35.4341   159
35.4441   152
35.4541   128
35.4641   123
35.4741   134
35.4841   128
35.4941   142
35.5041   136
35.5141   151
35.5241   129
35.5341   143
35.5441   137
35.5541   161
35.5641   124
35.5741   147
35.5841   148
35.5941   132
35.6041   135
35.6141   142
35.6241   135
35.6341   124
35.6441   139
35.6541   126
35.6641   134
35.6741   113
35.6841   135
35.6941   129
35.7041   136
35.7141   121
35.7241   128
35.7341   142
35.7441   139
35.7541   130
35.7641   124
35.7741   114
35.7841   155
35.7941   121
35.8041   135
35.8141   146
35.8241   164
35.8341   143
35.8441   148
35.8541   133
35.8641   128
35.8741   121
35.8841   130
35.8941   122
35.9041   130
35.9141   140
35.9241   120
35.9341   134
35.9441   121
35.9541   138
35.9641   129
35.9741   126
35.9841   136
35.9941   142
36.0041   145
36.0141   123
36.0241   119
36.0341   100
36.0441   146
36.0541   141
36.0641   128
36.0741   112
36.0841   107
36.0941   131
36.1041   113
36.1141   134
36.1241   126
36.1341   128
36.1441   130
36.1541   113
36.1641   143
36.1741   114
36.1841   131
36.1941   117
36.2041   125
36.2141   140
36.2241   130
36.2341   118
36.2441   144
36.2541   130
36.2641   125
36.2741   148
36.2841   121
36.2941    99
36.3041   140
36.3141   111
36.3241   128
36.3341   118
36.3441   130
36.3541   114
36.3641   123
36.3741   114
36.3841   113
36.3941   121
36.4041   141
36.4141   107
36.4241   119
36.4341   109
36.4441   131
36.4541   125
36.4641   115
36.4741   124
36.4841   116
36.4941   121
36.5041   110
36.5141   118
36.5241   110
36.5341   105
36.5441   115
36.5541   122
36.5641   108
36.5741   115
36.5841   117
36.5941   126
36.6041    98
36.6141   106
36.6241   101
36.6341   108
36.6441   132
36.6541    97
36.6641   122
36.6741   107
36.6841   121
36.6941   120
36.7041   134
36.7141    96
36.7241   107
36.7341   107
36.7441    94
36.7541   103
36.7641   103
36.7741    91
36.7841    96
36.7941   106
36.8041    99
36.8141   108
36.8241   118
36.8341   105
36.8441   106
36.8541    93
36.8641    91
36.8741   111
36.8841   101
36.8941   113
36.9041    99
36.9141    98
36.9241   100
36.9341   123
36.9441   106
36.9541   117
36.9641    99
36.9741    88
36.9841    90
36.9941   110
37.0041   101
37.0141   110
37.0241   107
37.0341   116
37.0441   125
37.0541    97
37.0641    94
37.0741   100
37.0841    97
37.0941    96
37.1041   106
37.1141   106
37.1241    97
37.1341    96
37.1441    93
37.1541   100
37.1641    89
37.1741   103
37.1841    99
37.1941   114
37.2041    98
37.2141    89
37.2241    95
37.2341    99
37.2441    82
37.2541    78
37.2641    98
37.2741    84
37.2841    98
37.2941    90
37.3041    89
37.3141    88
37.3241    84
37.3341    86
37.3441    90
37.3541    84
37.3641    99
37.3741   110
37.3841    93
37.3941    81
37.4041    82
37.4141   100
37.4241   101
37.4341    93
37.4441    84
37.4541    94
37.4641    88
37.4741    85
37.4841    98
37.4941   106
37.5041    96
37.5141    73
37.5241    93
37.5341    92
37.5441    80
37.5541    79
37.5641    77
37.5741    85
37.5841   106
37.5941    82
37.6041    77
37.6141    94
37.6241    84
37.6341    84
37.6441   101
37.6541    78
37.6641    95
37.6741    89
37.6841    86
37.6941   100
37.7041    82
37.7141    76
37.7241    89
37.7341    72
37.7441    82
37.7541    86
37.7641    71
37.7741    96
37.7841    70
37.7941    85
37.8041    67
37.8141    75
37.8241    79
37.8341    95
37.8441    89
37.8541    92
37.8641    62
37.8741    74
37.8841    81
37.8941    84
37.9041    75
37.9141    74
37.9241    90
37.9341    79
37.9441    82
37.9541    75
37.9641    67
37.9741    92
37.9841    88
37.9941    88
38.0041    82
38.0141    78
38.0241    88
38.0341    91
38.0441    85
38.0541    70
38.0641    80
38.0741    72
38.0841    92
38.0941    86
38.1041    81
38.1141    79
38.1241    85
38.1341    73
38.1441    73
38.1541    81
38.1641    81
38.1741    83
38.1841    84
38.1941    84
38.2041    71
38.2141    84
38.2241    68
38.2341    80
38.2441    79
38.2541    81
38.2641    77
38.2741    73
38.2841    70
38.2941    81
38.3041    63
38.3141    70
38.3241    64
38.3341    74
38.3441    82
38.3541    70
38.3641    64
38.3741    61
38.3841    82
38.3941    80
38.4041    82
38.4141    88
38.4241    74
38.4341    85
38.4441    71
38.4541    86
38.4641    70
38.4741    70
38.4841    61
38.4941    67
38.5041    82
38.5141    72
38.5241    68
38.5341    72
38.5441    71
38.5541    66
38.5641    57
38.5741    86
38.5841    67
38.5941    70
38.6041    78
38.6141    77
38.6241    56
38.6341    71
38.6441    69
38.6541    65
38.6641    73
38.6741    72
38.6841    71
38.6941    62
38.7041    70
38.7141    73
38.7241    64
38.7341    54
38.7441    59
38.7541    64
38.7641    65
38.7741    91
38.7841    57
38.7941    74
38.8041    64
38.8141    62
38.8241    71
38.8341    70
38.8441    66
38.8541    57
38.8641    58
38.8741    63
38.8841    65
38.8941    60
38.9041    71
38.9141    57
38.9241    73
38.9341    60
38.9441    57
38.9541    54
38.9641    61
38.9741    69
38.9841    71
38.9941    61
39.0041    59
39.0141    62
39.0241    53
39.0341    59
39.0441    65
39.0541    56
39.0641    79
39.0741    68
39.0841    59
39.0941    48
39.1041    47
39.1141    58
39.1241    58
39.1341    58
39.1441    46
39.1541    43
39.1641    48
39.1741    60
39.1841    66
39.1941    59
39.2041    62
39.2141    55
39.2241    56
39.2341    56
39.2441    60
39.2541    51
39.2641    49
39.2741    58
39.2841    58
39.2941    57
39.3041    48
39.3141    57
39.3241    64
39.3341    58
39.3441    52
39.3541    62
39.3641    52
39.3741    54
39.3841    62
39.3941    49
39.4041    40
39.4141    48
39.4241    41
39.4341    63
39.4441    47
39.4541    45
39.4641    59
39.4741    52
39.4841    45
39.4941    59
39.5041    57
39.5141    49
39.5241    42
39.5341    46
39.5441    58
39.5541    59
39.5641    44
39.5741    46
39.5841    54
39.5941    38
39.6041    47
39.6141    41
39.6241    43
39.6341    49
39.6441    44
39.6541    43
39.6641    42
39.6741    48
39.6841    40
39.6941    49
39.7041    48
39.7141    38
39.7241    44
39.7341    53
39.7441    43
39.7541    49
39.7641    43
39.7741    48
39.7841    46
39.7941    51
39.8041    57
39.8141    51
39.8241    49
39.8341    51
39.8441    38
39.8541    37
39.8641    50
39.8741    38
39.8841    31
39.8941    44
39.9041    43
39.9141    44
39.9241    56
39.9341    45
39.9441    38
39.9541    38
39.9641    35
39.9741    34
39.9841    45
39.9941    46
