Bruker Nano GmbH Berlin, Germany
Esprit 1.9

Date: 4/1/2021 4:07:00 PM
Real time: 22575
Life time: 21101
Pulse density: 94935


Detector type: XFlash 430
Window type: Custom type
Detector thickness: 0.45
Si dead layer:0.029

Calibration, lin.: 10
Calibration, abs.: -955.9
Mn FWHM: 137.05
Fano factor: 0.121
Channels: 4095

Energy Counts
-0.9559     0
-0.9459     0
-0.9359     0
-0.9259     0
-0.9159     0
-0.9059     0
-0.8959     0
-0.8859     0
-0.8759     0
-0.8659     0
-0.8559     0
-0.8459     0
-0.8359     0
-0.8259     0
-0.8159     0
-0.8059     0
-0.7959     0
-0.7859     0
-0.7759     0
-0.7659     0
-0.7559     0
-0.7459     0
-0.7359     0
-0.7259     0
-0.7159     0
-0.7059     0
-0.6959     0
-0.6859     0
-0.6759     0
-0.6659     0
-0.6559     0
-0.6459     0
-0.6359     0
-0.6259     0
-0.6159     0
-0.6059     0
-0.5959     0
-0.5859     0
-0.5759     0
-0.5659     0
-0.5559     0
-0.5459     0
-0.5359     0
-0.5259     0
-0.5159     0
-0.5059     0
-0.4959     0
-0.4859     0
-0.4759     0
-0.4659     0
-0.4559     0
-0.4459     0
-0.4359     0
-0.4259     0
-0.4159     0
-0.4059     0
-0.3959     0
-0.3859     0
-0.3759     0
-0.3659     0
-0.3559     0
-0.3459     0
-0.3359     0
-0.3259     0
-0.3159     0
-0.3059     0
-0.2959     0
-0.2859     0
-0.2759     0
-0.2659     0
-0.2559     0
-0.2459     0
-0.2359     0
-0.2259     0
-0.2159     0
-0.2059     0
-0.1959     0
-0.1859     0
-0.1759     0
-0.1659     0
-0.1559     0
-0.1459     0
-0.1359     0
-0.1259     0
-0.1159     2
-0.1059    10
-0.0959    70
-0.0859   243
-0.0759   778
-0.0659  2432
-0.0559  6231
-0.0459 13286
-0.0359 25147
-0.0259 40019
-0.0159 54637
-0.0059 64279
 0.0041 65511
 0.0141 56075
 0.0241 41179
 0.0341 26524
 0.0441 14265
 0.0541  6800
 0.0641  2531
 0.0741   916
 0.0841   283
 0.0941    80
 0.1041    38
 0.1141     9
 0.1241     8
 0.1341     5
 0.1441     8
 0.1541     8
 0.1641     2
 0.1741    22
 0.1841   199
 0.1941   385
 0.2041   343
 0.2141   383
 0.2241   349
 0.2341   387
 0.2441   388
 0.2541   363
 0.2641   381
 0.2741   335
 0.2841   349
 0.2941   378
 0.3041   381
 0.3141   361
 0.3241   333
 0.3341   358
 0.3441   341
 0.3541   322
 0.3641   325
 0.3741   332
 0.3841   348
 0.3941   323
 0.4041   312
 0.4141   327
 0.4241   330
 0.4341   328
 0.4441   333
 0.4541   293
 0.4641   321
 0.4741   319
 0.4841   318
 0.4941   310
 0.5041   308
 0.5141   286
 0.5241   324
 0.5341   327
 0.5441   288
 0.5541   296
 0.5641   294
 0.5741   299
 0.5841   301
 0.5941   312
 0.6041   296
 0.6141   282
 0.6241   280
 0.6341   256
 0.6441   265
 0.6541   294
 0.6641   284
 0.6741   278
 0.6841   262
 0.6941   269
 0.7041   269
 0.7141   259
 0.7241   280
 0.7341   288
 0.7441   275
 0.7541   261
 0.7641   255
 0.7741   250
 0.7841   268
 0.7941   265
 0.8041   264
 0.8141   250
 0.8241   235
 0.8341   250
 0.8441   255
 0.8541   261
 0.8641   260
 0.8741   247
 0.8841   251
 0.8941   267
 0.9041   274
 0.9141   254
 0.9241   235
 0.9341   256
 0.9441   245
 0.9541   235
 0.9641   254
 0.9741   265
 0.9841   232
 0.9941   243
 1.0041   248
 1.0141   220
 1.0241   236
 1.0341   229
 1.0441   240
 1.0541   247
 1.0641   233
 1.0741   232
 1.0841   252
 1.0941   268
 1.1041   239
 1.1141   236
 1.1241   222
 1.1341   242
 1.1441   229
 1.1541   241
 1.1641   224
 1.1741   228
 1.1841   249
 1.1941   212
 1.2041   233
 1.2141   242
 1.2241   232
 1.2341   256
 1.2441   225
 1.2541   218
 1.2641   209
 1.2741   195
 1.2841   213
 1.2941   199
 1.3041   231
 1.3141   197
 1.3241   182
 1.3341   212
 1.3441   197
 1.3541   202
 1.3641   206
 1.3741   216
 1.3841   233
 1.3941   205
 1.4041   223
 1.4141   211
 1.4241   219
 1.4341   206
 1.4441   229
 1.4541   225
 1.4641   209
 1.4741   216
 1.4841   199
 1.4941   223
 1.5041   208
 1.5141   213
 1.5241   226
 1.5341   196
 1.5441   211
 1.5541   200
 1.5641   211
 1.5741   205
 1.5841   227
 1.5941   176
 1.6041   181
 1.6141   194
 1.6241   234
 1.6341   236
 1.6441   237
 1.6541   257
 1.6641   309
 1.6741   362
 1.6841   453
 1.6941   519
 1.7041   635
 1.7141   731
 1.7241   789
 1.7341   861
 1.7441   883
 1.7541   823
 1.7641   705
 1.7741   626
 1.7841   577
 1.7941   469
 1.8041   368
 1.8141   298
 1.8241   311
 1.8341   279
 1.8441   234
 1.8541   243
 1.8641   264
 1.8741   231
 1.8841   239
 1.8941   205
 1.9041   225
 1.9141   209
 1.9241   212
 1.9341   226
 1.9441   215
 1.9541   245
 1.9641   249
 1.9741   252
 1.9841   241
 1.9941   229
 2.0041   270
 2.0141   289
 2.0241   246
 2.0341   237
 2.0441   245
 2.0541   230
 2.0641   209
 2.0741   196
 2.0841   212
 2.0941   198
 2.1041   187
 2.1141   190
 2.1241   188
 2.1341   182
 2.1441   192
 2.1541   192
 2.1641   191
 2.1741   201
 2.1841   192
 2.1941   193
 2.2041   205
 2.2141   200
 2.2241   186
 2.2341   178
 2.2441   188
 2.2541   176
 2.2641   171
 2.2741   161
 2.2841   170
 2.2941   180
 2.3041   179
 2.3141   197
 2.3241   172
 2.3341   186
 2.3441   190
 2.3541   186
 2.3641   193
 2.3741   157
 2.3841   197
 2.3941   160
 2.4041   173
 2.4141   149
 2.4241   172
 2.4341   159
 2.4441   162
 2.4541   186
 2.4641   186
 2.4741   153
 2.4841   165
 2.4941   175
 2.5041   169
 2.5141   163
 2.5241   182
 2.5341   170
 2.5441   201
 2.5541   191
 2.5641   183
 2.5741   188
 2.5841   200
 2.5941   207
 2.6041   158
 2.6141   180
 2.6241   191
 2.6341   180
 2.6441   167
 2.6541   178
 2.6641   169
 2.6741   180
 2.6841   169
 2.6941   169
 2.7041   133
 2.7141   174
 2.7241   157
 2.7341   148
 2.7441   173
 2.7541   157
 2.7641   143
 2.7741   169
 2.7841   174
 2.7941   141
 2.8041   200
 2.8141   164
 2.8241   184
 2.8341   183
 2.8441   169
 2.8541   164
 2.8641   161
 2.8741   141
 2.8841   139
 2.8941   154
 2.9041   145
 2.9141   144
 2.9241   166
 2.9341   153
 2.9441   149
 2.9541   158
 2.9641   137
 2.9741   153
 2.9841   138
 2.9941   153
 3.0041   146
 3.0141   137
 3.0241   151
 3.0341   142
 3.0441   161
 3.0541   154
 3.0641   153
 3.0741   137
 3.0841   134
 3.0941   137
 3.1041   142
 3.1141   129
 3.1241   121
 3.1341   130
 3.1441   137
 3.1541   122
 3.1641   172
 3.1741   160
 3.1841   137
 3.1941   127
 3.2041   158
 3.2141   194
 3.2241   241
 3.2341   270
 3.2441   271
 3.2541   345
 3.2641   395
 3.2741   471
 3.2841   492
 3.2941   551
 3.3041   573
 3.3141   589
 3.3241   636
 3.3341   505
 3.3441   488
 3.3541   447
 3.3641   388
 3.3741   334
 3.3841   287
 3.3941   262
 3.4041   188
 3.4141   162
 3.4241   162
 3.4341   132
 3.4441   129
 3.4541   122
 3.4641   124
 3.4741   127
 3.4841   140
 3.4941   131
 3.5041   146
 3.5141   159
 3.5241   180
 3.5341   190
 3.5441   224
 3.5541   238
 3.5641   283
 3.5741   311
 3.5841   337
 3.5941   482
 3.6041   552
 3.6141   672
 3.6241   824
 3.6341   970
 3.6441  1145
 3.6541  1284
 3.6641  1510
 3.6741  1602
 3.6841  1681
 3.6941  1754
 3.7041  1489
 3.7141  1423
 3.7241  1283
 3.7341  1136
 3.7441   922
 3.7541   723
 3.7641   535
 3.7741   449
 3.7841   359
 3.7941   283
 3.8041   196
 3.8141   152
 3.8241   157
 3.8341   120
 3.8441   117
 3.8541   111
 3.8641   112
 3.8741   117
 3.8841   108
 3.8941   125
 3.9041   139
 3.9141   150
 3.9241   157
 3.9341   180
 3.9441   204
 3.9541   220
 3.9641   226
 3.9741   272
 3.9841   295
 3.9941   321
 4.0041   355
 4.0141   338
 4.0241   344
 4.0341   347
 4.0441   286
 4.0541   283
 4.0641   216
 4.0741   215
 4.0841   164
 4.0941   184
 4.1041   157
 4.1141   117
 4.1241   112
 4.1341   116
 4.1441   100
 4.1541    75
 4.1641    84
 4.1741   110
 4.1841    96
 4.1941   103
 4.2041    83
 4.2141   101
 4.2241    98
 4.2341    83
 4.2441    82
 4.2541    77
 4.2641    79
 4.2741    89
 4.2841    94
 4.2941   106
 4.3041    99
 4.3141   100
 4.3241    82
 4.3341   101
 4.3441    97
 4.3541   107
 4.3641   112
 4.3741   102
 4.3841   152
 4.3941   133
 4.4041   176
 4.4141   211
 4.4241   216
 4.4341   252
 4.4441   271
 4.4541   332
 4.4641   348
 4.4741   373
 4.4841   420
 4.4941   433
 4.5041   404
 4.5141   450
 4.5241   424
 4.5341   374
 4.5441   318
 4.5541   262
 4.5641   259
 4.5741   212
 4.5841   183
 4.5941   167
 4.6041   134
 4.6141   143
 4.6241   122
 4.6341   122
 4.6441   131
 4.6541    98
 4.6641   122
 4.6741   112
 4.6841   113
 4.6941   119
 4.7041    94
 4.7141    95
 4.7241   103
 4.7341    98
 4.7441    82
 4.7541   121
 4.7641   126
 4.7741   127
 4.7841   146
 4.7941   133
 4.8041   147
 4.8141   149
 4.8241   140
 4.8341   152
 4.8441   160
 4.8541   152
 4.8641   161
 4.8741   179
 4.8841   171
 4.8941   193
 4.9041   178
 4.9141   198
 4.9241   162
 4.9341   179
 4.9441   196
 4.9541   179
 4.9641   164
 4.9741   164
 4.9841   150
 4.9941   137
 5.0041   135
 5.0141   128
 5.0241   118
 5.0341   118
 5.0441   121
 5.0541   113
 5.0641   123
 5.0741   132
 5.0841   115
 5.0941   114
 5.1041    94
 5.1141   122
 5.1241   120
 5.1341   119
 5.1441   115
 5.1541   117
 5.1641   124
 5.1741   120
 5.1841   120
 5.1941   113
 5.2041   102
 5.2141   121
 5.2241   112
 5.2341   128
 5.2441   112
 5.2541   122
 5.2641   120
 5.2741   142
 5.2841   147
 5.2941   168
 5.3041   163
 5.3141   198
 5.3241   272
 5.3341   292
 5.3441   334
 5.3541   381
 5.3641   418
 5.3741   487
 5.3841   513
 5.3941   546
 5.4041   523
 5.4141   529
 5.4241   507
 5.4341   489
 5.4441   434
 5.4541   431
 5.4641   386
 5.4741   350
 5.4841   305
 5.4941   261
 5.5041   236
 5.5141   175
 5.5241   142
 5.5341   156
 5.5441   154
 5.5541   141
 5.5641   135
 5.5741   136
 5.5841   139
 5.5941   126
 5.6041   130
 5.6141   123
 5.6241   135
 5.6341   118
 5.6441   116
 5.6541   136
 5.6641   114
 5.6741   117
 5.6841   115
 5.6941   121
 5.7041   103
 5.7141   127
 5.7241   120
 5.7341   132
 5.7441   135
 5.7541   133
 5.7641   131
 5.7741   173
 5.7841   195
 5.7941   203
 5.8041   220
 5.8141   239
 5.8241   252
 5.8341   310
 5.8441   340
 5.8541   385
 5.8641   403
 5.8741   426
 5.8841   448
 5.8941   476
 5.9041   491
 5.9141   422
 5.9241   438
 5.9341   401
 5.9441   355
 5.9541   356
 5.9641   339
 5.9741   301
 5.9841   292
 5.9941   264
 6.0041   209
 6.0141   210
 6.0241   179
 6.0341   178
 6.0441   162
 6.0541   187
 6.0641   172
 6.0741   153
 6.0841   155
 6.0941   174
 6.1041   137
 6.1141   157
 6.1241   149
 6.1341   156
 6.1441   172
 6.1541   185
 6.1641   223
 6.1741   221
 6.1841   221
 6.1941   273
 6.2041   344
 6.2141   405
 6.2241   507
 6.2341   737
 6.2441   901
 6.2541  1320
 6.2641  1847
 6.2741  2556
 6.2841  3465
 6.2941  4382
 6.3041  5671
 6.3141  7348
 6.3241  8751
 6.3341 10667
 6.3441 12232
 6.3541 14301
 6.3641 15787
 6.3741 16826
 6.3841 17914
 6.3941 18300
 6.4041 18219
 6.4141 17597
 6.4241 16680
 6.4341 15289
 6.4441 13717
 6.4541 11882
 6.4641  9958
 6.4741  8186
 6.4841  6578
 6.4941  5135
 6.5041  3984
 6.5141  2943
 6.5241  2207
 6.5341  1491
 6.5441  1131
 6.5541   809
 6.5641   574
 6.5741   419
 6.5841   341
 6.5941   285
 6.6041   253
 6.6141   221
 6.6241   207
 6.6341   201
 6.6441   183
 6.6541   189
 6.6641   180
 6.6741   213
 6.6841   162
 6.6941   184
 6.7041   156
 6.7141   150
 6.7241   176
 6.7341   183
 6.7441   208
 6.7541   196
 6.7641   179
 6.7741   204
 6.7841   197
 6.7941   186
 6.8041   200
 6.8141   196
 6.8241   209
 6.8341   234
 6.8441   267
 6.8541   266
 6.8641   300
 6.8741   322
 6.8841   350
 6.8941   404
 6.9041   500
 6.9141   543
 6.9241   651
 6.9341   783
 6.9441   937
 6.9541  1143
 6.9641  1318
 6.9741  1692
 6.9841  1859
 6.9941  2207
 7.0041  2477
 7.0141  2777
 7.0241  2934
 7.0341  3038
 7.0441  3220
 7.0541  3200
 7.0641  3056
 7.0741  2963
 7.0841  2855
 7.0941  2751
 7.1041  2393
 7.1141  2032
 7.1241  1871
 7.1341  1557
 7.1441  1253
 7.1541  1127
 7.1641   875
 7.1741   644
 7.1841   544
 7.1941   465
 7.2041   390
 7.2141   355
 7.2241   310
 7.2341   305
 7.2441   280
 7.2541   250
 7.2641   292
 7.2741   261
 7.2841   257
 7.2941   286
 7.3041   277
 7.3141   345
 7.3241   354
 7.3341   403
 7.3441   466
 7.3541   497
 7.3641   564
 7.3741   663
 7.3841   708
 7.3941   806
 7.4041   929
 7.4141  1029
 7.4241  1107
 7.4341  1156
 7.4441  1099
 7.4541  1260
 7.4641  1294
 7.4741  1240
 7.4841  1203
 7.4941  1163
 7.5041  1193
 7.5141   997
 7.5241   878
 7.5341   837
 7.5441   746
 7.5541   681
 7.5641   558
 7.5741   502
 7.5841   435
 7.5941   383
 7.6041   337
 7.6141   303
 7.6241   297
 7.6341   243
 7.6441   232
 7.6541   250
 7.6641   259
 7.6741   292
 7.6841   252
 7.6941   255
 7.7041   279
 7.7141   268
 7.7241   261
 7.7341   278
 7.7441   285
 7.7541   252
 7.7641   307
 7.7741   272
 7.7841   293
 7.7941   284
 7.8041   293
 7.8141   311
 7.8241   334
 7.8341   369
 7.8441   345
 7.8541   370
 7.8641   349
 7.8741   376
 7.8841   397
 7.8941   398
 7.9041   421
 7.9141   429
 7.9241   460
 7.9341   463
 7.9441   476
 7.9541   541
 7.9641   528
 7.9741   582
 7.9841   607
 7.9941   710
 8.0041   732
 8.0141   782
 8.0241   827
 8.0341   918
 8.0441   950
 8.0541  1056
 8.0641  1068
 8.0741  1193
 8.0841  1316
 8.0941  1271
 8.1041  1384
 8.1141  1429
 8.1241  1494
 8.1341  1474
 8.1441  1543
 8.1541  1649
 8.1641  1660
 8.1741  1711
 8.1841  1752
 8.1941  1896
 8.2041  1805
 8.2141  1803
 8.2241  1920
 8.2341  1894
 8.2441  2051
 8.2541  2028
 8.2641  2055
 8.2741  2261
 8.2841  2400
 8.2941  2529
 8.3041  2694
 8.3141  2877
 8.3241  3036
 8.3341  3339
 8.3441  3500
 8.3541  3710
 8.3641  3853
 8.3741  3931
 8.3841  3997
 8.3941  3885
 8.4041  3853
 8.4141  3661
 8.4241  3450
 8.4341  3285
 8.4441  2929
 8.4541  2607
 8.4641  2339
 8.4741  2050
 8.4841  1782
 8.4941  1464
 8.5041  1249
 8.5141  1081
 8.5241   908
 8.5341   737
 8.5441   670
 8.5541   561
 8.5641   556
 8.5741   514
 8.5841   444
 8.5941   448
 8.6041   433
 8.6141   424
 8.6241   422
 8.6341   428
 8.6441   432
 8.6541   440
 8.6641   463
 8.6741   425
 8.6841   442
 8.6941   422
 8.7041   443
 8.7141   411
 8.7241   393
 8.7341   406
 8.7441   379
 8.7541   401
 8.7641   398
 8.7741   379
 8.7841   380
 8.7941   403
 8.8041   362
 8.8141   399
 8.8241   376
 8.8341   358
 8.8441   390
 8.8541   390
 8.8641   396
 8.8741   389
 8.8841   394
 8.8941   380
 8.9041   401
 8.9141   396
 8.9241   396
 8.9341   380
 8.9441   386
 8.9541   407
 8.9641   404
 8.9741   395
 8.9841   407
 8.9941   386
 9.0041   411
 9.0141   460
 9.0241   466
 9.0341   506
 9.0441   493
 9.0541   456
 9.0641   505
 9.0741   507
 9.0841   507
 9.0941   517
 9.1041   587
 9.1141   573
 9.1241   635
 9.1341   660
 9.1441   687
 9.1541   684
 9.1641   714
 9.1741   763
 9.1841   799
 9.1941   836
 9.2041   870
 9.2141   878
 9.2241   922
 9.2341   983
 9.2441  1052
 9.2541  1066
 9.2641  1135
 9.2741  1213
 9.2841  1254
 9.2941  1324
 9.3041  1385
 9.3141  1327
 9.3241  1416
 9.3341  1473
 9.3441  1558
 9.3541  1494
 9.3641  1581
 9.3741  1595
 9.3841  1655
 9.3941  1709
 9.4041  1674
 9.4141  1684
 9.4241  1688
 9.4341  1722
 9.4441  1756
 9.4541  1833
 9.4641  1731
 9.4741  1783
 9.4841  1851
 9.4941  1841
 9.5041  1908
 9.5141  1947
 9.5241  2007
 9.5341  2118
 9.5441  2198
 9.5541  2299
 9.5641  2381
 9.5741  2560
 9.5841  2674
 9.5941  2847
 9.6041  2954
 9.6141  3112
 9.6241  3296
 9.6341  3480
 9.6441  3523
 9.6541  3532
 9.6641  3542
 9.6741  3502
 9.6841  3473
 9.6941  3462
 9.7041  3268
 9.7141  3149
 9.7241  2963
 9.7341  2689
 9.7441  2494
 9.7541  2374
 9.7641  2167
 9.7741  1984
 9.7841  1902
 9.7941  1712
 9.8041  1614
 9.8141  1554
 9.8241  1463
 9.8341  1465
 9.8441  1510
 9.8541  1402
 9.8641  1429
 9.8741  1522
 9.8841  1493
 9.8941  1539
 9.9041  1570
 9.9141  1588
 9.9241  1643
 9.9341  1661
 9.9441  1713
 9.9541  1724
 9.9641  1663
 9.9741  1551
 9.9841  1548
 9.9941  1460
10.0041  1361
10.0141  1275
10.0241  1175
10.0341  1084
10.0441   944
10.0541   862
10.0641   784
10.0741   689
10.0841   620
10.0941   563
10.1041   504
10.1141   442
10.1241   397
10.1341   398
10.1441   339
10.1541   365
10.1641   327
10.1741   298
10.1841   290
10.1941   301
10.2041   302
10.2141   281
10.2241   256
10.2341   233
10.2441   240
10.2541   239
10.2641   242
10.2741   236
10.2841   227
10.2941   228
10.3041   225
10.3141   221
10.3241   205
10.3341   208
10.3441   190
10.3541   212
10.3641   208
10.3741   210
10.3841   212
10.3941   212
10.4041   205
10.4141   199
10.4241   201
10.4341   217
10.4441   212
10.4541   213
10.4641   216
10.4741   219
10.4841   217
10.4941   224
10.5041   231
10.5141   221
10.5241   249
10.5341   243
10.5441   240
10.5541   253
10.5641   222
10.5741   255
10.5841   239
10.5941   263
10.6041   256
10.6141   251
10.6241   243
10.6341   226
10.6441   243
10.6541   238
10.6641   219
10.6741   240
10.6841   253
10.6941   271
10.7041   270
10.7141   281
10.7241   277
10.7341   274
10.7441   271
10.7541   260
10.7641   297
10.7741   302
10.7841   287
10.7941   303
10.8041   313
10.8141   311
10.8241   308
10.8341   329
10.8441   356
10.8541   371
10.8641   348
10.8741   338
10.8841   343
10.8941   363
10.9041   368
10.9141   383
10.9241   375
10.9341   343
10.9441   357
10.9541   349
10.9641   377
10.9741   364
10.9841   362
10.9941   323
11.0041   318
11.0141   322
11.0241   344
11.0341   323
11.0441   332
11.0541   326
11.0641   332
11.0741   327
11.0841   314
11.0941   323
11.1041   326
11.1141   352
11.1241   328
11.1341   321
11.1441   362
11.1541   360
11.1641   362
11.1741   362
11.1841   383
11.1941   434
11.2041   440
11.2141   451
11.2241   470
11.2341   467
11.2441   526
11.2541   534
11.2641   495
11.2741   491
11.2841   513
11.2941   543
11.3041   516
11.3141   481
11.3241   466
11.3341   438
11.3441   435
11.3541   422
11.3641   412
11.3741   386
11.3841   358
11.3941   328
11.4041   314
11.4141   315
11.4241   310
11.4341   257
11.4441   258
11.4541   254
11.4641   260
11.4741   243
11.4841   249
11.4941   277
11.5041   263
11.5141   263
11.5241   275
11.5341   264
11.5441   258
11.5541   254
11.5641   256
11.5741   263
11.5841   259
11.5941   262
11.6041   272
11.6141   250
11.6241   271
11.6341   284
11.6441   271
11.6541   276
11.6641   269
11.6741   245
11.6841   254
11.6941   257
11.7041   246
11.7141   243
11.7241   236
11.7341   249
11.7441   232
11.7541   201
11.7641   210
11.7741   214
11.7841   202
11.7941   191
11.8041   207
11.8141   199
11.8241   191
11.8341   183
11.8441   190
11.8541   206
11.8641   191
11.8741   184
11.8841   197
11.8941   202
11.9041   179
11.9141   188
11.9241   190
11.9341   177
11.9441   178
11.9541   173
11.9641   179
11.9741   181
11.9841   191
11.9941   192
12.0041   200
12.0141   189
12.0241   200
12.0341   191
12.0441   198
12.0541   214
12.0641   212
12.0741   201
12.0841   209
12.0941   205
12.1041   192
12.1141   180
12.1241   195
12.1341   210
12.1441   201
12.1541   182
12.1641   189
12.1741   203
12.1841   194
12.1941   195
12.2041   190
12.2141   187
12.2241   178
12.2341   168
12.2441   187
12.2541   186
12.2641   177
12.2741   184
12.2841   191
12.2941   196
12.3041   201
12.3141   196
12.3241   192
12.3341   196
12.3441   194
12.3541   181
12.3641   182
12.3741   187
12.3841   178
12.3941   183
12.4041   192
12.4141   192
12.4241   179
12.4341   183
12.4441   186
12.4541   197
12.4641   196
12.4741   199
12.4841   218
12.4941   210
12.5041   204
12.5141   196
12.5241   206
12.5341   223
12.5441   200
12.5541   201
12.5641   219
12.5741   211
12.5841   218
12.5941   216
12.6041   206
12.6141   220
12.6241   235
12.6341   227
12.6441   210
12.6541   186
12.6641   198
12.6741   220
12.6841   213
12.6941   204
12.7041   209
12.7141   217
12.7241   224
12.7341   211
12.7441   204
12.7541   210
12.7641   209
12.7741   206
12.7841   207
12.7941   211
12.8041   214
12.8141   215
12.8241   213
12.8341   212
12.8441   210
12.8541   208
12.8641   209
12.8741   208
12.8841   206
12.8941   206
12.9041   207
12.9141   204
12.9241   205
12.9341   212
12.9441   215
12.9541   216
12.9641   218
12.9741   216
12.9841   213
12.9941   218
13.0041   223
13.0141   224
13.0241   229
13.0341   229
13.0441   222
13.0541   221
13.0641   224
13.0741   226
13.0841   229
13.0941   231
13.1041   231
13.1141   226
13.1241   224
13.1341   232
13.1441   242
13.1541   247
13.1641   243
13.1741   236
13.1841   238
13.1941   256
13.2041   262
13.2141   293
13.2241   304
13.2341   309
13.2441   348
13.2541   359
13.2641   381
13.2741   404
13.2841   420
13.2941   430
13.3041   473
13.3141   519
13.3241   519
13.3341   532
13.3441   565
13.3541   567
13.3641   550
13.3741   568
13.3841   578
13.3941   546
13.4041   545
13.4141   540
13.4241   526
13.4341   513
13.4441   472
13.4541   459
13.4641   448
13.4741   410
13.4841   395
13.4941   379
13.5041   353
13.5141   335
13.5241   315
13.5341   298
13.5441   301
13.5541   303
13.5641   278
13.5741   265
13.5841   273
13.5941   274
13.6041   258
13.6141   260
13.6241   256
13.6341   239
13.6441   252
13.6541   270
13.6641   262
13.6741   260
13.6841   255
13.6941   239
13.7041   240
13.7141   272
13.7241   271
13.7341   261
13.7441   262
13.7541   251
13.7641   248
13.7741   255
13.7841   262
13.7941   270
13.8041   270
13.8141   270
13.8241   271
13.8341   279
13.8441   282
13.8541   277
13.8641   272
13.8741   271
13.8841   274
13.8941   279
13.9041   295
13.9141   303
13.9241   317
13.9341   316
13.9441   343
13.9541   381
13.9641   381
13.9741   370
13.9841   408
13.9941   484
14.0041   512
14.0141   513
14.0241   553
14.0341   607
14.0441   630
14.0541   669
14.0641   725
14.0741   799
14.0841   867
14.0941   876
14.1041   875
14.1141   912
14.1241   960
14.1341   972
14.1441   957
14.1541   947
14.1641   915
14.1741   912
14.1841   870
14.1941   790
14.2041   779
14.2141   748
14.2241   722
14.2341   698
14.2441   641
14.2541   608
14.2641   556
14.2741   519
14.2841   493
14.2941   449
14.3041   412
14.3141   380
14.3241   364
14.3341   342
14.3441   357
14.3541   351
14.3641   322
14.3741   309
14.3841   299
14.3941   315
14.4041   321
14.4141   304
14.4241   292
14.4341   294
14.4441   293
14.4541   294
14.4641   289
14.4741   294
14.4841   307
14.4941   307
14.5041   298
14.5141   293
14.5241   298
14.5341   291
14.5441   288
14.5541   302
14.5641   305
14.5741   298
14.5841   281
14.5941   285
14.6041   302
14.6141   303
14.6241   297
14.6341   292
14.6441   307
14.6541   312
14.6641   312
14.6741   311
14.6841   324
14.6941   321
14.7041   314
14.7141   330
14.7241   325
14.7341   323
14.7441   332
14.7541   341
14.7641   335
14.7741   346
14.7841   324
14.7941   312
14.8041   332
14.8141   351
14.8241   357
14.8341   359
14.8441   374
14.8541   376
14.8641   386
14.8741   403
14.8841   403
14.8941   415
14.9041   419
14.9141   398
14.9241   411
14.9341   431
14.9441   447
14.9541   464
14.9641   437
14.9741   410
14.9841   419
14.9941   404
15.0041   406
15.0141   395
15.0241   382
15.0341   384
15.0441   385
15.0541   378
15.0641   369
15.0741   352
15.0841   347
15.0941   334
15.1041   339
15.1141   342
15.1241   338
15.1341   351
15.1441   366
15.1541   350
15.1641   317
15.1741   346
15.1841   360
15.1941   351
15.2041   346
15.2141   343
15.2241   338
15.2341   342
15.2441   353
15.2541   351
15.2641   353
15.2741   347
15.2841   350
15.2941   362
15.3041   369
15.3141   346
15.3241   331
15.3341   319
15.3441   324
15.3541   337
15.3641   347
15.3741   356
15.3841   349
15.3941   367
15.4041   365
15.4141   354
15.4241   355
15.4341   369
15.4441   368
15.4541   382
15.4641   381
15.4741   349
15.4841   337
15.4941   370
15.5041   381
15.5141   375
15.5241   380
15.5341   365
15.5441   361
15.5541   373
15.5641   387
15.5741   391
15.5841   398
15.5941   395
15.6041   415
15.6141   444
15.6241   451
15.6341   440
15.6441   450
15.6541   457
15.6641   487
15.6741   487
15.6841   498
15.6941   512
15.7041   511
15.7141   546
15.7241   558
15.7341   571
15.7441   573
15.7541   562
15.7641   585
15.7741   588
15.7841   578
15.7941   584
15.8041   574
15.8141   592
15.8241   591
15.8341   564
15.8441   559
15.8541   537
15.8641   533
15.8741   508
15.8841   529
15.8941   533
15.9041   491
15.9141   451
15.9241   460
15.9341   464
15.9441   457
15.9541   441
15.9641   405
15.9741   427
15.9841   453
15.9941   429
16.0041   422
16.0141   406
16.0241   427
16.0341   417
16.0441   433
16.0541   429
16.0641   395
16.0741   385
16.0841   386
16.0941   390
16.1041   409
16.1141   419
16.1241   402
16.1341   379
16.1441   402
16.1541   414
16.1641   405
16.1741   418
16.1841   406
16.1941   409
16.2041   433
16.2141   422
16.2241   414
16.2341   382
16.2441   371
16.2541   384
16.2641   398
16.2741   404
16.2841   407
16.2941   429
16.3041   426
16.3141   432
16.3241   429
16.3341   399
16.3441   396
16.3541   404
16.3641   406
16.3741   419
16.3841   418
16.3941   406
16.4041   435
16.4141   408
16.4241   380
16.4341   388
16.4441   405
16.4541   418
16.4641   427
16.4741   406
16.4841   424
16.4941   417
16.5041   436
16.5141   455
16.5241   447
16.5341   420
16.5441   421
16.5541   430
16.5641   437
16.5741   421
16.5841   410
16.5941   419
16.6041   414
16.6141   417
16.6241   408
16.6341   426
16.6441   450
16.6541   456
16.6641   460
16.6741   436
16.6841   419
16.6941   421
16.7041   433
16.7141   433
16.7241   453
16.7341   448
16.7441   445
16.7541   479
16.7641   447
16.7741   453
16.7841   438
16.7941   434
16.8041   432
16.8141   455
16.8241   491
16.8341   464
16.8441   444
16.8541   442
16.8641   455
16.8741   449
16.8841   447
16.8941   462
16.9041   473
16.9141   469
16.9241   451
16.9341   464
16.9441   451
16.9541   459
16.9641   461
16.9741   451
16.9841   429
16.9941   445
17.0041   481
17.0141   478
17.0241   470
17.0341   488
17.0441   458
17.0541   465
17.0641   464
17.0741   463
17.0841   457
17.0941   452
17.1041   449
17.1141   439
17.1241   455
17.1341   480
17.1441   458
17.1541   460
17.1641   495
17.1741   482
17.1841   443
17.1941   474
17.2041   481
17.2141   479
17.2241   476
17.2341   439
17.2441   447
17.2541   472
17.2641   480
17.2741   470
17.2841   485
17.2941   498
17.3041   486
17.3141   501
17.3241   483
17.3341   466
17.3441   475
17.3541   496
17.3641   480
17.3741   477
17.3841   484
17.3941   523
17.4041   517
17.4141   516
17.4241   516
17.4341   509
17.4441   482
17.4541   486
17.4641   508
17.4741   507
17.4841   506
17.4941   522
17.5041   510
17.5141   463
17.5241   466
17.5341   481
17.5441   519
17.5541   509
17.5641   498
17.5741   515
17.5841   534
17.5941   520
17.6041   480
17.6141   512
17.6241   553
17.6341   515
17.6441   502
17.6541   504
17.6641   526
17.6741   514
17.6841   527
17.6941   538
17.7041   551
17.7141   540
17.7241   551
17.7341   537
17.7441   512
17.7541   516
17.7641   501
17.7741   522
17.7841   520
17.7941   528
17.8041   523
17.8141   507
17.8241   516
17.8341   518
17.8441   509
17.8541   541
17.8641   534
17.8741   512
17.8841   524
17.8941   525
17.9041   528
17.9141   543
17.9241   514
17.9341   517
17.9441   535
17.9541   524
17.9641   527
17.9741   525
17.9841   545
17.9941   522
18.0041   511
18.0141   522
18.0241   551
18.0341   553
18.0441   504
18.0541   531
18.0641   559
18.0741   549
18.0841   522
18.0941   494
18.1041   525
18.1141   517
18.1241   510
18.1341   525
18.1441   518
18.1541   506
18.1641   525
18.1741   551
18.1841   564
18.1941   556
18.2041   543
18.2141   548
18.2241   501
18.2341   499
18.2441   537
18.2541   537
18.2641   553
18.2741   537
18.2841   512
18.2941   504
18.3041   528
18.3141   551
18.3241   549
18.3341   550
18.3441   549
18.3541   546
18.3641   576
18.3741   589
18.3841   558
18.3941   531
18.4041   536
18.4141   560
18.4241   577
18.4341   563
18.4441   562
18.4541   540
18.4641   535
18.4741   569
18.4841   574
18.4941   555
18.5041   560
18.5141   564
18.5241   605
18.5341   586
18.5441   551
18.5541   564
18.5641   578
18.5741   563
18.5841   578
18.5941   580
18.6041   593
18.6141   597
18.6241   584
18.6341   556
18.6441   546
18.6541   573
18.6641   601
18.6741   618
18.6841   598
18.6941   605
18.7041   601
18.7141   553
18.7241   596
18.7341   550
18.7441   562
18.7541   554
18.7641   595
18.7741   591
18.7841   575
18.7941   553
18.8041   551
18.8141   556
18.8241   590
18.8341   608
18.8441   569
18.8541   587
18.8641   601
18.8741   574
18.8841   571
18.8941   576
18.9041   570
18.9141   615
18.9241   585
18.9341   578
18.9441   564
18.9541   554
18.9641   573
18.9741   556
18.9841   560
18.9941   601
19.0041   594
19.0141   590
19.0241   584
19.0341   590
19.0441   615
19.0541   608
19.0641   613
19.0741   555
19.0841   613
19.0941   598
19.1041   585
19.1141   595
19.1241   596
19.1341   594
19.1441   589
19.1541   589
19.1641   592
19.1741   621
19.1841   608
19.1941   574
19.2041   550
19.2141   603
19.2241   597
19.2341   588
19.2441   574
19.2541   599
19.2641   575
19.2741   584
19.2841   607
19.2941   599
19.3041   657
19.3141   602
19.3241   586
19.3341   624
19.3441   616
19.3541   610
19.3641   602
19.3741   612
19.3841   598
19.3941   600
19.4041   620
19.4141   610
19.4241   628
19.4341   603
19.4441   611
19.4541   620
19.4641   585
19.4741   589
19.4841   604
19.4941   594
19.5041   607
19.5141   626
19.5241   626
19.5341   621
19.5441   621
19.5541   658
19.5641   589
19.5741   607
19.5841   638
19.5941   612
19.6041   624
19.6141   607
19.6241   617
19.6341   605
19.6441   627
19.6541   618
19.6641   622
19.6741   619
19.6841   610
19.6941   588
19.7041   570
19.7141   632
19.7241   608
19.7341   611
19.7441   611
19.7541   615
19.7641   624
19.7741   642
19.7841   617
19.7941   649
19.8041   605
19.8141   637
19.8241   647
19.8341   640
19.8441   605
19.8541   642
19.8641   614
19.8741   612
19.8841   625
19.8941   633
19.9041   622
19.9141   637
19.9241   645
19.9341   599
19.9441   651
19.9541   647
19.9641   633
19.9741   617
19.9841   672
19.9941   621
20.0041   621
20.0141   645
20.0241   662
20.0341   640
20.0441   675
20.0541   684
20.0641   659
20.0741   604
20.0841   643
20.0941   621
20.1041   646
20.1141   622
20.1241   638
20.1341   600
20.1441   632
20.1541   656
20.1641   614
20.1741   631
20.1841   643
20.1941   640
20.2041   614
20.2141   647
20.2241   642
20.2341   668
20.2441   627
20.2541   627
20.2641   633
20.2741   632
20.2841   652
20.2941   644
20.3041   591
20.3141   624
20.3241   653
20.3341   595
20.3441   657
20.3541   622
20.3641   658
20.3741   681
20.3841   668
20.3941   667
20.4041   667
20.4141   658
20.4241   631
20.4341   654
20.4441   660
20.4541   604
20.4641   621
20.4741   696
20.4841   665
20.4941   705
20.5041   682
20.5141   666
20.5241   643
20.5341   635
20.5441   646
20.5541   646
20.5641   657
20.5741   649
20.5841   643
20.5941   650
20.6041   613
20.6141   645
20.6241   654
20.6341   675
20.6441   616
20.6541   633
20.6641   670
20.6741   635
20.6841   633
20.6941   639
20.7041   677
20.7141   625
20.7241   633
20.7341   636
20.7441   679
20.7541   602
20.7641   666
20.7741   695
20.7841   721
20.7941   707
20.8041   697
20.8141   703
20.8241   691
20.8341   710
20.8441   719
20.8541   716
20.8641   730
20.8741   739
20.8841   699
20.8941   721
20.9041   771
20.9141   795
20.9241   790
20.9341   784
20.9441   803
20.9541   828
20.9641   835
20.9741   873
20.9841   873
20.9941   914
21.0041   962
21.0141   954
21.0241   932
21.0341   980
21.0441   928
21.0541   980
21.0641   973
21.0741   977
21.0841  1005
21.0941  1042
21.1041   964
21.1141   997
21.1241  1027
21.1341  1054
21.1441  1013
21.1541  1022
21.1641   967
21.1741   985
21.1841   986
21.1941   987
21.2041   992
21.2141   989
21.2241  1009
21.2341   975
21.2441   896
21.2541   884
21.2641   831
21.2741   794
21.2841   786
21.2941   781
21.3041   807
21.3141   746
21.3241   798
21.3341   712
21.3441   746
21.3541   734
21.3641   678
21.3741   711
21.3841   726
21.3941   709
21.4041   731
21.4141   683
21.4241   707
21.4341   695
21.4441   646
21.4541   691
21.4641   623
21.4741   647
21.4841   655
21.4941   668
21.5041   657
21.5141   696
21.5241   684
21.5341   669
21.5441   673
21.5541   654
21.5641   655
21.5741   634
21.5841   668
21.5941   616
21.6041   672
21.6141   654
21.6241   676
21.6341   658
21.6441   666
21.6541   676
21.6641   670
21.6741   655
21.6841   686
21.6941   679
21.7041   672
21.7141   675
21.7241   653
21.7341   684
21.7441   716
21.7541   654
21.7641   693
21.7741   648
21.7841   669
21.7941   692
21.8041   671
21.8141   642
21.8241   665
21.8341   683
21.8441   696
21.8541   683
21.8641   638
21.8741   696
21.8841   714
21.8941   625
21.9041   632
21.9141   650
21.9241   701
21.9341   676
21.9441   664
21.9541   612
21.9641   699
21.9741   690
21.9841   682
21.9941   658
22.0041   683
22.0141   703
22.0241   699
22.0341   661
22.0441   683
22.0541   639
22.0641   663
22.0741   695
22.0841   674
22.0941   656
22.1041   700
22.1141   621
22.1241   725
22.1341   730
22.1441   623
22.1541   688
22.1641   652
22.1741   681
22.1841   659
22.1941   650
22.2041   684
22.2141   668
22.2241   717
22.2341   649
22.2441   635
22.2541   669
22.2641   727
22.2741   662
22.2841   669
22.2941   640
22.3041   693
22.3141   650
22.3241   693
22.3341   684
22.3441   683
22.3541   621
22.3641   675
22.3741   686
22.3841   671
22.3941   648
22.4041   723
22.4141   654
22.4241   688
22.4341   647
22.4441   644
22.4541   614
22.4641   652
22.4741   655
22.4841   659
22.4941   664
22.5041   686
22.5141   652
22.5241   687
22.5341   665
22.5441   683
22.5541   681
22.5641   678
22.5741   666
22.5841   739
22.5941   703
22.6041   657
22.6141   679
22.6241   638
22.6341   641
22.6441   645
22.6541   675
22.6641   597
22.6741   668
22.6841   709
22.6941   676
22.7041   658
22.7141   667
22.7241   663
22.7341   628
22.7441   655
22.7541   678
22.7641   627
22.7741   646
22.7841   674
22.7941   743
22.8041   656
22.8141   684
22.8241   681
22.8341   650
22.8441   685
22.8541   635
22.8641   696
22.8741   687
22.8841   674
22.8941   659
22.9041   624
22.9141   676
22.9241   649
22.9341   639
22.9441   623
22.9541   645
22.9641   712
22.9741   686
22.9841   602
22.9941   593
23.0041   625
23.0141   677
23.0241   638
23.0341   643
23.0441   651
23.0541   663
23.0641   619
23.0741   680
23.0841   670
23.0941   631
23.1041   626
23.1141   646
23.1241   641
23.1341   618
23.1441   631
23.1541   626
23.1641   613
23.1741   672
23.1841   626
23.1941   701
23.2041   626
23.2141   650
23.2241   683
23.2341   697
23.2441   698
23.2541   639
23.2641   684
23.2741   685
23.2841   627
23.2941   614
23.3041   635
23.3141   697
23.3241   621
23.3341   658
23.3441   650
23.3541   629
23.3641   653
23.3741   659
23.3841   657
23.3941   690
23.4041   632
23.4141   706
23.4241   657
23.4341   642
23.4441   612
23.4541   640
23.4641   617
23.4741   635
23.4841   639
23.4941   613
23.5041   660
23.5141   642
23.5241   684
23.5341   647
23.5441   664
23.5541   666
23.5641   650
23.5741   641
23.5841   655
23.5941   624
23.6041   644
23.6141   655
23.6241   654
23.6341   657
23.6441   691
23.6541   648
23.6641   691
23.6741   709
23.6841   673
23.6941   621
23.7041   707
23.7141   661
23.7241   653
23.7341   683
23.7441   704
23.7541   721
23.7641   653
23.7741   666
23.7841   731
23.7941   714
23.8041   690
23.8141   728
23.8241   700
23.8341   700
23.8441   679
23.8541   712
23.8641   685
23.8741   695
23.8841   677
23.8941   713
23.9041   696
23.9141   643
23.9241   684
23.9341   625
23.9441   680
23.9541   677
23.9641   647
23.9741   634
23.9841   661
23.9941   639
24.0041   659
24.0141   651
24.0241   615
24.0341   633
24.0441   630
24.0541   617
24.0641   673
24.0741   616
24.0841   646
24.0941   688
24.1041   578
24.1141   640
24.1241   600
24.1341   630
24.1441   607
24.1541   633
24.1641   627
24.1741   611
24.1841   627
24.1941   641
24.2041   586
24.2141   586
24.2241   646
24.2341   639
24.2441   614
24.2541   593
24.2641   617
24.2741   641
24.2841   617
24.2941   600
24.3041   611
24.3141   612
24.3241   631
24.3341   642
24.3441   604
24.3541   635
24.3641   614
24.3741   633
24.3841   586
24.3941   636
24.4041   630
24.4141   576
24.4241   606
24.4341   604
24.4441   579
24.4541   616
24.4641   630
24.4741   589
24.4841   619
24.4941   593
24.5041   573
24.5141   656
24.5241   668
24.5341   602
24.5441   586
24.5541   563
24.5641   610
24.5741   619
24.5841   584
24.5941   613
24.6041   622
24.6141   586
24.6241   564
24.6341   593
24.6441   609
24.6541   583
24.6641   647
24.6741   607
24.6841   609
24.6941   592
24.7041   597
24.7141   615
24.7241   591
24.7341   582
24.7441   601
24.7541   607
24.7641   614
24.7741   602
24.7841   574
24.7941   601
24.8041   620
24.8141   635
24.8241   548
24.8341   607
24.8441   656
24.8541   620
24.8641   596
24.8741   605
24.8841   567
24.8941   595
24.9041   580
24.9141   588
24.9241   618
24.9341   582
24.9441   604
24.9541   581
24.9641   597
24.9741   614
24.9841   587
24.9941   597
25.0041   628
25.0141   632
25.0241   624
25.0341   633
25.0441   573
25.0541   562
25.0641   635
25.0741   598
25.0841   608
25.0941   640
25.1041   649
25.1141   590
25.1241   614
25.1341   619
25.1441   622
25.1541   620
25.1641   622
25.1741   626
25.1841   610
25.1941   604
25.2041   631
25.2141   598
25.2241   617
25.2341   622
25.2441   643
25.2541   610
25.2641   614
25.2741   603
25.2841   653
25.2941   588
25.3041   571
25.3141   562
25.3241   619
25.3341   607
25.3441   564
25.3541   607
25.3641   608
25.3741   602
25.3841   595
25.3941   570
25.4041   556
25.4141   568
25.4241   617
25.4341   582
25.4441   596
25.4541   590
25.4641   537
25.4741   563
25.4841   542
25.4941   565
25.5041   595
25.5141   560
25.5241   565
25.5341   603
25.5441   583
25.5541   567
25.5641   524
25.5741   553
25.5841   599
25.5941   539
25.6041   564
25.6141   561
25.6241   556
25.6341   542
25.6441   543
25.6541   584
25.6641   603
25.6741   554
25.6841   555
25.6941   553
25.7041   551
25.7141   546
25.7241   570
25.7341   551
25.7441   578
25.7541   563
25.7641   530
25.7741   562
25.7841   592
25.7941   532
25.8041   568
25.8141   554
25.8241   555
25.8341   545
25.8441   601
25.8541   567
25.8641   552
25.8741   539
25.8841   568
25.8941   552
25.9041   543
25.9141   583
25.9241   552
25.9341   548
25.9441   526
25.9541   571
25.9641   548
25.9741   522
25.9841   543
25.9941   534
26.0041   502
26.0141   554
26.0241   557
26.0341   560
26.0441   549
26.0541   551
26.0641   515
26.0741   526
26.0841   520
26.0941   539
26.1041   544
26.1141   542
26.1241   545
26.1341   526
26.1441   509
26.1541   538
26.1641   547
26.1741   544
26.1841   574
26.1941   526
26.2041   552
26.2141   530
26.2241   515
26.2341   545
26.2441   553
26.2541   530
26.2641   563
26.2741   544
26.2841   535
26.2941   552
26.3041   503
26.3141   525
26.3241   547
26.3341   561
26.3441   520
26.3541   525
26.3641   576
26.3741   506
26.3841   564
26.3941   557
26.4041   526
26.4141   538
26.4241   546
26.4341   524
26.4441   575
26.4541   553
26.4641   538
26.4741   527
26.4841   514
26.4941   542
26.5041   544
26.5141   532
26.5241   536
26.5341   543
26.5441   530
26.5541   526
26.5641   521
26.5741   525
26.5841   473
26.5941   548
26.6041   536
26.6141   513
26.6241   581
26.6341   521
26.6441   543
26.6541   460
26.6641   511
26.6741   528
26.6841   527
26.6941   523
26.7041   473
26.7141   498
26.7241   516
26.7341   532
26.7441   522
26.7541   536
26.7641   547
26.7741   500
26.7841   477
26.7941   504
26.8041   564
26.8141   489
26.8241   552
26.8341   508
26.8441   549
26.8541   488
26.8641   504
26.8741   497
26.8841   515
26.8941   517
26.9041   501
26.9141   544
26.9241   482
26.9341   482
26.9441   500
26.9541   505
26.9641   523
26.9741   515
26.9841   486
26.9941   519
27.0041   537
27.0141   503
27.0241   524
27.0341   503
27.0441   472
27.0541   493
27.0641   489
27.0741   465
27.0841   517
27.0941   462
27.1041   477
27.1141   515
27.1241   569
27.1341   512
27.1441   510
27.1541   529
27.1641   486
27.1741   486
27.1841   495
27.1941   503
27.2041   520
27.2141   511
27.2241   484
27.2341   492
27.2441   517
27.2541   520
27.2641   490
27.2741   483
27.2841   518
27.2941   499
27.3041   531
27.3141   523
27.3241   493
27.3341   501
27.3441   458
27.3541   466
27.3641   499
27.3741   508
27.3841   466
27.3941   442
27.4041   488
27.4141   504
27.4241   509
27.4341   470
27.4441   480
27.4541   482
27.4641   480
27.4741   487
27.4841   468
27.4941   460
27.5041   484
27.5141   484
27.5241   504
27.5341   482
27.5441   474
27.5541   491
27.5641   479
27.5741   476
27.5841   469
27.5941   494
27.6041   469
27.6141   483
27.6241   444
27.6341   466
27.6441   460
27.6541   443
27.6641   481
27.6741   474
27.6841   458
27.6941   442
27.7041   460
27.7141   505
27.7241   446
27.7341   468
27.7441   480
27.7541   445
27.7641   448
27.7741   448
27.7841   466
27.7941   472
27.8041   494
27.8141   425
27.8241   471
27.8341   450
27.8441   441
27.8541   439
27.8641   515
27.8741   488
27.8841   491
27.8941   474
27.9041   486
27.9141   465
27.9241   437
27.9341   449
27.9441   455
27.9541   454
27.9641   477
27.9741   429
27.9841   414
27.9941   454
28.0041   430
28.0141   454
28.0241   438
28.0341   465
28.0441   453
28.0541   427
28.0641   468
28.0741   421
28.0841   460
28.0941   438
28.1041   442
28.1141   426
28.1241   446
28.1341   409
28.1441   408
28.1541   474
28.1641   452
28.1741   444
28.1841   408
28.1941   454
28.2041   430
28.2141   441
28.2241   418
28.2341   417
28.2441   457
28.2541   436
28.2641   448
28.2741   432
28.2841   413
28.2941   435
28.3041   474
28.3141   409
28.3241   455
28.3341   415
28.3441   417
28.3541   436
28.3641   441
28.3741   434
28.3841   422
28.3941   410
28.4041   415
28.4141   427
28.4241   460
28.4341   438
28.4441   402
28.4541   451
28.4641   458
28.4741   448
28.4841   429
28.4941   474
28.5041   431
28.5141   412
28.5241   431
28.5341   450
28.5441   461
28.5541   439
28.5641   422
28.5741   448
28.5841   454
28.5941   433
28.6041   434
28.6141   418
28.6241   420
28.6341   452
28.6441   455
28.6541   417
28.6641   417
28.6741   384
28.6841   409
28.6941   390
28.7041   418
28.7141   413
28.7241   414
28.7341   393
28.7441   415
28.7541   426
28.7641   393
28.7741   414
28.7841   432
28.7941   417
28.8041   415
28.8141   409
28.8241   400
28.8341   402
28.8441   415
28.8541   421
28.8641   416
28.8741   384
28.8841   428
28.8941   423
28.9041   407
28.9141   414
28.9241   407
28.9341   417
28.9441   439
28.9541   399
28.9641   390
28.9741   397
28.9841   383
28.9941   413
29.0041   387
29.0141   418
29.0241   396
29.0341   391
29.0441   426
29.0541   429
29.0641   391
29.0741   406
29.0841   381
29.0941   372
29.1041   397
29.1141   391
29.1241   394
29.1341   378
29.1441   430
29.1541   430
29.1641   403
29.1741   372
29.1841   408
29.1941   387
29.2041   401
29.2141   403
29.2241   395
29.2341   392
29.2441   369
29.2541   372
29.2641   376
29.2741   376
29.2841   400
29.2941   381
29.3041   382
29.3141   380
29.3241   344
29.3341   385
29.3441   409
29.3541   391
29.3641   398
29.3741   392
29.3841   382
29.3941   363
29.4041   362
29.4141   377
29.4241   358
29.4341   398
29.4441   387
29.4541   404
29.4641   382
29.4741   366
29.4841   355
29.4941   375
29.5041   357
29.5141   368
29.5241   371
29.5341   376
29.5441   367
29.5541   393
29.5641   327
29.5741   367
29.5841   345
29.5941   380
29.6041   363
29.6141   355
29.6241   377
29.6341   386
29.6441   369
29.6541   380
29.6641   369
29.6741   343
29.6841   389
29.6941   362
29.7041   386
29.7141   363
29.7241   370
29.7341   370
29.7441   333
29.7541   377
29.7641   344
29.7741   371
29.7841   367
29.7941   359
29.8041   343
29.8141   344
29.8241   363
29.8341   356
29.8441   378
29.8541   336
29.8641   364
29.8741   359
29.8841   382
29.8941   364
29.9041   382
29.9141   400
29.9241   369
29.9341   389
29.9441   349
29.9541   342
29.9641   366
29.9741   367
29.9841   354
29.9941   353
30.0041   368
30.0141   352
30.0241   324
30.0341   347
30.0441   351
30.0541   355
30.0641   373
30.0741   342
30.0841   348
30.0941   332
30.1041   328
30.1141   344
30.1241   325
30.1341   352
30.1441   318
30.1541   365
30.1641   364
30.1741   325
30.1841   345
30.1941   323
30.2041   311
30.2141   335
30.2241   343
30.2341   323
30.2441   341
30.2541   327
30.2641   359
30.2741   337
30.2841   362
30.2941   344
30.3041   321
30.3141   334
30.3241   325
30.3341   342
30.3441   305
30.3541   316
30.3641   327
30.3741   328
30.3841   343
30.3941   336
30.4041   304
30.4141   306
30.4241   338
30.4341   344
30.4441   337
30.4541   351
30.4641   303
30.4741   346
30.4841   343
30.4941   339
30.5041   317
30.5141   317
30.5241   313
30.5341   326
30.5441   323
30.5541   333
30.5641   312
30.5741   298
30.5841   293
30.5941   330
30.6041   329
30.6141   340
30.6241   343
30.6341   330
30.6441   304
30.6541   347
30.6641   353
30.6741   318
30.6841   316
30.6941   316
30.7041   312
30.7141   319
30.7241   306
30.7341   323
30.7441   320
30.7541   314
30.7641   331
30.7741   325
30.7841   289
30.7941   302
30.8041   317
30.8141   332
30.8241   299
30.8341   349
30.8441   327
30.8541   311
30.8641   316
30.8741   300
30.8841   295
30.8941   296
30.9041   311
30.9141   281
30.9241   330
30.9341   317
30.9441   309
30.9541   297
30.9641   301
30.9741   294
30.9841   293
30.9941   309
31.0041   299
31.0141   311
31.0241   290
31.0341   304
31.0441   292
31.0541   305
31.0641   322
31.0741   311
31.0841   281
31.0941   291
31.1041   291
31.1141   268
31.1241   315
31.1341   290
31.1441   282
31.1541   315
31.1641   265
31.1741   287
31.1841   294
31.1941   294
31.2041   284
31.2141   282
31.2241   272
31.2341   297
31.2441   289
31.2541   287
31.2641   277
31.2741   279
31.2841   274
31.2941   300
31.3041   271
31.3141   274
31.3241   317
31.3341   294
31.3441   302
31.3541   304
31.3641   309
31.3741   296
31.3841   297
31.3941   286
31.4041   288
31.4141   261
31.4241   283
31.4341   275
31.4441   298
31.4541   273
31.4641   293
31.4741   268
31.4841   285
31.4941   272
31.5041   286
31.5141   276
31.5241   271
31.5341   268
31.5441   251
31.5541   297
31.5641   274
31.5741   295
31.5841   271
31.5941   269
31.6041   258
31.6141   294
31.6241   305
31.6341   268
31.6441   280
31.6541   314
31.6641   299
31.6741   280
31.6841   278
31.6941   274
31.7041   255
31.7141   312
31.7241   257
31.7341   273
31.7441   273
31.7541   270
31.7641   275
31.7741   299
31.7841   316
31.7941   312
31.8041   289
31.8141   301
31.8241   279
31.8341   286
31.8441   308
31.8541   302
31.8641   314
31.8741   304
31.8841   284
31.8941   312
31.9041   289
31.9141   317
31.9241   268
31.9341   280
31.9441   268
31.9541   261
31.9641   306
31.9741   285
31.9841   274
31.9941   282
32.0041   285
32.0141   310
32.0241   260
32.0341   301
32.0441   272
32.0541   252
32.0641   317
32.0741   325
32.0841   290
32.0941   297
32.1041   270
32.1141   267
32.1241   305
32.1341   274
32.1441   275
32.1541   289
32.1641   308
32.1741   289
32.1841   274
32.1941   312
32.2041   258
32.2141   299
32.2241   278
32.2341   313
32.2441   294
32.2541   314
32.2641   284
32.2741   305
32.2841   300
32.2941   252
32.3041   271
32.3141   280
32.3241   270
32.3341   293
32.3441   269
32.3541   272
32.3641   267
32.3741   265
32.3841   267
32.3941   255
32.4041   245
32.4141   274
32.4241   267
32.4341   255
32.4441   238
32.4541   252
32.4641   230
32.4741   221
32.4841   271
32.4941   255
32.5041   248
32.5141   251
32.5241   245
32.5341   254
32.5441   220
32.5541   236
32.5641   219
32.5741   246
32.5841   249
32.5941   218
32.6041   222
32.6141   252
32.6241   234
32.6341   219
32.6441   240
32.6541   246
32.6641   229
32.6741   234
32.6841   231
32.6941   235
32.7041   229
32.7141   227
32.7241   217
32.7341   240
32.7441   230
32.7541   206
32.7641   248
32.7741   220
32.7841   230
32.7941   224
32.8041   232
32.8141   231
32.8241   214
32.8341   243
32.8441   201
32.8541   231
32.8641   245
32.8741   251
32.8841   233
32.8941   202
32.9041   229
32.9141   211
32.9241   220
32.9341   248
32.9441   196
32.9541   236
32.9641   217
32.9741   243
32.9841   227
32.9941   230
33.0041   227
33.0141   205
33.0241   220
33.0341   218
33.0441   223
33.0541   205
33.0641   205
33.0741   202
33.0841   236
33.0941   218
33.1041   197
33.1141   206
33.1241   233
33.1341   232
33.1441   230
33.1541   223
33.1641   228
33.1741   212
33.1841   202
33.1941   220
33.2041   188
33.2141   224
33.2241   248
33.2341   222
33.2441   204
33.2541   236
33.2641   192
33.2741   205
33.2841   201
33.2941   215
33.3041   215
33.3141   225
33.3241   224
33.3341   205
33.3441   202
33.3541   203
33.3641   197
33.3741   219
33.3841   204
33.3941   172
33.4041   210
33.4141   208
33.4241   224
33.4341   224
33.4441   202
33.4541   214
33.4641   204
33.4741   206
33.4841   189
33.4941   201
33.5041   199
33.5141   198
33.5241   195
33.5341   198
33.5441   198
33.5541   204
33.5641   210
33.5741   200
33.5841   192
33.5941   183
33.6041   173
33.6141   203
33.6241   182
33.6341   175
33.6441   194
33.6541   178
33.6641   169
33.6741   199
33.6841   193
33.6941   175
33.7041   186
33.7141   205
33.7241   188
33.7341   197
33.7441   194
33.7541   172
33.7641   188
33.7741   182
33.7841   200
33.7941   185
33.8041   210
33.8141   166
33.8241   212
33.8341   173
33.8441   167
33.8541   186
33.8641   190
33.8741   193
33.8841   176
33.8941   211
33.9041   192
33.9141   197
33.9241   171
33.9341   180
33.9441   183
33.9541   203
33.9641   172
33.9741   174
33.9841   169
33.9941   182
34.0041   200
34.0141   194
34.0241   187
34.0341   195
34.0441   181
34.0541   185
34.0641   162
34.0741   175
34.0841   180
34.0941   171
34.1041   190
34.1141   173
34.1241   203
34.1341   162
34.1441   170
34.1541   177
34.1641   202
34.1741   187
34.1841   167
34.1941   181
34.2041   170
34.2141   188
34.2241   164
34.2341   150
34.2441   174
34.2541   166
34.2641   182
34.2741   190
34.2841   183
34.2941   185
34.3041   174
34.3141   167
34.3241   159
34.3341   188
34.3441   175
34.3541   191
34.3641   196
34.3741   162
34.3841   166
34.3941   186
34.4041   162
34.4141   161
34.4241   159
34.4341   178
34.4441   171
34.4541   194
34.4641   153
34.4741   153
34.4841   153
34.4941   163
34.5041   171
34.5141   172
34.5241   175
34.5341   151
34.5441   172
34.5541   152
34.5641   151
34.5741   158
34.5841   154
34.5941   157
34.6041   155
34.6141   162
34.6241   169
34.6341   167
34.6441   152
34.6541   149
34.6641   150
34.6741   147
34.6841   161
34.6941   159
34.7041   151
34.7141   143
34.7241   159
34.7341   164
34.7441   156
34.7541   174
34.7641   168
34.7741   151
34.7841   164
34.7941   155
34.8041   157
34.8141   154
34.8241   163
34.8341   172
34.8441   170
34.8541   163
34.8641   167
34.8741   175
34.8841   149
34.8941   137
34.9041   170
34.9141   150
34.9241   141
34.9341   134
34.9441   153
34.9541   167
34.9641   144
34.9741   126
34.9841   154
34.9941   160
35.0041   163
35.0141   169
35.0241   179
35.0341   146
35.0441   152
35.0541   149
35.0641   131
35.0741   160
35.0841   177
35.0941   167
35.1041   144
35.1141   138
35.1241   175
35.1341   146
35.1441   156
35.1541   140
35.1641   131
35.1741   123
35.1841   138
35.1941   150
35.2041   154
35.2141   139
35.2241   155
35.2341   140
35.2441   146
35.2541   139
35.2641   150
35.2741   140
35.2841   151
35.2941   161
35.3041   157
35.3141   154
35.3241   143
35.3341   156
35.3441   166
35.3541   132
35.3641   129
35.3741   134
35.3841   140
35.3941   123
35.4041   142
35.4141   151
35.4241   160
35.4341   135
35.4441   135
35.4541   127
35.4641   129
35.4741   132
35.4841   138
35.4941   128
35.5041   137
35.5141   132
35.5241   129
35.5341   136
35.5441   133
35.5541   136
35.5641   146
35.5741   120
35.5841   131
35.5941   119
35.6041   134
35.6141   151
35.6241   130
35.6341   122
35.6441   119
35.6541   115
35.6641   127
35.6741   136
35.6841   148
35.6941   142
35.7041   132
35.7141   126
35.7241   147
35.7341   140
35.7441   124
35.7541   138
35.7641   118
35.7741   130
35.7841   112
35.7941   132
35.8041   107
35.8141   126
35.8241   112
35.8341   121
35.8441   121
35.8541   131
35.8641   122
35.8741   131
35.8841   127
35.8941   107
35.9041   131
35.9141   132
35.9241   136
35.9341   118
35.9441   132
35.9541   119
35.9641   128
35.9741   120
35.9841   108
35.9941   115
36.0041   125
36.0141   142
36.0241   114
36.0341   116
36.0441   111
36.0541   138
36.0641   114
36.0741   118
36.0841   116
36.0941   127
36.1041   126
36.1141   117
36.1241   127
36.1341   132
36.1441   116
36.1541   123
36.1641   128
36.1741   120
36.1841   125
36.1941   125
36.2041   111
36.2141   125
36.2241   123
36.2341   124
36.2441   116
36.2541   115
36.2641   125
36.2741   113
36.2841   123
36.2941   119
36.3041   120
36.3141   108
36.3241   118
36.3341   131
36.3441   122
36.3541   125
36.3641   108
36.3741   119
36.3841   113
36.3941   123
36.4041   111
36.4141   116
36.4241   121
36.4341    98
36.4441   104
36.4541   113
36.4641   111
36.4741   100
36.4841   117
36.4941    95
36.5041   116
36.5141   116
36.5241   121
36.5341    91
36.5441    89
36.5541   117
36.5641   100
36.5741    93
36.5841   109
36.5941   104
36.6041    98
36.6141   110
36.6241    90
36.6341   120
36.6441    95
36.6541   111
36.6641   104
36.6741   102
36.6841    96
36.6941    96
36.7041    89
36.7141   109
36.7241    97
36.7341   110
36.7441   104
36.7541   107
36.7641   105
36.7741   107
36.7841   102
36.7941    99
36.8041    94
36.8141    99
36.8241   109
36.8341   103
36.8441    95
36.8541    92
36.8641    93
36.8741    95
36.8841   114
36.8941    92
36.9041   100
36.9141    96
36.9241    97
36.9341   110
36.9441    88
36.9541    85
36.9641   105
36.9741    95
36.9841   106
36.9941   110
37.0041    92
37.0141   106
37.0241    86
37.0341   100
37.0441    96
37.0541    74
37.0641    80
37.0741    98
37.0841   114
37.0941    85
37.1041    91
37.1141    95
37.1241    99
37.1341    92
37.1441    95
37.1541   100
37.1641    95
37.1741   115
37.1841    90
37.1941    87
37.2041    83
37.2141   106
37.2241   109
37.2341    90
37.2441    96
37.2541    92
37.2641    98
37.2741    81
37.2841    99
37.2941    80
37.3041    95
37.3141    95
37.3241   109
37.3341    82
37.3441    96
37.3541    75
37.3641    87
37.3741    85
37.3841   101
37.3941    75
37.4041    76
37.4141    88
37.4241    84
37.4341    83
37.4441    79
37.4541    80
37.4641    88
37.4741    76
37.4841    88
37.4941    96
37.5041    80
37.5141    72
37.5241    73
37.5341    82
37.5441    92
37.5541    80
37.5641    78
37.5741    89
37.5841    90
37.5941    83
37.6041    77
37.6141    87
37.6241    87
37.6341    95
37.6441    82
37.6541    79
37.6641    79
37.6741    70
37.6841    98
37.6941    95
37.7041    87
37.7141    73
37.7241    75
37.7341    80
37.7441    77
37.7541    77
37.7641    84
37.7741    80
37.7841    73
37.7941    59
37.8041    85
37.8141    78
37.8241    65
37.8341    80
37.8441    73
37.8541    68
37.8641    77
37.8741    79
37.8841    72
37.8941    67
37.9041    79
37.9141    72
37.9241    74
37.9341    79
37.9441    71
37.9541    79
37.9641    73
37.9741    72
37.9841    72
37.9941    61
38.0041    77
38.0141    60
38.0241    74
38.0341    89
38.0441    83
38.0541    73
38.0641    70
38.0741    92
38.0841    70
38.0941    80
38.1041    70
38.1141    72
38.1241    78
38.1341    70
38.1441    62
38.1541    72
38.1641    83
38.1741    79
38.1841    71
38.1941    68
38.2041    61
38.2141    93
38.2241    70
38.2341    71
38.2441    82
38.2541    67
38.2641    75
38.2741    71
38.2841    60
38.2941    71
38.3041    51
38.3141    67
38.3241    79
38.3341    57
38.3441    71
38.3541    69
38.3641    66
38.3741    79
38.3841    54
38.3941    63
38.4041    56
38.4141    57
38.4241    61
38.4341    50
38.4441    60
38.4541    64
38.4641    82
38.4741    81
38.4841    68
38.4941    67
38.5041    66
38.5141    61
38.5241    65
38.5341    71
38.5441    60
38.5541    58
38.5641    64
38.5741    64
38.5841    55
38.5941    53
38.6041    54
38.6141    59
38.6241    67
38.6341    75
38.6441    61
38.6541    69
38.6641    75
38.6741    73
38.6841    69
38.6941    60
38.7041    57
38.7141    63
38.7241    57
38.7341    52
38.7441    65
38.7541    67
38.7641    56
38.7741    72
38.7841    56
38.7941    68
38.8041    67
38.8141    65
38.8241    44
38.8341    67
38.8441    54
38.8541    56
38.8641    55
38.8741    55
38.8841    63
38.8941    63
38.9041    58
38.9141    63
38.9241    55
38.9341    68
38.9441    50
38.9541    62
38.9641    49
38.9741    54
38.9841    63
38.9941    64
39.0041    51
39.0141    57
39.0241    52
39.0341    53
39.0441    55
39.0541    47
39.0641    59
39.0741    51
39.0841    48
39.0941    63
39.1041    44
39.1141    44
39.1241    51
39.1341    55
39.1441    41
39.1541    61
39.1641    57
39.1741    50
39.1841    42
39.1941    64
39.2041    48
39.2141    43
39.2241    55
39.2341    53
39.2441    53
39.2541    52
39.2641    66
39.2741    39
39.2841    36
39.2941    52
39.3041    51
39.3141    57
39.3241    46
39.3341    49
39.3441    46
39.3541    53
39.3641    52
39.3741    39
39.3841    52
39.3941    57
39.4041    44
39.4141    48
39.4241    56
39.4341    52
39.4441    49
39.4541    52
39.4641    53
39.4741    57
39.4841    57
39.4941    64
39.5041    48
39.5141    48
39.5241    39
39.5341    43
39.5441    46
39.5541    31
39.5641    41
39.5741    45
39.5841    45
39.5941    39
39.6041    51
39.6141    54
39.6241    41
39.6341    48
39.6441    41
39.6541    47
39.6641    49
39.6741    40
39.6841    39
39.6941    61
39.7041    41
39.7141    43
39.7241    48
39.7341    48
39.7441    47
39.7541    57
39.7641    47
39.7741    42
39.7841    37
39.7941    56
39.8041    48
39.8141    47
39.8241    39
39.8341    42
39.8441    36
39.8541    40
39.8641    39
39.8741    38
39.8841    42
39.8941    42
39.9041    45
39.9141    48
39.9241    28
39.9341    42
39.9441    49
39.9541    52
39.9641    39
39.9741    42
39.9841    33
