Bruker Nano GmbH Berlin, Germany
Esprit 1.9

Date: 4/21/2021 2:35:15 PM
Real time: 17386
Life time: 16199
Pulse density: 102924


Detector type: XFlash 430
Window type: Custom type
Detector thickness: 0.45
Si dead layer:0.029

Calibration, lin.: 10
Calibration, abs.: -955.9
Mn FWHM: 137.05
Fano factor: 0.121
Channels: 4095

Energy Counts
-0.9559     0
-0.9459     0
-0.9359     0
-0.9259     0
-0.9159     0
-0.9059     0
-0.8959     0
-0.8859     0
-0.8759     0
-0.8659     0
-0.8559     0
-0.8459     0
-0.8359     0
-0.8259     0
-0.8159     0
-0.8059     0
-0.7959     0
-0.7859     0
-0.7759     0
-0.7659     0
-0.7559     0
-0.7459     0
-0.7359     0
-0.7259     0
-0.7159     0
-0.7059     0
-0.6959     0
-0.6859     0
-0.6759     0
-0.6659     0
-0.6559     0
-0.6459     0
-0.6359     0
-0.6259     0
-0.6159     0
-0.6059     0
-0.5959     0
-0.5859     0
-0.5759     0
-0.5659     0
-0.5559     0
-0.5459     0
-0.5359     0
-0.5259     0
-0.5159     0
-0.5059     0
-0.4959     0
-0.4859     0
-0.4759     0
-0.4659     0
-0.4559     0
-0.4459     0
-0.4359     0
-0.4259     0
-0.4159     0
-0.4059     0
-0.3959     0
-0.3859     0
-0.3759     0
-0.3659     0
-0.3559     0
-0.3459     0
-0.3359     0
-0.3259     0
-0.3159     0
-0.3059     0
-0.2959     0
-0.2859     0
-0.2759     0
-0.2659     0
-0.2559     0
-0.2459     0
-0.2359     0
-0.2259     0
-0.2159     0
-0.2059     0
-0.1959     0
-0.1859     0
-0.1759     0
-0.1659     0
-0.1559     0
-0.1459     0
-0.1359     0
-0.1259     0
-0.1159     4
-0.1059    15
-0.0959    42
-0.0859   177
-0.0759   649
-0.0659  1857
-0.0559  4616
-0.0459 10241
-0.0359 19454
-0.0259 30911
-0.0159 42243
-0.0059 49924
 0.0041 49746
 0.0141 42950
 0.0241 31712
 0.0341 20025
 0.0441 10806
 0.0541  5122
 0.0641  2083
 0.0741   738
 0.0841   201
 0.0941    64
 0.1041    20
 0.1141     7
 0.1241     4
 0.1341     5
 0.1441     8
 0.1541     3
 0.1641     4
 0.1741     2
 0.1841   144
 0.1941   292
 0.2041   252
 0.2141   254
 0.2241   259
 0.2341   251
 0.2441   248
 0.2541   247
 0.2641   228
 0.2741   241
 0.2841   252
 0.2941   228
 0.3041   239
 0.3141   247
 0.3241   233
 0.3341   206
 0.3441   217
 0.3541   222
 0.3641   229
 0.3741   218
 0.3841   231
 0.3941   233
 0.4041   214
 0.4141   231
 0.4241   233
 0.4341   227
 0.4441   219
 0.4541   206
 0.4641   216
 0.4741   220
 0.4841   212
 0.4941   228
 0.5041   217
 0.5141   209
 0.5241   208
 0.5341   210
 0.5441   202
 0.5541   189
 0.5641   184
 0.5741   196
 0.5841   205
 0.5941   221
 0.6041   236
 0.6141   207
 0.6241   183
 0.6341   188
 0.6441   183
 0.6541   200
 0.6641   188
 0.6741   168
 0.6841   178
 0.6941   194
 0.7041   180
 0.7141   160
 0.7241   173
 0.7341   189
 0.7441   186
 0.7541   173
 0.7641   181
 0.7741   182
 0.7841   170
 0.7941   174
 0.8041   174
 0.8141   164
 0.8241   161
 0.8341   164
 0.8441   161
 0.8541   153
 0.8641   162
 0.8741   166
 0.8841   167
 0.8941   171
 0.9041   163
 0.9141   164
 0.9241   183
 0.9341   168
 0.9441   156
 0.9541   161
 0.9641   172
 0.9741   183
 0.9841   156
 0.9941   164
 1.0041   159
 1.0141   169
 1.0241   154
 1.0341   172
 1.0441   170
 1.0541   157
 1.0641   160
 1.0741   146
 1.0841   167
 1.0941   161
 1.1041   159
 1.1141   147
 1.1241   161
 1.1341   151
 1.1441   146
 1.1541   137
 1.1641   164
 1.1741   140
 1.1841   139
 1.1941   159
 1.2041   161
 1.2141   161
 1.2241   170
 1.2341   158
 1.2441   149
 1.2541   150
 1.2641   168
 1.2741   167
 1.2841   136
 1.2941   154
 1.3041   148
 1.3141   140
 1.3241   146
 1.3341   156
 1.3441   145
 1.3541   140
 1.3641   164
 1.3741   146
 1.3841   152
 1.3941   148
 1.4041   131
 1.4141   123
 1.4241   153
 1.4341   167
 1.4441   158
 1.4541   150
 1.4641   120
 1.4741   145
 1.4841   156
 1.4941   154
 1.5041   130
 1.5141   136
 1.5241   152
 1.5341   150
 1.5441   140
 1.5541   145
 1.5641   138
 1.5741   132
 1.5841   134
 1.5941   142
 1.6041   127
 1.6141   135
 1.6241   137
 1.6341   142
 1.6441   138
 1.6541   173
 1.6641   197
 1.6741   243
 1.6841   310
 1.6941   374
 1.7041   436
 1.7141   511
 1.7241   578
 1.7341   587
 1.7441   584
 1.7541   553
 1.7641   547
 1.7741   436
 1.7841   343
 1.7941   306
 1.8041   253
 1.8141   219
 1.8241   188
 1.8341   185
 1.8441   185
 1.8541   169
 1.8641   168
 1.8741   153
 1.8841   160
 1.8941   154
 1.9041   146
 1.9141   137
 1.9241   148
 1.9341   147
 1.9441   155
 1.9541   154
 1.9641   177
 1.9741   161
 1.9841   143
 1.9941   179
 2.0041   186
 2.0141   186
 2.0241   183
 2.0341   189
 2.0441   146
 2.0541   159
 2.0641   148
 2.0741   143
 2.0841   138
 2.0941   151
 2.1041   132
 2.1141   126
 2.1241   122
 2.1341   141
 2.1441   138
 2.1541   144
 2.1641   141
 2.1741   123
 2.1841   140
 2.1941   136
 2.2041   131
 2.2141   133
 2.2241   131
 2.2341   118
 2.2441   108
 2.2541   137
 2.2641   117
 2.2741   119
 2.2841   117
 2.2941   141
 2.3041   108
 2.3141   129
 2.3241   121
 2.3341   123
 2.3441   109
 2.3541   112
 2.3641   128
 2.3741   131
 2.3841   104
 2.3941   112
 2.4041   123
 2.4141   120
 2.4241   127
 2.4341   115
 2.4441   118
 2.4541   109
 2.4641   122
 2.4741   127
 2.4841   123
 2.4941   110
 2.5041   132
 2.5141   108
 2.5241   109
 2.5341   122
 2.5441   124
 2.5541   115
 2.5641   116
 2.5741    98
 2.5841   118
 2.5941   133
 2.6041   109
 2.6141   104
 2.6241    95
 2.6341   121
 2.6441   114
 2.6541   108
 2.6641   111
 2.6741   108
 2.6841   118
 2.6941   114
 2.7041    98
 2.7141    99
 2.7241   110
 2.7341   103
 2.7441    96
 2.7541   107
 2.7641   113
 2.7741    85
 2.7841   127
 2.7941   137
 2.8041   130
 2.8141   122
 2.8241   109
 2.8341   121
 2.8441   125
 2.8541   104
 2.8641   124
 2.8741    98
 2.8841   125
 2.8941   123
 2.9041   110
 2.9141   117
 2.9241   114
 2.9341    97
 2.9441    99
 2.9541    98
 2.9641   108
 2.9741   109
 2.9841   113
 2.9941   104
 3.0041   110
 3.0141   100
 3.0241   101
 3.0341   107
 3.0441    90
 3.0541   103
 3.0641    77
 3.0741    80
 3.0841    88
 3.0941    90
 3.1041    92
 3.1141    87
 3.1241   102
 3.1341    91
 3.1441   111
 3.1541    77
 3.1641    86
 3.1741    94
 3.1841   107
 3.1941   120
 3.2041   102
 3.2141   121
 3.2241   136
 3.2341   163
 3.2441   191
 3.2541   216
 3.2641   241
 3.2741   293
 3.2841   323
 3.2941   332
 3.3041   369
 3.3141   378
 3.3241   365
 3.3341   350
 3.3441   328
 3.3541   287
 3.3641   260
 3.3741   227
 3.3841   188
 3.3941   148
 3.4041   131
 3.4141   127
 3.4241   107
 3.4341    94
 3.4441   105
 3.4541   115
 3.4641    82
 3.4741    94
 3.4841    95
 3.4941    89
 3.5041    97
 3.5141   100
 3.5241   120
 3.5341   132
 3.5441   126
 3.5541   157
 3.5641   178
 3.5741   200
 3.5841   258
 3.5941   304
 3.6041   338
 3.6141   413
 3.6241   539
 3.6341   652
 3.6441   748
 3.6541   868
 3.6641   932
 3.6741  1023
 3.6841  1120
 3.6941  1111
 3.7041  1006
 3.7141   930
 3.7241   853
 3.7341   705
 3.7441   573
 3.7541   475
 3.7641   391
 3.7741   298
 3.7841   206
 3.7941   178
 3.8041   124
 3.8141   126
 3.8241    98
 3.8341    88
 3.8441    63
 3.8541    72
 3.8641    83
 3.8741    78
 3.8841    79
 3.8941    92
 3.9041    92
 3.9141   116
 3.9241   126
 3.9341   115
 3.9441   146
 3.9541   156
 3.9641   152
 3.9741   163
 3.9841   208
 3.9941   198
 4.0041   196
 4.0141   212
 4.0241   196
 4.0341   181
 4.0441   172
 4.0541   142
 4.0641   160
 4.0741   141
 4.0841   114
 4.0941   102
 4.1041    91
 4.1141    92
 4.1241    63
 4.1341    77
 4.1441    57
 4.1541    66
 4.1641    79
 4.1741    66
 4.1841    64
 4.1941    67
 4.2041    66
 4.2141    52
 4.2241    68
 4.2341    48
 4.2441    71
 4.2541    68
 4.2641    87
 4.2741    60
 4.2841    66
 4.2941    64
 4.3041    80
 4.3141    78
 4.3241    76
 4.3341    69
 4.3441    80
 4.3541    93
 4.3641    79
 4.3741    93
 4.3841    84
 4.3941   125
 4.4041   151
 4.4141   181
 4.4241   226
 4.4341   248
 4.4441   308
 4.4541   318
 4.4641   342
 4.4741   433
 4.4841   452
 4.4941   458
 4.5041   492
 4.5141   479
 4.5241   477
 4.5341   418
 4.5441   333
 4.5541   352
 4.5641   324
 4.5741   254
 4.5841   207
 4.5941   161
 4.6041   132
 4.6141   136
 4.6241    99
 4.6341   103
 4.6441   109
 4.6541    98
 4.6641    96
 4.6741    90
 4.6841   103
 4.6941    87
 4.7041    89
 4.7141    90
 4.7241    70
 4.7341    80
 4.7441    84
 4.7541    87
 4.7641    86
 4.7741    95
 4.7841   105
 4.7941    95
 4.8041   114
 4.8141   129
 4.8241   117
 4.8341   126
 4.8441   124
 4.8541   140
 4.8641   143
 4.8741   156
 4.8841   148
 4.8941   158
 4.9041   163
 4.9141   167
 4.9241   147
 4.9341   153
 4.9441   171
 4.9541   176
 4.9641   168
 4.9741   156
 4.9841   133
 4.9941   123
 5.0041   105
 5.0141    96
 5.0241   110
 5.0341    95
 5.0441    81
 5.0541    82
 5.0641    82
 5.0741   102
 5.0841   107
 5.0941    83
 5.1041    87
 5.1141    95
 5.1241    90
 5.1341    99
 5.1441    82
 5.1541    94
 5.1641    81
 5.1741    89
 5.1841    84
 5.1941    94
 5.2041    86
 5.2141    94
 5.2241    66
 5.2341    88
 5.2441   110
 5.2541    93
 5.2641   102
 5.2741    74
 5.2841   101
 5.2941    89
 5.3041    82
 5.3141    78
 5.3241    86
 5.3341   108
 5.3441   104
 5.3541   108
 5.3641   122
 5.3741   129
 5.3841   133
 5.3941   135
 5.4041   132
 5.4141   139
 5.4241   138
 5.4341   137
 5.4441   129
 5.4541   149
 5.4641   133
 5.4741   118
 5.4841   115
 5.4941   115
 5.5041   108
 5.5141   106
 5.5241   121
 5.5341   108
 5.5441   100
 5.5541   103
 5.5641    83
 5.5741   113
 5.5841   112
 5.5941   110
 5.6041   102
 5.6141    90
 5.6241    98
 5.6341    95
 5.6441    86
 5.6541   104
 5.6641   108
 5.6741    93
 5.6841    85
 5.6941    82
 5.7041    93
 5.7141   116
 5.7241    95
 5.7341   112
 5.7441   104
 5.7541   133
 5.7641   132
 5.7741   142
 5.7841   182
 5.7941   200
 5.8041   252
 5.8141   300
 5.8241   349
 5.8341   401
 5.8441   386
 5.8541   517
 5.8641   568
 5.8741   628
 5.8841   623
 5.8941   559
 5.9041   634
 5.9141   583
 5.9241   541
 5.9341   476
 5.9441   460
 5.9541   420
 5.9641   362
 5.9741   300
 5.9841   256
 5.9941   217
 6.0041   194
 6.0141   187
 6.0241   176
 6.0341   152
 6.0441   170
 6.0541   122
 6.0641   157
 6.0741   152
 6.0841   141
 6.0941   133
 6.1041   154
 6.1141   167
 6.1241   152
 6.1341   168
 6.1441   203
 6.1541   183
 6.1641   222
 6.1741   230
 6.1841   296
 6.1941   337
 6.2041   377
 6.2141   588
 6.2241   764
 6.2341  1044
 6.2441  1441
 6.2541  1992
 6.2641  2800
 6.2741  3769
 6.2841  5148
 6.2941  6895
 6.3041  9090
 6.3141 11539
 6.3241 14400
 6.3341 17045
 6.3441 20178
 6.3541 23273
 6.3641 25911
 6.3741 27484
 6.3841 29634
 6.3941 30187
 6.4041 30038
 6.4141 29428
 6.4241 27901
 6.4341 25199
 6.4441 22918
 6.4541 19992
 6.4641 16582
 6.4741 13801
 6.4841 11188
 6.4941  8576
 6.5041  6602
 6.5141  4931
 6.5241  3514
 6.5341  2512
 6.5441  1790
 6.5541  1236
 6.5641   879
 6.5741   606
 6.5841   451
 6.5941   330
 6.6041   258
 6.6141   214
 6.6241   217
 6.6341   200
 6.6441   169
 6.6541   167
 6.6641   166
 6.6741   164
 6.6841   168
 6.6941   156
 6.7041   167
 6.7141   167
 6.7241   152
 6.7341   157
 6.7441   161
 6.7541   192
 6.7641   198
 6.7741   182
 6.7841   195
 6.7941   201
 6.8041   179
 6.8141   205
 6.8241   206
 6.8341   259
 6.8441   233
 6.8541   256
 6.8641   325
 6.8741   343
 6.8841   395
 6.8941   464
 6.9041   588
 6.9141   693
 6.9241   838
 6.9341  1105
 6.9441  1380
 6.9541  1618
 6.9641  1909
 6.9741  2370
 6.9841  2687
 6.9941  3253
 7.0041  3602
 7.0141  4007
 7.0241  4266
 7.0341  4573
 7.0441  4883
 7.0541  4841
 7.0641  4815
 7.0741  4687
 7.0841  4332
 7.0941  3939
 7.1041  3615
 7.1141  3091
 7.1241  2704
 7.1341  2322
 7.1441  1869
 7.1541  1515
 7.1641  1274
 7.1741   943
 7.1841   717
 7.1941   566
 7.2041   412
 7.2141   396
 7.2241   281
 7.2341   256
 7.2441   239
 7.2541   173
 7.2641   194
 7.2741   182
 7.2841   195
 7.2941   191
 7.3041   188
 7.3141   197
 7.3241   192
 7.3341   201
 7.3441   209
 7.3541   218
 7.3641   246
 7.3741   235
 7.3841   229
 7.3941   265
 7.4041   261
 7.4141   249
 7.4241   239
 7.4341   264
 7.4441   256
 7.4541   238
 7.4641   238
 7.4741   241
 7.4841   242
 7.4941   232
 7.5041   210
 7.5141   198
 7.5241   185
 7.5341   190
 7.5441   186
 7.5541   174
 7.5641   172
 7.5741   169
 7.5841   152
 7.5941   162
 7.6041   173
 7.6141   178
 7.6241   174
 7.6341   167
 7.6441   160
 7.6541   181
 7.6641   174
 7.6741   181
 7.6841   184
 7.6941   157
 7.7041   175
 7.7141   190
 7.7241   181
 7.7341   197
 7.7441   191
 7.7541   192
 7.7641   196
 7.7741   191
 7.7841   231
 7.7941   191
 7.8041   225
 7.8141   229
 7.8241   224
 7.8341   208
 7.8441   220
 7.8541   237
 7.8641   235
 7.8741   268
 7.8841   277
 7.8941   249
 7.9041   267
 7.9141   287
 7.9241   301
 7.9341   327
 7.9441   371
 7.9541   372
 7.9641   407
 7.9741   421
 7.9841   462
 7.9941   482
 8.0041   509
 8.0141   554
 8.0241   597
 8.0341   626
 8.0441   673
 8.0541   717
 8.0641   775
 8.0741   838
 8.0841   875
 8.0941   912
 8.1041   940
 8.1141   974
 8.1241  1052
 8.1341  1049
 8.1441  1124
 8.1541  1171
 8.1641  1147
 8.1741  1222
 8.1841  1194
 8.1941  1125
 8.2041  1160
 8.2141  1240
 8.2241  1235
 8.2341  1226
 8.2441  1279
 8.2541  1292
 8.2641  1340
 8.2741  1457
 8.2841  1480
 8.2941  1560
 8.3041  1712
 8.3141  1803
 8.3241  1998
 8.3341  2092
 8.3441  2207
 8.3541  2365
 8.3641  2526
 8.3741  2531
 8.3841  2497
 8.3941  2562
 8.4041  2446
 8.4141  2349
 8.4241  2314
 8.4341  2085
 8.4441  1954
 8.4541  1741
 8.4641  1539
 8.4741  1359
 8.4841  1176
 8.4941  1006
 8.5041   830
 8.5141   704
 8.5241   635
 8.5341   541
 8.5441   438
 8.5541   405
 8.5641   372
 8.5741   362
 8.5841   357
 8.5941   336
 8.6041   351
 8.6141   323
 8.6241   342
 8.6341   359
 8.6441   335
 8.6541   336
 8.6641   370
 8.6741   346
 8.6841   335
 8.6941   346
 8.7041   354
 8.7141   355
 8.7241   325
 8.7341   310
 8.7441   300
 8.7541   278
 8.7641   286
 8.7741   288
 8.7841   309
 8.7941   280
 8.8041   292
 8.8141   280
 8.8241   286
 8.8341   259
 8.8441   256
 8.8541   257
 8.8641   248
 8.8741   256
 8.8841   259
 8.8941   241
 8.9041   286
 8.9141   285
 8.9241   280
 8.9341   264
 8.9441   276
 8.9541   291
 8.9641   276
 8.9741   251
 8.9841   291
 8.9941   335
 9.0041   296
 9.0141   303
 9.0241   310
 9.0341   322
 9.0441   316
 9.0541   324
 9.0641   351
 9.0741   340
 9.0841   347
 9.0941   378
 9.1041   375
 9.1141   410
 9.1241   433
 9.1341   421
 9.1441   431
 9.1541   464
 9.1641   424
 9.1741   516
 9.1841   555
 9.1941   531
 9.2041   558
 9.2141   585
 9.2241   642
 9.2341   682
 9.2441   683
 9.2541   757
 9.2641   783
 9.2741   808
 9.2841   887
 9.2941   902
 9.3041   906
 9.3141   968
 9.3241   975
 9.3341  1017
 9.3441  1028
 9.3541  1046
 9.3641  1060
 9.3741  1135
 9.3841  1116
 9.3941  1148
 9.4041  1152
 9.4141  1145
 9.4241  1153
 9.4341  1233
 9.4441  1286
 9.4541  1244
 9.4641  1218
 9.4741  1245
 9.4841  1343
 9.4941  1337
 9.5041  1340
 9.5141  1381
 9.5241  1468
 9.5341  1510
 9.5441  1561
 9.5541  1634
 9.5641  1716
 9.5741  1813
 9.5841  1912
 9.5941  2059
 9.6041  2146
 9.6141  2299
 9.6241  2467
 9.6341  2534
 9.6441  2640
 9.6541  2676
 9.6641  2685
 9.6741  2726
 9.6841  2629
 9.6941  2552
 9.7041  2456
 9.7141  2442
 9.7241  2201
 9.7341  2085
 9.7441  2022
 9.7541  1831
 9.7641  1734
 9.7741  1574
 9.7841  1446
 9.7941  1336
 9.8041  1237
 9.8141  1131
 9.8241  1121
 9.8341  1035
 9.8441   944
 9.8541  1027
 9.8641  1019
 9.8741   999
 9.8841  1054
 9.8941   992
 9.9041   952
 9.9141  1013
 9.9241  1045
 9.9341  1056
 9.9441  1090
 9.9541  1086
 9.9641  1091
 9.9741  1048
 9.9841   979
 9.9941   945
10.0041   931
10.0141   837
10.0241   736
10.0341   698
10.0441   642
10.0541   608
10.0641   544
10.0741   503
10.0841   408
10.0941   402
10.1041   360
10.1141   330
10.1241   284
10.1341   263
10.1441   243
10.1541   264
10.1641   265
10.1741   234
10.1841   202
10.1941   199
10.2041   187
10.2141   185
10.2241   172
10.2341   188
10.2441   178
10.2541   157
10.2641   177
10.2741   161
10.2841   151
10.2941   147
10.3041   148
10.3141   168
10.3241   165
10.3341   137
10.3441   136
10.3541   138
10.3641   151
10.3741   140
10.3841   145
10.3941   153
10.4041   155
10.4141   149
10.4241   147
10.4341   156
10.4441   174
10.4541   170
10.4641   155
10.4741   152
10.4841   168
10.4941   176
10.5041   171
10.5141   186
10.5241   195
10.5341   182
10.5441   174
10.5541   195
10.5641   187
10.5741   199
10.5841   186
10.5941   183
10.6041   190
10.6141   204
10.6241   175
10.6341   184
10.6441   194
10.6541   186
10.6641   169
10.6741   173
10.6841   190
10.6941   188
10.7041   192
10.7141   188
10.7241   180
10.7341   196
10.7441   198
10.7541   198
10.7641   204
10.7741   187
10.7841   200
10.7941   217
10.8041   216
10.8141   221
10.8241   220
10.8341   230
10.8441   239
10.8541   256
10.8641   260
10.8741   264
10.8841   250
10.8941   225
10.9041   255
10.9141   267
10.9241   251
10.9341   254
10.9441   244
10.9541   256
10.9641   239
10.9741   241
10.9841   256
10.9941   241
11.0041   240
11.0141   228
11.0241   236
11.0341   220
11.0441   236
11.0541   261
11.0641   248
11.0741   237
11.0841   211
11.0941   214
11.1041   212
11.1141   205
11.1241   217
11.1341   240
11.1441   236
11.1541   210
11.1641   247
11.1741   262
11.1841   278
11.1941   272
11.2041   285
11.2141   289
11.2241   329
11.2341   346
11.2441   380
11.2541   383
11.2641   386
11.2741   384
11.2841   399
11.2941   390
11.3041   365
11.3141   351
11.3241   370
11.3341   359
11.3441   323
11.3541   316
11.3641   325
11.3741   294
11.3841   276
11.3941   248
11.4041   243
11.4141   232
11.4241   213
11.4341   193
11.4441   194
11.4541   199
11.4641   164
11.4741   158
11.4841   166
11.4941   174
11.5041   166
11.5141   188
11.5241   170
11.5341   157
11.5441   178
11.5541   187
11.5641   183
11.5741   174
11.5841   170
11.5941   170
11.6041   177
11.6141   177
11.6241   177
11.6341   191
11.6441   201
11.6541   195
11.6641   187
11.6741   187
11.6841   181
11.6941   168
11.7041   168
11.7141   170
11.7241   164
11.7341   156
11.7441   152
11.7541   160
11.7641   162
11.7741   170
11.7841   157
11.7941   152
11.8041   148
11.8141   153
11.8241   135
11.8341   148
11.8441   160
11.8541   151
11.8641   146
11.8741   159
11.8841   161
11.8941   143
11.9041   148
11.9141   142
11.9241   140
11.9341   162
11.9441   167
11.9541   148
11.9641   149
11.9741   144
11.9841   148
11.9941   148
12.0041   146
12.0141   158
12.0241   149
12.0341   146
12.0441   146
12.0541   142
12.0641   137
12.0741   140
12.0841   138
12.0941   147
12.1041   158
12.1141   137
12.1241   125
12.1341   114
12.1441   129
12.1541   138
12.1641   124
12.1741   126
12.1841   133
12.1941   127
12.2041   127
12.2141   112
12.2241   115
12.2341   121
12.2441   127
12.2541   128
12.2641   115
12.2741   127
12.2841   128
12.2941   118
12.3041   121
12.3141   132
12.3241   131
12.3341   125
12.3441   134
12.3541   122
12.3641   125
12.3741   129
12.3841   135
12.3941   134
12.4041   125
12.4141   119
12.4241   127
12.4341   135
12.4441   125
12.4541   124
12.4641   138
12.4741   142
12.4841   142
12.4941   146
12.5041   151
12.5141   146
12.5241   142
12.5341   151
12.5441   151
12.5541   151
12.5641   156
12.5741   147
12.5841   154
12.5941   160
12.6041   161
12.6141   158
12.6241   157
12.6341   160
12.6441   175
12.6541   179
12.6641   165
12.6741   158
12.6841   164
12.6941   165
12.7041   158
12.7141   158
12.7241   155
12.7341   149
12.7441   152
12.7541   159
12.7641   156
12.7741   153
12.7841   159
12.7941   165
12.8041   162
12.8141   155
12.8241   152
12.8341   156
12.8441   163
12.8541   161
12.8641   149
12.8741   145
12.8841   151
12.8941   155
12.9041   154
12.9141   149
12.9241   145
12.9341   147
12.9441   149
12.9541   148
12.9641   149
12.9741   154
12.9841   155
12.9941   148
13.0041   146
13.0141   150
13.0241   152
13.0341   159
13.0441   151
13.0541   147
13.0641   147
13.0741   137
13.0841   157
13.0941   155
13.1041   146
13.1141   151
13.1241   157
13.1341   158
13.1441   158
13.1541   161
13.1641   174
13.1741   180
13.1841   186
13.1941   201
13.2041   220
13.2141   219
13.2241   218
13.2341   239
13.2441   238
13.2541   264
13.2641   300
13.2741   318
13.2841   322
13.2941   349
13.3041   382
13.3141   391
13.3241   404
13.3341   420
13.3441   427
13.3541   429
13.3641   437
13.3741   446
13.3841   453
13.3941   452
13.4041   433
13.4141   412
13.4241   406
13.4341   401
13.4441   385
13.4541   365
13.4641   349
13.4741   336
13.4841   320
13.4941   298
13.5041   274
13.5141   266
13.5241   263
13.5341   247
13.5441   231
13.5541   221
13.5641   210
13.5741   199
13.5841   195
13.5941   190
13.6041   174
13.6141   166
13.6241   171
13.6341   179
13.6441   187
13.6541   180
13.6641   175
13.6741   183
13.6841   176
13.6941   180
13.7041   191
13.7141   176
13.7241   168
13.7341   174
13.7441   173
13.7541   176
13.7641   183
13.7741   184
13.7841   177
13.7941   173
13.8041   173
13.8141   174
13.8241   177
13.8341   181
13.8441   185
13.8541   188
13.8641   191
13.8741   193
13.8841   197
13.8941   207
13.9041   214
13.9141   213
13.9241   215
13.9341   228
13.9441   246
13.9541   262
13.9641   270
13.9741   272
13.9841   276
13.9941   289
14.0041   315
14.0141   346
14.0241   364
14.0341   373
14.0441   397
14.0541   436
14.0641   465
14.0741   492
14.0841   526
14.0941   549
14.1041   554
14.1141   561
14.1241   572
14.1341   584
14.1441   600
14.1541   608
14.1641   598
14.1741   583
14.1841   577
14.1941   569
14.2041   539
14.2141   503
14.2241   486
14.2341   471
14.2441   439
14.2541   404
14.2641   375
14.2741   352
14.2841   334
14.2941   316
14.3041   273
14.3141   243
14.3241   243
14.3341   230
14.3441   229
14.3541   232
14.3641   219
14.3741   216
14.3841   220
14.3941   209
14.4041   211
14.4141   211
14.4241   209
14.4341   205
14.4441   203
14.4541   214
14.4641   218
14.4741   210
14.4841   202
14.4941   200
14.5041   195
14.5141   182
14.5241   192
14.5341   205
14.5441   202
14.5541   190
14.5641   189
14.5741   200
14.5841   213
14.5941   222
14.6041   221
14.6141   216
14.6241   219
14.6341   213
14.6441   188
14.6541   202
14.6641   207
14.6741   197
14.6841   204
14.6941   200
14.7041   203
14.7141   219
14.7241   242
14.7341   228
14.7441   202
14.7541   220
14.7641   229
14.7741   233
14.7841   241
14.7941   241
14.8041   239
14.8141   259
14.8241   254
14.8341   247
14.8441   257
14.8541   260
14.8641   271
14.8741   288
14.8841   285
14.8941   288
14.9041   305
14.9141   319
14.9241   318
14.9341   326
14.9441   324
14.9541   315
14.9641   318
14.9741   328
14.9841   328
14.9941   302
15.0041   295
15.0141   290
15.0241   273
15.0341   264
15.0441   263
15.0541   274
15.0641   259
15.0741   262
15.0841   263
15.0941   248
15.1041   245
15.1141   243
15.1241   233
15.1341   227
15.1441   243
15.1541   246
15.1641   254
15.1741   245
15.1841   249
15.1941   242
15.2041   235
15.2141   239
15.2241   228
15.2341   225
15.2441   230
15.2541   225
15.2641   226
15.2741   224
15.2841   233
15.2941   225
15.3041   216
15.3141   205
15.3241   205
15.3341   231
15.3441   240
15.3541   226
15.3641   226
15.3741   240
15.3841   246
15.3941   252
15.4041   243
15.4141   238
15.4241   244
15.4341   228
15.4441   214
15.4541   230
15.4641   235
15.4741   239
15.4841   258
15.4941   238
15.5041   244
15.5141   244
15.5241   242
15.5341   247
15.5441   257
15.5541   286
15.5641   309
15.5741   298
15.5841   293
15.5941   296
15.6041   308
15.6141   334
15.6241   339
15.6341   351
15.6441   365
15.6541   360
15.6641   397
15.6741   417
15.6841   444
15.6941   433
15.7041   469
15.7141   500
15.7241   506
15.7341   503
15.7441   517
15.7541   491
15.7641   502
15.7741   538
15.7841   532
15.7941   489
15.8041   482
15.8141   482
15.8241   467
15.8341   465
15.8441   463
15.8541   460
15.8641   432
15.8741   410
15.8841   382
15.8941   373
15.9041   367
15.9141   358
15.9241   335
15.9341   337
15.9441   321
15.9541   308
15.9641   297
15.9741   282
15.9841   307
15.9941   300
16.0041   271
16.0141   268
16.0241   251
16.0341   258
16.0441   264
16.0541   261
16.0641   253
16.0741   271
16.0841   272
16.0941   265
16.1041   270
16.1141   274
16.1241   263
16.1341   256
16.1441   274
16.1541   274
16.1641   254
16.1741   274
16.1841   288
16.1941   289
16.2041   269
16.2141   264
16.2241   251
16.2341   257
16.2441   260
16.2541   262
16.2641   268
16.2741   245
16.2841   248
16.2941   274
16.3041   281
16.3141   275
16.3241   270
16.3341   265
16.3441   261
16.3541   265
16.3641   289
16.3741   272
16.3841   267
16.3941   273
16.4041   281
16.4141   274
16.4241   289
16.4341   282
16.4441   269
16.4541   281
16.4641   279
16.4741   272
16.4841   290
16.4941   282
16.5041   283
16.5141   291
16.5241   294
16.5341   286
16.5441   271
16.5541   287
16.5641   294
16.5741   292
16.5841   276
16.5941   275
16.6041   280
16.6141   295
16.6241   294
16.6341   288
16.6441   286
16.6541   268
16.6641   286
16.6741   272
16.6841   299
16.6941   291
16.7041   299
16.7141   333
16.7241   289
16.7341   283
16.7441   275
16.7541   299
16.7641   304
16.7741   304
16.7841   284
16.7941   286
16.8041   285
16.8141   295
16.8241   295
16.8341   297
16.8441   268
16.8541   306
16.8641   320
16.8741   288
16.8841   288
16.8941   275
16.9041   293
16.9141   291
16.9241   293
16.9341   308
16.9441   312
16.9541   312
16.9641   269
16.9741   273
16.9841   290
16.9941   286
17.0041   284
17.0141   275
17.0241   301
17.0341   305
17.0441   330
17.0541   331
17.0641   325
17.0741   283
17.0841   298
17.0941   322
17.1041   321
17.1141   300
17.1241   291
17.1341   292
17.1441   290
17.1541   316
17.1641   316
17.1741   307
17.1841   292
17.1941   299
17.2041   308
17.2141   325
17.2241   310
17.2341   292
17.2441   302
17.2541   324
17.2641   320
17.2741   308
17.2841   300
17.2941   317
17.3041   329
17.3141   328
17.3241   340
17.3341   317
17.3441   313
17.3541   311
17.3641   327
17.3741   340
17.3841   338
17.3941   358
17.4041   349
17.4141   328
17.4241   325
17.4341   314
17.4441   337
17.4541   349
17.4641   355
17.4741   336
17.4841   334
17.4941   345
17.5041   344
17.5141   340
17.5241   328
17.5341   334
17.5441   344
17.5541   364
17.5641   368
17.5741   388
17.5841   357
17.5941   357
17.6041   370
17.6141   371
17.6241   363
17.6341   380
17.6441   379
17.6541   397
17.6641   368
17.6741   369
17.6841   359
17.6941   366
17.7041   352
17.7141   351
17.7241   345
17.7341   357
17.7441   380
17.7541   377
17.7641   353
17.7741   345
17.7841   368
17.7941   341
17.8041   361
17.8141   343
17.8241   337
17.8341   367
17.8441   383
17.8541   338
17.8641   354
17.8741   343
17.8841   352
17.8941   370
17.9041   363
17.9141   353
17.9241   336
17.9341   372
17.9441   392
17.9541   349
17.9641   347
17.9741   345
17.9841   354
17.9941   344
18.0041   364
18.0141   354
18.0241   365
18.0341   370
18.0441   361
18.0541   354
18.0641   336
18.0741   329
18.0841   355
18.0941   346
18.1041   365
18.1141   378
18.1241   335
18.1341   353
18.1441   353
18.1541   339
18.1641   353
18.1741   334
18.1841   325
18.1941   350
18.2041   382
18.2141   340
18.2241   351
18.2341   349
18.2441   356
18.2541   372
18.2641   346
18.2741   371
18.2841   372
18.2941   339
18.3041   342
18.3141   352
18.3241   380
18.3341   382
18.3441   379
18.3541   340
18.3641   364
18.3741   369
18.3841   358
18.3941   345
18.4041   363
18.4141   368
18.4241   349
18.4341   359
18.4441   363
18.4541   365
18.4641   341
18.4741   352
18.4841   377
18.4941   366
18.5041   377
18.5141   364
18.5241   361
18.5341   381
18.5441   370
18.5541   374
18.5641   380
18.5741   345
18.5841   344
18.5941   392
18.6041   365
18.6141   363
18.6241   355
18.6341   352
18.6441   358
18.6541   390
18.6641   360
18.6741   339
18.6841   360
18.6941   369
18.7041   348
18.7141   360
18.7241   354
18.7341   385
18.7441   389
18.7541   376
18.7641   380
18.7741   354
18.7841   389
18.7941   388
18.8041   346
18.8141   377
18.8241   373
18.8341   390
18.8441   392
18.8541   365
18.8641   373
18.8741   371
18.8841   372
18.8941   376
18.9041   391
18.9141   374
18.9241   392
18.9341   393
18.9441   362
18.9541   342
18.9641   383
18.9741   410
18.9841   396
18.9941   401
19.0041   398
19.0141   374
19.0241   372
19.0341   395
19.0441   407
19.0541   355
19.0641   381
19.0741   403
19.0841   387
19.0941   396
19.1041   404
19.1141   393
19.1241   366
19.1341   375
19.1441   385
19.1541   390
19.1641   416
19.1741   386
19.1841   406
19.1941   384
19.2041   382
19.2141   391
19.2241   391
19.2341   415
19.2441   385
19.2541   370
19.2641   367
19.2741   363
19.2841   380
19.2941   407
19.3041   359
19.3141   378
19.3241   398
19.3341   397
19.3441   427
19.3541   405
19.3641   391
19.3741   393
19.3841   405
19.3941   395
19.4041   399
19.4141   394
19.4241   416
19.4341   422
19.4441   428
19.4541   401
19.4641   429
19.4741   402
19.4841   407
19.4941   415
19.5041   398
19.5141   397
19.5241   405
19.5341   424
19.5441   397
19.5541   422
19.5641   388
19.5741   405
19.5841   410
19.5941   407
19.6041   392
19.6141   410
19.6241   431
19.6341   402
19.6441   421
19.6541   383
19.6641   399
19.6741   434
19.6841   406
19.6941   419
19.7041   408
19.7141   396
19.7241   424
19.7341   403
19.7441   427
19.7541   419
19.7641   425
19.7741   392
19.7841   394
19.7941   455
19.8041   420
19.8141   422
19.8241   412
19.8341   427
19.8441   419
19.8541   426
19.8641   429
19.8741   408
19.8841   402
19.8941   409
19.9041   389
19.9141   393
19.9241   418
19.9341   428
19.9441   451
19.9541   416
19.9641   433
19.9741   372
19.9841   410
19.9941   383
20.0041   425
20.0141   428
20.0241   405
20.0341   425
20.0441   420
20.0541   417
20.0641   430
20.0741   419
20.0841   404
20.0941   415
20.1041   457
20.1141   434
20.1241   402
20.1341   395
20.1441   402
20.1541   408
20.1641   448
20.1741   421
20.1841   396
20.1941   419
20.2041   465
20.2141   400
20.2241   442
20.2341   409
20.2441   414
20.2541   440
20.2641   419
20.2741   418
20.2841   414
20.2941   420
20.3041   400
20.3141   411
20.3241   412
20.3341   416
20.3441   446
20.3541   418
20.3641   439
20.3741   405
20.3841   401
20.3941   435
20.4041   411
20.4141   442
20.4241   422
20.4341   422
20.4441   387
20.4541   419
20.4641   407
20.4741   402
20.4841   415
20.4941   414
20.5041   447
20.5141   421
20.5241   415
20.5341   425
20.5441   402
20.5541   416
20.5641   444
20.5741   414
20.5841   427
20.5941   421
20.6041   461
20.6141   445
20.6241   419
20.6341   413
20.6441   436
20.6541   424
20.6641   422
20.6741   421
20.6841   418
20.6941   461
20.7041   427
20.7141   445
20.7241   421
20.7341   422
20.7441   415
20.7541   441
20.7641   410
20.7741   412
20.7841   439
20.7941   439
20.8041   457
20.8141   448
20.8241   456
20.8341   477
20.8441   479
20.8541   459
20.8641   483
20.8741   500
20.8841   511
20.8941   509
20.9041   500
20.9141   506
20.9241   499
20.9341   541
20.9441   542
20.9541   538
20.9641   564
20.9741   526
20.9841   522
20.9941   582
21.0041   594
21.0141   606
21.0241   574
21.0341   638
21.0441   627
21.0541   615
21.0641   658
21.0741   618
21.0841   697
21.0941   668
21.1041   687
21.1141   646
21.1241   681
21.1341   646
21.1441   631
21.1541   657
21.1641   691
21.1741   677
21.1841   600
21.1941   638
21.2041   629
21.2141   655
21.2241   626
21.2341   601
21.2441   576
21.2541   618
21.2641   629
21.2741   554
21.2841   579
21.2941   503
21.3041   505
21.3141   533
21.3241   526
21.3341   495
21.3441   478
21.3541   472
21.3641   466
21.3741   460
21.3841   452
21.3941   480
21.4041   459
21.4141   466
21.4241   434
21.4341   446
21.4441   447
21.4541   445
21.4641   422
21.4741   493
21.4841   439
21.4941   430
21.5041   402
21.5141   435
21.5241   462
21.5341   451
21.5441   436
21.5541   441
21.5641   490
21.5741   448
21.5841   440
21.5941   446
21.6041   404
21.6141   457
21.6241   418
21.6341   448
21.6441   431
21.6541   409
21.6641   442
21.6741   458
21.6841   421
21.6941   424
21.7041   459
21.7141   438
21.7241   445
21.7341   441
21.7441   406
21.7541   443
21.7641   434
21.7741   433
21.7841   457
21.7941   435
21.8041   416
21.8141   437
21.8241   448
21.8341   455
21.8441   435
21.8541   428
21.8641   427
21.8741   420
21.8841   412
21.8941   429
21.9041   440
21.9141   444
21.9241   429
21.9341   470
21.9441   446
21.9541   463
21.9641   422
21.9741   431
21.9841   436
21.9941   441
22.0041   459
22.0141   471
22.0241   437
22.0341   452
22.0441   426
22.0541   462
22.0641   448
22.0741   477
22.0841   429
22.0941   441
22.1041   422
22.1141   480
22.1241   453
22.1341   400
22.1441   448
22.1541   393
22.1641   401
22.1741   424
22.1841   448
22.1941   450
22.2041   450
22.2141   439
22.2241   480
22.2341   413
22.2441   449
22.2541   449
22.2641   442
22.2741   421
22.2841   437
22.2941   437
22.3041   457
22.3141   418
22.3241   415
22.3341   415
22.3441   467
22.3541   420
22.3641   438
22.3741   460
22.3841   417
22.3941   405
22.4041   429
22.4141   457
22.4241   447
22.4341   409
22.4441   430
22.4541   454
22.4641   408
22.4741   464
22.4841   454
22.4941   416
22.5041   419
22.5141   402
22.5241   408
22.5341   413
22.5441   459
22.5541   471
22.5641   461
22.5741   450
22.5841   428
22.5941   434
22.6041   442
22.6141   448
22.6241   445
22.6341   445
22.6441   400
22.6541   425
22.6641   430
22.6741   425
22.6841   408
22.6941   447
22.7041   436
22.7141   457
22.7241   427
22.7341   450
22.7441   444
22.7541   437
22.7641   445
22.7741   442
22.7841   430
22.7941   450
22.8041   453
22.8141   437
22.8241   433
22.8341   396
22.8441   402
22.8541   408
22.8641   422
22.8741   397
22.8841   415
22.8941   452
22.9041   437
22.9141   465
22.9241   398
22.9341   412
22.9441   454
22.9541   406
22.9641   443
22.9741   445
22.9841   413
22.9941   435
23.0041   435
23.0141   425
23.0241   418
23.0341   449
23.0441   442
23.0541   414
23.0641   443
23.0741   426
23.0841   430
23.0941   418
23.1041   395
23.1141   433
23.1241   430
23.1341   414
23.1441   425
23.1541   418
23.1641   404
23.1741   399
23.1841   430
23.1941   433
23.2041   425
23.2141   443
23.2241   457
23.2341   404
23.2441   392
23.2541   439
23.2641   438
23.2741   443
23.2841   440
23.2941   425
23.3041   438
23.3141   424
23.3241   458
23.3341   423
23.3441   434
23.3541   434
23.3641   423
23.3741   450
23.3841   400
23.3941   430
23.4041   423
23.4141   396
23.4241   457
23.4341   443
23.4441   424
23.4541   405
23.4641   413
23.4741   446
23.4841   430
23.4941   405
23.5041   425
23.5141   432
23.5241   405
23.5341   429
23.5441   419
23.5541   436
23.5641   422
23.5741   426
23.5841   417
23.5941   429
23.6041   443
23.6141   476
23.6241   433
23.6341   425
23.6441   449
23.6541   432
23.6641   437
23.6741   462
23.6841   415
23.6941   491
23.7041   459
23.7141   425
23.7241   452
23.7341   417
23.7441   478
23.7541   445
23.7641   489
23.7741   434
23.7841   454
23.7941   450
23.8041   460
23.8141   469
23.8241   459
23.8341   428
23.8441   481
23.8541   453
23.8641   456
23.8741   435
23.8841   441
23.8941   465
23.9041   443
23.9141   434
23.9241   436
23.9341   442
23.9441   428
23.9541   409
23.9641   457
23.9741   433
23.9841   461
23.9941   440
24.0041   406
24.0141   440
24.0241   439
24.0341   447
24.0441   434
24.0541   448
24.0641   414
24.0741   387
24.0841   411
24.0941   434
24.1041   439
24.1141   413
24.1241   361
24.1341   443
24.1441   429
24.1541   411
24.1641   393
24.1741   411
24.1841   435
24.1941   405
24.2041   420
24.2141   411
24.2241   414
24.2341   425
24.2441   425
24.2541   427
24.2641   407
24.2741   402
24.2841   382
24.2941   410
24.3041   403
24.3141   414
24.3241   391
24.3341   370
24.3441   391
24.3541   407
24.3641   430
24.3741   413
24.3841   408
24.3941   420
24.4041   424
24.4141   422
24.4241   409
24.4341   425
24.4441   428
24.4541   455
24.4641   382
24.4741   375
24.4841   413
24.4941   381
24.5041   396
24.5141   397
24.5241   398
24.5341   421
24.5441   403
24.5541   399
24.5641   407
24.5741   410
24.5841   400
24.5941   384
24.6041   417
24.6141   383
24.6241   418
24.6341   385
24.6441   386
24.6541   400
24.6641   418
24.6741   412
24.6841   395
24.6941   421
24.7041   400
24.7141   406
24.7241   377
24.7341   435
24.7441   402
24.7541   409
24.7641   411
24.7741   393
24.7841   356
24.7941   376
24.8041   398
24.8141   379
24.8241   369
24.8341   401
24.8441   412
24.8541   419
24.8641   390
24.8741   430
24.8841   384
24.8941   396
24.9041   371
24.9141   388
24.9241   389
24.9341   408
24.9441   401
24.9541   383
24.9641   366
24.9741   389
24.9841   408
24.9941   411
25.0041   414
25.0141   422
25.0241   400
25.0341   375
25.0441   363
25.0541   410
25.0641   408
25.0741   393
25.0841   431
25.0941   419
25.1041   413
25.1141   424
25.1241   414
25.1341   403
25.1441   398
25.1541   399
25.1641   389
25.1741   394
25.1841   394
25.1941   407
25.2041   418
25.2141   425
25.2241   404
25.2341   408
25.2441   419
25.2541   367
25.2641   389
25.2741   399
25.2841   416
25.2941   426
25.3041   412
25.3141   419
25.3241   390
25.3341   383
25.3441   386
25.3541   409
25.3641   376
25.3741   375
25.3841   386
25.3941   379
25.4041   411
25.4141   391
25.4241   408
25.4341   397
25.4441   383
25.4541   412
25.4641   409
25.4741   380
25.4841   391
25.4941   372
25.5041   378
25.5141   376
25.5241   369
25.5341   360
25.5441   354
25.5541   358
25.5641   360
25.5741   363
25.5841   396
25.5941   362
25.6041   363
25.6141   394
25.6241   364
25.6341   368
25.6441   363
25.6541   365
25.6641   373
25.6741   386
25.6841   352
25.6941   333
25.7041   355
25.7141   383
25.7241   359
25.7341   358
25.7441   362
25.7541   363
25.7641   405
25.7741   352
25.7841   378
25.7941   361
25.8041   352
25.8141   359
25.8241   348
25.8341   352
25.8441   366
25.8541   344
25.8641   375
25.8741   375
25.8841   390
25.8941   368
25.9041   361
25.9141   377
25.9241   361
25.9341   364
25.9441   344
25.9541   351
25.9641   343
25.9741   350
25.9841   370
25.9941   356
26.0041   354
26.0141   378
26.0241   396
26.0341   361
26.0441   352
26.0541   382
26.0641   339
26.0741   339
26.0841   372
26.0941   373
26.1041   345
26.1141   369
26.1241   348
26.1341   371
26.1441   381
26.1541   324
26.1641   375
26.1741   375
26.1841   371
26.1941   349
26.2041   359
26.2141   336
26.2241   360
26.2341   318
26.2441   359
26.2541   371
26.2641   395
26.2741   376
26.2841   402
26.2941   334
26.3041   359
26.3141   375
26.3241   343
26.3341   384
26.3441   322
26.3541   353
26.3641   362
26.3741   342
26.3841   386
26.3941   389
26.4041   358
26.4141   351
26.4241   339
26.4341   334
26.4441   333
26.4541   359
26.4641   340
26.4741   345
26.4841   350
26.4941   331
26.5041   350
26.5141   348
26.5241   343
26.5341   329
26.5441   347
26.5541   352
26.5641   340
26.5741   350
26.5841   360
26.5941   349
26.6041   327
26.6141   351
26.6241   324
26.6341   327
26.6441   338
26.6541   299
26.6641   346
26.6741   319
26.6841   335
26.6941   321
26.7041   340
26.7141   362
26.7241   359
26.7341   342
26.7441   304
26.7541   338
26.7641   328
26.7741   337
26.7841   331
26.7941   326
26.8041   329
26.8141   349
26.8241   334
26.8341   295
26.8441   326
26.8541   371
26.8641   316
26.8741   355
26.8841   351
26.8941   308
26.9041   325
26.9141   323
26.9241   356
26.9341   327
26.9441   321
26.9541   314
26.9641   328
26.9741   314
26.9841   335
26.9941   328
27.0041   326
27.0141   345
27.0241   308
27.0341   350
27.0441   330
27.0541   358
27.0641   341
27.0741   303
27.0841   330
27.0941   320
27.1041   335
27.1141   343
27.1241   334
27.1341   334
27.1441   324
27.1541   293
27.1641   335
27.1741   328
27.1841   321
27.1941   316
27.2041   334
27.2141   271
27.2241   329
27.2341   296
27.2441   312
27.2541   324
27.2641   322
27.2741   329
27.2841   313
27.2941   320
27.3041   325
27.3141   336
27.3241   348
27.3341   325
27.3441   316
27.3541   333
27.3641   317
27.3741   302
27.3841   329
27.3941   338
27.4041   320
27.4141   327
27.4241   322
27.4341   343
27.4441   322
27.4541   335
27.4641   334
27.4741   304
27.4841   322
27.4941   333
27.5041   324
27.5141   335
27.5241   306
27.5341   308
27.5441   317
27.5541   330
27.5641   289
27.5741   317
27.5841   333
27.5941   317
27.6041   323
27.6141   288
27.6241   306
27.6341   306
27.6441   323
27.6541   333
27.6641   331
27.6741   289
27.6841   298
27.6941   297
27.7041   330
27.7141   318
27.7241   314
27.7341   321
27.7441   303
27.7541   307
27.7641   313
27.7741   320
27.7841   309
27.7941   310
27.8041   305
27.8141   296
27.8241   307
27.8341   291
27.8441   305
27.8541   338
27.8641   312
27.8741   284
27.8841   277
27.8941   305
27.9041   294
27.9141   309
27.9241   293
27.9341   305
27.9441   293
27.9541   291
27.9641   289
27.9741   299
27.9841   305
27.9941   317
28.0041   302
28.0141   297
28.0241   284
28.0341   286
28.0441   283
28.0541   308
28.0641   287
28.0741   277
28.0841   302
28.0941   288
28.1041   279
28.1141   285
28.1241   249
28.1341   290
28.1441   261
28.1541   277
28.1641   291
28.1741   268
28.1841   273
28.1941   297
28.2041   282
28.2141   280
28.2241   273
28.2341   295
28.2441   307
28.2541   293
28.2641   294
28.2741   280
28.2841   299
28.2941   278
28.3041   270
28.3141   288
28.3241   264
28.3341   278
28.3441   277
28.3541   292
28.3641   267
28.3741   268
28.3841   295
28.3941   276
28.4041   289
28.4141   291
28.4241   292
28.4341   286
28.4441   287
28.4541   297
28.4641   274
28.4741   294
28.4841   266
28.4941   297
28.5041   280
28.5141   269
28.5241   289
28.5341   306
28.5441   286
28.5541   277
28.5641   263
28.5741   282
28.5841   271
28.5941   268
28.6041   290
28.6141   284
28.6241   265
28.6341   275
28.6441   261
28.6541   266
28.6641   283
28.6741   281
28.6841   259
28.6941   271
28.7041   307
28.7141   271
28.7241   288
28.7341   296
28.7441   279
28.7541   271
28.7641   288
28.7741   285
28.7841   266
28.7941   263
28.8041   288
28.8141   254
28.8241   221
28.8341   261
28.8441   294
28.8541   298
28.8641   285
28.8741   279
28.8841   276
28.8941   266
28.9041   270
28.9141   249
28.9241   265
28.9341   267
28.9441   275
28.9541   286
28.9641   279
28.9741   273
28.9841   266
28.9941   245
29.0041   245
29.0141   294
29.0241   276
29.0341   290
29.0441   230
29.0541   269
29.0641   261
29.0741   272
29.0841   256
29.0941   241
29.1041   263
29.1141   259
29.1241   325
29.1341   275
29.1441   253
29.1541   272
29.1641   272
29.1741   258
29.1841   257
29.1941   251
29.2041   250
29.2141   260
29.2241   280
29.2341   269
29.2441   273
29.2541   249
29.2641   267
29.2741   278
29.2841   250
29.2941   271
29.3041   273
29.3141   245
29.3241   234
29.3341   262
29.3441   259
29.3541   249
29.3641   239
29.3741   265
29.3841   227
29.3941   242
29.4041   269
29.4141   269
29.4241   264
29.4341   281
29.4441   223
29.4541   229
29.4641   239
29.4741   224
29.4841   221
29.4941   259
29.5041   248
29.5141   259
29.5241   232
29.5341   265
29.5441   242
29.5541   264
29.5641   243
29.5741   244
29.5841   236
29.5941   238
29.6041   230
29.6141   260
29.6241   263
29.6341   234
29.6441   232
29.6541   253
29.6641   252
29.6741   234
29.6841   222
29.6941   235
29.7041   226
29.7141   216
29.7241   258
29.7341   253
29.7441   243
29.7541   243
29.7641   226
29.7741   253
29.7841   228
29.7941   235
29.8041   223
29.8141   219
29.8241   229
29.8341   215
29.8441   248
29.8541   261
29.8641   240
29.8741   236
29.8841   250
29.8941   244
29.9041   206
29.9141   230
29.9241   234
29.9341   229
29.9441   210
29.9541   226
29.9641   210
29.9741   248
29.9841   225
29.9941   239
30.0041   241
30.0141   213
30.0241   245
30.0341   236
30.0441   213
30.0541   230
30.0641   218
30.0741   239
30.0841   244
30.0941   234
30.1041   226
30.1141   227
30.1241   228
30.1341   224
30.1441   210
30.1541   218
30.1641   233
30.1741   218
30.1841   232
30.1941   230
30.2041   200
30.2141   210
30.2241   205
30.2341   210
30.2441   235
30.2541   195
30.2641   204
30.2741   242
30.2841   230
30.2941   216
30.3041   205
30.3141   201
30.3241   219
30.3341   212
30.3441   227
30.3541   225
30.3641   194
30.3741   211
30.3841   247
30.3941   243
30.4041   222
30.4141   227
30.4241   206
30.4341   206
30.4441   224
30.4541   226
30.4641   193
30.4741   232
30.4841   230
30.4941   226
30.5041   181
30.5141   240
30.5241   238
30.5341   221
30.5441   199
30.5541   227
30.5641   226
30.5741   202
30.5841   233
30.5941   206
30.6041   226
30.6141   206
30.6241   238
30.6341   235
30.6441   212
30.6541   200
30.6641   215
30.6741   234
30.6841   216
30.6941   202
30.7041   224
30.7141   211
30.7241   205
30.7341   199
30.7441   217
30.7541   188
30.7641   232
30.7741   211
30.7841   201
30.7941   226
30.8041   213
30.8141   211
30.8241   202
30.8341   227
30.8441   190
30.8541   204
30.8641   185
30.8741   201
30.8841   185
30.8941   228
30.9041   218
30.9141   196
30.9241   218
30.9341   184
30.9441   227
30.9541   188
30.9641   188
30.9741   186
30.9841   215
30.9941   202
31.0041   206
31.0141   203
31.0241   196
31.0341   194
31.0441   196
31.0541   214
31.0641   202
31.0741   196
31.0841   197
31.0941   182
31.1041   188
31.1141   207
31.1241   201
31.1341   195
31.1441   194
31.1541   188
31.1641   183
31.1741   169
31.1841   195
31.1941   200
31.2041   189
31.2141   196
31.2241   191
31.2341   202
31.2441   187
31.2541   205
31.2641   183
31.2741   206
31.2841   200
31.2941   206
31.3041   199
31.3141   181
31.3241   187
31.3341   193
31.3441   209
31.3541   185
31.3641   188
31.3741   195
31.3841   209
31.3941   180
31.4041   176
31.4141   200
31.4241   178
31.4341   196
31.4441   206
31.4541   190
31.4641   171
31.4741   180
31.4841   202
31.4941   192
31.5041   195
31.5141   180
31.5241   216
31.5341   189
31.5441   170
31.5541   169
31.5641   174
31.5741   186
31.5841   200
31.5941   199
31.6041   177
31.6141   178
31.6241   184
31.6341   193
31.6441   201
31.6541   194
31.6641   171
31.6741   195
31.6841   175
31.6941   184
31.7041   205
31.7141   176
31.7241   196
31.7341   205
31.7441   201
31.7541   202
31.7641   207
31.7741   214
31.7841   207
31.7941   217
31.8041   222
31.8141   205
31.8241   187
31.8341   220
31.8441   211
31.8541   202
31.8641   197
31.8741   176
31.8841   210
31.8941   192
31.9041   191
31.9141   193
31.9241   202
31.9341   191
31.9441   182
31.9541   204
31.9641   217
31.9741   203
31.9841   172
31.9941   165
32.0041   186
32.0141   177
32.0241   191
32.0341   208
32.0441   209
32.0541   225
32.0641   190
32.0741   175
32.0841   196
32.0941   195
32.1041   183
32.1141   205
32.1241   212
32.1341   200
32.1441   224
32.1541   201
32.1641   217
32.1741   218
32.1841   227
32.1941   207
32.2041   208
32.2141   215
32.2241   211
32.2341   195
32.2441   201
32.2541   182
32.2641   215
32.2741   194
32.2841   198
32.2941   186
32.3041   187
32.3141   186
32.3241   207
32.3341   193
32.3441   170
32.3541   216
32.3641   171
32.3741   173
32.3841   177
32.3941   166
32.4041   187
32.4141   167
32.4241   158
32.4341   159
32.4441   147
32.4541   168
32.4641   174
32.4741   174
32.4841   151
32.4941   150
32.5041   143
32.5141   167
32.5241   156
32.5341   140
32.5441   139
32.5541   156
32.5641   172
32.5741   168
32.5841   144
32.5941   174
32.6041   154
32.6141   162
32.6241   168
32.6341   160
32.6441   160
32.6541   176
32.6641   177
32.6741   150
32.6841   176
32.6941   135
32.7041   149
32.7141   153
32.7241   161
32.7341   168
32.7441   142
32.7541   135
32.7641   157
32.7741   149
32.7841   144
32.7941   143
32.8041   165
32.8141   146
32.8241   144
32.8341   158
32.8441   157
32.8541   133
32.8641   140
32.8741   154
32.8841   130
32.8941   172
32.9041   139
32.9141   154
32.9241   150
32.9341   146
32.9441   125
32.9541   131
32.9641   167
32.9741   145
32.9841   135
32.9941   159
33.0041   117
33.0141   139
33.0241   160
33.0341   157
33.0441   133
33.0541   135
33.0641   157
33.0741   158
33.0841   147
33.0941   147
33.1041   131
33.1141   145
33.1241   147
33.1341   170
33.1441   146
33.1541   146
33.1641   127
33.1741   145
33.1841   142
33.1941   163
33.2041   143
33.2141   147
33.2241   111
33.2341   145
33.2441   151
33.2541   146
33.2641   145
33.2741   130
33.2841   157
33.2941   151
33.3041   133
33.3141   146
33.3241   131
33.3341   144
33.3441   138
33.3541   136
33.3641   132
33.3741   102
33.3841   136
33.3941   136
33.4041   126
33.4141   138
33.4241   126
33.4341   133
33.4441   143
33.4541   127
33.4641   133
33.4741   144
33.4841   123
33.4941   129
33.5041   130
33.5141   146
33.5241   138
33.5341   146
33.5441   157
33.5541   118
33.5641   112
33.5741   108
33.5841   120
33.5941   134
33.6041   133
33.6141   115
33.6241   119
33.6341   127
33.6441   133
33.6541   130
33.6641   125
33.6741   116
33.6841   120
33.6941   124
33.7041   123
33.7141   124
33.7241   108
33.7341   137
33.7441   144
33.7541   123
33.7641   131
33.7741   104
33.7841   114
33.7941   133
33.8041   131
33.8141   126
33.8241   116
33.8341   138
33.8441   103
33.8541   140
33.8641   122
33.8741   146
33.8841   133
33.8941   115
33.9041   108
33.9141   117
33.9241   121
33.9341   117
33.9441   121
33.9541   120
33.9641   118
33.9741   123
33.9841   137
33.9941   123
34.0041   136
34.0141   121
34.0241   117
34.0341   118
34.0441   121
34.0541   105
34.0641   101
34.0741   127
34.0841   132
34.0941   128
34.1041   127
34.1141   102
34.1241   135
34.1341   147
34.1441   115
34.1541   107
34.1641   112
34.1741   133
34.1841   117
34.1941   121
34.2041   118
34.2141    99
34.2241   128
34.2341   113
34.2441   114
34.2541   123
34.2641   121
34.2741   107
34.2841   124
34.2941   123
34.3041   112
34.3141   136
34.3241    97
34.3341    97
34.3441   119
34.3541   118
34.3641   119
34.3741   119
34.3841   114
34.3941   110
34.4041   105
34.4141   102
34.4241   123
34.4341   102
34.4441    97
34.4541   102
34.4641   109
34.4741   119
34.4841   108
34.4941   100
34.5041   120
34.5141   110
34.5241    98
34.5341   111
34.5441   123
34.5541   100
34.5641   116
34.5741   104
34.5841   110
34.5941   106
34.6041   104
34.6141   102
34.6241   108
34.6341    91
34.6441    89
34.6541   117
34.6641   122
34.6741    92
34.6841   112
34.6941   119
34.7041   124
34.7141   114
34.7241    95
34.7341   104
34.7441   105
34.7541   123
34.7641    83
34.7741    93
34.7841   110
34.7941    99
34.8041   110
34.8141   104
34.8241   114
34.8341   118
34.8441    96
34.8541   110
34.8641   111
34.8741   100
34.8841   103
34.8941    86
34.9041   111
34.9141   111
34.9241   104
34.9341   102
34.9441   117
34.9541   114
34.9641   107
34.9741    96
34.9841    92
34.9941    83
35.0041    90
35.0141    96
35.0241    92
35.0341   114
35.0441   104
35.0541   109
35.0641   109
35.0741    92
35.0841   101
35.0941   108
35.1041    96
35.1141   105
35.1241   120
35.1341   109
35.1441   109
35.1541   109
35.1641   110
35.1741   103
35.1841   109
35.1941    98
35.2041    80
35.2141   100
35.2241    96
35.2341   110
35.2441    97
35.2541   104
35.2641   101
35.2741   101
35.2841   115
35.2941    94
35.3041    87
35.3141   108
35.3241    85
35.3341    83
35.3441    81
35.3541    82
35.3641   103
35.3741    93
35.3841    85
35.3941    94
35.4041    75
35.4141   104
35.4241    93
35.4341    73
35.4441    90
35.4541    89
35.4641    77
35.4741   112
35.4841   102
35.4941    90
35.5041    86
35.5141    82
35.5241    95
35.5341   104
35.5441    73
35.5541    87
35.5641    99
35.5741    87
35.5841    98
35.5941    94
35.6041    93
35.6141    87
35.6241    81
35.6341    91
35.6441    88
35.6541    90
35.6641    89
35.6741    87
35.6841    74
35.6941    76
35.7041    82
35.7141    92
35.7241    90
35.7341    90
35.7441   106
35.7541    85
35.7641    76
35.7741    74
35.7841    76
35.7941    86
35.8041    86
35.8141    77
35.8241    76
35.8341    83
35.8441    87
35.8541    82
35.8641    99
35.8741    84
35.8841    92
35.8941    81
35.9041    72
35.9141    81
35.9241    88
35.9341    86
35.9441    91
35.9541    86
35.9641   103
35.9741    82
35.9841    71
35.9941    76
36.0041    91
36.0141    88
36.0241    72
36.0341    91
36.0441    88
36.0541    84
36.0641    83
36.0741    90
36.0841    91
36.0941    79
36.1041    90
36.1141    73
36.1241    72
36.1341    76
36.1441    78
36.1541    98
36.1641    83
36.1741    88
36.1841    72
36.1941    92
36.2041    83
36.2141    77
36.2241    72
36.2341    87
36.2441    80
36.2541    71
36.2641    96
36.2741    85
36.2841    96
36.2941    82
36.3041    89
36.3141    80
36.3241    78
36.3341    78
36.3441    78
36.3541    73
36.3641    93
36.3741    78
36.3841    80
36.3941    81
36.4041    99
36.4141    93
36.4241    76
36.4341    73
36.4441    73
36.4541    85
36.4641    83
36.4741    80
36.4841    96
36.4941    64
36.5041    76
36.5141    64
36.5241    62
36.5341    80
36.5441    64
36.5541    66
36.5641    78
36.5741    75
36.5841    72
36.5941    80
36.6041    76
36.6141    59
36.6241    78
36.6341    66
36.6441    67
36.6541    72
36.6641    69
36.6741    60
36.6841    73
36.6941    69
36.7041    62
36.7141    70
36.7241    74
36.7341    76
36.7441    58
36.7541    72
36.7641    73
36.7741    67
36.7841    70
36.7941    67
36.8041    80
36.8141    68
36.8241    69
36.8341    68
36.8441    93
36.8541    74
36.8641    56
36.8741    70
36.8841    74
36.8941    58
36.9041    79
36.9141    73
36.9241    67
36.9341    72
36.9441    56
36.9541    57
36.9641    73
36.9741    72
36.9841    78
36.9941    63
37.0041    71
37.0141    62
37.0241    63
37.0341    52
37.0441    55
37.0541    73
37.0641    58
37.0741    59
37.0841    73
37.0941    67
37.1041    66
37.1141    57
37.1241    60
37.1341    74
37.1441    55
37.1541    57
37.1641    64
37.1741    61
37.1841    57
37.1941    59
37.2041    61
37.2141    54
37.2241    70
37.2341    64
37.2441    62
37.2541    68
37.2641    70
37.2741    59
37.2841    72
37.2941    80
37.3041    75
37.3141    69
37.3241    79
37.3341    66
37.3441    50
37.3541    50
37.3641    62
37.3741    49
37.3841    62
37.3941    84
37.4041    50
37.4141    63
37.4241    70
37.4341    60
37.4441    57
37.4541    63
37.4641    50
37.4741    50
37.4841    72
37.4941    67
37.5041    56
37.5141    57
37.5241    66
37.5341    71
37.5441    60
37.5541    54
37.5641    55
37.5741    57
37.5841    49
37.5941    61
37.6041    72
37.6141    46
37.6241    66
37.6341    51
37.6441    52
37.6541    58
37.6641    71
37.6741    57
37.6841    53
37.6941    60
37.7041    66
37.7141    44
37.7241    46
37.7341    52
37.7441    56
37.7541    41
37.7641    51
37.7741    60
37.7841    54
37.7941    57
37.8041    43
37.8141    61
37.8241    56
37.8341    69
37.8441    48
37.8541    35
37.8641    45
37.8741    41
37.8841    38
37.8941    46
37.9041    38
37.9141    36
37.9241    57
37.9341    54
37.9441    47
37.9541    53
37.9641    53
37.9741    49
37.9841    44
37.9941    54
38.0041    43
38.0141    60
38.0241    47
38.0341    50
38.0441    57
38.0541    46
38.0641    59
38.0741    47
38.0841    56
38.0941    38
38.1041    51
38.1141    42
38.1241    55
38.1341    45
38.1441    39
38.1541    53
38.1641    52
38.1741    42
38.1841    49
38.1941    45
38.2041    48
38.2141    39
38.2241    51
38.2341    51
38.2441    53
38.2541    38
38.2641    48
38.2741    38
38.2841    47
38.2941    39
38.3041    62
38.3141    52
38.3241    39
38.3341    43
38.3441    45
38.3541    47
38.3641    40
38.3741    45
38.3841    55
38.3941    53
38.4041    38
38.4141    53
38.4241    47
38.4341    54
38.4441    37
38.4541    49
38.4641    43
38.4741    44
38.4841    45
38.4941    48
38.5041    53
38.5141    41
38.5241    44
38.5341    47
38.5441    37
38.5541    41
38.5641    43
38.5741    50
38.5841    45
38.5941    44
38.6041    38
38.6141    47
38.6241    52
38.6341    53
38.6441    45
38.6541    46
38.6641    36
38.6741    52
38.6841    47
38.6941    41
38.7041    47
38.7141    33
38.7241    39
38.7341    41
38.7441    43
38.7541    47
38.7641    41
38.7741    42
38.7841    42
38.7941    36
38.8041    24
38.8141    37
38.8241    39
38.8341    45
38.8441    34
38.8541    38
38.8641    35
38.8741    52
38.8841    35
38.8941    37
38.9041    38
38.9141    35
38.9241    38
38.9341    42
38.9441    44
38.9541    55
38.9641    40
38.9741    36
38.9841    44
38.9941    45
39.0041    34
39.0141    32
39.0241    45
39.0341    40
39.0441    36
39.0541    25
39.0641    40
39.0741    38
39.0841    33
39.0941    37
39.1041    36
39.1141    34
39.1241    30
39.1341    38
39.1441    34
39.1541    40
39.1641    34
39.1741    37
39.1841    33
39.1941    29
39.2041    32
39.2141    30
39.2241    39
39.2341    34
39.2441    30
39.2541    41
39.2641    36
39.2741    30
39.2841    45
39.2941    37
39.3041    40
39.3141    37
39.3241    28
39.3341    36
39.3441    27
39.3541    37
39.3641    37
39.3741    28
39.3841    38
39.3941    34
39.4041    37
39.4141    23
39.4241    27
39.4341    37
39.4441    30
39.4541    30
39.4641    39
39.4741    25
39.4841    33
39.4941    40
39.5041    29
39.5141    30
39.5241    31
39.5341    25
39.5441    41
39.5541    35
39.5641    34
39.5741    26
39.5841    25
39.5941    30
39.6041    31
39.6141    28
39.6241    34
39.6341    30
39.6441    39
39.6541    35
39.6641    34
39.6741    21
39.6841    29
39.6941    37
39.7041    30
39.7141    24
39.7241    25
39.7341    36
39.7441    30
39.7541    24
39.7641    38
39.7741    31
39.7841    34
39.7941    31
39.8041    27
39.8141    20
39.8241    28
39.8341    32
39.8441    33
39.8541    29
39.8641    25
39.8741    29
39.8841    30
39.8941    30
39.9041    17
39.9141    25
39.9241    32
39.9341    29
39.9441    24
39.9541    31
39.9641    26
39.9741    29
39.9841    27
