Bruker Nano GmbH Berlin, Germany
Esprit 1.9

Date: 5/14/2021 3:56:35 PM
Real time: 16302
Life time: 15229
Pulse density: 97998


Detector type: XFlash 430
Window type: Custom type
Detector thickness: 0.45
Si dead layer:0.029

Calibration, lin.: 10
Calibration, abs.: -955.9
Mn FWHM: 137.05
Fano factor: 0.121
Channels: 4095

Energy Counts
-0.9559     0
-0.9459     0
-0.9359     0
-0.9259     0
-0.9159     0
-0.9059     0
-0.8959     0
-0.8859     0
-0.8759     0
-0.8659     0
-0.8559     0
-0.8459     0
-0.8359     0
-0.8259     0
-0.8159     0
-0.8059     0
-0.7959     0
-0.7859     0
-0.7759     0
-0.7659     0
-0.7559     0
-0.7459     0
-0.7359     0
-0.7259     0
-0.7159     0
-0.7059     0
-0.6959     0
-0.6859     0
-0.6759     0
-0.6659     0
-0.6559     0
-0.6459     0
-0.6359     0
-0.6259     0
-0.6159     0
-0.6059     0
-0.5959     0
-0.5859     0
-0.5759     0
-0.5659     0
-0.5559     0
-0.5459     0
-0.5359     0
-0.5259     0
-0.5159     0
-0.5059     0
-0.4959     0
-0.4859     0
-0.4759     0
-0.4659     0
-0.4559     0
-0.4459     0
-0.4359     0
-0.4259     0
-0.4159     0
-0.4059     0
-0.3959     0
-0.3859     0
-0.3759     0
-0.3659     0
-0.3559     0
-0.3459     0
-0.3359     0
-0.3259     0
-0.3159     0
-0.3059     0
-0.2959     0
-0.2859     0
-0.2759     0
-0.2659     0
-0.2559     0
-0.2459     0
-0.2359     0
-0.2259     0
-0.2159     0
-0.2059     0
-0.1959     0
-0.1859     0
-0.1759     0
-0.1659     0
-0.1559     0
-0.1459     0
-0.1359     0
-0.1259     0
-0.1159     1
-0.1059    13
-0.0959    43
-0.0859   179
-0.0759   611
-0.0659  1701
-0.0559  4478
-0.0459  9803
-0.0359 18156
-0.0259 29153
-0.0159 39987
-0.0059 46460
 0.0041 46814
 0.0141 40195
 0.0241 29651
 0.0341 18993
 0.0441 10267
 0.0541  4800
 0.0641  1877
 0.0741   656
 0.0841   184
 0.0941    57
 0.1041    29
 0.1141     9
 0.1241     8
 0.1341     0
 0.1441     1
 0.1541     0
 0.1641     1
 0.1741    13
 0.1841   130
 0.1941   260
 0.2041   240
 0.2141   259
 0.2241   237
 0.2341   223
 0.2441   239
 0.2541   241
 0.2641   235
 0.2741   225
 0.2841   230
 0.2941   244
 0.3041   223
 0.3141   221
 0.3241   215
 0.3341   221
 0.3441   229
 0.3541   224
 0.3641   232
 0.3741   198
 0.3841   210
 0.3941   207
 0.4041   212
 0.4141   206
 0.4241   193
 0.4341   201
 0.4441   222
 0.4541   211
 0.4641   211
 0.4741   228
 0.4841   218
 0.4941   180
 0.5041   188
 0.5141   215
 0.5241   208
 0.5341   196
 0.5441   201
 0.5541   197
 0.5641   196
 0.5741   195
 0.5841   177
 0.5941   179
 0.6041   191
 0.6141   183
 0.6241   183
 0.6341   204
 0.6441   208
 0.6541   189
 0.6641   169
 0.6741   177
 0.6841   183
 0.6941   180
 0.7041   175
 0.7141   161
 0.7241   159
 0.7341   163
 0.7441   167
 0.7541   174
 0.7641   162
 0.7741   154
 0.7841   151
 0.7941   156
 0.8041   166
 0.8141   168
 0.8241   159
 0.8341   159
 0.8441   162
 0.8541   170
 0.8641   172
 0.8741   179
 0.8841   169
 0.8941   157
 0.9041   161
 0.9141   160
 0.9241   153
 0.9341   170
 0.9441   185
 0.9541   179
 0.9641   174
 0.9741   136
 0.9841   149
 0.9941   160
 1.0041   141
 1.0141   138
 1.0241   155
 1.0341   148
 1.0441   138
 1.0541   145
 1.0641   126
 1.0741   148
 1.0841   137
 1.0941   173
 1.1041   163
 1.1141   153
 1.1241   159
 1.1341   137
 1.1441   138
 1.1541   151
 1.1641   152
 1.1741   152
 1.1841   143
 1.1941   138
 1.2041   129
 1.2141   148
 1.2241   154
 1.2341   167
 1.2441   145
 1.2541   167
 1.2641   145
 1.2741   135
 1.2841   132
 1.2941   152
 1.3041   138
 1.3141   134
 1.3241   144
 1.3341   109
 1.3441   160
 1.3541   135
 1.3641   122
 1.3741   120
 1.3841   136
 1.3941   138
 1.4041   132
 1.4141   132
 1.4241   143
 1.4341   149
 1.4441   148
 1.4541   141
 1.4641   141
 1.4741   130
 1.4841   147
 1.4941   134
 1.5041   139
 1.5141   148
 1.5241   129
 1.5341   144
 1.5441   144
 1.5541   119
 1.5641   127
 1.5741   134
 1.5841   140
 1.5941   133
 1.6041   120
 1.6141   120
 1.6241   116
 1.6341   140
 1.6441   151
 1.6541   162
 1.6641   195
 1.6741   256
 1.6841   288
 1.6941   349
 1.7041   444
 1.7141   505
 1.7241   560
 1.7341   572
 1.7441   604
 1.7541   546
 1.7641   508
 1.7741   464
 1.7841   383
 1.7941   324
 1.8041   279
 1.8141   215
 1.8241   202
 1.8341   181
 1.8441   155
 1.8541   149
 1.8641   156
 1.8741   150
 1.8841   160
 1.8941   137
 1.9041   162
 1.9141   133
 1.9241   131
 1.9341   146
 1.9441   143
 1.9541   152
 1.9641   164
 1.9741   166
 1.9841   131
 1.9941   161
 2.0041   144
 2.0141   179
 2.0241   172
 2.0341   165
 2.0441   172
 2.0541   137
 2.0641   123
 2.0741   125
 2.0841   130
 2.0941   135
 2.1041   126
 2.1141   117
 2.1241   115
 2.1341   136
 2.1441   140
 2.1541    96
 2.1641   114
 2.1741   118
 2.1841   121
 2.1941   110
 2.2041   116
 2.2141   104
 2.2241   119
 2.2341   124
 2.2441   115
 2.2541   121
 2.2641   114
 2.2741   127
 2.2841   102
 2.2941   104
 2.3041   102
 2.3141    92
 2.3241   126
 2.3341   110
 2.3441   124
 2.3541   109
 2.3641   121
 2.3741    97
 2.3841   109
 2.3941   127
 2.4041   110
 2.4141   113
 2.4241    92
 2.4341   112
 2.4441   114
 2.4541    99
 2.4641   112
 2.4741    89
 2.4841   110
 2.4941    94
 2.5041   117
 2.5141   106
 2.5241   117
 2.5341    87
 2.5441   110
 2.5541    92
 2.5641   116
 2.5741    94
 2.5841    91
 2.5941    92
 2.6041   121
 2.6141    90
 2.6241   100
 2.6341    95
 2.6441    93
 2.6541    90
 2.6641   101
 2.6741   103
 2.6841    84
 2.6941   100
 2.7041    96
 2.7141    99
 2.7241    87
 2.7341   103
 2.7441    96
 2.7541   101
 2.7641    86
 2.7741    91
 2.7841    92
 2.7941    93
 2.8041    85
 2.8141    85
 2.8241    95
 2.8341    95
 2.8441   104
 2.8541   101
 2.8641    94
 2.8741    99
 2.8841   103
 2.8941    73
 2.9041    96
 2.9141   107
 2.9241    99
 2.9341    97
 2.9441    82
 2.9541    82
 2.9641   102
 2.9741    85
 2.9841    82
 2.9941    94
 3.0041    94
 3.0141    86
 3.0241    87
 3.0341    91
 3.0441    86
 3.0541    77
 3.0641   118
 3.0741    85
 3.0841    82
 3.0941    74
 3.1041    81
 3.1141    84
 3.1241    89
 3.1341    86
 3.1441    84
 3.1541    94
 3.1641    91
 3.1741    91
 3.1841    93
 3.1941    88
 3.2041   101
 3.2141   112
 3.2241   112
 3.2341   150
 3.2441   160
 3.2541   224
 3.2641   210
 3.2741   262
 3.2841   303
 3.2941   313
 3.3041   355
 3.3141   369
 3.3241   339
 3.3341   342
 3.3441   314
 3.3541   278
 3.3641   217
 3.3741   192
 3.3841   152
 3.3941   118
 3.4041   137
 3.4141   109
 3.4241    89
 3.4341    79
 3.4441    89
 3.4541    90
 3.4641    90
 3.4741    88
 3.4841    92
 3.4941    96
 3.5041   112
 3.5141   105
 3.5241   144
 3.5341   154
 3.5441   172
 3.5541   211
 3.5641   272
 3.5741   327
 3.5841   486
 3.5941   627
 3.6041   790
 3.6141  1086
 3.6241  1392
 3.6341  1761
 3.6441  2153
 3.6541  2551
 3.6641  2905
 3.6741  3047
 3.6841  3236
 3.6941  3180
 3.7041  3131
 3.7141  2878
 3.7241  2557
 3.7341  2107
 3.7441  1740
 3.7541  1404
 3.7641   999
 3.7741   707
 3.7841   549
 3.7941   378
 3.8041   238
 3.8141   210
 3.8241   144
 3.8341   112
 3.8441    94
 3.8541   105
 3.8641   106
 3.8741   107
 3.8841   109
 3.8941   127
 3.9041   140
 3.9141   182
 3.9241   242
 3.9341   247
 3.9441   324
 3.9541   390
 3.9641   459
 3.9741   521
 3.9841   622
 3.9941   657
 4.0041   649
 4.0141   666
 4.0241   681
 4.0341   617
 4.0441   590
 4.0541   532
 4.0641   403
 4.0741   367
 4.0841   282
 4.0941   229
 4.1041   175
 4.1141   150
 4.1241   111
 4.1341    96
 4.1441    70
 4.1541    75
 4.1641    56
 4.1741    59
 4.1841    47
 4.1941    45
 4.2041    62
 4.2141    59
 4.2241    64
 4.2341    68
 4.2441    61
 4.2541    43
 4.2641    59
 4.2741    65
 4.2841    63
 4.2941    51
 4.3041    67
 4.3141    54
 4.3241    56
 4.3341    64
 4.3441    69
 4.3541    53
 4.3641    61
 4.3741    66
 4.3841    87
 4.3941   104
 4.4041   102
 4.4141   149
 4.4241   170
 4.4341   214
 4.4441   256
 4.4541   300
 4.4641   344
 4.4741   380
 4.4841   400
 4.4941   427
 4.5041   453
 4.5141   474
 4.5241   402
 4.5341   387
 4.5441   360
 4.5541   309
 4.5641   297
 4.5741   242
 4.5841   207
 4.5941   161
 4.6041   152
 4.6141    93
 4.6241    95
 4.6341    99
 4.6441    81
 4.6541    78
 4.6641    80
 4.6741    63
 4.6841    61
 4.6941    68
 4.7041    62
 4.7141    55
 4.7241    74
 4.7341    69
 4.7441    56
 4.7541    88
 4.7641    82
 4.7741    74
 4.7841    96
 4.7941    81
 4.8041    89
 4.8141    92
 4.8241    74
 4.8341    88
 4.8441    90
 4.8541   117
 4.8641   117
 4.8741   120
 4.8841   132
 4.8941   120
 4.9041   155
 4.9141   131
 4.9241   168
 4.9341   150
 4.9441   155
 4.9541   152
 4.9641   133
 4.9741   119
 4.9841   130
 4.9941   100
 5.0041   111
 5.0141   122
 5.0241    86
 5.0341    85
 5.0441    88
 5.0541    80
 5.0641    74
 5.0741    78
 5.0841    57
 5.0941    72
 5.1041    88
 5.1141    58
 5.1241    93
 5.1341    74
 5.1441    72
 5.1541    77
 5.1641    79
 5.1741    72
 5.1841    83
 5.1941    70
 5.2041    66
 5.2141    68
 5.2241    84
 5.2341    64
 5.2441    70
 5.2541    72
 5.2641    76
 5.2741    54
 5.2841    74
 5.2941    55
 5.3041    81
 5.3141    76
 5.3241    93
 5.3341   105
 5.3441    84
 5.3541    95
 5.3641   103
 5.3741   111
 5.3841    95
 5.3941   133
 5.4041   107
 5.4141   111
 5.4241   108
 5.4341   118
 5.4441   106
 5.4541   101
 5.4641   105
 5.4741   110
 5.4841    87
 5.4941    71
 5.5041    77
 5.5141    85
 5.5241    75
 5.5341    83
 5.5441    65
 5.5541    77
 5.5641    84
 5.5741    62
 5.5841    76
 5.5941    73
 5.6041    77
 5.6141    80
 5.6241    87
 5.6341    77
 5.6441    74
 5.6541    82
 5.6641    81
 5.6741    73
 5.6841    80
 5.6941    67
 5.7041    81
 5.7141   100
 5.7241    99
 5.7341    93
 5.7441   118
 5.7541   114
 5.7641   119
 5.7741   135
 5.7841   159
 5.7941   183
 5.8041   213
 5.8141   276
 5.8241   340
 5.8341   351
 5.8441   412
 5.8541   441
 5.8641   442
 5.8741   486
 5.8841   554
 5.8941   538
 5.9041   506
 5.9141   501
 5.9241   452
 5.9341   450
 5.9441   387
 5.9541   326
 5.9641   272
 5.9741   265
 5.9841   235
 5.9941   198
 6.0041   141
 6.0141   146
 6.0241   141
 6.0341   120
 6.0441   123
 6.0541   110
 6.0641    98
 6.0741   112
 6.0841    91
 6.0941   111
 6.1041   123
 6.1141   105
 6.1241   140
 6.1341   133
 6.1441   126
 6.1541   147
 6.1641   160
 6.1741   138
 6.1841   185
 6.1941   231
 6.2041   273
 6.2141   316
 6.2241   437
 6.2341   633
 6.2441   878
 6.2541  1183
 6.2641  1544
 6.2741  2207
 6.2841  2852
 6.2941  3872
 6.3041  5077
 6.3141  6257
 6.3241  7890
 6.3341  9590
 6.3441 11024
 6.3541 12605
 6.3641 14168
 6.3741 15248
 6.3841 16133
 6.3941 16525
 6.4041 16580
 6.4141 15967
 6.4241 15199
 6.4341 13816
 6.4441 12340
 6.4541 10877
 6.4641  9094
 6.4741  7576
 6.4841  6108
 6.4941  4593
 6.5041  3594
 6.5141  2661
 6.5241  1924
 6.5341  1411
 6.5441   975
 6.5541   719
 6.5641   520
 6.5741   401
 6.5841   305
 6.5941   246
 6.6041   206
 6.6141   162
 6.6241   166
 6.6341   138
 6.6441   112
 6.6541   138
 6.6641   165
 6.6741   122
 6.6841   140
 6.6941   139
 6.7041   135
 6.7141   114
 6.7241   136
 6.7341   135
 6.7441   152
 6.7541   127
 6.7641   149
 6.7741   136
 6.7841   138
 6.7941   155
 6.8041   180
 6.8141   139
 6.8241   157
 6.8341   195
 6.8441   177
 6.8541   209
 6.8641   237
 6.8741   238
 6.8841   291
 6.8941   329
 6.9041   390
 6.9141   472
 6.9241   548
 6.9341   660
 6.9441   769
 6.9541  1059
 6.9641  1137
 6.9741  1478
 6.9841  1684
 6.9941  1933
 7.0041  2161
 7.0141  2461
 7.0241  2629
 7.0341  2819
 7.0441  2862
 7.0541  2997
 7.0641  2954
 7.0741  2655
 7.0841  2557
 7.0941  2339
 7.1041  2170
 7.1141  1853
 7.1241  1618
 7.1341  1387
 7.1441  1144
 7.1541   934
 7.1641   726
 7.1741   564
 7.1841   489
 7.1941   404
 7.2041   339
 7.2141   283
 7.2241   230
 7.2341   207
 7.2441   208
 7.2541   190
 7.2641   177
 7.2741   180
 7.2841   168
 7.2941   179
 7.3041   162
 7.3141   173
 7.3241   185
 7.3341   190
 7.3441   207
 7.3541   226
 7.3641   225
 7.3741   227
 7.3841   228
 7.3941   258
 7.4041   236
 7.4141   259
 7.4241   274
 7.4341   271
 7.4441   237
 7.4541   280
 7.4641   258
 7.4741   229
 7.4841   227
 7.4941   197
 7.5041   210
 7.5141   202
 7.5241   208
 7.5341   190
 7.5441   216
 7.5541   219
 7.5641   203
 7.5741   191
 7.5841   158
 7.5941   161
 7.6041   158
 7.6141   152
 7.6241   173
 7.6341   153
 7.6441   169
 7.6541   151
 7.6641   170
 7.6741   191
 7.6841   179
 7.6941   175
 7.7041   159
 7.7141   174
 7.7241   179
 7.7341   187
 7.7441   215
 7.7541   194
 7.7641   237
 7.7741   218
 7.7841   211
 7.7941   204
 7.8041   204
 7.8141   247
 7.8241   234
 7.8341   222
 7.8441   235
 7.8541   237
 7.8641   238
 7.8741   244
 7.8841   295
 7.8941   272
 7.9041   270
 7.9141   270
 7.9241   336
 7.9341   345
 7.9441   321
 7.9541   372
 7.9641   381
 7.9741   425
 7.9841   458
 7.9941   460
 8.0041   490
 8.0141   530
 8.0241   565
 8.0341   618
 8.0441   680
 8.0541   763
 8.0641   804
 8.0741   776
 8.0841   885
 8.0941   934
 8.1041   903
 8.1141   954
 8.1241  1005
 8.1341  1003
 8.1441  1110
 8.1541  1105
 8.1641  1102
 8.1741  1144
 8.1841  1191
 8.1941  1146
 8.2041  1162
 8.2141  1203
 8.2241  1200
 8.2341  1242
 8.2441  1297
 8.2541  1322
 8.2641  1330
 8.2741  1411
 8.2841  1556
 8.2941  1627
 8.3041  1735
 8.3141  1877
 8.3241  2018
 8.3341  2191
 8.3441  2351
 8.3541  2475
 8.3641  2557
 8.3741  2580
 8.3841  2760
 8.3941  2715
 8.4041  2716
 8.4141  2528
 8.4241  2310
 8.4341  2164
 8.4441  2000
 8.4541  1802
 8.4641  1579
 8.4741  1392
 8.4841  1178
 8.4941  1042
 8.5041   863
 8.5141   775
 8.5241   634
 8.5341   551
 8.5441   481
 8.5541   429
 8.5641   357
 8.5741   361
 8.5841   338
 8.5941   339
 8.6041   329
 8.6141   308
 8.6241   322
 8.6341   336
 8.6441   335
 8.6541   335
 8.6641   307
 8.6741   289
 8.6841   331
 8.6941   325
 8.7041   291
 8.7141   309
 8.7241   291
 8.7341   298
 8.7441   290
 8.7541   266
 8.7641   291
 8.7741   266
 8.7841   277
 8.7941   233
 8.8041   263
 8.8141   241
 8.8241   251
 8.8341   243
 8.8441   254
 8.8541   253
 8.8641   260
 8.8741   264
 8.8841   248
 8.8941   254
 8.9041   257
 8.9141   277
 8.9241   259
 8.9341   272
 8.9441   255
 8.9541   254
 8.9641   266
 8.9741   308
 8.9841   309
 8.9941   294
 9.0041   307
 9.0141   319
 9.0241   322
 9.0341   322
 9.0441   366
 9.0541   338
 9.0641   349
 9.0741   343
 9.0841   357
 9.0941   388
 9.1041   421
 9.1141   437
 9.1241   415
 9.1341   469
 9.1441   467
 9.1541   490
 9.1641   500
 9.1741   508
 9.1841   530
 9.1941   574
 9.2041   586
 9.2141   636
 9.2241   630
 9.2341   697
 9.2441   737
 9.2541   728
 9.2641   781
 9.2741   813
 9.2841   861
 9.2941   943
 9.3041   969
 9.3141   952
 9.3241   993
 9.3341   984
 9.3441   995
 9.3541  1017
 9.3641  1107
 9.3741  1055
 9.3841  1154
 9.3941  1147
 9.4041  1099
 9.4141  1162
 9.4241  1156
 9.4341  1160
 9.4441  1216
 9.4541  1167
 9.4641  1177
 9.4741  1259
 9.4841  1229
 9.4941  1298
 9.5041  1388
 9.5141  1413
 9.5241  1362
 9.5341  1428
 9.5441  1508
 9.5541  1565
 9.5641  1642
 9.5741  1739
 9.5841  1810
 9.5941  1926
 9.6041  2036
 9.6141  2234
 9.6241  2301
 9.6341  2322
 9.6441  2385
 9.6541  2443
 9.6641  2456
 9.6741  2484
 9.6841  2412
 9.6941  2325
 9.7041  2232
 9.7141  2119
 9.7241  2055
 9.7341  1888
 9.7441  1715
 9.7541  1617
 9.7641  1481
 9.7741  1387
 9.7841  1313
 9.7941  1220
 9.8041  1117
 9.8141  1053
 9.8241  1009
 9.8341   975
 9.8441   995
 9.8541   991
 9.8641  1014
 9.8741   986
 9.8841   972
 9.8941   976
 9.9041  1000
 9.9141  1049
 9.9241  1090
 9.9341  1083
 9.9441  1119
 9.9541  1120
 9.9641  1066
 9.9741  1071
 9.9841  1020
 9.9941   952
10.0041   868
10.0141   819
10.0241   789
10.0341   754
10.0441   664
10.0541   569
10.0641   513
10.0741   424
10.0841   420
10.0941   382
10.1041   378
10.1141   312
10.1241   296
10.1341   265
10.1441   256
10.1541   235
10.1641   222
10.1741   214
10.1841   225
10.1941   209
10.2041   198
10.2141   189
10.2241   180
10.2341   156
10.2441   175
10.2541   166
10.2641   160
10.2741   148
10.2841   171
10.2941   163
10.3041   142
10.3141   146
10.3241   135
10.3341   139
10.3441   143
10.3541   140
10.3641   136
10.3741   152
10.3841   143
10.3941   144
10.4041   143
10.4141   142
10.4241   138
10.4341   136
10.4441   142
10.4541   143
10.4641   137
10.4741   136
10.4841   158
10.4941   147
10.5041   149
10.5141   153
10.5241   148
10.5341   161
10.5441   174
10.5541   162
10.5641   167
10.5741   159
10.5841   149
10.5941   155
10.6041   154
10.6141   163
10.6241   175
10.6341   175
10.6441   153
10.6541   156
10.6641   172
10.6741   178
10.6841   192
10.6941   181
10.7041   194
10.7141   205
10.7241   203
10.7341   208
10.7441   192
10.7541   200
10.7641   208
10.7741   215
10.7841   220
10.7941   223
10.8041   215
10.8141   220
10.8241   246
10.8341   258
10.8441   236
10.8541   239
10.8641   262
10.8741   255
10.8841   242
10.8941   258
10.9041   253
10.9141   258
10.9241   258
10.9341   260
10.9441   244
10.9541   256
10.9641   250
10.9741   257
10.9841   257
10.9941   263
11.0041   257
11.0141   244
11.0241   281
11.0341   240
11.0441   224
11.0541   227
11.0641   240
11.0741   231
11.0841   254
11.0941   236
11.1041   224
11.1141   239
11.1241   224
11.1341   241
11.1441   244
11.1541   239
11.1641   260
11.1741   268
11.1841   292
11.1941   289
11.2041   306
11.2141   322
11.2241   309
11.2341   326
11.2441   357
11.2541   361
11.2641   379
11.2741   369
11.2841   364
11.2941   382
11.3041   371
11.3141   323
11.3241   320
11.3341   338
11.3441   309
11.3541   302
11.3641   278
11.3741   270
11.3841   244
11.3941   238
11.4041   225
11.4141   226
11.4241   211
11.4341   209
11.4441   206
11.4541   206
11.4641   200
11.4741   183
11.4841   193
11.4941   195
11.5041   164
11.5141   178
11.5241   187
11.5341   183
11.5441   179
11.5541   198
11.5641   193
11.5741   205
11.5841   205
11.5941   187
11.6041   193
11.6141   182
11.6241   195
11.6341   193
11.6441   194
11.6541   192
11.6641   183
11.6741   189
11.6841   208
11.6941   199
11.7041   175
11.7141   170
11.7241   201
11.7341   179
11.7441   150
11.7541   152
11.7641   145
11.7741   155
11.7841   159
11.7941   164
11.8041   156
11.8141   162
11.8241   151
11.8341   140
11.8441   158
11.8541   159
11.8641   144
11.8741   143
11.8841   143
11.8941   151
11.9041   158
11.9141   170
11.9241   141
11.9341   148
11.9441   158
11.9541   155
11.9641   158
11.9741   146
11.9841   147
11.9941   155
12.0041   150
12.0141   154
12.0241   173
12.0341   156
12.0441   148
12.0541   156
12.0641   153
12.0741   154
12.0841   151
12.0941   150
12.1041   138
12.1141   145
12.1241   139
12.1341   149
12.1441   170
12.1541   155
12.1641   133
12.1741   136
12.1841   143
12.1941   138
12.2041   144
12.2141   144
12.2241   133
12.2341   128
12.2441   126
12.2541   141
12.2641   138
12.2741   130
12.2841   135
12.2941   140
12.3041   128
12.3141   129
12.3241   148
12.3341   141
12.3441   132
12.3541   141
12.3641   138
12.3741   139
12.3841   152
12.3941   147
12.4041   126
12.4141   126
12.4241   150
12.4341   157
12.4441   152
12.4541   146
12.4641   139
12.4741   144
12.4841   153
12.4941   158
12.5041   146
12.5141   145
12.5241   155
12.5341   169
12.5441   158
12.5541   147
12.5641   147
12.5741   153
12.5841   153
12.5941   160
12.6041   169
12.6141   166
12.6241   166
12.6341   168
12.6441   161
12.6541   151
12.6641   153
12.6741   158
12.6841   152
12.6941   149
12.7041   148
12.7141   150
12.7241   179
12.7341   176
12.7441   158
12.7541   158
12.7641   164
12.7741   164
12.7841   164
12.7941   169
12.8041   170
12.8141   169
12.8241   168
12.8341   166
12.8441   166
12.8541   169
12.8641   170
12.8741   172
12.8841   180
12.8941   186
12.9041   178
12.9141   167
12.9241   166
12.9341   175
12.9441   183
12.9541   184
12.9641   184
12.9741   178
12.9841   169
12.9941   170
13.0041   175
13.0141   176
13.0241   176
13.0341   179
13.0441   182
13.0541   180
13.0641   180
13.0741   183
13.0841   183
13.0941   183
13.1041   187
13.1141   192
13.1241   194
13.1341   191
13.1441   189
13.1541   191
13.1641   197
13.1741   197
13.1841   193
13.1941   193
13.2041   196
13.2141   195
13.2241   194
13.2341   208
13.2441   222
13.2541   228
13.2641   237
13.2741   254
13.2841   256
13.2941   249
13.3041   256
13.3141   243
13.3241   243
13.3341   256
13.3441   287
13.3541   289
13.3641   273
13.3741   274
13.3841   270
13.3941   284
13.4041   284
13.4141   264
13.4241   262
13.4341   273
13.4441   256
13.4541   253
13.4641   249
13.4741   238
13.4841   240
13.4941   230
13.5041   227
13.5141   216
13.5241   212
13.5341   214
13.5441   229
13.5541   224
13.5641   196
13.5741   204
13.5841   215
13.5941   219
13.6041   210
13.6141   193
13.6241   191
13.6341   193
13.6441   196
13.6541   214
13.6641   226
13.6741   202
13.6841   186
13.6941   204
13.7041   219
13.7141   213
13.7241   199
13.7341   213
13.7441   231
13.7541   219
13.7641   216
13.7741   216
13.7841   210
13.7941   206
13.8041   192
13.8141   214
13.8241   221
13.8341   196
13.8441   194
13.8541   214
13.8641   226
13.8741   228
13.8841   223
13.8941   222
13.9041   237
13.9141   235
13.9241   227
13.9341   244
13.9441   243
13.9541   231
13.9641   246
13.9741   268
13.9841   265
13.9941   253
14.0041   281
14.0141   323
14.0241   329
14.0341   309
14.0441   309
14.0541   333
14.0641   349
14.0741   361
14.0841   366
14.0941   366
14.1041   382
14.1141   395
14.1241   393
14.1341   376
14.1441   380
14.1541   383
14.1641   375
14.1741   389
14.1841   404
14.1941   392
14.2041   374
14.2141   384
14.2241   369
14.2341   350
14.2441   322
14.2541   306
14.2641   314
14.2741   281
14.2841   268
14.2941   285
14.3041   292
14.3141   271
14.3241   261
14.3341   272
14.3441   265
14.3541   261
14.3641   260
14.3741   258
14.3841   240
14.3941   225
14.4041   232
14.4141   244
14.4241   241
14.4341   245
14.4441   250
14.4541   245
14.4641   264
14.4741   277
14.4841   256
14.4941   249
14.5041   247
14.5141   260
14.5241   273
14.5341   247
14.5441   251
14.5541   263
14.5641   261
14.5741   276
14.5841   290
14.5941   262
14.6041   241
14.6141   248
14.6241   260
14.6341   258
14.6441   263
14.6541   251
14.6641   246
14.6741   275
14.6841   272
14.6941   268
14.7041   292
14.7141   276
14.7241   259
14.7341   266
14.7441   294
14.7541   289
14.7641   278
14.7741   283
14.7841   282
14.7941   290
14.8041   305
14.8141   293
14.8241   284
14.8341   308
14.8441   314
14.8541   313
14.8641   340
14.8741   326
14.8841   329
14.8941   338
14.9041   326
14.9141   343
14.9241   333
14.9341   322
14.9441   320
14.9541   318
14.9641   332
14.9741   337
14.9841   332
14.9941   327
15.0041   329
15.0141   299
15.0241   292
15.0341   306
15.0441   302
15.0541   297
15.0641   319
15.0741   298
15.0841   295
15.0941   310
15.1041   313
15.1141   308
15.1241   307
15.1341   298
15.1441   291
15.1541   324
15.1641   318
15.1741   283
15.1841   298
15.1941   306
15.2041   325
15.2141   325
15.2241   296
15.2341   303
15.2441   307
15.2541   299
15.2641   313
15.2741   320
15.2841   321
15.2941   303
15.3041   318
15.3141   324
15.3241   302
15.3341   317
15.3441   338
15.3541   328
15.3641   316
15.3741   321
15.3841   311
15.3941   297
15.4041   324
15.4141   321
15.4241   294
15.4341   310
15.4441   336
15.4541   325
15.4641   326
15.4741   346
15.4841   327
15.4941   336
15.5041   365
15.5141   365
15.5241   343
15.5341   325
15.5441   351
15.5541   373
15.5641   383
15.5741   383
15.5841   386
15.5941   420
15.6041   446
15.6141   465
15.6241   429
15.6341   436
15.6441   496
15.6541   521
15.6641   522
15.6741   546
15.6841   579
15.6941   585
15.7041   592
15.7141   578
15.7241   588
15.7341   615
15.7441   625
15.7541   629
15.7641   630
15.7741   639
15.7841   618
15.7941   601
15.8041   599
15.8141   553
15.8241   534
15.8341   549
15.8441   528
15.8541   511
15.8641   492
15.8741   474
15.8841   464
15.8941   451
15.9041   441
15.9141   420
15.9241   428
15.9341   420
15.9441   369
15.9541   363
15.9641   367
15.9741   383
15.9841   378
15.9941   365
16.0041   393
16.0141   370
16.0241   376
16.0341   394
16.0441   376
16.0541   343
16.0641   356
16.0741   366
16.0841   363
16.0941   378
16.1041   377
16.1141   366
16.1241   361
16.1341   355
16.1441   365
16.1541   377
16.1641   368
16.1741   360
16.1841   385
16.1941   367
16.2041   374
16.2141   387
16.2241   363
16.2341   355
16.2441   366
16.2541   360
16.2641   372
16.2741   383
16.2841   376
16.2941   395
16.3041   393
16.3141   377
16.3241   392
16.3341   390
16.3441   379
16.3541   372
16.3641   356
16.3741   381
16.3841   371
16.3941   388
16.4041   390
16.4141   379
16.4241   364
16.4341   377
16.4441   396
16.4541   380
16.4641   377
16.4741   398
16.4841   437
16.4941   415
16.5041   374
16.5141   397
16.5241   377
16.5341   400
16.5441   402
16.5541   371
16.5641   387
16.5741   403
16.5841   425
16.5941   420
16.6041   394
16.6141   391
16.6241   393
16.6341   415
16.6441   416
16.6541   420
16.6641   427
16.6741   408
16.6841   408
16.6941   405
16.7041   408
16.7141   405
16.7241   426
16.7341   423
16.7441   404
16.7541   418
16.7641   414
16.7741   405
16.7841   396
16.7941   409
16.8041   418
16.8141   435
16.8241   395
16.8341   400
16.8441   437
16.8541   422
16.8641   394
16.8741   389
16.8841   411
16.8941   408
16.9041   415
16.9141   422
16.9241   429
16.9341   407
16.9441   409
16.9541   401
16.9641   436
16.9741   427
16.9841   409
16.9941   406
17.0041   427
17.0141   408
17.0241   416
17.0341   416
17.0441   406
17.0541   433
17.0641   442
17.0741   447
17.0841   421
17.0941   426
17.1041   419
17.1141   412
17.1241   435
17.1341   402
17.1441   429
17.1541   410
17.1641   410
17.1741   416
17.1841   415
17.1941   419
17.2041   400
17.2141   414
17.2241   428
17.2341   430
17.2441   452
17.2541   431
17.2641   418
17.2741   416
17.2841   436
17.2941   417
17.3041   433
17.3141   432
17.3241   435
17.3341   428
17.3441   429
17.3541   452
17.3641   448
17.3741   412
17.3841   413
17.3941   430
17.4041   423
17.4141   435
17.4241   431
17.4341   453
17.4441   462
17.4541   458
17.4641   437
17.4741   435
17.4841   455
17.4941   457
17.5041   423
17.5141   445
17.5241   457
17.5341   477
17.5441   471
17.5541   470
17.5641   452
17.5741   469
17.5841   487
17.5941   482
17.6041   472
17.6141   503
17.6241   507
17.6341   476
17.6441   466
17.6541   467
17.6641   483
17.6741   487
17.6841   502
17.6941   526
17.7041   505
17.7141   476
17.7241   488
17.7341   482
17.7441   469
17.7541   466
17.7641   469
17.7741   467
17.7841   478
17.7941   505
17.8041   470
17.8141   435
17.8241   461
17.8341   470
17.8441   455
17.8541   472
17.8641   474
17.8741   467
17.8841   458
17.8941   468
17.9041   464
17.9141   446
17.9241   475
17.9341   439
17.9441   427
17.9541   446
17.9641   450
17.9741   448
17.9841   472
17.9941   457
18.0041   437
18.0141   488
18.0241   487
18.0341   482
18.0441   483
18.0541   455
18.0641   448
18.0741   487
18.0841   476
18.0941   461
18.1041   479
18.1141   493
18.1241   464
18.1341   452
18.1441   477
18.1541   442
18.1641   452
18.1741   486
18.1841   477
18.1941   494
18.2041   485
18.2141   469
18.2241   463
18.2341   503
18.2441   507
18.2541   466
18.2641   465
18.2741   467
18.2841   474
18.2941   460
18.3041   478
18.3141   477
18.3241   494
18.3341   476
18.3441   492
18.3541   499
18.3641   495
18.3741   490
18.3841   460
18.3941   481
18.4041   469
18.4141   479
18.4241   477
18.4341   464
18.4441   457
18.4541   507
18.4641   516
18.4741   471
18.4841   495
18.4941   493
18.5041   524
18.5141   485
18.5241   464
18.5341   477
18.5441   461
18.5541   470
18.5641   462
18.5741   512
18.5841   516
18.5941   529
18.6041   528
18.6141   507
18.6241   481
18.6341   507
18.6441   494
18.6541   492
18.6641   516
18.6741   493
18.6841   502
18.6941   499
18.7041   494
18.7141   486
18.7241   525
18.7341   520
18.7441   483
18.7541   478
18.7641   499
18.7741   493
18.7841   489
18.7941   451
18.8041   473
18.8141   485
18.8241   476
18.8341   496
18.8441   499
18.8541   478
18.8641   477
18.8741   499
18.8841   491
18.8941   506
18.9041   517
18.9141   492
18.9241   488
18.9341   484
18.9441   517
18.9541   528
18.9641   509
18.9741   508
18.9841   505
18.9941   517
19.0041   501
19.0141   484
19.0241   500
19.0341   487
19.0441   483
19.0541   499
19.0641   516
19.0741   545
19.0841   521
19.0941   493
19.1041   491
19.1141   468
19.1241   491
19.1341   506
19.1441   470
19.1541   496
19.1641   506
19.1741   510
19.1841   506
19.1941   508
19.2041   517
19.2141   538
19.2241   489
19.2341   488
19.2441   514
19.2541   527
19.2641   489
19.2741   465
19.2841   496
19.2941   504
19.3041   507
19.3141   483
19.3241   517
19.3341   515
19.3441   474
19.3541   511
19.3641   504
19.3741   501
19.3841   487
19.3941   521
19.4041   510
19.4141   494
19.4241   526
19.4341   501
19.4441   539
19.4541   516
19.4641   485
19.4741   518
19.4841   510
19.4941   508
19.5041   475
19.5141   525
19.5241   552
19.5341   526
19.5441   507
19.5541   482
19.5641   486
19.5741   514
19.5841   528
19.5941   495
19.6041   497
19.6141   500
19.6241   497
19.6341   510
19.6441   532
19.6541   494
19.6641   518
19.6741   521
19.6841   514
19.6941   525
19.7041   538
19.7141   496
19.7241   470
19.7341   496
19.7441   469
19.7541   511
19.7641   520
19.7741   530
19.7841   535
19.7941   531
19.8041   489
19.8141   458
19.8241   497
19.8341   487
19.8441   495
19.8541   473
19.8641   473
19.8741   517
19.8841   524
19.8941   529
19.9041   497
19.9141   523
19.9241   486
19.9341   510
19.9441   497
19.9541   514
19.9641   504
19.9741   526
19.9841   510
19.9941   507
20.0041   500
20.0141   502
20.0241   528
20.0341   531
20.0441   522
20.0541   503
20.0641   502
20.0741   486
20.0841   489
20.0941   494
20.1041   526
20.1141   504
20.1241   488
20.1341   514
20.1441   504
20.1541   486
20.1641   502
20.1741   553
20.1841   546
20.1941   529
20.2041   511
20.2141   535
20.2241   512
20.2341   511
20.2441   509
20.2541   493
20.2641   528
20.2741   543
20.2841   535
20.2941   498
20.3041   505
20.3141   491
20.3241   490
20.3341   521
20.3441   503
20.3541   509
20.3641   512
20.3741   495
20.3841   499
20.3941   479
20.4041   533
20.4141   511
20.4241   539
20.4341   512
20.4441   473
20.4541   537
20.4641   495
20.4741   515
20.4841   503
20.4941   521
20.5041   494
20.5141   516
20.5241   525
20.5341   485
20.5441   498
20.5541   515
20.5641   532
20.5741   547
20.5841   504
20.5941   494
20.6041   532
20.6141   496
20.6241   524
20.6341   509
20.6441   524
20.6541   483
20.6641   500
20.6741   498
20.6841   512
20.6941   512
20.7041   517
20.7141   516
20.7241   513
20.7341   503
20.7441   512
20.7541   534
20.7641   503
20.7741   553
20.7841   541
20.7941   517
20.8041   529
20.8141   515
20.8241   548
20.8341   529
20.8441   530
20.8541   558
20.8641   526
20.8741   555
20.8841   550
20.8941   530
20.9041   568
20.9141   587
20.9241   628
20.9341   604
20.9441   603
20.9541   603
20.9641   615
20.9741   625
20.9841   620
20.9941   571
21.0041   631
21.0141   621
21.0241   662
21.0341   703
21.0441   696
21.0541   635
21.0641   693
21.0741   715
21.0841   749
21.0941   744
21.1041   720
21.1141   686
21.1241   669
21.1341   712
21.1441   703
21.1541   724
21.1641   726
21.1741   678
21.1841   713
21.1941   697
21.2041   689
21.2141   692
21.2241   634
21.2341   685
21.2441   630
21.2541   639
21.2641   637
21.2741   586
21.2841   599
21.2941   634
21.3041   593
21.3141   608
21.3241   568
21.3341   542
21.3441   541
21.3541   496
21.3641   533
21.3741   552
21.3841   536
21.3941   511
21.4041   505
21.4141   510
21.4241   545
21.4341   545
21.4441   497
21.4541   515
21.4641   477
21.4741   497
21.4841   523
21.4941   505
21.5041   488
21.5141   523
21.5241   502
21.5341   495
21.5441   496
21.5541   504
21.5641   472
21.5741   479
21.5841   482
21.5941   520
21.6041   515
21.6141   457
21.6241   467
21.6341   489
21.6441   503
21.6541   529
21.6641   522
21.6741   497
21.6841   487
21.6941   521
21.7041   522
21.7141   529
21.7241   477
21.7341   523
21.7441   467
21.7541   492
21.7641   503
21.7741   491
21.7841   496
21.7941   507
21.8041   531
21.8141   531
21.8241   499
21.8341   514
21.8441   514
21.8541   504
21.8641   535
21.8741   492
21.8841   509
21.8941   522
21.9041   517
21.9141   511
21.9241   511
21.9341   536
21.9441   475
21.9541   441
21.9641   479
21.9741   484
21.9841   474
21.9941   479
22.0041   496
22.0141   439
22.0241   503
22.0341   479
22.0441   466
22.0541   484
22.0641   479
22.0741   491
22.0841   509
22.0941   479
22.1041   513
22.1141   504
22.1241   520
22.1341   494
22.1441   495
22.1541   471
22.1641   463
22.1741   504
22.1841   493
22.1941   502
22.2041   465
22.2141   489
22.2241   490
22.2341   506
22.2441   516
22.2541   505
22.2641   503
22.2741   506
22.2841   492
22.2941   482
22.3041   478
22.3141   485
22.3241   467
22.3341   487
22.3441   494
22.3541   452
22.3641   467
22.3741   497
22.3841   472
22.3941   474
22.4041   492
22.4141   506
22.4241   500
22.4341   487
22.4441   471
22.4541   489
22.4641   480
22.4741   483
22.4841   471
22.4941   497
22.5041   470
22.5141   498
22.5241   495
22.5341   494
22.5441   462
22.5541   505
22.5641   472
22.5741   469
22.5841   475
22.5941   476
22.6041   448
22.6141   453
22.6241   470
22.6341   450
22.6441   476
22.6541   486
22.6641   492
22.6741   489
22.6841   500
22.6941   460
22.7041   474
22.7141   491
22.7241   491
22.7341   492
22.7441   476
22.7541   413
22.7641   468
22.7741   507
22.7841   467
22.7941   485
22.8041   458
22.8141   492
22.8241   493
22.8341   454
22.8441   509
22.8541   467
22.8641   511
22.8741   477
22.8841   447
22.8941   462
22.9041   463
22.9141   476
22.9241   439
22.9341   495
22.9441   503
22.9541   456
22.9641   446
22.9741   454
22.9841   445
22.9941   460
23.0041   449
23.0141   443
23.0241   492
23.0341   471
23.0441   466
23.0541   492
23.0641   477
23.0741   466
23.0841   467
23.0941   436
23.1041   465
23.1141   458
23.1241   456
23.1341   440
23.1441   496
23.1541   489
23.1641   461
23.1741   452
23.1841   449
23.1941   487
23.2041   461
23.2141   485
23.2241   438
23.2341   446
23.2441   448
23.2541   448
23.2641   448
23.2741   468
23.2841   449
23.2941   465
23.3041   440
23.3141   419
23.3241   428
23.3341   469
23.3441   460
23.3541   414
23.3641   452
23.3741   420
23.3841   494
23.3941   426
23.4041   465
23.4141   448
23.4241   427
23.4341   456
23.4441   480
23.4541   456
23.4641   424
23.4741   444
23.4841   417
23.4941   424
23.5041   439
23.5141   433
23.5241   465
23.5341   431
23.5441   443
23.5541   453
23.5641   439
23.5741   475
23.5841   429
23.5941   500
23.6041   437
23.6141   474
23.6241   459
23.6341   446
23.6441   423
23.6541   443
23.6641   484
23.6741   457
23.6841   455
23.6941   486
23.7041   484
23.7141   463
23.7241   447
23.7341   489
23.7441   471
23.7541   464
23.7641   463
23.7741   514
23.7841   490
23.7941   445
23.8041   491
23.8141   477
23.8241   453
23.8341   495
23.8441   464
23.8541   462
23.8641   453
23.8741   454
23.8841   494
23.8941   463
23.9041   480
23.9141   453
23.9241   418
23.9341   485
23.9441   495
23.9541   413
23.9641   441
23.9741   428
23.9841   448
23.9941   415
24.0041   396
24.0141   417
24.0241   424
24.0341   475
24.0441   432
24.0541   406
24.0641   436
24.0741   423
24.0841   451
24.0941   438
24.1041   407
24.1141   420
24.1241   420
24.1341   410
24.1441   445
24.1541   451
24.1641   412
24.1741   445
24.1841   439
24.1941   430
24.2041   447
24.2141   462
24.2241   428
24.2341   419
24.2441   430
24.2541   434
24.2641   419
24.2741   411
24.2841   433
24.2941   409
24.3041   439
24.3141   445
24.3241   412
24.3341   423
24.3441   431
24.3541   440
24.3641   394
24.3741   436
24.3841   418
24.3941   446
24.4041   404
24.4141   425
24.4241   434
24.4341   423
24.4441   391
24.4541   394
24.4641   416
24.4741   392
24.4841   409
24.4941   429
24.5041   405
24.5141   409
24.5241   408
24.5341   433
24.5441   414
24.5541   417
24.5641   391
24.5741   391
24.5841   398
24.5941   374
24.6041   435
24.6141   379
24.6241   415
24.6341   391
24.6441   381
24.6541   428
24.6641   442
24.6741   409
24.6841   406
24.6941   419
24.7041   405
24.7141   392
24.7241   397
24.7341   410
24.7441   450
24.7541   391
24.7641   382
24.7741   363
24.7841   397
24.7941   419
24.8041   416
24.8141   406
24.8241   374
24.8341   403
24.8441   381
24.8541   403
24.8641   389
24.8741   392
24.8841   406
24.8941   389
24.9041   409
24.9141   406
24.9241   405
24.9341   404
24.9441   363
24.9541   422
24.9641   401
24.9741   414
24.9841   395
24.9941   385
25.0041   412
25.0141   398
25.0241   412
25.0341   400
25.0441   408
25.0541   378
25.0641   391
25.0741   388
25.0841   413
25.0941   423
25.1041   403
25.1141   396
25.1241   363
25.1341   395
25.1441   401
25.1541   407
25.1641   410
25.1741   390
25.1841   375
25.1941   394
25.2041   400
25.2141   417
25.2241   402
25.2341   394
25.2441   370
25.2541   413
25.2641   409
25.2741   390
25.2841   404
25.2941   375
25.3041   361
25.3141   392
25.3241   374
25.3341   412
25.3441   380
25.3541   373
25.3641   395
25.3741   395
25.3841   365
25.3941   391
25.4041   386
25.4141   371
25.4241   403
25.4341   400
25.4441   376
25.4541   325
25.4641   381
25.4741   368
25.4841   381
25.4941   400
25.5041   387
25.5141   371
25.5241   371
25.5341   368
25.5441   368
25.5541   359
25.5641   364
25.5741   346
25.5841   403
25.5941   327
25.6041   343
25.6141   351
25.6241   366
25.6341   395
25.6441   363
25.6541   380
25.6641   389
25.6741   408
25.6841   375
25.6941   389
25.7041   380
25.7141   370
25.7241   344
25.7341   343
25.7441   356
25.7541   364
25.7641   360
25.7741   375
25.7841   343
25.7941   347
25.8041   369
25.8141   366
25.8241   374
25.8341   385
25.8441   334
25.8541   326
25.8641   374
25.8741   368
25.8841   356
25.8941   365
25.9041   385
25.9141   333
25.9241   350
25.9341   377
25.9441   373
25.9541   343
25.9641   355
25.9741   390
25.9841   363
25.9941   357
26.0041   342
26.0141   343
26.0241   331
26.0341   348
26.0441   349
26.0541   365
26.0641   366
26.0741   364
26.0841   327
26.0941   348
26.1041   361
26.1141   356
26.1241   352
26.1341   352
26.1441   369
26.1541   357
26.1641   364
26.1741   340
26.1841   360
26.1941   365
26.2041   335
26.2141   361
26.2241   338
26.2341   361
26.2441   334
26.2541   337
26.2641   323
26.2741   365
26.2841   386
26.2941   335
26.3041   365
26.3141   374
26.3241   379
26.3341   359
26.3441   337
26.3541   353
26.3641   332
26.3741   336
26.3841   366
26.3941   344
26.4041   323
26.4141   338
26.4241   345
26.4341   340
26.4441   337
26.4541   361
26.4641   337
26.4741   361
26.4841   346
26.4941   361
26.5041   344
26.5141   362
26.5241   362
26.5341   361
26.5441   355
26.5541   324
26.5641   338
26.5741   337
26.5841   343
26.5941   342
26.6041   354
26.6141   324
26.6241   334
26.6341   345
26.6441   334
26.6541   320
26.6641   339
26.6741   296
26.6841   314
26.6941   324
26.7041   302
26.7141   306
26.7241   323
26.7341   327
26.7441   324
26.7541   292
26.7641   329
26.7741   324
26.7841   312
26.7941   296
26.8041   353
26.8141   285
26.8241   330
26.8341   332
26.8441   325
26.8541   342
26.8641   326
26.8741   319
26.8841   318
26.8941   293
26.9041   299
26.9141   346
26.9241   305
26.9341   297
26.9441   323
26.9541   303
26.9641   294
26.9741   307
26.9841   345
26.9941   325
27.0041   292
27.0141   298
27.0241   313
27.0341   321
27.0441   335
27.0541   285
27.0641   324
27.0741   316
27.0841   339
27.0941   309
27.1041   310
27.1141   342
27.1241   293
27.1341   323
27.1441   298
27.1541   310
27.1641   332
27.1741   289
27.1841   309
27.1941   311
27.2041   322
27.2141   323
27.2241   297
27.2341   298
27.2441   289
27.2541   319
27.2641   330
27.2741   327
27.2841   315
27.2941   298
27.3041   304
27.3141   296
27.3241   307
27.3341   313
27.3441   304
27.3541   312
27.3641   275
27.3741   304
27.3841   287
27.3941   292
27.4041   265
27.4141   312
27.4241   300
27.4341   299
27.4441   313
27.4541   299
27.4641   272
27.4741   305
27.4841   301
27.4941   296
27.5041   302
27.5141   300
27.5241   309
27.5341   305
27.5441   309
27.5541   316
27.5641   309
27.5741   318
27.5841   309
27.5941   296
27.6041   315
27.6141   282
27.6241   282
27.6341   283
27.6441   268
27.6541   304
27.6641   282
27.6741   274
27.6841   278
27.6941   291
27.7041   284
27.7141   269
27.7241   297
27.7341   260
27.7441   288
27.7541   320
27.7641   267
27.7741   281
27.7841   267
27.7941   279
27.8041   273
27.8141   289
27.8241   277
27.8341   300
27.8441   284
27.8541   277
27.8641   272
27.8741   273
27.8841   294
27.8941   288
27.9041   276
27.9141   258
27.9241   283
27.9341   292
27.9441   292
27.9541   265
27.9641   269
27.9741   257
27.9841   252
27.9941   263
28.0041   277
28.0141   274
28.0241   282
28.0341   274
28.0441   250
28.0541   277
28.0641   308
28.0741   260
28.0841   300
28.0941   290
28.1041   276
28.1141   248
28.1241   265
28.1341   253
28.1441   277
28.1541   254
28.1641   251
28.1741   260
28.1841   262
28.1941   293
28.2041   250
28.2141   291
28.2241   270
28.2341   273
28.2441   268
28.2541   243
28.2641   274
28.2741   283
28.2841   251
28.2941   233
28.3041   280
28.3141   276
28.3241   276
28.3341   261
28.3441   266
28.3541   260
28.3641   226
28.3741   236
28.3841   275
28.3941   281
28.4041   256
28.4141   285
28.4241   274
28.4341   269
28.4441   244
28.4541   277
28.4641   263
28.4741   272
28.4841   249
28.4941   252
28.5041   290
28.5141   286
28.5241   269
28.5341   246
28.5441   262
28.5541   256
28.5641   246
28.5741   258
28.5841   250
28.5941   246
28.6041   273
28.6141   259
28.6241   253
28.6341   252
28.6441   242
28.6541   248
28.6641   245
28.6741   264
28.6841   255
28.6941   272
28.7041   271
28.7141   248
28.7241   283
28.7341   270
28.7441   233
28.7541   244
28.7641   270
28.7741   230
28.7841   255
28.7941   247
28.8041   236
28.8141   250
28.8241   263
28.8341   254
28.8441   216
28.8541   258
28.8641   238
28.8741   256
28.8841   240
28.8941   224
28.9041   261
28.9141   263
28.9241   249
28.9341   257
28.9441   224
28.9541   236
28.9641   261
28.9741   247
28.9841   230
28.9941   229
29.0041   246
29.0141   212
29.0241   238
29.0341   226
29.0441   249
29.0541   237
29.0641   243
29.0741   235
29.0841   242
29.0941   219
29.1041   266
29.1141   238
29.1241   239
29.1341   237
29.1441   209
29.1541   232
29.1641   231
29.1741   239
29.1841   253
29.1941   221
29.2041   215
29.2141   227
29.2241   242
29.2341   233
29.2441   220
29.2541   213
29.2641   228
29.2741   218
29.2841   254
29.2941   214
29.3041   242
29.3141   231
29.3241   219
29.3341   229
29.3441   228
29.3541   223
29.3641   207
29.3741   230
29.3841   219
29.3941   225
29.4041   219
29.4141   218
29.4241   229
29.4341   228
29.4441   235
29.4541   224
29.4641   215
29.4741   212
29.4841   200
29.4941   229
29.5041   221
29.5141   229
29.5241   248
29.5341   244
29.5441   218
29.5541   209
29.5641   227
29.5741   213
29.5841   209
29.5941   222
29.6041   233
29.6141   217
29.6241   227
29.6341   209
29.6441   228
29.6541   219
29.6641   215
29.6741   215
29.6841   227
29.6941   219
29.7041   206
29.7141   214
29.7241   228
29.7341   237
29.7441   217
29.7541   219
29.7641   220
29.7741   214
29.7841   211
29.7941   219
29.8041   224
29.8141   211
29.8241   228
29.8341   237
29.8441   217
29.8541   222
29.8641   239
29.8741   226
29.8841   179
29.8941   204
29.9041   210
29.9141   219
29.9241   205
29.9341   210
29.9441   199
29.9541   231
29.9641   187
29.9741   210
29.9841   211
29.9941   213
30.0041   210
30.0141   195
30.0241   237
30.0341   226
30.0441   214
30.0541   190
30.0641   219
30.0741   196
30.0841   211
30.0941   225
30.1041   199
30.1141   193
30.1241   195
30.1341   209
30.1441   200
30.1541   194
30.1641   225
30.1741   205
30.1841   200
30.1941   199
30.2041   194
30.2141   196
30.2241   180
30.2341   177
30.2441   196
30.2541   193
30.2641   213
30.2741   202
30.2841   208
30.2941   206
30.3041   185
30.3141   190
30.3241   190
30.3341   171
30.3441   165
30.3541   190
30.3641   189
30.3741   202
30.3841   212
30.3941   181
30.4041   205
30.4141   200
30.4241   164
30.4341   198
30.4441   199
30.4541   209
30.4641   201
30.4741   215
30.4841   186
30.4941   196
30.5041   191
30.5141   195
30.5241   194
30.5341   184
30.5441   194
30.5541   184
30.5641   181
30.5741   189
30.5841   174
30.5941   170
30.6041   196
30.6141   181
30.6241   163
30.6341   195
30.6441   179
30.6541   167
30.6641   167
30.6741   197
30.6841   185
30.6941   190
30.7041   186
30.7141   198
30.7241   175
30.7341   178
30.7441   163
30.7541   170
30.7641   182
30.7741   174
30.7841   187
30.7941   183
30.8041   166
30.8141   184
30.8241   176
30.8341   189
30.8441   201
30.8541   174
30.8641   207
30.8741   201
30.8841   170
30.8941   179
30.9041   183
30.9141   165
30.9241   194
30.9341   204
30.9441   204
30.9541   190
30.9641   185
30.9741   185
30.9841   173
30.9941   177
31.0041   169
31.0141   182
31.0241   172
31.0341   175
31.0441   166
31.0541   178
31.0641   165
31.0741   193
31.0841   194
31.0941   195
31.1041   160
31.1141   171
31.1241   168
31.1341   173
31.1441   188
31.1541   201
31.1641   175
31.1741   182
31.1841   184
31.1941   193
31.2041   182
31.2141   169
31.2241   150
31.2341   157
31.2441   171
31.2541   171
31.2641   172
31.2741   180
31.2841   186
31.2941   158
31.3041   170
31.3141   143
31.3241   175
31.3341   163
31.3441   147
31.3541   155
31.3641   156
31.3741   175
31.3841   177
31.3941   149
31.4041   158
31.4141   167
31.4241   168
31.4341   153
31.4441   172
31.4541   168
31.4641   183
31.4741   166
31.4841   165
31.4941   165
31.5041   169
31.5141   169
31.5241   155
31.5341   168
31.5441   157
31.5541   151
31.5641   161
31.5741   175
31.5841   151
31.5941   163
31.6041   158
31.6141   145
31.6241   173
31.6341   156
31.6441   168
31.6541   154
31.6641   157
31.6741   166
31.6841   176
31.6941   157
31.7041   152
31.7141   180
31.7241   152
31.7341   153
31.7441   147
31.7541   161
31.7641   143
31.7741   154
31.7841   181
31.7941   164
31.8041   143
31.8141   143
31.8241   153
31.8341   158
31.8441   151
31.8541   148
31.8641   172
31.8741   155
31.8841   177
31.8941   139
31.9041   141
31.9141   130
31.9241   145
31.9341   143
31.9441   127
31.9541   149
31.9641   153
31.9741   144
31.9841   154
31.9941   166
32.0041   151
32.0141   135
32.0241   157
32.0341   159
32.0441   173
32.0541   171
32.0641   147
32.0741   143
32.0841   151
32.0941   152
32.1041   160
32.1141   147
32.1241   148
32.1341   141
32.1441   134
32.1541   170
32.1641   168
32.1741   148
32.1841   151
32.1941   159
32.2041   161
32.2141   144
32.2241   146
32.2341   160
32.2441   167
32.2541   136
32.2641   133
32.2741   136
32.2841   169
32.2941   145
32.3041   129
32.3141   139
32.3241   159
32.3341   146
32.3441   130
32.3541   135
32.3641   160
32.3741   152
32.3841   137
32.3941   143
32.4041   157
32.4141   140
32.4241   131
32.4341   155
32.4441   158
32.4541   138
32.4641   141
32.4741   151
32.4841   136
32.4941   122
32.5041   119
32.5141   133
32.5241   126
32.5341   135
32.5441   134
32.5541   150
32.5641   109
32.5741   126
32.5841   132
32.5941   131
32.6041   118
32.6141   129
32.6241   130
32.6341   136
32.6441   128
32.6541   139
32.6641   150
32.6741   143
32.6841   137
32.6941   137
32.7041   136
32.7141   130
32.7241   132
32.7341   111
32.7441   152
32.7541   126
32.7641   132
32.7741   136
32.7841   120
32.7941   130
32.8041   120
32.8141   122
32.8241   119
32.8341   139
32.8441   130
32.8541   130
32.8641   116
32.8741   116
32.8841   127
32.8941   148
32.9041   124
32.9141   130
32.9241   130
32.9341   132
32.9441   114
32.9541   119
32.9641   115
32.9741   127
32.9841   130
32.9941   129
33.0041   136
33.0141   131
33.0241   125
33.0341   150
33.0441   113
33.0541   137
33.0641   151
33.0741   145
33.0841   130
33.0941   119
33.1041   119
33.1141   115
33.1241   141
33.1341   112
33.1441   122
33.1541   126
33.1641   119
33.1741   124
33.1841   129
33.1941   126
33.2041   134
33.2141   120
33.2241   120
33.2341   137
33.2441   115
33.2541   135
33.2641   119
33.2741   136
33.2841   132
33.2941   102
33.3041   123
33.3141    95
33.3241   110
33.3341   121
33.3441   135
33.3541   109
33.3641   111
33.3741   114
33.3841   104
33.3941   111
33.4041   111
33.4141   131
33.4241   129
33.4341   100
33.4441   110
33.4541   113
33.4641   127
33.4741   120
33.4841   119
33.4941   117
33.5041   123
33.5141   119
33.5241   113
33.5341   106
33.5441   141
33.5541   122
33.5641   115
33.5741   126
33.5841   118
33.5941   121
33.6041   117
33.6141   114
33.6241   105
33.6341   104
33.6441   103
33.6541   116
33.6641   110
33.6741   108
33.6841   106
33.6941    98
33.7041   119
33.7141   107
33.7241   102
33.7341   101
33.7441   108
33.7541   112
33.7641   101
33.7741   115
33.7841   123
33.7941   104
33.8041    99
33.8141   112
33.8241   104
33.8341   116
33.8441    99
33.8541   114
33.8641   121
33.8741   109
33.8841   106
33.8941   123
33.9041    99
33.9141   112
33.9241   112
33.9341   114
33.9441   103
33.9541   101
33.9641   121
33.9741    99
33.9841   102
33.9941   132
34.0041   107
34.0141   114
34.0241   112
34.0341   102
34.0441   116
34.0541   110
34.0641   104
34.0741    89
34.0841   108
34.0941   109
34.1041   109
34.1141   109
34.1241    92
34.1341    95
34.1441    91
34.1541   113
34.1641    97
34.1741   114
34.1841    82
34.1941   102
34.2041    96
34.2141    82
34.2241    99
34.2341   102
34.2441   105
34.2541   111
34.2641   102
34.2741    93
34.2841   106
34.2941   103
34.3041   107
34.3141    91
34.3241    73
34.3341    92
34.3441   100
34.3541    94
34.3641    94
34.3741    95
34.3841    93
34.3941   108
34.4041    92
34.4141   101
34.4241    81
34.4341   103
34.4441    94
34.4541    91
34.4641    95
34.4741    87
34.4841    80
34.4941    88
34.5041   104
34.5141    93
34.5241    98
34.5341    91
34.5441    91
34.5541    82
34.5641    98
34.5741    81
34.5841    79
34.5941    99
34.6041    92
34.6141    95
34.6241   105
34.6341    98
34.6441   102
34.6541   109
34.6641    87
34.6741    80
34.6841    85
34.6941    91
34.7041   105
34.7141    96
34.7241    86
34.7341    82
34.7441    84
34.7541    87
34.7641    92
34.7741    82
34.7841    86
34.7941    91
34.8041    85
34.8141    70
34.8241    86
34.8341    96
34.8441    92
34.8541    88
34.8641    86
34.8741    77
34.8841    89
34.8941    80
34.9041   108
34.9141   101
34.9241    84
34.9341    76
34.9441    87
34.9541    78
34.9641    67
34.9741    73
34.9841    81
34.9941    75
35.0041    93
35.0141    82
35.0241    73
35.0341    75
35.0441    85
35.0541    88
35.0641    97
35.0741    87
35.0841    91
35.0941    96
35.1041    72
35.1141    85
35.1241    88
35.1341    78
35.1441    83
35.1541   101
35.1641    84
35.1741    76
35.1841    65
35.1941    84
35.2041    80
35.2141    84
35.2241    73
35.2341    77
35.2441    82
35.2541    84
35.2641    63
35.2741    60
35.2841    72
35.2941    77
35.3041    67
35.3141    74
35.3241    86
35.3341    87
35.3441    73
35.3541    78
35.3641    72
35.3741    85
35.3841    87
35.3941    80
35.4041    91
35.4141    64
35.4241    71
35.4341    62
35.4441    66
35.4541    73
35.4641    94
35.4741    86
35.4841    78
35.4941    73
35.5041    67
35.5141    60
35.5241    78
35.5341    70
35.5441    68
35.5541    69
35.5641    71
35.5741    77
35.5841    78
35.5941    74
35.6041    96
35.6141    62
35.6241    81
35.6341    80
35.6441    82
35.6541    81
35.6641    76
35.6741    72
35.6841    66
35.6941    69
35.7041    71
35.7141    72
35.7241    56
35.7341    60
35.7441    74
35.7541    75
35.7641    68
35.7741    75
35.7841    49
35.7941    75
35.8041    79
35.8141    70
35.8241    64
35.8341    85
35.8441    88
35.8541    68
35.8641    76
35.8741    78
35.8841    64
35.8941    65
35.9041    72
35.9141    71
35.9241    55
35.9341    57
35.9441    70
35.9541    74
35.9641    63
35.9741    82
35.9841    74
35.9941    67
36.0041    70
36.0141    64
36.0241    67
36.0341    81
36.0441    59
36.0541    56
36.0641    71
36.0741    62
36.0841    77
36.0941    68
36.1041    80
36.1141    70
36.1241    65
36.1341    81
36.1441    68
36.1541    70
36.1641    74
36.1741    67
36.1841    69
36.1941    72
36.2041    59
36.2141    61
36.2241    56
36.2341    85
36.2441    73
36.2541    66
36.2641    69
36.2741    61
36.2841    58
36.2941    66
36.3041    69
36.3141    60
36.3241    57
36.3341    75
36.3441    69
36.3541    69
36.3641    61
36.3741    42
36.3841    61
36.3941    51
36.4041    66
36.4141    63
36.4241    61
36.4341    60
36.4441    64
36.4541    70
36.4641    61
36.4741    47
36.4841    62
36.4941    55
36.5041    49
36.5141    57
36.5241    72
36.5341    60
36.5441    63
36.5541    69
36.5641    60
36.5741    66
36.5841    83
36.5941    66
36.6041    72
36.6141    54
36.6241    56
36.6341    46
36.6441    58
36.6541    66
36.6641    41
36.6741    59
36.6841    56
36.6941    72
36.7041    50
36.7141    51
36.7241    60
36.7341    50
36.7441    72
36.7541    52
36.7641    58
36.7741    48
36.7841    48
36.7941    58
36.8041    72
36.8141    56
36.8241    60
36.8341    53
36.8441    52
36.8541    56
36.8641    60
36.8741    50
36.8841    57
36.8941    50
36.9041    63
36.9141    70
36.9241    58
36.9341    59
36.9441    53
36.9541    53
36.9641    63
36.9741    54
36.9841    44
36.9941    61
37.0041    49
37.0141    59
37.0241    58
37.0341    63
37.0441    57
37.0541    59
37.0641    47
37.0741    48
37.0841    44
37.0941    48
37.1041    59
37.1141    66
37.1241    46
37.1341    54
37.1441    56
37.1541    57
37.1641    65
37.1741    51
37.1841    52
37.1941    45
37.2041    46
37.2141    47
37.2241    58
37.2341    58
37.2441    51
37.2541    46
37.2641    50
37.2741    51
37.2841    53
37.2941    47
37.3041    58
37.3141    46
37.3241    57
37.3341    53
37.3441    42
37.3541    51
37.3641    43
37.3741    45
37.3841    41
37.3941    38
37.4041    49
37.4141    53
37.4241    44
37.4341    54
37.4441    35
37.4541    51
37.4641    52
37.4741    40
37.4841    49
37.4941    46
37.5041    51
37.5141    61
37.5241    44
37.5341    56
37.5441    41
37.5541    46
37.5641    41
37.5741    46
37.5841    40
37.5941    39
37.6041    53
37.6141    52
37.6241    41
37.6341    50
37.6441    36
37.6541    37
37.6641    43
37.6741    40
37.6841    48
37.6941    47
37.7041    42
37.7141    58
37.7241    35
37.7341    42
37.7441    50
37.7541    55
37.7641    52
37.7741    35
37.7841    47
37.7941    54
37.8041    43
37.8141    53
37.8241    40
37.8341    43
37.8441    45
37.8541    33
37.8641    48
37.8741    55
37.8841    47
37.8941    36
37.9041    53
37.9141    50
37.9241    49
37.9341    58
37.9441    33
37.9541    34
37.9641    40
37.9741    34
37.9841    37
37.9941    41
38.0041    52
38.0141    43
38.0241    31
38.0341    47
38.0441    48
38.0541    36
38.0641    29
38.0741    53
38.0841    48
38.0941    40
38.1041    46
38.1141    39
38.1241    43
38.1341    43
38.1441    49
38.1541    52
38.1641    38
38.1741    42
38.1841    28
38.1941    33
38.2041    36
38.2141    36
38.2241    40
38.2341    40
38.2441    33
38.2541    37
38.2641    42
38.2741    32
38.2841    36
38.2941    41
38.3041    35
38.3141    35
38.3241    39
38.3341    38
38.3441    36
38.3541    34
38.3641    38
38.3741    32
38.3841    45
38.3941    32
38.4041    44
38.4141    48
38.4241    32
38.4341    32
38.4441    39
38.4541    34
38.4641    40
38.4741    44
38.4841    40
38.4941    37
38.5041    34
38.5141    45
38.5241    30
38.5341    42
38.5441    34
38.5541    33
38.5641    43
38.5741    37
38.5841    36
38.5941    37
38.6041    26
38.6141    37
38.6241    36
38.6341    41
38.6441    38
38.6541    38
38.6641    25
38.6741    31
38.6841    32
38.6941    27
38.7041    32
38.7141    31
38.7241    28
38.7341    28
38.7441    34
38.7541    31
38.7641    28
38.7741    32
38.7841    32
38.7941    34
38.8041    36
38.8141    39
38.8241    32
38.8341    32
38.8441    42
38.8541    32
38.8641    38
38.8741    16
38.8841    30
38.8941    29
38.9041    22
38.9141    45
38.9241    35
38.9341    37
38.9441    32
38.9541    33
38.9641    41
38.9741    28
38.9841    27
38.9941    35
39.0041    22
39.0141    40
39.0241    33
39.0341    36
39.0441    26
39.0541    36
39.0641    35
39.0741    28
39.0841    26
39.0941    34
39.1041    44
39.1141    18
39.1241    30
39.1341    32
39.1441    22
39.1541    31
39.1641    32
39.1741    32
39.1841    32
39.1941    30
39.2041    29
39.2141    34
39.2241    27
39.2341    21
39.2441    21
39.2541    38
39.2641    27
39.2741    32
39.2841    30
39.2941    25
39.3041    19
39.3141    31
39.3241    25
39.3341    25
39.3441    34
39.3541    36
39.3641    37
39.3741    25
39.3841    31
39.3941    25
39.4041    24
39.4141    27
39.4241    26
39.4341    31
39.4441    17
39.4541    32
39.4641    32
39.4741    25
39.4841    24
39.4941    37
39.5041    31
39.5141    19
39.5241    21
39.5341    23
39.5441    26
39.5541    29
39.5641    33
39.5741    25
39.5841    25
39.5941    29
39.6041    27
39.6141    22
39.6241    29
39.6341    15
39.6441    18
39.6541    23
39.6641    17
39.6741    17
39.6841    23
39.6941    14
39.7041    33
39.7141    33
39.7241    23
39.7341    27
39.7441    13
39.7541    20
39.7641    31
39.7741    26
39.7841    30
39.7941    25
39.8041    30
39.8141    21
39.8241    21
39.8341    16
39.8441    18
39.8541    28
39.8641    27
39.8741    17
39.8841    18
39.8941    13
39.9041    21
39.9141    20
39.9241    12
39.9341    24
39.9441    24
39.9541    26
39.9641    21
39.9741    19
39.9841    20
