Bruker Nano GmbH Berlin, Germany
Esprit 1.9

Date: 4/21/2021 1:43:59 PM
Real time: 23749
Life time: 22347
Pulse density: 87281


Detector type: XFlash 430
Window type: Custom type
Detector thickness: 0.45
Si dead layer:0.029

Calibration, lin.: 10
Calibration, abs.: -955.9
Mn FWHM: 137.05
Fano factor: 0.121
Channels: 4095

Energy Counts
-0.9559     0
-0.9459     0
-0.9359     0
-0.9259     0
-0.9159     0
-0.9059     0
-0.8959     0
-0.8859     0
-0.8759     0
-0.8659     0
-0.8559     0
-0.8459     0
-0.8359     0
-0.8259     0
-0.8159     0
-0.8059     0
-0.7959     0
-0.7859     0
-0.7759     0
-0.7659     0
-0.7559     0
-0.7459     0
-0.7359     0
-0.7259     0
-0.7159     0
-0.7059     0
-0.6959     0
-0.6859     0
-0.6759     0
-0.6659     0
-0.6559     0
-0.6459     0
-0.6359     0
-0.6259     0
-0.6159     0
-0.6059     0
-0.5959     0
-0.5859     0
-0.5759     0
-0.5659     0
-0.5559     0
-0.5459     0
-0.5359     0
-0.5259     0
-0.5159     0
-0.5059     0
-0.4959     0
-0.4859     0
-0.4759     0
-0.4659     0
-0.4559     0
-0.4459     0
-0.4359     0
-0.4259     0
-0.4159     0
-0.4059     0
-0.3959     0
-0.3859     0
-0.3759     0
-0.3659     0
-0.3559     0
-0.3459     0
-0.3359     0
-0.3259     0
-0.3159     0
-0.3059     0
-0.2959     0
-0.2859     0
-0.2759     0
-0.2659     0
-0.2559     0
-0.2459     0
-0.2359     0
-0.2259     0
-0.2159     0
-0.2059     0
-0.1959     0
-0.1859     0
-0.1759     0
-0.1659     0
-0.1559     0
-0.1459     1
-0.1359     0
-0.1259     0
-0.1159     4
-0.1059    18
-0.0959    71
-0.0859   243
-0.0759   855
-0.0659  2624
-0.0559  6447
-0.0459 14276
-0.0359 26783
-0.0259 42551
-0.0159 58650
-0.0059 68554
 0.0041 68652
 0.0141 59215
 0.0241 43791
 0.0341 27459
 0.0441 15024
 0.0541  6910
 0.0641  2676
 0.0741   939
 0.0841   281
 0.0941    79
 0.1041    20
 0.1141    16
 0.1241     7
 0.1341     5
 0.1441     5
 0.1541     4
 0.1641     2
 0.1741    26
 0.1841   192
 0.1941   378
 0.2041   329
 0.2141   344
 0.2241   344
 0.2341   315
 0.2441   349
 0.2541   347
 0.2641   323
 0.2741   350
 0.2841   352
 0.2941   330
 0.3041   301
 0.3141   318
 0.3241   329
 0.3341   311
 0.3441   312
 0.3541   316
 0.3641   281
 0.3741   301
 0.3841   300
 0.3941   280
 0.4041   267
 0.4141   267
 0.4241   317
 0.4341   319
 0.4441   317
 0.4541   289
 0.4641   295
 0.4741   292
 0.4841   272
 0.4941   288
 0.5041   312
 0.5141   296
 0.5241   312
 0.5341   311
 0.5441   285
 0.5541   286
 0.5641   275
 0.5741   258
 0.5841   255
 0.5941   257
 0.6041   260
 0.6141   264
 0.6241   256
 0.6341   269
 0.6441   282
 0.6541   269
 0.6641   245
 0.6741   239
 0.6841   251
 0.6941   253
 0.7041   269
 0.7141   269
 0.7241   257
 0.7341   257
 0.7441   252
 0.7541   258
 0.7641   250
 0.7741   248
 0.7841   244
 0.7941   225
 0.8041   247
 0.8141   257
 0.8241   237
 0.8341   243
 0.8441   262
 0.8541   242
 0.8641   220
 0.8741   231
 0.8841   245
 0.8941   238
 0.9041   232
 0.9141   232
 0.9241   231
 0.9341   223
 0.9441   243
 0.9541   236
 0.9641   246
 0.9741   217
 0.9841   229
 0.9941   231
 1.0041   213
 1.0141   227
 1.0241   235
 1.0341   211
 1.0441   220
 1.0541   245
 1.0641   232
 1.0741   206
 1.0841   196
 1.0941   207
 1.1041   229
 1.1141   211
 1.1241   212
 1.1341   202
 1.1441   224
 1.1541   216
 1.1641   224
 1.1741   217
 1.1841   217
 1.1941   197
 1.2041   200
 1.2141   208
 1.2241   190
 1.2341   220
 1.2441   203
 1.2541   207
 1.2641   221
 1.2741   203
 1.2841   196
 1.2941   205
 1.3041   203
 1.3141   187
 1.3241   205
 1.3341   215
 1.3441   229
 1.3541   216
 1.3641   205
 1.3741   206
 1.3841   204
 1.3941   182
 1.4041   209
 1.4141   183
 1.4241   207
 1.4341   179
 1.4441   206
 1.4541   194
 1.4641   225
 1.4741   220
 1.4841   213
 1.4941   208
 1.5041   207
 1.5141   210
 1.5241   201
 1.5341   194
 1.5441   191
 1.5541   202
 1.5641   203
 1.5741   210
 1.5841   206
 1.5941   200
 1.6041   204
 1.6141   219
 1.6241   202
 1.6341   192
 1.6441   200
 1.6541   245
 1.6641   284
 1.6741   330
 1.6841   438
 1.6941   473
 1.7041   629
 1.7141   699
 1.7241   824
 1.7341   883
 1.7441   910
 1.7541   771
 1.7641   720
 1.7741   627
 1.7841   513
 1.7941   462
 1.8041   369
 1.8141   307
 1.8241   279
 1.8341   259
 1.8441   238
 1.8541   223
 1.8641   207
 1.8741   223
 1.8841   198
 1.8941   226
 1.9041   203
 1.9141   205
 1.9241   183
 1.9341   165
 1.9441   194
 1.9541   205
 1.9641   235
 1.9741   241
 1.9841   268
 1.9941   248
 2.0041   249
 2.0141   252
 2.0241   250
 2.0341   225
 2.0441   208
 2.0541   228
 2.0641   196
 2.0741   216
 2.0841   201
 2.0941   207
 2.1041   210
 2.1141   188
 2.1241   160
 2.1341   166
 2.1441   183
 2.1541   206
 2.1641   199
 2.1741   170
 2.1841   193
 2.1941   198
 2.2041   181
 2.2141   161
 2.2241   165
 2.2341   168
 2.2441   190
 2.2541   149
 2.2641   166
 2.2741   182
 2.2841   167
 2.2941   154
 2.3041   154
 2.3141   145
 2.3241   161
 2.3341   184
 2.3441   165
 2.3541   166
 2.3641   170
 2.3741   181
 2.3841   166
 2.3941   158
 2.4041   162
 2.4141   158
 2.4241   171
 2.4341   166
 2.4441   156
 2.4541   166
 2.4641   181
 2.4741   159
 2.4841   152
 2.4941   153
 2.5041   155
 2.5141   149
 2.5241   132
 2.5341   151
 2.5441   170
 2.5541   156
 2.5641   152
 2.5741   161
 2.5841   157
 2.5941   154
 2.6041   161
 2.6141   158
 2.6241   138
 2.6341   138
 2.6441   150
 2.6541   140
 2.6641   135
 2.6741   166
 2.6841   150
 2.6941   152
 2.7041   164
 2.7141   135
 2.7241   160
 2.7341   152
 2.7441   122
 2.7541   135
 2.7641   144
 2.7741   158
 2.7841   154
 2.7941   139
 2.8041   144
 2.8141   140
 2.8241   168
 2.8341   147
 2.8441   161
 2.8541   128
 2.8641   163
 2.8741   129
 2.8841   126
 2.8941   132
 2.9041   155
 2.9141   153
 2.9241   140
 2.9341   142
 2.9441   109
 2.9541   141
 2.9641   115
 2.9741   147
 2.9841   118
 2.9941   130
 3.0041   136
 3.0141   145
 3.0241   140
 3.0341   121
 3.0441   126
 3.0541   119
 3.0641   142
 3.0741   126
 3.0841   121
 3.0941   101
 3.1041   124
 3.1141   124
 3.1241   128
 3.1341   107
 3.1441   136
 3.1541   111
 3.1641   115
 3.1741   131
 3.1841   143
 3.1941   144
 3.2041   136
 3.2141   169
 3.2241   180
 3.2341   187
 3.2441   255
 3.2541   295
 3.2641   321
 3.2741   372
 3.2841   442
 3.2941   457
 3.3041   477
 3.3141   467
 3.3241   451
 3.3341   466
 3.3441   434
 3.3541   377
 3.3641   272
 3.3741   245
 3.3841   233
 3.3941   180
 3.4041   158
 3.4141   159
 3.4241   146
 3.4341   137
 3.4441   120
 3.4541   111
 3.4641   114
 3.4741   126
 3.4841   122
 3.4941   130
 3.5041   134
 3.5141   152
 3.5241   161
 3.5341   167
 3.5441   170
 3.5541   203
 3.5641   240
 3.5741   283
 3.5841   288
 3.5941   397
 3.6041   448
 3.6141   521
 3.6241   663
 3.6341   774
 3.6441   905
 3.6541  1078
 3.6641  1178
 3.6741  1359
 3.6841  1406
 3.6941  1328
 3.7041  1240
 3.7141  1184
 3.7241  1101
 3.7341   937
 3.7441   751
 3.7541   604
 3.7641   474
 3.7741   347
 3.7841   285
 3.7941   203
 3.8041   176
 3.8141   138
 3.8241   125
 3.8341   119
 3.8441    90
 3.8541   106
 3.8641   110
 3.8741    88
 3.8841   107
 3.8941   111
 3.9041   108
 3.9141   135
 3.9241   134
 3.9341   141
 3.9441   178
 3.9541   169
 3.9641   208
 3.9741   217
 3.9841   243
 3.9941   263
 4.0041   272
 4.0141   260
 4.0241   282
 4.0341   242
 4.0441   239
 4.0541   201
 4.0641   199
 4.0741   183
 4.0841   147
 4.0941   141
 4.1041   122
 4.1141   132
 4.1241   118
 4.1341   104
 4.1441   105
 4.1541   106
 4.1641   100
 4.1741    87
 4.1841    80
 4.1941    80
 4.2041    78
 4.2141    96
 4.2241    82
 4.2341    87
 4.2441    77
 4.2541    72
 4.2641    83
 4.2741    90
 4.2841    94
 4.2941    84
 4.3041    97
 4.3141   107
 4.3241    91
 4.3341    99
 4.3441   109
 4.3541    92
 4.3641   104
 4.3741   111
 4.3841   137
 4.3941   148
 4.4041   169
 4.4141   197
 4.4241   189
 4.4341   225
 4.4441   282
 4.4541   324
 4.4641   399
 4.4741   459
 4.4841   478
 4.4941   499
 4.5041   474
 4.5141   483
 4.5241   495
 4.5341   408
 4.5441   437
 4.5541   395
 4.5641   309
 4.5741   285
 4.5841   249
 4.5941   213
 4.6041   162
 4.6141   147
 4.6241   116
 4.6341   114
 4.6441   117
 4.6541    98
 4.6641   108
 4.6741    87
 4.6841   102
 4.6941    91
 4.7041   103
 4.7141    99
 4.7241   104
 4.7341   118
 4.7441   108
 4.7541   108
 4.7641   108
 4.7741   109
 4.7841   109
 4.7941   112
 4.8041   131
 4.8141   112
 4.8241   140
 4.8341   150
 4.8441   134
 4.8541   141
 4.8641   172
 4.8741   168
 4.8841   190
 4.8941   157
 4.9041   177
 4.9141   182
 4.9241   190
 4.9341   184
 4.9441   172
 4.9541   156
 4.9641   169
 4.9741   155
 4.9841   137
 4.9941   150
 5.0041   129
 5.0141   125
 5.0241   119
 5.0341   120
 5.0441   109
 5.0541   105
 5.0641    99
 5.0741   101
 5.0841   103
 5.0941    87
 5.1041   100
 5.1141    95
 5.1241   114
 5.1341    96
 5.1441   101
 5.1541   103
 5.1641    93
 5.1741   116
 5.1841   120
 5.1941   104
 5.2041   114
 5.2141   116
 5.2241   108
 5.2341    98
 5.2441   108
 5.2541   115
 5.2641   111
 5.2741   112
 5.2841   126
 5.2941   125
 5.3041   113
 5.3141   135
 5.3241   141
 5.3341   154
 5.3441   158
 5.3541   179
 5.3641   199
 5.3741   214
 5.3841   223
 5.3941   232
 5.4041   247
 5.4141   235
 5.4241   243
 5.4341   249
 5.4441   231
 5.4541   210
 5.4641   198
 5.4741   179
 5.4841   168
 5.4941   163
 5.5041   136
 5.5141   133
 5.5241   146
 5.5341   134
 5.5441   118
 5.5541   126
 5.5641   114
 5.5741   121
 5.5841   130
 5.5941   107
 5.6041    89
 5.6141   123
 5.6241   123
 5.6341   110
 5.6441   115
 5.6541   104
 5.6641   117
 5.6741   100
 5.6841   118
 5.6941   120
 5.7041   125
 5.7141   138
 5.7241   143
 5.7341   144
 5.7441   149
 5.7541   191
 5.7641   228
 5.7741   276
 5.7841   338
 5.7941   394
 5.8041   493
 5.8141   639
 5.8241   745
 5.8341   890
 5.8441   967
 5.8541  1119
 5.8641  1280
 5.8741  1316
 5.8841  1324
 5.8941  1396
 5.9041  1403
 5.9141  1313
 5.9241  1219
 5.9341  1122
 5.9441  1015
 5.9541   889
 5.9641   773
 5.9741   630
 5.9841   561
 5.9941   454
 6.0041   360
 6.0141   285
 6.0241   254
 6.0341   230
 6.0441   202
 6.0541   187
 6.0641   165
 6.0741   152
 6.0841   138
 6.0941   127
 6.1041   172
 6.1141   194
 6.1241   170
 6.1341   159
 6.1441   186
 6.1541   171
 6.1641   189
 6.1741   222
 6.1841   242
 6.1941   275
 6.2041   325
 6.2141   408
 6.2241   550
 6.2341   721
 6.2441  1055
 6.2541  1363
 6.2641  2042
 6.2741  2691
 6.2841  3634
 6.2941  4863
 6.3041  6258
 6.3141  7670
 6.3241  9601
 6.3341 11606
 6.3441 13602
 6.3541 15431
 6.3641 17213
 6.3741 18854
 6.3841 19805
 6.3941 20262
 6.4041 19876
 6.4141 19511
 6.4241 18607
 6.4341 17018
 6.4441 15443
 6.4541 13383
 6.4641 11597
 6.4741  9569
 6.4841  7564
 6.4941  5788
 6.5041  4514
 6.5141  3525
 6.5241  2631
 6.5341  1913
 6.5441  1376
 6.5541   983
 6.5641   708
 6.5741   546
 6.5841   400
 6.5941   340
 6.6041   261
 6.6141   213
 6.6241   198
 6.6341   182
 6.6441   198
 6.6541   168
 6.6641   188
 6.6741   176
 6.6841   197
 6.6941   190
 6.7041   178
 6.7141   163
 6.7241   181
 6.7341   209
 6.7441   187
 6.7541   190
 6.7641   184
 6.7741   205
 6.7841   187
 6.7941   188
 6.8041   199
 6.8141   222
 6.8241   223
 6.8341   242
 6.8441   267
 6.8541   266
 6.8641   295
 6.8741   299
 6.8841   328
 6.8941   391
 6.9041   467
 6.9141   540
 6.9241   628
 6.9341   778
 6.9441   900
 6.9541  1192
 6.9641  1408
 6.9741  1746
 6.9841  1950
 6.9941  2133
 7.0041  2532
 7.0141  2780
 7.0241  2962
 7.0341  3161
 7.0441  3326
 7.0541  3361
 7.0641  3256
 7.0741  3067
 7.0841  3001
 7.0941  2700
 7.1041  2457
 7.1141  2150
 7.1241  1885
 7.1341  1661
 7.1441  1324
 7.1541  1080
 7.1641   860
 7.1741   662
 7.1841   530
 7.1941   512
 7.2041   404
 7.2141   344
 7.2241   317
 7.2341   249
 7.2441   247
 7.2541   259
 7.2641   247
 7.2741   252
 7.2841   255
 7.2941   239
 7.3041   246
 7.3141   279
 7.3241   244
 7.3341   306
 7.3441   317
 7.3541   333
 7.3641   348
 7.3741   327
 7.3841   415
 7.3941   397
 7.4041   417
 7.4141   428
 7.4241   459
 7.4341   501
 7.4441   499
 7.4541   485
 7.4641   487
 7.4741   468
 7.4841   485
 7.4941   476
 7.5041   455
 7.5141   417
 7.5241   406
 7.5341   395
 7.5441   359
 7.5541   364
 7.5641   299
 7.5741   294
 7.5841   302
 7.5941   271
 7.6041   268
 7.6141   254
 7.6241   258
 7.6341   227
 7.6441   253
 7.6541   252
 7.6641   241
 7.6741   238
 7.6841   228
 7.6941   235
 7.7041   239
 7.7141   262
 7.7241   263
 7.7341   265
 7.7441   246
 7.7541   297
 7.7641   308
 7.7741   290
 7.7841   352
 7.7941   289
 7.8041   302
 7.8141   305
 7.8241   304
 7.8341   326
 7.8441   324
 7.8541   342
 7.8641   362
 7.8741   360
 7.8841   367
 7.8941   399
 7.9041   397
 7.9141   436
 7.9241   470
 7.9341   494
 7.9441   512
 7.9541   564
 7.9641   594
 7.9741   638
 7.9841   667
 7.9941   737
 8.0041   768
 8.0141   830
 8.0241   892
 8.0341   996
 8.0441  1027
 8.0541  1086
 8.0641  1154
 8.0741  1244
 8.0841  1278
 8.0941  1339
 8.1041  1308
 8.1141  1412
 8.1241  1482
 8.1341  1563
 8.1441  1531
 8.1541  1594
 8.1641  1622
 8.1741  1586
 8.1841  1672
 8.1941  1700
 8.2041  1658
 8.2141  1663
 8.2241  1679
 8.2341  1786
 8.2441  1788
 8.2541  1779
 8.2641  1839
 8.2741  2059
 8.2841  2129
 8.2941  2331
 8.3041  2550
 8.3141  2729
 8.3241  2901
 8.3341  3212
 8.3441  3388
 8.3541  3464
 8.3641  3629
 8.3741  3835
 8.3841  3943
 8.3941  3849
 8.4041  3791
 8.4141  3616
 8.4241  3402
 8.4341  3146
 8.4441  2931
 8.4541  2724
 8.4641  2329
 8.4741  2033
 8.4841  1750
 8.4941  1443
 8.5041  1315
 8.5141  1093
 8.5241   930
 8.5341   824
 8.5441   680
 8.5541   602
 8.5641   520
 8.5741   515
 8.5841   476
 8.5941   470
 8.6041   435
 8.6141   482
 8.6241   467
 8.6341   427
 8.6441   407
 8.6541   407
 8.6641   443
 8.6741   390
 8.6841   406
 8.6941   438
 8.7041   435
 8.7141   403
 8.7241   442
 8.7341   377
 8.7441   389
 8.7541   395
 8.7641   395
 8.7741   406
 8.7841   375
 8.7941   361
 8.8041   367
 8.8141   374
 8.8241   363
 8.8341   392
 8.8441   376
 8.8541   380
 8.8641   392
 8.8741   393
 8.8841   394
 8.8941   410
 8.9041   420
 8.9141   398
 8.9241   407
 8.9341   415
 8.9441   402
 8.9541   400
 8.9641   425
 8.9741   407
 8.9841   425
 8.9941   437
 9.0041   417
 9.0141   417
 9.0241   461
 9.0341   459
 9.0441   468
 9.0541   466
 9.0641   493
 9.0741   527
 9.0841   518
 9.0941   518
 9.1041   562
 9.1141   571
 9.1241   566
 9.1341   628
 9.1441   682
 9.1541   689
 9.1641   713
 9.1741   747
 9.1841   791
 9.1941   812
 9.2041   854
 9.2141   953
 9.2241   925
 9.2341  1010
 9.2441  1042
 9.2541  1034
 9.2641  1090
 9.2741  1170
 9.2841  1228
 9.2941  1284
 9.3041  1287
 9.3141  1349
 9.3241  1351
 9.3341  1360
 9.3441  1461
 9.3541  1493
 9.3641  1570
 9.3741  1476
 9.3841  1593
 9.3941  1637
 9.4041  1565
 9.4141  1590
 9.4241  1650
 9.4341  1656
 9.4441  1669
 9.4541  1653
 9.4641  1711
 9.4741  1735
 9.4841  1770
 9.4941  1790
 9.5041  1812
 9.5141  1879
 9.5241  1957
 9.5341  2024
 9.5441  2095
 9.5541  2240
 9.5641  2316
 9.5741  2488
 9.5841  2668
 9.5941  2852
 9.6041  2989
 9.6141  3115
 9.6241  3255
 9.6341  3358
 9.6441  3483
 9.6541  3500
 9.6641  3679
 9.6741  3688
 9.6841  3573
 9.6941  3427
 9.7041  3327
 9.7141  3170
 9.7241  2993
 9.7341  2851
 9.7441  2591
 9.7541  2432
 9.7641  2162
 9.7741  2017
 9.7841  1903
 9.7941  1783
 9.8041  1653
 9.8141  1595
 9.8241  1529
 9.8341  1464
 9.8441  1465
 9.8541  1437
 9.8641  1432
 9.8741  1432
 9.8841  1435
 9.8941  1529
 9.9041  1504
 9.9141  1535
 9.9241  1560
 9.9341  1618
 9.9441  1616
 9.9541  1559
 9.9641  1562
 9.9741  1490
 9.9841  1494
 9.9941  1377
10.0041  1278
10.0141  1252
10.0241  1197
10.0341  1071
10.0441   945
10.0541   846
10.0641   726
10.0741   645
10.0841   580
10.0941   576
10.1041   498
10.1141   453
10.1241   412
10.1341   381
10.1441   353
10.1541   335
10.1641   339
10.1741   317
10.1841   292
10.1941   296
10.2041   292
10.2141   284
10.2241   265
10.2341   247
10.2441   250
10.2541   257
10.2641   204
10.2741   214
10.2841   229
10.2941   220
10.3041   216
10.3141   207
10.3241   205
10.3341   205
10.3441   222
10.3541   218
10.3641   205
10.3741   203
10.3841   198
10.3941   201
10.4041   178
10.4141   188
10.4241   206
10.4341   223
10.4441   199
10.4541   201
10.4641   210
10.4741   214
10.4841   199
10.4941   230
10.5041   232
10.5141   231
10.5241   220
10.5341   237
10.5441   212
10.5541   218
10.5641   232
10.5741   238
10.5841   224
10.5941   231
10.6041   248
10.6141   241
10.6241   254
10.6341   235
10.6441   255
10.6541   259
10.6641   232
10.6741   233
10.6841   261
10.6941   253
10.7041   281
10.7141   282
10.7241   245
10.7341   278
10.7441   275
10.7541   284
10.7641   299
10.7741   330
10.7841   321
10.7941   309
10.8041   313
10.8141   307
10.8241   341
10.8341   331
10.8441   330
10.8541   351
10.8641   326
10.8741   325
10.8841   338
10.8941   349
10.9041   375
10.9141   356
10.9241   371
10.9341   388
10.9441   400
10.9541   367
10.9641   381
10.9741   338
10.9841   328
10.9941   297
11.0041   338
11.0141   343
11.0241   348
11.0341   336
11.0441   328
11.0541   323
11.0641   315
11.0741   307
11.0841   305
11.0941   293
11.1041   327
11.1141   340
11.1241   333
11.1341   328
11.1441   345
11.1541   342
11.1641   362
11.1741   387
11.1841   392
11.1941   419
11.2041   437
11.2141   474
11.2241   461
11.2341   443
11.2441   481
11.2541   479
11.2641   490
11.2741   499
11.2841   501
11.2941   518
11.3041   492
11.3141   493
11.3241   489
11.3341   475
11.3441   443
11.3541   442
11.3641   412
11.3741   400
11.3841   355
11.3941   343
11.4041   323
11.4141   313
11.4241   301
11.4341   269
11.4441   258
11.4541   244
11.4641   246
11.4741   253
11.4841   250
11.4941   243
11.5041   255
11.5141   244
11.5241   241
11.5341   251
11.5441   250
11.5541   253
11.5641   253
11.5741   255
11.5841   248
11.5941   270
11.6041   293
11.6141   276
11.6241   277
11.6341   273
11.6441   273
11.6541   256
11.6641   247
11.6741   253
11.6841   254
11.6941   244
11.7041   235
11.7141   242
11.7241   240
11.7341   234
11.7441   232
11.7541   213
11.7641   198
11.7741   205
11.7841   208
11.7941   198
11.8041   195
11.8141   204
11.8241   214
11.8341   183
11.8441   172
11.8541   191
11.8641   197
11.8741   192
11.8841   173
11.8941   172
11.9041   188
11.9141   182
11.9241   179
11.9341   179
11.9441   186
11.9541   192
11.9641   197
11.9741   193
11.9841   195
11.9941   182
12.0041   187
12.0141   194
12.0241   174
12.0341   176
12.0441   179
12.0541   203
12.0641   190
12.0741   190
12.0841   191
12.0941   190
12.1041   199
12.1141   177
12.1241   179
12.1341   194
12.1441   189
12.1541   183
12.1641   192
12.1741   192
12.1841   186
12.1941   177
12.2041   163
12.2141   175
12.2241   183
12.2341   177
12.2441   174
12.2541   177
12.2641   180
12.2741   160
12.2841   163
12.2941   176
12.3041   154
12.3141   143
12.3241   176
12.3341   168
12.3441   165
12.3541   168
12.3641   160
12.3741   174
12.3841   190
12.3941   184
12.4041   185
12.4141   178
12.4241   166
12.4341   177
12.4441   190
12.4541   188
12.4641   173
12.4741   186
12.4841   197
12.4941   191
12.5041   201
12.5141   197
12.5241   185
12.5341   202
12.5441   188
12.5541   186
12.5641   197
12.5741   189
12.5841   198
12.5941   202
12.6041   191
12.6141   205
12.6241   219
12.6341   207
12.6441   204
12.6541   191
12.6641   219
12.6741   218
12.6841   200
12.6941   196
12.7041   182
12.7141   181
12.7241   186
12.7341   209
12.7441   203
12.7541   200
12.7641   206
12.7741   201
12.7841   197
12.7941   196
12.8041   201
12.8141   201
12.8241   194
12.8341   195
12.8441   196
12.8541   195
12.8641   195
12.8741   197
12.8841   205
12.8941   211
12.9041   210
12.9141   205
12.9241   202
12.9341   196
12.9441   201
12.9541   206
12.9641   203
12.9741   211
12.9841   199
12.9941   201
13.0041   207
13.0141   200
13.0241   202
13.0341   223
13.0441   227
13.0541   208
13.0641   212
13.0741   218
13.0841   211
13.0941   221
13.1041   230
13.1141   220
13.1241   217
13.1341   212
13.1441   220
13.1541   224
13.1641   240
13.1741   261
13.1841   263
13.1941   265
13.2041   284
13.2141   298
13.2241   311
13.2341   342
13.2441   364
13.2541   363
13.2641   380
13.2741   415
13.2841   453
13.2941   475
13.3041   497
13.3141   526
13.3241   545
13.3341   541
13.3441   545
13.3541   578
13.3641   590
13.3741   594
13.3841   582
13.3941   601
13.4041   604
13.4141   565
13.4241   562
13.4341   557
13.4441   530
13.4541   506
13.4641   481
13.4741   442
13.4841   438
13.4941   442
13.5041   387
13.5141   344
13.5241   334
13.5341   324
13.5441   314
13.5541   296
13.5641   298
13.5741   284
13.5841   286
13.5941   272
13.6041   252
13.6141   249
13.6241   241
13.6341   248
13.6441   261
13.6541   261
13.6641   247
13.6741   245
13.6841   241
13.6941   239
13.7041   234
13.7141   246
13.7241   265
13.7341   266
13.7441   275
13.7541   249
13.7641   239
13.7741   261
13.7841   268
13.7941   270
13.8041   243
13.8141   243
13.8241   269
13.8341   250
13.8441   246
13.8541   268
13.8641   265
13.8741   276
13.8841   283
13.8941   256
13.9041   270
13.9141   287
13.9241   268
13.9341   279
13.9441   300
13.9541   295
13.9641   284
13.9741   295
13.9841   311
13.9941   327
14.0041   339
14.0141   339
14.0241   357
14.0341   377
14.0441   404
14.0541   402
14.0641   400
14.0741   448
14.0841   483
14.0941   466
14.1041   467
14.1141   491
14.1241   485
14.1341   475
14.1441   470
14.1541   504
14.1641   521
14.1741   483
14.1841   461
14.1941   476
14.2041   495
14.2141   471
14.2241   411
14.2341   397
14.2441   403
14.2541   384
14.2641   366
14.2741   361
14.2841   358
14.2941   360
14.3041   354
14.3141   338
14.3241   313
14.3341   299
14.3441   296
14.3541   307
14.3641   303
14.3741   296
14.3841   288
14.3941   283
14.4041   300
14.4141   297
14.4241   295
14.4341   297
14.4441   299
14.4541   288
14.4641   288
14.4741   294
14.4841   306
14.4941   287
14.5041   272
14.5141   319
14.5241   337
14.5341   313
14.5441   299
14.5541   301
14.5641   304
14.5741   301
14.5841   312
14.5941   308
14.6041   283
14.6141   281
14.6241   292
14.6341   284
14.6441   281
14.6541   283
14.6641   306
14.6741   309
14.6841   301
14.6941   310
14.7041   324
14.7141   321
14.7241   320
14.7341   309
14.7441   311
14.7541   326
14.7641   319
14.7741   316
14.7841   320
14.7941   331
14.8041   346
14.8141   347
14.8241   342
14.8341   349
14.8441   340
14.8541   336
14.8641   349
14.8741   344
14.8841   362
14.8941   397
14.9041   390
14.9141   380
14.9241   418
14.9341   439
14.9441   408
14.9541   405
14.9641   410
14.9741   408
14.9841   409
14.9941   388
15.0041   395
15.0141   402
15.0241   377
15.0341   375
15.0441   360
15.0541   347
15.0641   364
15.0741   358
15.0841   349
15.0941   350
15.1041   326
15.1141   325
15.1241   336
15.1341   335
15.1441   339
15.1541   350
15.1641   329
15.1741   321
15.1841   333
15.1941   341
15.2041   349
15.2141   336
15.2241   319
15.2341   326
15.2441   353
15.2541   336
15.2641   346
15.2741   352
15.2841   338
15.2941   334
15.3041   326
15.3141   329
15.3241   348
15.3341   364
15.3441   342
15.3541   326
15.3641   321
15.3741   319
15.3841   329
15.3941   325
15.4041   340
15.4141   319
15.4241   330
15.4341   340
15.4441   330
15.4541   346
15.4641   361
15.4741   361
15.4841   373
15.4941   357
15.5041   359
15.5141   374
15.5241   346
15.5341   343
15.5441   333
15.5541   348
15.5641   374
15.5741   371
15.5841   379
15.5941   389
15.6041   389
15.6141   389
15.6241   377
15.6341   387
15.6441   378
15.6541   400
15.6641   409
15.6741   431
15.6841   459
15.6941   455
15.7041   450
15.7141   466
15.7241   493
15.7341   488
15.7441   473
15.7541   474
15.7641   480
15.7741   482
15.7841   483
15.7941   487
15.8041   473
15.8141   476
15.8241   497
15.8341   500
15.8441   473
15.8541   466
15.8641   470
15.8741   438
15.8841   439
15.8941   433
15.9041   429
15.9141   421
15.9241   374
15.9341   402
15.9441   440
15.9541   410
15.9641   393
15.9741   390
15.9841   400
15.9941   390
16.0041   380
16.0141   384
16.0241   395
16.0341   403
16.0441   414
16.0541   391
16.0641   383
16.0741   405
16.0841   399
16.0941   384
16.1041   397
16.1141   367
16.1241   377
16.1341   385
16.1441   354
16.1541   352
16.1641   396
16.1741   407
16.1841   398
16.1941   391
16.2041   416
16.2141   425
16.2241   402
16.2341   388
16.2441   403
16.2541   394
16.2641   392
16.2741   400
16.2841   404
16.2941   408
16.3041   401
16.3141   382
16.3241   399
16.3341   404
16.3441   394
16.3541   382
16.3641   421
16.3741   408
16.3841   394
16.3941   407
16.4041   408
16.4141   401
16.4241   394
16.4341   423
16.4441   431
16.4541   424
16.4641   402
16.4741   400
16.4841   432
16.4941   439
16.5041   428
16.5141   435
16.5241   418
16.5341   466
16.5441   459
16.5541   418
16.5641   449
16.5741   483
16.5841   476
16.5941   443
16.6041   432
16.6141   461
16.6241   449
16.6341   434
16.6441   460
16.6541   447
16.6641   439
16.6741   445
16.6841   449
16.6941   436
16.7041   429
16.7141   438
16.7241   411
16.7341   414
16.7441   419
16.7541   447
16.7641   443
16.7741   443
16.7841   430
16.7941   420
16.8041   453
16.8141   441
16.8241   438
16.8341   432
16.8441   436
16.8541   434
16.8641   438
16.8741   439
16.8841   445
16.8941   437
16.9041   425
16.9141   416
16.9241   417
16.9341   440
16.9441   447
16.9541   450
16.9641   465
16.9741   487
16.9841   473
16.9941   434
17.0041   435
17.0141   451
17.0241   473
17.0341   455
17.0441   459
17.0541   457
17.0641   446
17.0741   458
17.0841   461
17.0941   429
17.1041   425
17.1141   428
17.1241   457
17.1341   503
17.1441   518
17.1541   467
17.1641   454
17.1741   461
17.1841   462
17.1941   467
17.2041   446
17.2141   479
17.2241   504
17.2341   479
17.2441   463
17.2541   463
17.2641   466
17.2741   521
17.2841   486
17.2941   492
17.3041   497
17.3141   517
17.3241   503
17.3341   475
17.3441   467
17.3541   477
17.3641   486
17.3741   472
17.3841   460
17.3941   471
17.4041   509
17.4141   527
17.4241   515
17.4341   541
17.4441   513
17.4541   488
17.4641   494
17.4741   507
17.4841   519
17.4941   499
17.5041   491
17.5141   518
17.5241   507
17.5341   521
17.5441   515
17.5541   520
17.5641   524
17.5741   511
17.5841   519
17.5941   529
17.6041   534
17.6141   502
17.6241   554
17.6341   527
17.6441   487
17.6541   509
17.6641   519
17.6741   524
17.6841   500
17.6941   494
17.7041   509
17.7141   498
17.7241   497
17.7341   508
17.7441   508
17.7541   526
17.7641   494
17.7741   488
17.7841   514
17.7941   493
17.8041   537
17.8141   506
17.8241   503
17.8341   502
17.8441   503
17.8541   517
17.8641   512
17.8741   519
17.8841   517
17.8941   522
17.9041   526
17.9141   519
17.9241   554
17.9341   507
17.9441   525
17.9541   537
17.9641   533
17.9741   524
17.9841   543
17.9941   523
18.0041   511
18.0141   512
18.0241   501
18.0341   519
18.0441   505
18.0541   524
18.0641   525
18.0741   517
18.0841   536
18.0941   515
18.1041   524
18.1141   519
18.1241   516
18.1341   507
18.1441   534
18.1541   537
18.1641   539
18.1741   523
18.1841   554
18.1941   546
18.2041   490
18.2141   524
18.2241   568
18.2341   534
18.2441   553
18.2541   556
18.2641   543
18.2741   527
18.2841   554
18.2941   551
18.3041   538
18.3141   554
18.3241   506
18.3341   546
18.3441   549
18.3541   521
18.3641   522
18.3741   497
18.3841   555
18.3941   554
18.4041   553
18.4141   561
18.4241   527
18.4341   521
18.4441   533
18.4541   551
18.4641   554
18.4741   569
18.4841   537
18.4941   553
18.5041   541
18.5141   558
18.5241   541
18.5341   542
18.5441   537
18.5541   537
18.5641   584
18.5741   592
18.5841   564
18.5941   555
18.6041   568
18.6141   550
18.6241   545
18.6341   558
18.6441   586
18.6541   575
18.6641   546
18.6741   560
18.6841   562
18.6941   572
18.7041   559
18.7141   529
18.7241   551
18.7341   606
18.7441   557
18.7541   578
18.7641   567
18.7741   555
18.7841   558
18.7941   582
18.8041   597
18.8141   570
18.8241   538
18.8341   564
18.8441   574
18.8541   556
18.8641   570
18.8741   570
18.8841   532
18.8941   540
18.9041   556
18.9141   588
18.9241   568
18.9341   558
18.9441   551
18.9541   550
18.9641   567
18.9741   591
18.9841   540
18.9941   530
19.0041   589
19.0141   584
19.0241   527
19.0341   555
19.0441   555
19.0541   554
19.0641   561
19.0741   562
19.0841   582
19.0941   553
19.1041   594
19.1141   577
19.1241   537
19.1341   563
19.1441   601
19.1541   576
19.1641   584
19.1741   603
19.1841   606
19.1941   545
19.2041   591
19.2141   579
19.2241   571
19.2341   529
19.2441   562
19.2541   553
19.2641   636
19.2741   587
19.2841   569
19.2941   548
19.3041   583
19.3141   585
19.3241   602
19.3341   614
19.3441   613
19.3541   599
19.3641   583
19.3741   573
19.3841   585
19.3941   590
19.4041   554
19.4141   604
19.4241   632
19.4341   615
19.4441   570
19.4541   570
19.4641   580
19.4741   595
19.4841   581
19.4941   567
19.5041   588
19.5141   609
19.5241   641
19.5341   641
19.5441   627
19.5541   610
19.5641   639
19.5741   626
19.5841   583
19.5941   580
19.6041   594
19.6141   602
19.6241   580
19.6341   614
19.6441   619
19.6541   628
19.6641   602
19.6741   629
19.6841   611
19.6941   647
19.7041   625
19.7141   603
19.7241   605
19.7341   623
19.7441   568
19.7541   594
19.7641   626
19.7741   568
19.7841   600
19.7941   642
19.8041   602
19.8141   607
19.8241   585
19.8341   552
19.8441   567
19.8541   618
19.8641   601
19.8741   619
19.8841   610
19.8941   632
19.9041   618
19.9141   620
19.9241   619
19.9341   591
19.9441   609
19.9541   604
19.9641   614
19.9741   577
19.9841   616
19.9941   626
20.0041   645
20.0141   633
20.0241   601
20.0341   607
20.0441   614
20.0541   632
20.0641   655
20.0741   632
20.0841   598
20.0941   620
20.1041   590
20.1141   648
20.1241   586
20.1341   612
20.1441   610
20.1541   601
20.1641   612
20.1741   603
20.1841   609
20.1941   654
20.2041   624
20.2141   620
20.2241   629
20.2341   621
20.2441   581
20.2541   583
20.2641   658
20.2741   604
20.2841   612
20.2941   615
20.3041   606
20.3141   620
20.3241   623
20.3341   652
20.3441   605
20.3541   637
20.3641   599
20.3741   614
20.3841   624
20.3941   603
20.4041   600
20.4141   625
20.4241   638
20.4341   605
20.4441   605
20.4541   621
20.4641   626
20.4741   621
20.4841   628
20.4941   635
20.5041   635
20.5141   597
20.5241   660
20.5341   638
20.5441   601
20.5541   657
20.5641   661
20.5741   636
20.5841   649
20.5941   577
20.6041   619
20.6141   646
20.6241   612
20.6341   623
20.6441   603
20.6541   636
20.6641   645
20.6741   593
20.6841   640
20.6941   627
20.7041   639
20.7141   672
20.7241   624
20.7341   610
20.7441   605
20.7541   634
20.7641   650
20.7741   648
20.7841   660
20.7941   617
20.8041   665
20.8141   650
20.8241   644
20.8341   694
20.8441   665
20.8541   690
20.8641   673
20.8741   738
20.8841   725
20.8941   689
20.9041   726
20.9141   744
20.9241   758
20.9341   735
20.9441   749
20.9541   792
20.9641   804
20.9741   793
20.9841   838
20.9941   816
21.0041   823
21.0141   832
21.0241   881
21.0341   897
21.0441   934
21.0541   914
21.0641   893
21.0741   942
21.0841   918
21.0941   918
21.1041   944
21.1141   956
21.1241   947
21.1341  1042
21.1441   975
21.1541   974
21.1641   976
21.1741   948
21.1841   888
21.1941   919
21.2041   945
21.2141   915
21.2241   835
21.2341   894
21.2441   906
21.2541   859
21.2641   849
21.2741   832
21.2841   823
21.2941   834
21.3041   768
21.3141   766
21.3241   739
21.3341   695
21.3441   690
21.3541   729
21.3641   661
21.3741   661
21.3841   651
21.3941   697
21.4041   658
21.4141   644
21.4241   667
21.4341   678
21.4441   660
21.4541   631
21.4641   636
21.4741   631
21.4841   632
21.4941   666
21.5041   636
21.5141   630
21.5241   642
21.5341   641
21.5441   673
21.5541   620
21.5641   634
21.5741   658
21.5841   653
21.5941   647
21.6041   663
21.6141   622
21.6241   623
21.6341   639
21.6441   633
21.6541   639
21.6641   606
21.6741   631
21.6841   632
21.6941   702
21.7041   673
21.7141   649
21.7241   635
21.7341   658
21.7441   616
21.7541   625
21.7641   654
21.7741   626
21.7841   664
21.7941   628
21.8041   637
21.8141   631
21.8241   618
21.8341   656
21.8441   648
21.8541   608
21.8641   655
21.8741   656
21.8841   626
21.8941   611
21.9041   639
21.9141   721
21.9241   636
21.9341   615
21.9441   627
21.9541   611
21.9641   636
21.9741   660
21.9841   606
21.9941   666
22.0041   655
22.0141   604
22.0241   607
22.0341   600
22.0441   602
22.0541   686
22.0641   644
22.0741   651
22.0841   639
22.0941   663
22.1041   627
22.1141   639
22.1241   624
22.1341   659
22.1441   637
22.1541   666
22.1641   682
22.1741   638
22.1841   574
22.1941   591
22.2041   657
22.2141   626
22.2241   663
22.2341   613
22.2441   670
22.2541   640
22.2641   654
22.2741   637
22.2841   650
22.2941   618
22.3041   679
22.3141   635
22.3241   631
22.3341   667
22.3441   643
22.3541   607
22.3641   643
22.3741   640
22.3841   622
22.3941   619
22.4041   600
22.4141   615
22.4241   629
22.4341   625
22.4441   636
22.4541   651
22.4641   629
22.4741   645
22.4841   554
22.4941   653
22.5041   653
22.5141   650
22.5241   615
22.5341   633
22.5441   640
22.5541   640
22.5641   652
22.5741   661
22.5841   610
22.5941   657
22.6041   641
22.6141   645
22.6241   620
22.6341   662
22.6441   619
22.6541   643
22.6641   632
22.6741   614
22.6841   595
22.6941   628
22.7041   597
22.7141   682
22.7241   643
22.7341   639
22.7441   657
22.7541   653
22.7641   621
22.7741   651
22.7841   638
22.7941   620
22.8041   671
22.8141   680
22.8241   647
22.8341   650
22.8441   620
22.8541   643
22.8641   618
22.8741   648
22.8841   632
22.8941   598
22.9041   562
22.9141   596
22.9241   640
22.9341   626
22.9441   623
22.9541   607
22.9641   639
22.9741   593
22.9841   613
22.9941   638
23.0041   660
23.0141   645
23.0241   628
23.0341   561
23.0441   642
23.0541   613
23.0641   652
23.0741   648
23.0841   665
23.0941   625
23.1041   640
23.1141   621
23.1241   652
23.1341   641
23.1441   661
23.1541   600
23.1641   640
23.1741   583
23.1841   622
23.1941   622
23.2041   611
23.2141   636
23.2241   621
23.2341   677
23.2441   584
23.2541   604
23.2641   636
23.2741   626
23.2841   618
23.2941   607
23.3041   662
23.3141   598
23.3241   583
23.3341   589
23.3441   618
23.3541   615
23.3641   565
23.3741   630
23.3841   621
23.3941   629
23.4041   603
23.4141   623
23.4241   591
23.4341   594
23.4441   602
23.4541   563
23.4641   565
23.4741   586
23.4841   616
23.4941   641
23.5041   649
23.5141   643
23.5241   612
23.5341   640
23.5441   634
23.5541   587
23.5641   603
23.5741   618
23.5841   633
23.5941   611
23.6041   602
23.6141   632
23.6241   604
23.6341   652
23.6441   633
23.6541   643
23.6641   644
23.6741   648
23.6841   660
23.6941   636
23.7041   659
23.7141   615
23.7241   643
23.7341   650
23.7441   650
23.7541   622
23.7641   691
23.7741   642
23.7841   655
23.7941   689
23.8041   657
23.8141   670
23.8241   675
23.8341   655
23.8441   658
23.8541   602
23.8641   682
23.8741   701
23.8841   652
23.8941   604
23.9041   611
23.9141   634
23.9241   602
23.9341   620
23.9441   599
23.9541   616
23.9641   642
23.9741   623
23.9841   667
23.9941   627
24.0041   598
24.0141   588
24.0241   621
24.0341   612
24.0441   553
24.0541   633
24.0641   568
24.0741   568
24.0841   626
24.0941   598
24.1041   670
24.1141   599
24.1241   629
24.1341   618
24.1441   633
24.1541   596
24.1641   621
24.1741   605
24.1841   616
24.1941   594
24.2041   624
24.2141   573
24.2241   612
24.2341   612
24.2441   580
24.2541   610
24.2641   579
24.2741   611
24.2841   594
24.2941   576
24.3041   631
24.3141   631
24.3241   637
24.3341   612
24.3441   584
24.3541   619
24.3641   633
24.3741   594
24.3841   592
24.3941   602
24.4041   621
24.4141   615
24.4241   619
24.4341   562
24.4441   599
24.4541   527
24.4641   588
24.4741   608
24.4841   588
24.4941   594
24.5041   553
24.5141   606
24.5241   573
24.5341   549
24.5441   546
24.5541   611
24.5641   607
24.5741   550
24.5841   568
24.5941   559
24.6041   596
24.6141   582
24.6241   568
24.6341   539
24.6441   545
24.6541   546
24.6641   591
24.6741   550
24.6841   591
24.6941   606
24.7041   589
24.7141   579
24.7241   570
24.7341   575
24.7441   550
24.7541   542
24.7641   606
24.7741   611
24.7841   578
24.7941   519
24.8041   553
24.8141   564
24.8241   583
24.8341   568
24.8441   557
24.8541   586
24.8641   577
24.8741   625
24.8841   579
24.8941   595
24.9041   554
24.9141   586
24.9241   572
24.9341   585
24.9441   569
24.9541   570
24.9641   568
24.9741   537
24.9841   575
24.9941   563
25.0041   569
25.0141   538
25.0241   570
25.0341   567
25.0441   596
25.0541   553
25.0641   551
25.0741   620
25.0841   563
25.0941   579
25.1041   588
25.1141   581
25.1241   560
25.1341   552
25.1441   580
25.1541   610
25.1641   536
25.1741   563
25.1841   588
25.1941   576
25.2041   542
25.2141   562
25.2241   559
25.2341   590
25.2441   569
25.2541   595
25.2641   555
25.2741   549
25.2841   579
25.2941   554
25.3041   549
25.3141   529
25.3241   556
25.3341   528
25.3441   569
25.3541   570
25.3641   567
25.3741   535
25.3841   607
25.3941   569
25.4041   559
25.4141   571
25.4241   557
25.4341   539
25.4441   527
25.4541   538
25.4641   550
25.4741   535
25.4841   507
25.4941   527
25.5041   552
25.5141   554
25.5241   538
25.5341   513
25.5441   549
25.5541   560
25.5641   535
25.5741   519
25.5841   499
25.5941   513
25.6041   519
25.6141   566
25.6241   533
25.6341   541
25.6441   525
25.6541   554
25.6641   527
25.6741   542
25.6841   563
25.6941   539
25.7041   534
25.7141   532
25.7241   532
25.7341   525
25.7441   504
25.7541   502
25.7641   571
25.7741   567
25.7841   521
25.7941   536
25.8041   511
25.8141   498
25.8241   500
25.8341   491
25.8441   512
25.8541   481
25.8641   557
25.8741   502
25.8841   511
25.8941   514
25.9041   529
25.9141   514
25.9241   471
25.9341   493
25.9441   517
25.9541   526
25.9641   561
25.9741   567
25.9841   532
25.9941   518
26.0041   509
26.0141   534
26.0241   526
26.0341   485
26.0441   491
26.0541   454
26.0641   491
26.0741   514
26.0841   533
26.0941   492
26.1041   495
26.1141   539
26.1241   515
26.1341   524
26.1441   537
26.1541   522
26.1641   549
26.1741   490
26.1841   536
26.1941   503
26.2041   489
26.2141   491
26.2241   467
26.2341   490
26.2441   492
26.2541   505
26.2641   525
26.2741   500
26.2841   518
26.2941   525
26.3041   482
26.3141   511
26.3241   522
26.3341   538
26.3441   517
26.3541   488
26.3641   521
26.3741   482
26.3841   464
26.3941   493
26.4041   522
26.4141   464
26.4241   528
26.4341   508
26.4441   527
26.4541   465
26.4641   466
26.4741   514
26.4841   500
26.4941   482
26.5041   525
26.5141   480
26.5241   489
26.5341   466
26.5441   486
26.5541   498
26.5641   431
26.5741   491
26.5841   527
26.5941   472
26.6041   508
26.6141   498
26.6241   502
26.6341   456
26.6441   434
26.6541   485
26.6641   475
26.6741   499
26.6841   499
26.6941   494
26.7041   482
26.7141   471
26.7241   483
26.7341   510
26.7441   451
26.7541   481
26.7641   484
26.7741   496
26.7841   491
26.7941   484
26.8041   475
26.8141   471
26.8241   460
26.8341   467
26.8441   493
26.8541   491
26.8641   485
26.8741   489
26.8841   456
26.8941   493
26.9041   472
26.9141   455
26.9241   444
26.9341   452
26.9441   511
26.9541   463
26.9641   457
26.9741   501
26.9841   482
26.9941   474
27.0041   482
27.0141   486
27.0241   490
27.0341   492
27.0441   497
27.0541   485
27.0641   475
27.0741   450
27.0841   466
27.0941   454
27.1041   426
27.1141   459
27.1241   470
27.1341   462
27.1441   443
27.1541   451
27.1641   468
27.1741   507
27.1841   459
27.1941   439
27.2041   456
27.2141   467
27.2241   459
27.2341   457
27.2441   468
27.2541   477
27.2641   482
27.2741   474
27.2841   464
27.2941   479
27.3041   439
27.3141   472
27.3241   477
27.3341   459
27.3441   432
27.3541   434
27.3641   420
27.3741   453
27.3841   461
27.3941   463
27.4041   458
27.4141   470
27.4241   465
27.4341   456
27.4441   473
27.4541   495
27.4641   494
27.4741   466
27.4841   425
27.4941   428
27.5041   450
27.5141   426
27.5241   441
27.5341   443
27.5441   452
27.5541   479
27.5641   451
27.5741   417
27.5841   424
27.5941   427
27.6041   425
27.6141   436
27.6241   445
27.6341   447
27.6441   427
27.6541   464
27.6641   425
27.6741   417
27.6841   425
27.6941   425
27.7041   440
27.7141   412
27.7241   447
27.7341   448
27.7441   451
27.7541   440
27.7641   410
27.7741   423
27.7841   417
27.7941   441
27.8041   437
27.8141   428
27.8241   432
27.8341   470
27.8441   427
27.8541   410
27.8641   398
27.8741   414
27.8841   436
27.8941   391
27.9041   401
27.9141   439
27.9241   427
27.9341   420
27.9441   439
27.9541   416
27.9641   435
27.9741   419
27.9841   412
27.9941   402
28.0041   419
28.0141   405
28.0241   423
28.0341   423
28.0441   448
28.0541   417
28.0641   399
28.0741   424
28.0841   406
28.0941   414
28.1041   397
28.1141   434
28.1241   421
28.1341   413
28.1441   413
28.1541   393
28.1641   416
28.1741   443
28.1841   419
28.1941   413
28.2041   402
28.2141   393
28.2241   413
28.2341   408
28.2441   408
28.2541   395
28.2641   361
28.2741   384
28.2841   403
28.2941   376
28.3041   376
28.3141   424
28.3241   402
28.3341   419
28.3441   405
28.3541   384
28.3641   431
28.3741   414
28.3841   400
28.3941   421
28.4041   414
28.4141   414
28.4241   428
28.4341   419
28.4441   402
28.4541   392
28.4641   385
28.4741   403
28.4841   379
28.4941   416
28.5041   392
28.5141   413
28.5241   419
28.5341   394
28.5441   398
28.5541   404
28.5641   375
28.5741   393
28.5841   383
28.5941   400
28.6041   403
28.6141   397
28.6241   399
28.6341   395
28.6441   383
28.6541   434
28.6641   380
28.6741   393
28.6841   366
28.6941   400
28.7041   410
28.7141   385
28.7241   384
28.7341   389
28.7441   382
28.7541   356
28.7641   377
28.7741   418
28.7841   392
28.7941   394
28.8041   397
28.8141   389
28.8241   394
28.8341   399
28.8441   356
28.8541   399
28.8641   400
28.8741   380
28.8841   391
28.8941   365
28.9041   385
28.9141   391
28.9241   391
28.9341   353
28.9441   377
28.9541   370
28.9641   357
28.9741   350
28.9841   382
28.9941   387
29.0041   384
29.0141   381
29.0241   375
29.0341   357
29.0441   352
29.0541   384
29.0641   368
29.0741   376
29.0841   399
29.0941   364
29.1041   381
29.1141   375
29.1241   368
29.1341   371
29.1441   386
29.1541   360
29.1641   355
29.1741   367
29.1841   352
29.1941   337
29.2041   344
29.2141   349
29.2241   342
29.2341   364
29.2441   388
29.2541   371
29.2641   379
29.2741   356
29.2841   372
29.2941   360
29.3041   347
29.3141   355
29.3241   359
29.3341   366
29.3441   354
29.3541   346
29.3641   368
29.3741   361
29.3841   347
29.3941   337
29.4041   349
29.4141   306
29.4241   342
29.4341   332
29.4441   341
29.4541   335
29.4641   357
29.4741   318
29.4841   374
29.4941   340
29.5041   349
29.5141   332
29.5241   350
29.5341   345
29.5441   343
29.5541   355
29.5641   341
29.5741   353
29.5841   326
29.5941   360
29.6041   356
29.6141   364
29.6241   353
29.6341   332
29.6441   306
29.6541   305
29.6641   325
29.6741   331
29.6841   332
29.6941   333
29.7041   337
29.7141   326
29.7241   332
29.7341   325
29.7441   336
29.7541   305
29.7641   351
29.7741   338
29.7841   383
29.7941   331
29.8041   333
29.8141   336
29.8241   322
29.8341   314
29.8441   341
29.8541   349
29.8641   309
29.8741   336
29.8841   335
29.8941   312
29.9041   316
29.9141   351
29.9241   290
29.9341   308
29.9441   369
29.9541   353
29.9641   339
29.9741   354
29.9841   326
29.9941   311
30.0041   318
30.0141   286
30.0241   316
30.0341   306
30.0441   313
30.0541   325
30.0641   307
30.0741   309
30.0841   316
30.0941   319
30.1041   320
30.1141   294
30.1241   303
30.1341   332
30.1441   319
30.1541   321
30.1641   294
30.1741   311
30.1841   341
30.1941   321
30.2041   324
30.2141   323
30.2241   323
30.2341   292
30.2441   316
30.2541   299
30.2641   286
30.2741   324
30.2841   307
30.2941   287
30.3041   329
30.3141   290
30.3241   341
30.3341   316
30.3441   312
30.3541   283
30.3641   314
30.3741   296
30.3841   303
30.3941   285
30.4041   318
30.4141   312
30.4241   310
30.4341   302
30.4441   288
30.4541   291
30.4641   303
30.4741   277
30.4841   276
30.4941   299
30.5041   304
30.5141   289
30.5241   302
30.5341   282
30.5441   301
30.5541   311
30.5641   297
30.5741   286
30.5841   317
30.5941   282
30.6041   286
30.6141   295
30.6241   296
30.6341   313
30.6441   299
30.6541   312
30.6641   279
30.6741   280
30.6841   294
30.6941   276
30.7041   302
30.7141   284
30.7241   311
30.7341   282
30.7441   285
30.7541   320
30.7641   311
30.7741   290
30.7841   327
30.7941   281
30.8041   270
30.8141   291
30.8241   261
30.8341   282
30.8441   298
30.8541   270
30.8641   295
30.8741   268
30.8841   285
30.8941   312
30.9041   284
30.9141   270
30.9241   273
30.9341   315
30.9441   299
30.9541   277
30.9641   288
30.9741   286
30.9841   266
30.9941   299
31.0041   273
31.0141   311
31.0241   307
31.0341   264
31.0441   291
31.0541   291
31.0641   283
31.0741   292
31.0841   294
31.0941   271
31.1041   284
31.1141   264
31.1241   277
31.1341   267
31.1441   272
31.1541   279
31.1641   292
31.1741   289
31.1841   274
31.1941   267
31.2041   293
31.2141   258
31.2241   289
31.2341   281
31.2441   292
31.2541   267
31.2641   255
31.2741   259
31.2841   274
31.2941   292
31.3041   273
31.3141   285
31.3241   282
31.3341   272
31.3441   276
31.3541   260
31.3641   272
31.3741   262
31.3841   254
31.3941   247
31.4041   247
31.4141   282
31.4241   278
31.4341   273
31.4441   274
31.4541   280
31.4641   287
31.4741   273
31.4841   273
31.4941   254
31.5041   246
31.5141   236
31.5241   235
31.5341   261
31.5441   261
31.5541   267
31.5641   270
31.5741   243
31.5841   259
31.5941   280
31.6041   272
31.6141   264
31.6241   266
31.6341   257
31.6441   251
31.6541   250
31.6641   234
31.6741   271
31.6841   265
31.6941   245
31.7041   301
31.7141   260
31.7241   256
31.7341   266
31.7441   263
31.7541   220
31.7641   271
31.7741   252
31.7841   248
31.7941   254
31.8041   266
31.8141   266
31.8241   280
31.8341   285
31.8441   235
31.8541   249
31.8641   239
31.8741   252
31.8841   256
31.8941   249
31.9041   253
31.9141   252
31.9241   261
31.9341   228
31.9441   270
31.9541   251
31.9641   266
31.9741   237
31.9841   244
31.9941   256
32.0041   235
32.0141   246
32.0241   266
32.0341   262
32.0441   231
32.0541   234
32.0641   263
32.0741   250
32.0841   240
32.0941   278
32.1041   295
32.1141   249
32.1241   252
32.1341   239
32.1441   265
32.1541   283
32.1641   242
32.1741   245
32.1841   273
32.1941   256
32.2041   253
32.2141   284
32.2241   272
32.2341   239
32.2441   254
32.2541   264
32.2641   268
32.2741   236
32.2841   266
32.2941   276
32.3041   238
32.3141   234
32.3241   245
32.3341   227
32.3441   247
32.3541   218
32.3641   251
32.3741   230
32.3841   264
32.3941   239
32.4041   218
32.4141   219
32.4241   209
32.4341   237
32.4441   240
32.4541   235
32.4641   216
32.4741   223
32.4841   214
32.4941   229
32.5041   206
32.5141   247
32.5241   205
32.5341   197
32.5441   209
32.5541   221
32.5641   218
32.5741   230
32.5841   246
32.5941   230
32.6041   217
32.6141   227
32.6241   229
32.6341   215
32.6441   198
32.6541   197
32.6641   213
32.6741   201
32.6841   202
32.6941   258
32.7041   225
32.7141   191
32.7241   192
32.7341   223
32.7441   230
32.7541   217
32.7641   210
32.7741   222
32.7841   199
32.7941   223
32.8041   213
32.8141   201
32.8241   186
32.8341   203
32.8441   204
32.8541   203
32.8641   220
32.8741   226
32.8841   198
32.8941   190
32.9041   197
32.9141   187
32.9241   197
32.9341   205
32.9441   182
32.9541   191
32.9641   201
32.9741   211
32.9841   201
32.9941   202
33.0041   210
33.0141   218
33.0241   223
33.0341   190
33.0441   198
33.0541   209
33.0641   196
33.0741   199
33.0841   209
33.0941   210
33.1041   200
33.1141   216
33.1241   188
33.1341   177
33.1441   194
33.1541   192
33.1641   203
33.1741   209
33.1841   181
33.1941   173
33.2041   202
33.2141   208
33.2241   189
33.2341   191
33.2441   192
33.2541   198
33.2641   181
33.2741   184
33.2841   197
33.2941   194
33.3041   211
33.3141   206
33.3241   190
33.3341   212
33.3441   204
33.3541   207
33.3641   179
33.3741   200
33.3841   162
33.3941   208
33.4041   191
33.4141   180
33.4241   180
33.4341   186
33.4441   187
33.4541   194
33.4641   189
33.4741   201
33.4841   176
33.4941   162
33.5041   184
33.5141   171
33.5241   185
33.5341   191
33.5441   180
33.5541   160
33.5641   168
33.5741   160
33.5841   175
33.5941   170
33.6041   174
33.6141   202
33.6241   180
33.6341   179
33.6441   202
33.6541   188
33.6641   191
33.6741   186
33.6841   182
33.6941   175
33.7041   169
33.7141   190
33.7241   200
33.7341   169
33.7441   194
33.7541   209
33.7641   190
33.7741   154
33.7841   169
33.7941   194
33.8041   201
33.8141   172
33.8241   151
33.8341   177
33.8441   181
33.8541   151
33.8641   191
33.8741   174
33.8841   169
33.8941   158
33.9041   170
33.9141   179
33.9241   193
33.9341   152
33.9441   185
33.9541   154
33.9641   194
33.9741   153
33.9841   185
33.9941   188
34.0041   156
34.0141   176
34.0241   177
34.0341   178
34.0441   165
34.0541   174
34.0641   185
34.0741   148
34.0841   169
34.0941   155
34.1041   161
34.1141   149
34.1241   143
34.1341   168
34.1441   156
34.1541   177
34.1641   170
34.1741   152
34.1841   155
34.1941   165
34.2041   161
34.2141   180
34.2241   171
34.2341   162
34.2441   145
34.2541   183
34.2641   177
34.2741   157
34.2841   157
34.2941   155
34.3041   172
34.3141   165
34.3241   154
34.3341   175
34.3441   164
34.3541   166
34.3641   154
34.3741   164
34.3841   152
34.3941   155
34.4041   155
34.4141   148
34.4241   149
34.4341   140
34.4441   137
34.4541   149
34.4641   178
34.4741   158
34.4841   141
34.4941   170
34.5041   142
34.5141   157
34.5241   146
34.5341   150
34.5441   160
34.5541   172
34.5641   166
34.5741   166
34.5841   150
34.5941   130
34.6041   135
34.6141   162
34.6241   138
34.6341   157
34.6441   148
34.6541   142
34.6641   137
34.6741   136
34.6841   153
34.6941   135
34.7041   145
34.7141   154
34.7241   140
34.7341   166
34.7441   157
34.7541   153
34.7641   151
34.7741   139
34.7841   137
34.7941   138
34.8041   147
34.8141   140
34.8241   134
34.8341   130
34.8441   162
34.8541   146
34.8641   127
34.8741   143
34.8841   139
34.8941   155
34.9041   126
34.9141   127
34.9241   144
34.9341   138
34.9441   133
34.9541   132
34.9641   125
34.9741   146
34.9841   144
34.9941   146
35.0041   142
35.0141   139
35.0241   152
35.0341   153
35.0441   133
35.0541   134
35.0641   159
35.0741   114
35.0841   138
35.0941   145
35.1041   156
35.1141   128
35.1241   117
35.1341   133
35.1441   137
35.1541   143
35.1641   123
35.1741   146
35.1841   138
35.1941   143
35.2041   140
35.2141   135
35.2241   137
35.2341   147
35.2441   135
35.2541   144
35.2641   149
35.2741   125
35.2841   156
35.2941   133
35.3041   128
35.3141   139
35.3241   123
35.3341   130
35.3441   136
35.3541   129
35.3641   122
35.3741   134
35.3841   142
35.3941   127
35.4041   131
35.4141   130
35.4241   139
35.4341   112
35.4441   111
35.4541   112
35.4641   127
35.4741   122
35.4841   136
35.4941   143
35.5041   119
35.5141   131
35.5241   108
35.5341   131
35.5441   114
35.5541   115
35.5641   110
35.5741   136
35.5841   119
35.5941   135
35.6041   135
35.6141   121
35.6241   132
35.6341   122
35.6441   126
35.6541   129
35.6641   111
35.6741   119
35.6841   120
35.6941   120
35.7041   105
35.7141   118
35.7241   106
35.7341   133
35.7441   134
35.7541   121
35.7641   110
35.7741   110
35.7841   110
35.7941   124
35.8041   101
35.8141   123
35.8241   112
35.8341   119
35.8441   105
35.8541   117
35.8641   115
35.8741   111
35.8841   112
35.8941   113
35.9041   121
35.9141    97
35.9241   110
35.9341   107
35.9441   120
35.9541   101
35.9641   101
35.9741   116
35.9841   116
35.9941   104
36.0041   122
36.0141   118
36.0241   121
36.0341   117
36.0441   119
36.0541   124
36.0641   110
36.0741   111
36.0841   107
36.0941   103
36.1041   115
36.1141   105
36.1241   117
36.1341   129
36.1441    92
36.1541   108
36.1641    95
36.1741   115
36.1841   113
36.1941    99
36.2041   103
36.2141   115
36.2241   100
36.2341    93
36.2441   105
36.2541   107
36.2641   114
36.2741   113
36.2841   112
36.2941   138
36.3041   105
36.3141    90
36.3241    94
36.3341   106
36.3441   110
36.3541   108
36.3641   102
36.3741    98
36.3841   111
36.3941   134
36.4041   123
36.4141   113
36.4241   113
36.4341   118
36.4441   108
36.4541   106
36.4641   111
36.4741   114
36.4841   110
36.4941   117
36.5041    98
36.5141   102
36.5241   115
36.5341    99
36.5441    97
36.5541    98
36.5641    98
36.5741   117
36.5841   120
36.5941    95
36.6041    88
36.6141   112
36.6241    94
36.6341    92
36.6441   105
36.6541   105
36.6641    92
36.6741    97
36.6841    92
36.6941   104
36.7041   105
36.7141   105
36.7241    99
36.7341    98
36.7441    99
36.7541   103
36.7641    93
36.7741    87
36.7841   101
36.7941   107
36.8041   103
36.8141    77
36.8241    99
36.8341   102
36.8441    98
36.8541    79
36.8641    90
36.8741    86
36.8841    92
36.8941   105
36.9041    84
36.9141    98
36.9241   103
36.9341    97
36.9441   100
36.9541    96
36.9641    84
36.9741    77
36.9841   108
36.9941    84
37.0041   107
37.0141   107
37.0241    79
37.0341   106
37.0441    86
37.0541    80
37.0641    93
37.0741    89
37.0841   102
37.0941    88
37.1041    92
37.1141    95
37.1241    89
37.1341    99
37.1441    76
37.1541    82
37.1641    80
37.1741    86
37.1841    85
37.1941    85
37.2041    84
37.2141    97
37.2241    78
37.2341    93
37.2441    91
37.2541    82
37.2641    64
37.2741    73
37.2841    80
37.2941    95
37.3041    76
37.3141   102
37.3241    82
37.3341    77
37.3441    74
37.3541    81
37.3641    72
37.3741    74
37.3841    77
37.3941    85
37.4041    98
37.4141    88
37.4241    84
37.4341    80
37.4441    69
37.4541    74
37.4641    90
37.4741    76
37.4841    79
37.4941    79
37.5041    84
37.5141    76
37.5241    79
37.5341    79
37.5441    90
37.5541    58
37.5641    67
37.5741    73
37.5841    88
37.5941    59
37.6041    62
37.6141    82
37.6241    77
37.6341    65
37.6441    64
37.6541    71
37.6641    76
37.6741    73
37.6841    55
37.6941    58
37.7041    63
37.7141   101
37.7241    68
37.7341    68
37.7441    58
37.7541    55
37.7641    70
37.7741    72
37.7841    86
37.7941    75
37.8041    67
37.8141    82
37.8241    67
37.8341    74
37.8441    79
37.8541    73
37.8641    70
37.8741    68
37.8841    72
37.8941    72
37.9041    67
37.9141    77
37.9241    79
37.9341    70
37.9441    83
37.9541    72
37.9641    63
37.9741    81
37.9841    58
37.9941    63
38.0041    72
38.0141    72
38.0241    81
38.0341    56
38.0441    78
38.0541    66
38.0641    66
38.0741    59
38.0841    57
38.0941    62
38.1041    78
38.1141    73
38.1241    76
38.1341    60
38.1441    57
38.1541    70
38.1641    59
38.1741    60
38.1841    54
38.1941    67
38.2041    57
38.2141    49
38.2241    72
38.2341    61
38.2441    62
38.2541    61
38.2641    71
38.2741    69
38.2841    55
38.2941    61
38.3041    71
38.3141    73
38.3241    68
38.3341    78
38.3441    67
38.3541    73
38.3641    66
38.3741    54
38.3841    62
38.3941    60
38.4041    63
38.4141    59
38.4241    59
38.4341    60
38.4441    61
38.4541    50
38.4641    53
38.4741    66
38.4841    49
38.4941    48
38.5041    63
38.5141    64
38.5241    60
38.5341    66
38.5441    54
38.5541    44
38.5641    44
38.5741    51
38.5841    50
38.5941    63
38.6041    51
38.6141    55
38.6241    46
38.6341    51
38.6441    66
38.6541    54
38.6641    59
38.6741    47
38.6841    54
38.6941    62
38.7041    66
38.7141    60
38.7241    62
38.7341    59
38.7441    69
38.7541    50
38.7641    63
38.7741    59
38.7841    46
38.7941    69
38.8041    45
38.8141    61
38.8241    44
38.8341    63
38.8441    68
38.8541    63
38.8641    52
38.8741    52
38.8841    66
38.8941    67
38.9041    56
38.9141    43
38.9241    57
38.9341    57
38.9441    52
38.9541    43
38.9641    51
38.9741    57
38.9841    58
38.9941    48
39.0041    51
39.0141    53
39.0241    59
39.0341    44
39.0441    50
39.0541    50
39.0641    55
39.0741    53
39.0841    49
39.0941    44
39.1041    59
39.1141    44
39.1241    47
39.1341    43
39.1441    46
39.1541    64
39.1641    50
39.1741    43
39.1841    47
39.1941    56
39.2041    48
39.2141    51
39.2241    39
39.2341    43
39.2441    44
39.2541    46
39.2641    37
39.2741    39
39.2841    38
39.2941    59
39.3041    52
39.3141    42
39.3241    47
39.3341    56
39.3441    45
39.3541    40
39.3641    43
39.3741    47
39.3841    51
39.3941    40
39.4041    46
39.4141    45
39.4241    51
39.4341    40
39.4441    46
39.4541    40
39.4641    51
39.4741    40
39.4841    42
39.4941    37
39.5041    41
39.5141    44
39.5241    53
39.5341    37
39.5441    48
39.5541    50
39.5641    53
39.5741    37
39.5841    53
39.5941    39
39.6041    45
39.6141    47
39.6241    50
39.6341    41
39.6441    38
39.6541    43
39.6641    37
39.6741    41
39.6841    31
39.6941    38
39.7041    47
39.7141    34
39.7241    33
39.7341    47
39.7441    39
39.7541    36
39.7641    45
39.7741    48
39.7841    41
39.7941    43
39.8041    32
39.8141    40
39.8241    30
39.8341    37
39.8441    30
39.8541    24
39.8641    27
39.8741    34
39.8841    39
39.8941    44
39.9041    38
39.9141    33
39.9241    36
39.9341    34
39.9441    45
39.9541    36
39.9641    40
39.9741    27
39.9841    36
