Bruker Nano GmbH Berlin, Germany
Esprit 1.9

Date: 4/21/2021 2:30:24 PM
Real time: 21618
Life time: 20160
Pulse density: 97739


Detector type: XFlash 430
Window type: Custom type
Detector thickness: 0.45
Si dead layer:0.029

Calibration, lin.: 10
Calibration, abs.: -955.9
Mn FWHM: 137.05
Fano factor: 0.121
Channels: 4095

Energy Counts
-0.9559     0
-0.9459     0
-0.9359     0
-0.9259     0
-0.9159     0
-0.9059     0
-0.8959     0
-0.8859     0
-0.8759     0
-0.8659     0
-0.8559     0
-0.8459     0
-0.8359     0
-0.8259     0
-0.8159     0
-0.8059     0
-0.7959     0
-0.7859     0
-0.7759     0
-0.7659     0
-0.7559     0
-0.7459     0
-0.7359     0
-0.7259     0
-0.7159     0
-0.7059     0
-0.6959     0
-0.6859     0
-0.6759     0
-0.6659     0
-0.6559     0
-0.6459     0
-0.6359     0
-0.6259     0
-0.6159     0
-0.6059     0
-0.5959     0
-0.5859     0
-0.5759     0
-0.5659     0
-0.5559     0
-0.5459     0
-0.5359     0
-0.5259     0
-0.5159     0
-0.5059     0
-0.4959     0
-0.4859     0
-0.4759     0
-0.4659     0
-0.4559     0
-0.4459     0
-0.4359     0
-0.4259     0
-0.4159     0
-0.4059     0
-0.3959     0
-0.3859     0
-0.3759     0
-0.3659     0
-0.3559     0
-0.3459     0
-0.3359     0
-0.3259     0
-0.3159     0
-0.3059     0
-0.2959     0
-0.2859     0
-0.2759     0
-0.2659     0
-0.2559     0
-0.2459     0
-0.2359     0
-0.2259     0
-0.2159     0
-0.2059     0
-0.1959     0
-0.1859     0
-0.1759     0
-0.1659     0
-0.1559     1
-0.1459     0
-0.1359     0
-0.1259     3
-0.1159     3
-0.1059    18
-0.0959    49
-0.0859   262
-0.0759   809
-0.0659  2310
-0.0559  5888
-0.0459 12800
-0.0359 23889
-0.0259 38296
-0.0159 52407
-0.0059 61750
 0.0041 62196
 0.0141 53648
 0.0241 39349
 0.0341 25072
 0.0441 13672
 0.0541  6433
 0.0641  2520
 0.0741   872
 0.0841   256
 0.0941    73
 0.1041    23
 0.1141    15
 0.1241     6
 0.1341     8
 0.1441     6
 0.1541     9
 0.1641     6
 0.1741     4
 0.1841   184
 0.1941   366
 0.2041   358
 0.2141   363
 0.2241   360
 0.2341   357
 0.2441   350
 0.2541   360
 0.2641   344
 0.2741   373
 0.2841   365
 0.2941   362
 0.3041   341
 0.3141   310
 0.3241   289
 0.3341   328
 0.3441   322
 0.3541   310
 0.3641   339
 0.3741   331
 0.3841   316
 0.3941   318
 0.4041   313
 0.4141   311
 0.4241   309
 0.4341   290
 0.4441   312
 0.4541   288
 0.4641   282
 0.4741   285
 0.4841   292
 0.4941   308
 0.5041   302
 0.5141   276
 0.5241   286
 0.5341   291
 0.5441   284
 0.5541   281
 0.5641   264
 0.5741   269
 0.5841   270
 0.5941   284
 0.6041   291
 0.6141   281
 0.6241   282
 0.6341   269
 0.6441   270
 0.6541   266
 0.6641   271
 0.6741   255
 0.6841   240
 0.6941   251
 0.7041   258
 0.7141   259
 0.7241   276
 0.7341   273
 0.7441   249
 0.7541   254
 0.7641   254
 0.7741   253
 0.7841   249
 0.7941   253
 0.8041   254
 0.8141   242
 0.8241   245
 0.8341   253
 0.8441   255
 0.8541   254
 0.8641   254
 0.8741   242
 0.8841   234
 0.8941   234
 0.9041   219
 0.9141   220
 0.9241   253
 0.9341   248
 0.9441   229
 0.9541   231
 0.9641   256
 0.9741   239
 0.9841   236
 0.9941   220
 1.0041   228
 1.0141   232
 1.0241   245
 1.0341   226
 1.0441   218
 1.0541   225
 1.0641   222
 1.0741   218
 1.0841   221
 1.0941   226
 1.1041   239
 1.1141   210
 1.1241   215
 1.1341   209
 1.1441   213
 1.1541   240
 1.1641   221
 1.1741   216
 1.1841   218
 1.1941   221
 1.2041   217
 1.2141   203
 1.2241   192
 1.2341   209
 1.2441   240
 1.2541   220
 1.2641   206
 1.2741   199
 1.2841   209
 1.2941   229
 1.3041   224
 1.3141   201
 1.3241   238
 1.3341   230
 1.3441   217
 1.3541   203
 1.3641   214
 1.3741   199
 1.3841   196
 1.3941   207
 1.4041   210
 1.4141   200
 1.4241   204
 1.4341   212
 1.4441   199
 1.4541   219
 1.4641   224
 1.4741   215
 1.4841   199
 1.4941   199
 1.5041   201
 1.5141   199
 1.5241   202
 1.5341   201
 1.5441   199
 1.5541   215
 1.5641   218
 1.5741   215
 1.5841   210
 1.5941   209
 1.6041   198
 1.6141   225
 1.6241   174
 1.6341   184
 1.6441   220
 1.6541   253
 1.6641   286
 1.6741   340
 1.6841   405
 1.6941   485
 1.7041   588
 1.7141   677
 1.7241   756
 1.7341   771
 1.7441   771
 1.7541   698
 1.7641   661
 1.7741   592
 1.7841   460
 1.7941   406
 1.8041   366
 1.8141   316
 1.8241   285
 1.8341   256
 1.8441   259
 1.8541   250
 1.8641   236
 1.8741   214
 1.8841   212
 1.8941   199
 1.9041   202
 1.9141   223
 1.9241   230
 1.9341   214
 1.9441   225
 1.9541   204
 1.9641   216
 1.9741   222
 1.9841   245
 1.9941   247
 2.0041   219
 2.0141   256
 2.0241   237
 2.0341   249
 2.0441   246
 2.0541   245
 2.0641   204
 2.0741   214
 2.0841   192
 2.0941   197
 2.1041   181
 2.1141   175
 2.1241   200
 2.1341   206
 2.1441   181
 2.1541   205
 2.1641   177
 2.1741   174
 2.1841   167
 2.1941   175
 2.2041   191
 2.2141   203
 2.2241   181
 2.2341   188
 2.2441   188
 2.2541   198
 2.2641   190
 2.2741   189
 2.2841   162
 2.2941   186
 2.3041   175
 2.3141   155
 2.3241   155
 2.3341   154
 2.3441   163
 2.3541   171
 2.3641   161
 2.3741   166
 2.3841   166
 2.3941   177
 2.4041   185
 2.4141   159
 2.4241   178
 2.4341   164
 2.4441   165
 2.4541   156
 2.4641   168
 2.4741   156
 2.4841   162
 2.4941   149
 2.5041   176
 2.5141   145
 2.5241   171
 2.5341   180
 2.5441   162
 2.5541   170
 2.5641   165
 2.5741   144
 2.5841   150
 2.5941   159
 2.6041   155
 2.6141   146
 2.6241   153
 2.6341   154
 2.6441   148
 2.6541   162
 2.6641   149
 2.6741   135
 2.6841   138
 2.6941   163
 2.7041   140
 2.7141   157
 2.7241   157
 2.7341   140
 2.7441   148
 2.7541   162
 2.7641   151
 2.7741   149
 2.7841   183
 2.7941   152
 2.8041   134
 2.8141   163
 2.8241   184
 2.8341   184
 2.8441   161
 2.8541   189
 2.8641   151
 2.8741   134
 2.8841   164
 2.8941   145
 2.9041   136
 2.9141   137
 2.9241   136
 2.9341   131
 2.9441   137
 2.9541   129
 2.9641   159
 2.9741   163
 2.9841   132
 2.9941   116
 3.0041   167
 3.0141   156
 3.0241   129
 3.0341   142
 3.0441   139
 3.0541   152
 3.0641   123
 3.0741   141
 3.0841   124
 3.0941   112
 3.1041   129
 3.1141   104
 3.1241   134
 3.1341   133
 3.1441   145
 3.1541   124
 3.1641   114
 3.1741   121
 3.1841   118
 3.1941   149
 3.2041   153
 3.2141   152
 3.2241   177
 3.2341   200
 3.2441   183
 3.2541   245
 3.2641   266
 3.2741   338
 3.2841   343
 3.2941   374
 3.3041   375
 3.3141   409
 3.3241   423
 3.3341   347
 3.3441   337
 3.3541   331
 3.3641   255
 3.3741   240
 3.3841   201
 3.3941   166
 3.4041   150
 3.4141   132
 3.4241   122
 3.4341   125
 3.4441   126
 3.4541   143
 3.4641   122
 3.4741   118
 3.4841   114
 3.4941   117
 3.5041   137
 3.5141   136
 3.5241   144
 3.5341   163
 3.5441   172
 3.5541   202
 3.5641   210
 3.5741   277
 3.5841   286
 3.5941   325
 3.6041   441
 3.6141   574
 3.6241   686
 3.6341   889
 3.6441   999
 3.6541  1116
 3.6641  1191
 3.6741  1344
 3.6841  1418
 3.6941  1393
 3.7041  1408
 3.7141  1272
 3.7241  1117
 3.7341   971
 3.7441   842
 3.7541   675
 3.7641   485
 3.7741   415
 3.7841   334
 3.7941   220
 3.8041   189
 3.8141   140
 3.8241   112
 3.8341   111
 3.8441   120
 3.8541    97
 3.8641   102
 3.8741    93
 3.8841    99
 3.8941   118
 3.9041   129
 3.9141   120
 3.9241   145
 3.9341   151
 3.9441   181
 3.9541   204
 3.9641   196
 3.9741   225
 3.9841   237
 3.9941   273
 4.0041   290
 4.0141   271
 4.0241   321
 4.0341   273
 4.0441   233
 4.0541   248
 4.0641   208
 4.0741   173
 4.0841   154
 4.0941   139
 4.1041   131
 4.1141   122
 4.1241    99
 4.1341   108
 4.1441   102
 4.1541   104
 4.1641    92
 4.1741    66
 4.1841    96
 4.1941    94
 4.2041    73
 4.2141    94
 4.2241    91
 4.2341    84
 4.2441    86
 4.2541    72
 4.2641    69
 4.2741    91
 4.2841   102
 4.2941    73
 4.3041    81
 4.3141   106
 4.3241    89
 4.3341    90
 4.3441    75
 4.3541    90
 4.3641    81
 4.3741   112
 4.3841    95
 4.3941   113
 4.4041   117
 4.4141   148
 4.4241   153
 4.4341   185
 4.4441   197
 4.4541   206
 4.4641   236
 4.4741   250
 4.4841   269
 4.4941   302
 4.5041   295
 4.5141   285
 4.5241   268
 4.5341   256
 4.5441   233
 4.5541   205
 4.5641   194
 4.5741   164
 4.5841   152
 4.5941   147
 4.6041   113
 4.6141   108
 4.6241   121
 4.6341   143
 4.6441   100
 4.6541    95
 4.6641   105
 4.6741    93
 4.6841    92
 4.6941   110
 4.7041   102
 4.7141   108
 4.7241    94
 4.7341    98
 4.7441   106
 4.7541   115
 4.7641    99
 4.7741    98
 4.7841   105
 4.7941   110
 4.8041   119
 4.8141   136
 4.8241   121
 4.8341   136
 4.8441   138
 4.8541   117
 4.8641   135
 4.8741   142
 4.8841   138
 4.8941   143
 4.9041   134
 4.9141   141
 4.9241   134
 4.9341   145
 4.9441   153
 4.9541   135
 4.9641   133
 4.9741   131
 4.9841   148
 4.9941   109
 5.0041   120
 5.0141   118
 5.0241   108
 5.0341   113
 5.0441   113
 5.0541    94
 5.0641   108
 5.0741    94
 5.0841    91
 5.0941    85
 5.1041   100
 5.1141   100
 5.1241   102
 5.1341   102
 5.1441   101
 5.1541   126
 5.1641   124
 5.1741   108
 5.1841   100
 5.1941    97
 5.2041   107
 5.2141   116
 5.2241   116
 5.2341   122
 5.2441    87
 5.2541   106
 5.2641   104
 5.2741   110
 5.2841   102
 5.2941    90
 5.3041    95
 5.3141    95
 5.3241    95
 5.3341    94
 5.3441   115
 5.3541   136
 5.3641   145
 5.3741   118
 5.3841   124
 5.3941   118
 5.4041   127
 5.4141   105
 5.4241   137
 5.4341   142
 5.4441   133
 5.4541   117
 5.4641   131
 5.4741   103
 5.4841   118
 5.4941   117
 5.5041   109
 5.5141   108
 5.5241   116
 5.5341   122
 5.5441   111
 5.5541   104
 5.5641   110
 5.5741   110
 5.5841    95
 5.5941   109
 5.6041   123
 5.6141   107
 5.6241   100
 5.6341    90
 5.6441   111
 5.6541   125
 5.6641    98
 5.6741   109
 5.6841   110
 5.6941   117
 5.7041   110
 5.7141   110
 5.7241   115
 5.7341   136
 5.7441   145
 5.7541   153
 5.7641   185
 5.7741   209
 5.7841   223
 5.7941   277
 5.8041   309
 5.8141   376
 5.8241   414
 5.8341   493
 5.8441   585
 5.8541   580
 5.8641   681
 5.8741   711
 5.8841   796
 5.8941   772
 5.9041   788
 5.9141   752
 5.9241   653
 5.9341   721
 5.9441   593
 5.9541   482
 5.9641   421
 5.9741   362
 5.9841   323
 5.9941   289
 6.0041   222
 6.0141   185
 6.0241   172
 6.0341   190
 6.0441   169
 6.0541   143
 6.0641   142
 6.0741   127
 6.0841   147
 6.0941   151
 6.1041   152
 6.1141   152
 6.1241   169
 6.1341   164
 6.1441   181
 6.1541   191
 6.1641   184
 6.1741   205
 6.1841   241
 6.1941   268
 6.2041   346
 6.2141   426
 6.2241   587
 6.2341   851
 6.2441  1149
 6.2541  1586
 6.2641  2157
 6.2741  3059
 6.2841  4127
 6.2941  5515
 6.3041  7006
 6.3141  8843
 6.3241 11012
 6.3341 13305
 6.3441 15513
 6.3541 17717
 6.3641 19843
 6.3741 21504
 6.3841 22807
 6.3941 23349
 6.4041 23346
 6.4141 22855
 6.4241 21286
 6.4341 19687
 6.4441 17607
 6.4541 15380
 6.4641 12937
 6.4741 10684
 6.4841  8656
 6.4941  6736
 6.5041  5148
 6.5141  3886
 6.5241  2875
 6.5341  2070
 6.5441  1466
 6.5541  1044
 6.5641   732
 6.5741   553
 6.5841   389
 6.5941   309
 6.6041   255
 6.6141   245
 6.6241   192
 6.6341   168
 6.6441   162
 6.6541   183
 6.6641   169
 6.6741   159
 6.6841   165
 6.6941   177
 6.7041   173
 6.7141   189
 6.7241   174
 6.7341   174
 6.7441   200
 6.7541   190
 6.7641   200
 6.7741   181
 6.7841   176
 6.7941   206
 6.8041   207
 6.8141   208
 6.8241   240
 6.8341   234
 6.8441   238
 6.8541   272
 6.8641   305
 6.8741   336
 6.8841   365
 6.8941   420
 6.9041   526
 6.9141   599
 6.9241   712
 6.9341   941
 6.9441  1102
 6.9541  1353
 6.9641  1571
 6.9741  1875
 6.9841  2279
 6.9941  2559
 7.0041  2935
 7.0141  3366
 7.0241  3413
 7.0341  3676
 7.0441  3861
 7.0541  3974
 7.0641  3915
 7.0741  3785
 7.0841  3520
 7.0941  3240
 7.1041  2951
 7.1141  2509
 7.1241  2147
 7.1341  1924
 7.1441  1546
 7.1541  1302
 7.1641  1044
 7.1741   841
 7.1841   655
 7.1941   537
 7.2041   427
 7.2141   394
 7.2241   300
 7.2341   250
 7.2441   232
 7.2541   223
 7.2641   236
 7.2741   228
 7.2841   207
 7.2941   229
 7.3041   238
 7.3141   237
 7.3241   246
 7.3341   270
 7.3441   260
 7.3541   229
 7.3641   275
 7.3741   282
 7.3841   318
 7.3941   310
 7.4041   292
 7.4141   299
 7.4241   281
 7.4341   318
 7.4441   232
 7.4541   255
 7.4641   261
 7.4741   250
 7.4841   243
 7.4941   220
 7.5041   228
 7.5141   215
 7.5241   206
 7.5341   207
 7.5441   227
 7.5541   197
 7.5641   189
 7.5741   217
 7.5841   193
 7.5941   200
 7.6041   199
 7.6141   221
 7.6241   189
 7.6341   211
 7.6441   197
 7.6541   224
 7.6641   215
 7.6741   203
 7.6841   214
 7.6941   224
 7.7041   233
 7.7141   229
 7.7241   235
 7.7341   224
 7.7441   229
 7.7541   248
 7.7641   221
 7.7741   255
 7.7841   257
 7.7941   273
 7.8041   256
 7.8141   264
 7.8241   246
 7.8341   269
 7.8441   290
 7.8541   285
 7.8641   279
 7.8741   325
 7.8841   352
 7.8941   348
 7.9041   328
 7.9141   363
 7.9241   386
 7.9341   370
 7.9441   427
 7.9541   438
 7.9641   474
 7.9741   499
 7.9841   508
 7.9941   564
 8.0041   603
 8.0141   618
 8.0241   662
 8.0341   757
 8.0441   821
 8.0541   850
 8.0641   874
 8.0741   994
 8.0841  1000
 8.0941  1088
 8.1041  1127
 8.1141  1087
 8.1241  1227
 8.1341  1251
 8.1441  1281
 8.1541  1379
 8.1641  1463
 8.1741  1452
 8.1841  1434
 8.1941  1512
 8.2041  1552
 8.2141  1576
 8.2241  1596
 8.2341  1632
 8.2441  1638
 8.2541  1629
 8.2641  1754
 8.2741  1852
 8.2841  1863
 8.2941  2029
 8.3041  2160
 8.3141  2303
 8.3241  2484
 8.3341  2615
 8.3441  2893
 8.3541  2950
 8.3641  3050
 8.3741  3085
 8.3841  3207
 8.3941  3064
 8.4041  3004
 8.4141  2860
 8.4241  2728
 8.4341  2593
 8.4441  2504
 8.4541  2105
 8.4641  1932
 8.4741  1676
 8.4841  1425
 8.4941  1246
 8.5041  1049
 8.5141   874
 8.5241   734
 8.5341   605
 8.5441   537
 8.5541   480
 8.5641   455
 8.5741   408
 8.5841   355
 8.5941   319
 8.6041   318
 8.6141   368
 8.6241   349
 8.6341   353
 8.6441   366
 8.6541   368
 8.6641   373
 8.6741   386
 8.6841   378
 8.6941   384
 8.7041   380
 8.7141   348
 8.7241   348
 8.7341   368
 8.7441   367
 8.7541   353
 8.7641   356
 8.7741   330
 8.7841   319
 8.7941   370
 8.8041   349
 8.8141   340
 8.8241   338
 8.8341   326
 8.8441   315
 8.8541   313
 8.8641   353
 8.8741   331
 8.8841   327
 8.8941   335
 8.9041   312
 8.9141   329
 8.9241   321
 8.9341   346
 8.9441   366
 8.9541   360
 8.9641   385
 8.9741   354
 8.9841   352
 8.9941   382
 9.0041   385
 9.0141   369
 9.0241   376
 9.0341   407
 9.0441   413
 9.0541   431
 9.0641   428
 9.0741   475
 9.0841   501
 9.0941   482
 9.1041   490
 9.1141   542
 9.1241   535
 9.1341   569
 9.1441   620
 9.1541   649
 9.1641   647
 9.1741   673
 9.1841   707
 9.1941   772
 9.2041   747
 9.2141   799
 9.2241   833
 9.2341   877
 9.2441   899
 9.2541   946
 9.2641   998
 9.2741  1030
 9.2841  1054
 9.2941  1113
 9.3041  1155
 9.3141  1164
 9.3241  1252
 9.3341  1313
 9.3441  1267
 9.3541  1297
 9.3641  1350
 9.3741  1413
 9.3841  1396
 9.3941  1435
 9.4041  1477
 9.4141  1540
 9.4241  1494
 9.4341  1492
 9.4441  1554
 9.4541  1542
 9.4641  1559
 9.4741  1718
 9.4841  1636
 9.4941  1640
 9.5041  1745
 9.5141  1734
 9.5241  1883
 9.5341  1940
 9.5441  1956
 9.5541  2015
 9.5641  2181
 9.5741  2397
 9.5841  2485
 9.5941  2686
 9.6041  2853
 9.6141  2948
 9.6241  3065
 9.6341  3151
 9.6441  3272
 9.6541  3421
 9.6641  3425
 9.6741  3405
 9.6841  3386
 9.6941  3276
 9.7041  3118
 9.7141  3009
 9.7241  2926
 9.7341  2628
 9.7441  2372
 9.7541  2191
 9.7641  2044
 9.7741  1901
 9.7841  1713
 9.7941  1632
 9.8041  1509
 9.8141  1471
 9.8241  1508
 9.8341  1452
 9.8441  1403
 9.8541  1445
 9.8641  1463
 9.8741  1516
 9.8841  1557
 9.8941  1575
 9.9041  1656
 9.9141  1693
 9.9241  1776
 9.9341  1799
 9.9441  1757
 9.9541  1814
 9.9641  1755
 9.9741  1710
 9.9841  1649
 9.9941  1566
10.0041  1476
10.0141  1344
10.0241  1198
10.0341  1096
10.0441   974
10.0541   861
10.0641   784
10.0741   704
10.0841   615
10.0941   522
10.1041   467
10.1141   442
10.1241   387
10.1341   348
10.1441   328
10.1541   312
10.1641   307
10.1741   261
10.1841   267
10.1941   249
10.2041   237
10.2141   238
10.2241   237
10.2341   236
10.2441   229
10.2541   215
10.2641   212
10.2741   205
10.2841   206
10.2941   200
10.3041   198
10.3141   199
10.3241   186
10.3341   198
10.3441   192
10.3541   192
10.3641   208
10.3741   212
10.3841   199
10.3941   206
10.4041   187
10.4141   198
10.4241   216
10.4341   210
10.4441   197
10.4541   233
10.4641   212
10.4741   203
10.4841   203
10.4941   209
10.5041   229
10.5141   235
10.5241   232
10.5341   240
10.5441   225
10.5541   218
10.5641   226
10.5741   229
10.5841   221
10.5941   215
10.6041   232
10.6141   229
10.6241   228
10.6341   248
10.6441   232
10.6541   232
10.6641   214
10.6741   226
10.6841   250
10.6941   219
10.7041   237
10.7141   229
10.7241   241
10.7341   245
10.7441   250
10.7541   260
10.7641   243
10.7741   257
10.7841   278
10.7941   273
10.8041   270
10.8141   300
10.8241   303
10.8341   276
10.8441   286
10.8541   308
10.8641   329
10.8741   309
10.8841   304
10.8941   319
10.9041   317
10.9141   307
10.9241   294
10.9341   293
10.9441   300
10.9541   324
10.9641   296
10.9741   312
10.9841   326
10.9941   315
11.0041   303
11.0141   288
11.0241   291
11.0341   311
11.0441   293
11.0541   274
11.0641   273
11.0741   287
11.0841   300
11.0941   281
11.1041   296
11.1141   321
11.1241   312
11.1341   290
11.1441   292
11.1541   317
11.1641   308
11.1741   331
11.1841   333
11.1941   384
11.2041   418
11.2141   434
11.2241   443
11.2341   492
11.2441   485
11.2541   483
11.2641   465
11.2741   496
11.2841   504
11.2941   500
11.3041   468
11.3141   449
11.3241   435
11.3341   443
11.3441   403
11.3541   391
11.3641   363
11.3741   332
11.3841   355
11.3941   325
11.4041   297
11.4141   283
11.4241   262
11.4341   252
11.4441   245
11.4541   235
11.4641   258
11.4741   242
11.4841   228
11.4941   232
11.5041   218
11.5141   240
11.5241   247
11.5341   224
11.5441   225
11.5541   226
11.5641   243
11.5741   245
11.5841   236
11.5941   237
11.6041   244
11.6141   222
11.6241   232
11.6341   243
11.6441   236
11.6541   240
11.6641   236
11.6741   247
11.6841   226
11.6941   223
11.7041   231
11.7141   219
11.7241   220
11.7341   210
11.7441   194
11.7541   205
11.7641   181
11.7741   168
11.7841   156
11.7941   157
11.8041   166
11.8141   154
11.8241   156
11.8341   162
11.8441   157
11.8541   164
11.8641   179
11.8741   178
11.8841   163
11.8941   167
11.9041   155
11.9141   155
11.9241   172
11.9341   174
11.9441   164
11.9541   171
11.9641   186
11.9741   171
11.9841   169
11.9941   178
12.0041   188
12.0141   180
12.0241   168
12.0341   186
12.0441   187
12.0541   161
12.0641   174
12.0741   199
12.0841   183
12.0941   173
12.1041   181
12.1141   180
12.1241   175
12.1341   167
12.1441   191
12.1541   187
12.1641   169
12.1741   181
12.1841   176
12.1941   172
12.2041   162
12.2141   171
12.2241   176
12.2341   167
12.2441   165
12.2541   161
12.2641   167
12.2741   178
12.2841   169
12.2941   177
12.3041   179
12.3141   163
12.3241   164
12.3341   164
12.3441   181
12.3541   183
12.3641   162
12.3741   176
12.3841   167
12.3941   152
12.4041   172
12.4141   189
12.4241   165
12.4341   167
12.4441   173
12.4541   168
12.4641   168
12.4741   166
12.4841   178
12.4941   166
12.5041   151
12.5141   175
12.5241   173
12.5341   182
12.5441   187
12.5541   198
12.5641   189
12.5741   176
12.5841   170
12.5941   176
12.6041   200
12.6141   200
12.6241   194
12.6341   193
12.6441   209
12.6541   202
12.6641   213
12.6741   209
12.6841   180
12.6941   179
12.7041   195
12.7141   188
12.7241   175
12.7341   181
12.7441   183
12.7541   183
12.7641   188
12.7741   188
12.7841   188
12.7941   190
12.8041   194
12.8141   202
12.8241   206
12.8341   199
12.8441   186
12.8541   175
12.8641   169
12.8741   175
12.8841   187
12.8941   194
12.9041   198
12.9141   190
12.9241   189
12.9341   192
12.9441   191
12.9541   190
12.9641   209
12.9741   213
12.9841   208
12.9941   196
13.0041   195
13.0141   189
13.0241   190
13.0341   205
13.0441   189
13.0541   177
13.0641   180
13.0741   183
13.0841   185
13.0941   187
13.1041   186
13.1141   192
13.1241   209
13.1341   212
13.1441   221
13.1541   214
13.1641   203
13.1741   211
13.1841   227
13.1941   224
13.2041   231
13.2141   234
13.2241   247
13.2341   261
13.2441   266
13.2541   276
13.2641   321
13.2741   328
13.2841   338
13.2941   364
13.3041   377
13.3141   388
13.3241   392
13.3341   431
13.3441   449
13.3541   428
13.3641   440
13.3741   470
13.3841   473
13.3941   441
13.4041   412
13.4141   412
13.4241   431
13.4341   432
13.4441   411
13.4541   368
13.4641   340
13.4741   331
13.4841   327
13.4941   323
13.5041   320
13.5141   297
13.5241   289
13.5341   279
13.5441   254
13.5541   249
13.5641   258
13.5741   260
13.5841   233
13.5941   217
13.6041   232
13.6141   235
13.6241   231
13.6341   235
13.6441   233
13.6541   230
13.6641   224
13.6741   218
13.6841   221
13.6941   242
13.7041   234
13.7141   213
13.7241   235
13.7341   248
13.7441   234
13.7541   231
13.7641   227
13.7741   236
13.7841   246
13.7941   235
13.8041   233
13.8141   241
13.8241   240
13.8341   236
13.8441   247
13.8541   250
13.8641   256
13.8741   267
13.8841   264
13.8941   248
13.9041   267
13.9141   291
13.9241   271
13.9341   274
13.9441   292
13.9541   300
13.9641   306
13.9741   311
13.9841   343
13.9941   370
14.0041   417
14.0141   451
14.0241   464
14.0341   485
14.0441   500
14.0541   565
14.0641   604
14.0741   629
14.0841   678
14.0941   688
14.1041   720
14.1141   747
14.1241   742
14.1341   769
14.1441   777
14.1541   783
14.1641   779
14.1741   754
14.1841   726
14.1941   711
14.2041   683
14.2141   646
14.2241   628
14.2341   580
14.2441   519
14.2541   505
14.2641   508
14.2741   469
14.2841   437
14.2941   403
14.3041   384
14.3141   375
14.3241   348
14.3341   321
14.3441   323
14.3541   309
14.3641   287
14.3741   283
14.3841   264
14.3941   255
14.4041   273
14.4141   280
14.4241   292
14.4341   290
14.4441   255
14.4541   272
14.4641   301
14.4741   275
14.4841   259
14.4941   285
14.5041   288
14.5141   268
14.5241   276
14.5341   277
14.5441   269
14.5541   266
14.5641   262
14.5741   272
14.5841   261
14.5941   258
14.6041   277
14.6141   279
14.6241   277
14.6341   289
14.6441   289
14.6541   282
14.6641   280
14.6741   265
14.6841   258
14.6941   286
14.7041   297
14.7141   287
14.7241   284
14.7341   298
14.7441   300
14.7541   282
14.7641   273
14.7741   277
14.7841   282
14.7941   290
14.8041   306
14.8141   318
14.8241   323
14.8341   298
14.8441   300
14.8541   315
14.8641   321
14.8741   338
14.8841   333
14.8941   346
14.9041   356
14.9141   357
14.9241   363
14.9341   372
14.9441   351
14.9541   352
14.9641   350
14.9741   338
14.9841   346
14.9941   337
15.0041   348
15.0141   348
15.0241   344
15.0341   343
15.0441   337
15.0541   331
15.0641   331
15.0741   323
15.0841   323
15.0941   332
15.1041   330
15.1141   317
15.1241   328
15.1341   339
15.1441   325
15.1541   305
15.1641   326
15.1741   325
15.1841   314
15.1941   321
15.2041   309
15.2141   313
15.2241   319
15.2341   324
15.2441   312
15.2541   297
15.2641   308
15.2741   318
15.2841   299
15.2941   291
15.3041   315
15.3141   339
15.3241   326
15.3341   318
15.3441   323
15.3541   318
15.3641   318
15.3741   336
15.3841   324
15.3941   316
15.4041   312
15.4141   321
15.4241   320
15.4341   326
15.4441   341
15.4541   333
15.4641   331
15.4741   334
15.4841   314
15.4941   316
15.5041   341
15.5141   340
15.5241   348
15.5341   347
15.5441   338
15.5541   336
15.5641   355
15.5741   362
15.5841   355
15.5941   364
15.6041   369
15.6141   353
15.6241   375
15.6341   401
15.6441   399
15.6541   391
15.6641   413
15.6741   431
15.6841   434
15.6941   454
15.7041   454
15.7141   448
15.7241   486
15.7341   504
15.7441   497
15.7541   495
15.7641   498
15.7741   489
15.7841   480
15.7941   485
15.8041   528
15.8141   519
15.8241   490
15.8341   495
15.8441   472
15.8541   476
15.8641   495
15.8741   490
15.8841   471
15.8941   462
15.9041   444
15.9141   443
15.9241   445
15.9341   432
15.9441   413
15.9541   399
15.9641   382
15.9741   384
15.9841   394
15.9941   398
16.0041   375
16.0141   366
16.0241   370
16.0341   389
16.0441   424
16.0541   391
16.0641   351
16.0741   377
16.0841   390
16.0941   376
16.1041   363
16.1141   387
16.1241   397
16.1341   387
16.1441   393
16.1541   393
16.1641   382
16.1741   376
16.1841   387
16.1941   386
16.2041   392
16.2141   398
16.2241   389
16.2341   373
16.2441   414
16.2541   392
16.2641   390
16.2741   383
16.2841   385
16.2941   381
16.3041   370
16.3141   367
16.3241   369
16.3341   371
16.3441   398
16.3541   401
16.3641   402
16.3741   393
16.3841   406
16.3941   395
16.4041   373
16.4141   375
16.4241   378
16.4341   385
16.4441   387
16.4541   376
16.4641   392
16.4741   400
16.4841   400
16.4941   395
16.5041   378
16.5141   405
16.5241   412
16.5341   386
16.5441   405
16.5541   402
16.5641   417
16.5741   413
16.5841   426
16.5941   427
16.6041   412
16.6141   389
16.6241   393
16.6341   394
16.6441   401
16.6541   441
16.6641   413
16.6741   420
16.6841   445
16.6941   426
16.7041   417
16.7141   425
16.7241   423
16.7341   431
16.7441   430
16.7541   421
16.7641   455
16.7741   450
16.7841   435
16.7941   440
16.8041   441
16.8141   413
16.8241   422
16.8341   432
16.8441   425
16.8541   423
16.8641   424
16.8741   409
16.8841   414
16.8941   443
16.9041   446
16.9141   446
16.9241   425
16.9341   428
16.9441   422
16.9541   430
16.9641   447
16.9741   420
16.9841   409
16.9941   424
17.0041   452
17.0141   426
17.0241   434
17.0341   468
17.0441   439
17.0541   443
17.0641   457
17.0741   455
17.0841   449
17.0941   441
17.1041   456
17.1141   449
17.1241   435
17.1341   427
17.1441   429
17.1541   432
17.1641   441
17.1741   445
17.1841   464
17.1941   458
17.2041   429
17.2141   438
17.2241   434
17.2341   425
17.2441   426
17.2541   419
17.2641   441
17.2741   448
17.2841   461
17.2941   465
17.3041   472
17.3141   443
17.3241   465
17.3341   454
17.3441   442
17.3541   456
17.3641   462
17.3741   481
17.3841   463
17.3941   433
17.4041   459
17.4141   469
17.4241   470
17.4341   453
17.4441   484
17.4541   483
17.4641   470
17.4741   479
17.4841   464
17.4941   458
17.5041   462
17.5141   485
17.5241   462
17.5341   467
17.5441   483
17.5541   480
17.5641   481
17.5741   512
17.5841   521
17.5941   491
17.6041   485
17.6141   480
17.6241   490
17.6341   464
17.6441   490
17.6541   482
17.6641   485
17.6741   517
17.6841   482
17.6941   505
17.7041   533
17.7141   490
17.7241   503
17.7341   513
17.7441   502
17.7541   511
17.7641   488
17.7741   510
17.7841   509
17.7941   505
17.8041   495
17.8141   497
17.8241   508
17.8341   490
17.8441   477
17.8541   485
17.8641   513
17.8741   515
17.8841   513
17.8941   498
17.9041   519
17.9141   533
17.9241   546
17.9341   529
17.9441   500
17.9541   514
17.9641   536
17.9741   522
17.9841   503
17.9941   507
18.0041   511
18.0141   490
18.0241   490
18.0341   517
18.0441   541
18.0541   509
18.0641   499
18.0741   518
18.0841   512
18.0941   527
18.1041   536
18.1141   513
18.1241   551
18.1341   569
18.1441   526
18.1541   537
18.1641   526
18.1741   545
18.1841   542
18.1941   518
18.2041   515
18.2141   491
18.2241   486
18.2341   515
18.2441   513
18.2541   509
18.2641   512
18.2741   506
18.2841   512
18.2941   532
18.3041   502
18.3141   535
18.3241   520
18.3341   522
18.3441   522
18.3541   538
18.3641   490
18.3741   492
18.3841   539
18.3941   568
18.4041   512
18.4141   505
18.4241   523
18.4341   563
18.4441   566
18.4541   560
18.4641   563
18.4741   587
18.4841   552
18.4941   527
18.5041   543
18.5141   571
18.5241   566
18.5341   537
18.5441   558
18.5541   549
18.5641   550
18.5741   558
18.5841   567
18.5941   580
18.6041   554
18.6141   552
18.6241   562
18.6341   505
18.6441   540
18.6541   558
18.6641   557
18.6741   558
18.6841   549
18.6941   570
18.7041   532
18.7141   535
18.7241   552
18.7341   578
18.7441   595
18.7541   579
18.7641   569
18.7741   559
18.7841   538
18.7941   539
18.8041   546
18.8141   572
18.8241   550
18.8341   534
18.8441   559
18.8541   566
18.8641   585
18.8741   573
18.8841   561
18.8941   591
18.9041   605
18.9141   554
18.9241   568
18.9341   542
18.9441   587
18.9541   605
18.9641   569
18.9741   555
18.9841   564
18.9941   587
19.0041   558
19.0141   553
19.0241   548
19.0341   573
19.0441   571
19.0541   610
19.0641   583
19.0741   547
19.0841   576
19.0941   568
19.1041   580
19.1141   604
19.1241   556
19.1341   576
19.1441   592
19.1541   605
19.1641   562
19.1741   569
19.1841   588
19.1941   563
19.2041   586
19.2141   574
19.2241   569
19.2341   572
19.2441   550
19.2541   561
19.2641   575
19.2741   566
19.2841   599
19.2941   559
19.3041   583
19.3141   579
19.3241   634
19.3341   586
19.3441   593
19.3541   566
19.3641   546
19.3741   593
19.3841   596
19.3941   577
19.4041   601
19.4141   588
19.4241   604
19.4341   580
19.4441   577
19.4541   593
19.4641   589
19.4741   599
19.4841   614
19.4941   616
19.5041   605
19.5141   570
19.5241   604
19.5341   585
19.5441   574
19.5541   594
19.5641   611
19.5741   611
19.5841   593
19.5941   579
19.6041   602
19.6141   618
19.6241   612
19.6341   604
19.6441   605
19.6541   564
19.6641   617
19.6741   624
19.6841   597
19.6941   610
19.7041   619
19.7141   595
19.7241   590
19.7341   586
19.7441   616
19.7541   591
19.7641   601
19.7741   613
19.7841   591
19.7941   581
19.8041   571
19.8141   624
19.8241   610
19.8341   609
19.8441   633
19.8541   595
19.8641   567
19.8741   573
19.8841   619
19.8941   577
19.9041   606
19.9141   608
19.9241   612
19.9341   643
19.9441   633
19.9541   613
19.9641   612
19.9741   623
19.9841   579
19.9941   594
20.0041   624
20.0141   609
20.0241   594
20.0341   609
20.0441   631
20.0541   656
20.0641   628
20.0741   612
20.0841   598
20.0941   618
20.1041   602
20.1141   632
20.1241   593
20.1341   617
20.1441   609
20.1541   628
20.1641   620
20.1741   646
20.1841   654
20.1941   627
20.2041   602
20.2141   622
20.2241   611
20.2341   577
20.2441   629
20.2541   621
20.2641   609
20.2741   644
20.2841   656
20.2941   629
20.3041   591
20.3141   601
20.3241   589
20.3341   613
20.3441   632
20.3541   650
20.3641   585
20.3741   664
20.3841   648
20.3941   637
20.4041   634
20.4141   617
20.4241   646
20.4341   660
20.4441   607
20.4541   634
20.4641   647
20.4741   641
20.4841   639
20.4941   650
20.5041   651
20.5141   636
20.5241   588
20.5341   618
20.5441   650
20.5541   621
20.5641   631
20.5741   607
20.5841   626
20.5941   639
20.6041   637
20.6141   656
20.6241   646
20.6341   654
20.6441   597
20.6541   658
20.6641   629
20.6741   605
20.6841   645
20.6941   613
20.7041   651
20.7141   595
20.7241   639
20.7341   620
20.7441   654
20.7541   654
20.7641   620
20.7741   641
20.7841   631
20.7941   675
20.8041   662
20.8141   668
20.8241   667
20.8341   707
20.8441   682
20.8541   702
20.8641   728
20.8741   720
20.8841   725
20.8941   768
20.9041   748
20.9141   721
20.9241   730
20.9341   802
20.9441   799
20.9541   815
20.9641   855
20.9741   846
20.9841   859
20.9941   868
21.0041   828
21.0141   928
21.0241   918
21.0341   915
21.0441   880
21.0541   934
21.0641   936
21.0741   965
21.0841   927
21.0941  1003
21.1041   955
21.1141   975
21.1241   948
21.1341   999
21.1441  1028
21.1541  1010
21.1641   952
21.1741   915
21.1841   893
21.1941   937
21.2041   939
21.2141   942
21.2241   899
21.2341   910
21.2441   906
21.2541   823
21.2641   850
21.2741   827
21.2841   852
21.2941   821
21.3041   767
21.3141   756
21.3241   708
21.3341   706
21.3441   751
21.3541   697
21.3641   680
21.3741   729
21.3841   655
21.3941   685
21.4041   709
21.4141   699
21.4241   681
21.4341   677
21.4441   709
21.4541   649
21.4641   615
21.4741   637
21.4841   686
21.4941   619
21.5041   689
21.5141   660
21.5241   651
21.5341   682
21.5441   673
21.5541   675
21.5641   626
21.5741   698
21.5841   645
21.5941   666
21.6041   647
21.6141   667
21.6241   689
21.6341   646
21.6441   634
21.6541   671
21.6641   643
21.6741   633
21.6841   626
21.6941   658
21.7041   642
21.7141   633
21.7241   637
21.7341   631
21.7441   679
21.7541   669
21.7641   654
21.7741   679
21.7841   669
21.7941   643
21.8041   651
21.8141   657
21.8241   690
21.8341   668
21.8441   661
21.8541   629
21.8641   691
21.8741   618
21.8841   612
21.8941   663
21.9041   736
21.9141   654
21.9241   631
21.9341   643
21.9441   646
21.9541   669
21.9641   640
21.9741   635
21.9841   650
21.9941   670
22.0041   630
22.0141   651
22.0241   666
22.0341   687
22.0441   639
22.0541   641
22.0641   622
22.0741   675
22.0841   633
22.0941   679
22.1041   652
22.1141   674
22.1241   644
22.1341   652
22.1441   684
22.1541   690
22.1641   629
22.1741   631
22.1841   670
22.1941   651
22.2041   670
22.2141   635
22.2241   668
22.2341   656
22.2441   611
22.2541   642
22.2641   635
22.2741   660
22.2841   632
22.2941   641
22.3041   655
22.3141   631
22.3241   671
22.3341   637
22.3441   669
22.3541   643
22.3641   657
22.3741   622
22.3841   654
22.3941   657
22.4041   656
22.4141   652
22.4241   653
22.4341   644
22.4441   663
22.4541   649
22.4641   660
22.4741   638
22.4841   637
22.4941   658
22.5041   663
22.5141   658
22.5241   657
22.5341   670
22.5441   588
22.5541   636
22.5641   624
22.5741   666
22.5841   655
22.5941   642
22.6041   662
22.6141   634
22.6241   632
22.6341   598
22.6441   693
22.6541   632
22.6641   695
22.6741   699
22.6841   626
22.6941   626
22.7041   637
22.7141   659
22.7241   596
22.7341   608
22.7441   621
22.7541   654
22.7641   628
22.7741   626
22.7841   636
22.7941   662
22.8041   613
22.8141   616
22.8241   627
22.8341   627
22.8441   590
22.8541   648
22.8641   665
22.8741   628
22.8841   657
22.8941   647
22.9041   620
22.9141   661
22.9241   699
22.9341   655
22.9441   677
22.9541   697
22.9641   645
22.9741   662
22.9841   650
22.9941   668
23.0041   661
23.0141   686
23.0241   626
23.0341   651
23.0441   659
23.0541   675
23.0641   643
23.0741   631
23.0841   635
23.0941   624
23.1041   688
23.1141   618
23.1241   644
23.1341   651
23.1441   660
23.1541   549
23.1641   582
23.1741   681
23.1841   631
23.1941   657
23.2041   628
23.2141   644
23.2241   637
23.2341   642
23.2441   605
23.2541   608
23.2641   656
23.2741   647
23.2841   646
23.2941   586
23.3041   630
23.3141   607
23.3241   615
23.3341   640
23.3441   651
23.3541   667
23.3641   639
23.3741   650
23.3841   655
23.3941   614
23.4041   636
23.4141   640
23.4241   579
23.4341   636
23.4441   593
23.4541   632
23.4641   659
23.4741   609
23.4841   624
23.4941   642
23.5041   598
23.5141   613
23.5241   631
23.5341   647
23.5441   682
23.5541   643
23.5641   627
23.5741   625
23.5841   669
23.5941   618
23.6041   623
23.6141   664
23.6241   688
23.6341   635
23.6441   682
23.6541   637
23.6641   650
23.6741   674
23.6841   641
23.6941   647
23.7041   711
23.7141   644
23.7241   650
23.7341   685
23.7441   640
23.7541   656
23.7641   682
23.7741   706
23.7841   677
23.7941   643
23.8041   669
23.8141   696
23.8241   633
23.8341   693
23.8441   626
23.8541   669
23.8641   665
23.8741   665
23.8841   659
23.8941   729
23.9041   629
23.9141   666
23.9241   667
23.9341   666
23.9441   618
23.9541   663
23.9641   630
23.9741   688
23.9841   625
23.9941   650
24.0041   642
24.0141   633
24.0241   625
24.0341   638
24.0441   622
24.0541   619
24.0641   620
24.0741   628
24.0841   660
24.0941   635
24.1041   623
24.1141   635
24.1241   601
24.1341   631
24.1441   647
24.1541   609
24.1641   682
24.1741   591
24.1841   647
24.1941   615
24.2041   612
24.2141   583
24.2241   621
24.2341   618
24.2441   588
24.2541   607
24.2641   597
24.2741   613
24.2841   621
24.2941   618
24.3041   662
24.3141   615
24.3241   620
24.3341   634
24.3441   633
24.3541   643
24.3641   609
24.3741   639
24.3841   610
24.3941   612
24.4041   646
24.4141   584
24.4241   643
24.4341   640
24.4441   588
24.4541   607
24.4641   645
24.4741   624
24.4841   625
24.4941   585
24.5041   598
24.5141   582
24.5241   618
24.5341   621
24.5441   624
24.5541   615
24.5641   566
24.5741   620
24.5841   616
24.5941   611
24.6041   614
24.6141   624
24.6241   630
24.6341   589
24.6441   571
24.6541   613
24.6641   570
24.6741   585
24.6841   562
24.6941   585
24.7041   590
24.7141   616
24.7241   594
24.7341   624
24.7441   595
24.7541   582
24.7641   599
24.7741   563
24.7841   583
24.7941   625
24.8041   636
24.8141   560
24.8241   630
24.8341   631
24.8441   603
24.8541   586
24.8641   592
24.8741   550
24.8841   555
24.8941   577
24.9041   536
24.9141   604
24.9241   617
24.9341   621
24.9441   593
24.9541   584
24.9641   623
24.9741   569
24.9841   558
24.9941   613
25.0041   611
25.0141   612
25.0241   571
25.0341   618
25.0441   557
25.0541   580
25.0641   589
25.0741   607
25.0841   578
25.0941   539
25.1041   585
25.1141   593
25.1241   596
25.1341   597
25.1441   573
25.1541   627
25.1641   597
25.1741   588
25.1841   560
25.1941   588
25.2041   586
25.2141   618
25.2241   622
25.2341   599
25.2441   586
25.2541   560
25.2641   579
25.2741   606
25.2841   596
25.2941   598
25.3041   574
25.3141   632
25.3241   589
25.3341   581
25.3441   581
25.3541   581
25.3641   550
25.3741   541
25.3841   568
25.3941   588
25.4041   587
25.4141   580
25.4241   563
25.4341   536
25.4441   548
25.4541   562
25.4641   551
25.4741   537
25.4841   527
25.4941   571
25.5041   563
25.5141   529
25.5241   551
25.5341   521
25.5441   526
25.5541   545
25.5641   594
25.5741   558
25.5841   544
25.5941   540
25.6041   566
25.6141   565
25.6241   555
25.6341   558
25.6441   518
25.6541   550
25.6641   583
25.6741   554
25.6841   550
25.6941   544
25.7041   517
25.7141   544
25.7241   550
25.7341   516
25.7441   525
25.7541   533
25.7641   541
25.7741   538
25.7841   564
25.7941   564
25.8041   550
25.8141   616
25.8241   590
25.8341   537
25.8441   555
25.8541   546
25.8641   539
25.8741   515
25.8841   528
25.8941   532
25.9041   509
25.9141   544
25.9241   550
25.9341   555
25.9441   536
25.9541   524
25.9641   607
25.9741   525
25.9841   545
25.9941   533
26.0041   524
26.0141   584
26.0241   558
26.0341   530
26.0441   497
26.0541   565
26.0641   540
26.0741   522
26.0841   540
26.0941   541
26.1041   552
26.1141   522
26.1241   542
26.1341   529
26.1441   563
26.1541   515
26.1641   547
26.1741   541
26.1841   521
26.1941   541
26.2041   521
26.2141   528
26.2241   542
26.2341   514
26.2441   525
26.2541   537
26.2641   502
26.2741   501
26.2841   519
26.2941   547
26.3041   594
26.3141   501
26.3241   552
26.3341   500
26.3441   504
26.3541   500
26.3641   519
26.3741   555
26.3841   545
26.3941   486
26.4041   484
26.4141   491
26.4241   525
26.4341   507
26.4441   496
26.4541   513
26.4641   528
26.4741   513
26.4841   510
26.4941   488
26.5041   480
26.5141   529
26.5241   500
26.5341   568
26.5441   554
26.5541   506
26.5641   505
26.5741   497
26.5841   504
26.5941   522
26.6041   551
26.6141   529
26.6241   521
26.6341   527
26.6441   501
26.6541   517
26.6641   477
26.6741   507
26.6841   514
26.6941   519
26.7041   477
26.7141   488
26.7241   540
26.7341   543
26.7441   547
26.7541   497
26.7641   484
26.7741   491
26.7841   504
26.7941   510
26.8041   495
26.8141   499
26.8241   493
26.8341   487
26.8441   479
26.8541   513
26.8641   501
26.8741   475
26.8841   475
26.8941   484
26.9041   498
26.9141   494
26.9241   491
26.9341   524
26.9441   450
26.9541   465
26.9641   462
26.9741   490
26.9841   500
26.9941   524
27.0041   471
27.0141   496
27.0241   478
27.0341   480
27.0441   484
27.0541   515
27.0641   502
27.0741   483
27.0841   484
27.0941   480
27.1041   524
27.1141   462
27.1241   476
27.1341   468
27.1441   458
27.1541   477
27.1641   462
27.1741   475
27.1841   484
27.1941   500
27.2041   492
27.2141   494
27.2241   458
27.2341   502
27.2441   499
27.2541   411
27.2641   522
27.2741   502
27.2841   473
27.2941   497
27.3041   459
27.3141   458
27.3241   469
27.3341   452
27.3441   466
27.3541   470
27.3641   508
27.3741   486
27.3841   473
27.3941   467
27.4041   470
27.4141   473
27.4241   470
27.4341   458
27.4441   487
27.4541   487
27.4641   460
27.4741   483
27.4841   497
27.4941   444
27.5041   471
27.5141   460
27.5241   466
27.5341   464
27.5441   449
27.5541   493
27.5641   447
27.5741   470
27.5841   482
27.5941   477
27.6041   477
27.6141   474
27.6241   485
27.6341   450
27.6441   452
27.6541   469
27.6641   461
27.6741   459
27.6841   475
27.6941   468
27.7041   427
27.7141   426
27.7241   453
27.7341   468
27.7441   455
27.7541   436
27.7641   457
27.7741   440
27.7841   450
27.7941   450
27.8041   458
27.8141   433
27.8241   466
27.8341   442
27.8441   425
27.8541   453
27.8641   454
27.8741   464
27.8841   454
27.8941   439
27.9041   451
27.9141   460
27.9241   458
27.9341   469
27.9441   441
27.9541   419
27.9641   429
27.9741   429
27.9841   438
27.9941   453
28.0041   441
28.0141   405
28.0241   427
28.0341   431
28.0441   439
28.0541   410
28.0641   437
28.0741   440
28.0841   414
28.0941   443
28.1041   440
28.1141   442
28.1241   468
28.1341   458
28.1441   452
28.1541   447
28.1641   456
28.1741   453
28.1841   407
28.1941   437
28.2041   410
28.2141   436
28.2241   450
28.2341   445
28.2441   451
28.2541   430
28.2641   460
28.2741   415
28.2841   424
28.2941   411
28.3041   422
28.3141   394
28.3241   436
28.3341   412
28.3441   432
28.3541   421
28.3641   462
28.3741   411
28.3841   412
28.3941   382
28.4041   396
28.4141   448
28.4241   424
28.4341   419
28.4441   429
28.4541   420
28.4641   424
28.4741   414
28.4841   439
28.4941   393
28.5041   419
28.5141   427
28.5241   435
28.5341   391
28.5441   434
28.5541   414
28.5641   410
28.5741   390
28.5841   394
28.5941   384
28.6041   399
28.6141   402
28.6241   376
28.6341   368
28.6441   409
28.6541   385
28.6641   408
28.6741   416
28.6841   376
28.6941   400
28.7041   372
28.7141   398
28.7241   420
28.7341   387
28.7441   371
28.7541   405
28.7641   389
28.7741   382
28.7841   399
28.7941   390
28.8041   428
28.8141   397
28.8241   415
28.8341   401
28.8441   398
28.8541   397
28.8641   382
28.8741   350
28.8841   380
28.8941   391
28.9041   350
28.9141   406
28.9241   393
28.9341   375
28.9441   414
28.9541   363
28.9641   393
28.9741   348
28.9841   397
28.9941   362
29.0041   382
29.0141   379
29.0241   415
29.0341   377
29.0441   386
29.0541   372
29.0641   405
29.0741   388
29.0841   355
29.0941   381
29.1041   376
29.1141   359
29.1241   375
29.1341   392
29.1441   365
29.1541   382
29.1641   366
29.1741   377
29.1841   386
29.1941   371
29.2041   388
29.2141   375
29.2241   363
29.2341   381
29.2441   373
29.2541   356
29.2641   365
29.2741   376
29.2841   380
29.2941   337
29.3041   354
29.3141   377
29.3241   390
29.3341   390
29.3441   365
29.3541   369
29.3641   349
29.3741   358
29.3841   358
29.3941   370
29.4041   379
29.4141   361
29.4241   344
29.4341   380
29.4441   367
29.4541   372
29.4641   395
29.4741   331
29.4841   309
29.4941   341
29.5041   389
29.5141   378
29.5241   365
29.5341   367
29.5441   350
29.5541   385
29.5641   338
29.5741   353
29.5841   353
29.5941   371
29.6041   390
29.6141   371
29.6241   333
29.6341   335
29.6441   380
29.6541   322
29.6641   365
29.6741   390
29.6841   384
29.6941   345
29.7041   345
29.7141   366
29.7241   358
29.7341   350
29.7441   342
29.7541   345
29.7641   332
29.7741   364
29.7841   349
29.7941   350
29.8041   341
29.8141   379
29.8241   376
29.8341   360
29.8441   360
29.8541   355
29.8641   327
29.8741   358
29.8841   370
29.8941   350
29.9041   364
29.9141   337
29.9241   332
29.9341   347
29.9441   346
29.9541   372
29.9641   338
29.9741   332
29.9841   328
29.9941   340
30.0041   324
30.0141   343
30.0241   320
30.0341   374
30.0441   319
30.0541   348
30.0641   342
30.0741   350
30.0841   320
30.0941   318
30.1041   324
30.1141   359
30.1241   298
30.1341   345
30.1441   319
30.1541   353
30.1641   343
30.1741   354
30.1841   337
30.1941   336
30.2041   342
30.2141   311
30.2241   311
30.2341   329
30.2441   313
30.2541   319
30.2641   339
30.2741   344
30.2841   322
30.2941   329
30.3041   339
30.3141   369
30.3241   325
30.3341   342
30.3441   333
30.3541   320
30.3641   319
30.3741   348
30.3841   341
30.3941   326
30.4041   312
30.4141   315
30.4241   309
30.4341   327
30.4441   308
30.4541   307
30.4641   324
30.4741   334
30.4841   323
30.4941   299
30.5041   328
30.5141   319
30.5241   278
30.5341   309
30.5441   328
30.5541   338
30.5641   328
30.5741   352
30.5841   314
30.5941   314
30.6041   345
30.6141   298
30.6241   294
30.6341   343
30.6441   315
30.6541   331
30.6641   296
30.6741   285
30.6841   294
30.6941   303
30.7041   304
30.7141   295
30.7241   331
30.7341   320
30.7441   323
30.7541   303
30.7641   325
30.7741   296
30.7841   329
30.7941   318
30.8041   291
30.8141   280
30.8241   296
30.8341   315
30.8441   302
30.8541   314
30.8641   312
30.8741   299
30.8841   294
30.8941   286
30.9041   297
30.9141   310
30.9241   306
30.9341   315
30.9441   287
30.9541   291
30.9641   304
30.9741   294
30.9841   289
30.9941   272
31.0041   291
31.0141   304
31.0241   320
31.0341   334
31.0441   289
31.0541   307
31.0641   283
31.0741   294
31.0841   266
31.0941   274
31.1041   299
31.1141   274
31.1241   314
31.1341   258
31.1441   293
31.1541   302
31.1641   289
31.1741   282
31.1841   278
31.1941   289
31.2041   285
31.2141   289
31.2241   297
31.2341   288
31.2441   284
31.2541   277
31.2641   292
31.2741   305
31.2841   287
31.2941   273
31.3041   298
31.3141   250
31.3241   272
31.3341   302
31.3441   245
31.3541   253
31.3641   261
31.3741   281
31.3841   271
31.3941   261
31.4041   287
31.4141   278
31.4241   277
31.4341   285
31.4441   255
31.4541   300
31.4641   269
31.4741   268
31.4841   295
31.4941   276
31.5041   272
31.5141   292
31.5241   286
31.5341   302
31.5441   256
31.5541   282
31.5641   276
31.5741   294
31.5841   281
31.5941   293
31.6041   276
31.6141   284
31.6241   283
31.6341   267
31.6441   274
31.6541   303
31.6641   291
31.6741   280
31.6841   302
31.6941   268
31.7041   288
31.7141   256
31.7241   256
31.7341   290
31.7441   271
31.7541   301
31.7641   254
31.7741   285
31.7841   269
31.7941   315
31.8041   316
31.8141   276
31.8241   276
31.8341   289
31.8441   278
31.8541   284
31.8641   259
31.8741   286
31.8841   268
31.8941   291
31.9041   248
31.9141   255
31.9241   272
31.9341   268
31.9441   298
31.9541   272
31.9641   263
31.9741   279
31.9841   257
31.9941   261
32.0041   293
32.0141   260
32.0241   264
32.0341   263
32.0441   240
32.0541   252
32.0641   277
32.0741   268
32.0841   254
32.0941   262
32.1041   282
32.1141   313
32.1241   289
32.1341   285
32.1441   290
32.1541   284
32.1641   311
32.1741   279
32.1841   293
32.1941   260
32.2041   274
32.2141   289
32.2241   252
32.2341   257
32.2441   246
32.2541   253
32.2641   285
32.2741   278
32.2841   244
32.2941   302
32.3041   280
32.3141   279
32.3241   282
32.3341   283
32.3441   263
32.3541   260
32.3641   236
32.3741   269
32.3841   264
32.3941   237
32.4041   260
32.4141   245
32.4241   234
32.4341   245
32.4441   251
32.4541   239
32.4641   225
32.4741   251
32.4841   250
32.4941   239
32.5041   254
32.5141   244
32.5241   245
32.5341   269
32.5441   208
32.5541   228
32.5641   234
32.5741   216
32.5841   229
32.5941   203
32.6041   217
32.6141   220
32.6241   237
32.6341   234
32.6441   210
32.6541   220
32.6641   207
32.6741   228
32.6841   242
32.6941   206
32.7041   202
32.7141   203
32.7241   242
32.7341   228
32.7441   216
32.7541   245
32.7641   200
32.7741   215
32.7841   229
32.7941   235
32.8041   209
32.8141   189
32.8241   239
32.8341   220
32.8441   222
32.8541   224
32.8641   211
32.8741   212
32.8841   236
32.8941   210
32.9041   200
32.9141   224
32.9241   203
32.9341   216
32.9441   236
32.9541   226
32.9641   225
32.9741   215
32.9841   211
32.9941   212
33.0041   210
33.0141   187
33.0241   220
33.0341   245
33.0441   201
33.0541   206
33.0641   214
33.0741   208
33.0841   221
33.0941   200
33.1041   195
33.1141   201
33.1241   192
33.1341   195
33.1441   190
33.1541   195
33.1641   205
33.1741   209
33.1841   238
33.1941   206
33.2041   196
33.2141   207
33.2241   203
33.2341   188
33.2441   194
33.2541   208
33.2641   213
33.2741   205
33.2841   215
33.2941   221
33.3041   199
33.3141   210
33.3241   202
33.3341   187
33.3441   211
33.3541   210
33.3641   191
33.3741   181
33.3841   183
33.3941   196
33.4041   174
33.4141   200
33.4241   200
33.4341   198
33.4441   191
33.4541   185
33.4641   192
33.4741   212
33.4841   185
33.4941   184
33.5041   198
33.5141   186
33.5241   204
33.5341   177
33.5441   191
33.5541   181
33.5641   203
33.5741   179
33.5841   203
33.5941   183
33.6041   186
33.6141   191
33.6241   193
33.6341   181
33.6441   173
33.6541   187
33.6641   182
33.6741   161
33.6841   175
33.6941   174
33.7041   190
33.7141   182
33.7241   208
33.7341   203
33.7441   160
33.7541   166
33.7641   202
33.7741   200
33.7841   209
33.7941   178
33.8041   190
33.8141   168
33.8241   196
33.8341   184
33.8441   186
33.8541   193
33.8641   183
33.8741   183
33.8841   199
33.8941   197
33.9041   190
33.9141   185
33.9241   163
33.9341   187
33.9441   179
33.9541   174
33.9641   188
33.9741   177
33.9841   177
33.9941   185
34.0041   173
34.0141   171
34.0241   180
34.0341   171
34.0441   174
34.0541   164
34.0641   208
34.0741   180
34.0841   174
34.0941   165
34.1041   180
34.1141   180
34.1241   174
34.1341   165
34.1441   177
34.1541   153
34.1641   192
34.1741   176
34.1841   167
34.1941   155
34.2041   160
34.2141   168
34.2241   162
34.2341   162
34.2441   173
34.2541   165
34.2641   163
34.2741   188
34.2841   174
34.2941   166
34.3041   163
34.3141   153
34.3241   181
34.3341   160
34.3441   151
34.3541   172
34.3641   168
34.3741   168
34.3841   157
34.3941   155
34.4041   147
34.4141   170
34.4241   171
34.4341   163
34.4441   182
34.4541   177
34.4641   169
34.4741   159
34.4841   151
34.4941   150
34.5041   170
34.5141   160
34.5241   153
34.5341   160
34.5441   155
34.5541   170
34.5641   155
34.5741   152
34.5841   170
34.5941   147
34.6041   170
34.6141   154
34.6241   162
34.6341   153
34.6441   143
34.6541   156
34.6641   150
34.6741   142
34.6841   168
34.6941   147
34.7041   149
34.7141   153
34.7241   167
34.7341   150
34.7441   152
34.7541   146
34.7641   147
34.7741   126
34.7841   167
34.7941   172
34.8041   148
34.8141   150
34.8241   142
34.8341   152
34.8441   136
34.8541   135
34.8641   165
34.8741   162
34.8841   136
34.8941   135
34.9041   144
34.9141   143
34.9241   142
34.9341   133
34.9441   161
34.9541   150
34.9641   142
34.9741   160
34.9841   140
34.9941   132
35.0041   169
35.0141   136
35.0241   145
35.0341   164
35.0441   148
35.0541   126
35.0641   158
35.0741   160
35.0841   149
35.0941   139
35.1041   152
35.1141   138
35.1241   149
35.1341   151
35.1441   123
35.1541   139
35.1641   129
35.1741   142
35.1841   122
35.1941   135
35.2041   137
35.2141   125
35.2241   140
35.2341   117
35.2441   155
35.2541   155
35.2641   126
35.2741   133
35.2841   148
35.2941   132
35.3041   137
35.3141   131
35.3241   153
35.3341   120
35.3441   138
35.3541   141
35.3641   139
35.3741   148
35.3841   142
35.3941   150
35.4041   163
35.4141   144
35.4241   136
35.4341   128
35.4441   130
35.4541   142
35.4641   136
35.4741   116
35.4841   124
35.4941   125
35.5041   130
35.5141   131
35.5241   142
35.5341   122
35.5441   132
35.5541   126
35.5641   122
35.5741   135
35.5841   139
35.5941   143
35.6041   125
35.6141   125
35.6241   119
35.6341   128
35.6441   132
35.6541   118
35.6641   112
35.6741   129
35.6841   115
35.6941   120
35.7041   107
35.7141   116
35.7241   136
35.7341   129
35.7441    93
35.7541   126
35.7641   124
35.7741   118
35.7841   127
35.7941   113
35.8041   126
35.8141   126
35.8241   119
35.8341   121
35.8441   130
35.8541   121
35.8641   134
35.8741   115
35.8841   112
35.8941   110
35.9041   112
35.9141   122
35.9241   121
35.9341   122
35.9441   115
35.9541   122
35.9641   131
35.9741   118
35.9841   105
35.9941   127
36.0041   105
36.0141   119
36.0241   130
36.0341   107
36.0441    98
36.0541   140
36.0641   105
36.0741   113
36.0841   115
36.0941   109
36.1041   124
36.1141   122
36.1241   107
36.1341   121
36.1441   108
36.1541   123
36.1641   110
36.1741   104
36.1841   117
36.1941   116
36.2041   108
36.2141   100
36.2241   123
36.2341   117
36.2441   113
36.2541   112
36.2641   123
36.2741   110
36.2841   121
36.2941   116
36.3041    93
36.3141   127
36.3241   119
36.3341   116
36.3441   116
36.3541   105
36.3641   114
36.3741   125
36.3841   105
36.3941    95
36.4041   113
36.4141   103
36.4241   100
36.4341   117
36.4441   120
36.4541   113
36.4641    95
36.4741   123
36.4841   118
36.4941   103
36.5041   108
36.5141    96
36.5241   108
36.5341   104
36.5441   128
36.5541   102
36.5641   113
36.5741   122
36.5841   104
36.5941    94
36.6041    97
36.6141   109
36.6241    96
36.6341    99
36.6441   108
36.6541   108
36.6641   101
36.6741   108
36.6841    95
36.6941    80
36.7041   107
36.7141   100
36.7241    99
36.7341   138
36.7441   105
36.7541   110
36.7641   114
36.7741    99
36.7841    92
36.7941   100
36.8041   100
36.8141    95
36.8241   101
36.8341    94
36.8441    99
36.8541    92
36.8641    96
36.8741    98
36.8841   109
36.8941   102
36.9041    82
36.9141    78
36.9241    77
36.9341   109
36.9441   102
36.9541   100
36.9641   100
36.9741   103
36.9841    92
36.9941   101
37.0041   103
37.0141    96
37.0241    90
37.0341    89
37.0441    85
37.0541    85
37.0641    93
37.0741   102
37.0841    88
37.0941    90
37.1041    92
37.1141   102
37.1241    93
37.1341    86
37.1441    86
37.1541    95
37.1641    88
37.1741    78
37.1841    90
37.1941    93
37.2041    94
37.2141    91
37.2241    86
37.2341    87
37.2441    93
37.2541    92
37.2641    85
37.2741    82
37.2841    90
37.2941   105
37.3041   100
37.3141    75
37.3241    79
37.3341    91
37.3441    87
37.3541   101
37.3641    81
37.3741    76
37.3841    79
37.3941    75
37.4041    87
37.4141    89
37.4241    85
37.4341    88
37.4441    93
37.4541    83
37.4641    75
37.4741    81
37.4841    83
37.4941    80
37.5041    82
37.5141    78
37.5241    84
37.5341    87
37.5441    65
37.5541    84
37.5641    77
37.5741    91
37.5841    70
37.5941    93
37.6041    81
37.6141    73
37.6241    81
37.6341    77
37.6441    81
37.6541    91
37.6641    74
37.6741    72
37.6841   102
37.6941    93
37.7041    60
37.7141    83
37.7241    93
37.7341    93
37.7441    81
37.7541    67
37.7641    84
37.7741    70
37.7841    83
37.7941    80
37.8041    83
37.8141    96
37.8241    80
37.8341    78
37.8441    66
37.8541    78
37.8641    71
37.8741    70
37.8841    63
37.8941    86
37.9041    69
37.9141    74
37.9241    77
37.9341    60
37.9441    88
37.9541    90
37.9641    79
37.9741    68
37.9841    88
37.9941    61
38.0041    66
38.0141    65
38.0241    81
38.0341    71
38.0441    82
38.0541    64
38.0641    59
38.0741    60
38.0841    64
38.0941    67
38.1041    60
38.1141    50
38.1241    63
38.1341    70
38.1441    67
38.1541    58
38.1641    66
38.1741    51
38.1841    79
38.1941    64
38.2041    52
38.2141    88
38.2241    72
38.2341    58
38.2441    61
38.2541    50
38.2641    67
38.2741    58
38.2841    74
38.2941    66
38.3041    58
38.3141    55
38.3241    73
38.3341    62
38.3441    59
38.3541    66
38.3641    56
38.3741    78
38.3841    63
38.3941    60
38.4041    67
38.4141    59
38.4241    69
38.4341    77
38.4441    73
38.4541    68
38.4641    68
38.4741    68
38.4841    71
38.4941    64
38.5041    61
38.5141    59
38.5241    66
38.5341    75
38.5441    63
38.5541    66
38.5641    54
38.5741    57
38.5841    58
38.5941    56
38.6041    44
38.6141    52
38.6241    74
38.6341    58
38.6441    60
38.6541    68
38.6641    49
38.6741    67
38.6841    50
38.6941    48
38.7041    61
38.7141    61
38.7241    52
38.7341    56
38.7441    64
38.7541    54
38.7641    52
38.7741    50
38.7841    56
38.7941    54
38.8041    60
38.8141    49
38.8241    50
38.8341    51
38.8441    45
38.8541    47
38.8641    49
38.8741    49
38.8841    56
38.8941    56
38.9041    42
38.9141    53
38.9241    64
38.9341    63
38.9441    54
38.9541    62
38.9641    59
38.9741    61
38.9841    59
38.9941    47
39.0041    52
39.0141    54
39.0241    47
39.0341    44
39.0441    47
39.0541    61
39.0641    53
39.0741    48
39.0841    57
39.0941    57
39.1041    45
39.1141    58
39.1241    48
39.1341    45
39.1441    40
39.1541    41
39.1641    61
39.1741    47
39.1841    50
39.1941    44
39.2041    39
39.2141    65
39.2241    48
39.2341    54
39.2441    41
39.2541    48
39.2641    47
39.2741    45
39.2841    49
39.2941    41
39.3041    44
39.3141    51
39.3241    54
39.3341    31
39.3441    41
39.3541    50
39.3641    55
39.3741    44
39.3841    45
39.3941    48
39.4041    48
39.4141    50
39.4241    50
39.4341    51
39.4441    36
39.4541    42
39.4641    25
39.4741    45
39.4841    38
39.4941    47
39.5041    47
39.5141    41
39.5241    46
39.5341    39
39.5441    53
39.5541    42
39.5641    48
39.5741    35
39.5841    34
39.5941    52
39.6041    51
39.6141    44
39.6241    36
39.6341    36
39.6441    40
39.6541    45
39.6641    38
39.6741    44
39.6841    41
39.6941    46
39.7041    48
39.7141    55
39.7241    40
39.7341    42
39.7441    44
39.7541    45
39.7641    38
39.7741    47
39.7841    38
39.7941    26
39.8041    42
39.8141    41
39.8241    23
39.8341    27
39.8441    38
39.8541    50
39.8641    44
39.8741    34
39.8841    45
39.8941    39
39.9041    35
39.9141    41
39.9241    31
39.9341    36
39.9441    40
39.9541    31
39.9641    31
39.9741    28
39.9841    31
