Bruker Nano GmbH Berlin, Germany
Esprit 1.9

Date: 4/1/2021 5:00:09 PM
Real time: 20427
Life time: 19084
Pulse density: 97815


Detector type: XFlash 430
Window type: Custom type
Detector thickness: 0.45
Si dead layer:0.029

Calibration, lin.: 10
Calibration, abs.: -955.9
Mn FWHM: 137.05
Fano factor: 0.121
Channels: 4095

Energy Counts
-0.9559     0
-0.9459     0
-0.9359     0
-0.9259     0
-0.9159     0
-0.9059     0
-0.8959     0
-0.8859     0
-0.8759     0
-0.8659     0
-0.8559     0
-0.8459     0
-0.8359     0
-0.8259     0
-0.8159     0
-0.8059     0
-0.7959     0
-0.7859     0
-0.7759     0
-0.7659     0
-0.7559     0
-0.7459     0
-0.7359     0
-0.7259     0
-0.7159     0
-0.7059     0
-0.6959     0
-0.6859     0
-0.6759     0
-0.6659     0
-0.6559     0
-0.6459     0
-0.6359     0
-0.6259     0
-0.6159     0
-0.6059     0
-0.5959     0
-0.5859     0
-0.5759     0
-0.5659     0
-0.5559     0
-0.5459     0
-0.5359     0
-0.5259     0
-0.5159     0
-0.5059     0
-0.4959     0
-0.4859     0
-0.4759     0
-0.4659     0
-0.4559     0
-0.4459     0
-0.4359     0
-0.4259     0
-0.4159     0
-0.4059     0
-0.3959     0
-0.3859     0
-0.3759     0
-0.3659     0
-0.3559     0
-0.3459     0
-0.3359     0
-0.3259     0
-0.3159     0
-0.3059     0
-0.2959     0
-0.2859     0
-0.2759     0
-0.2659     0
-0.2559     0
-0.2459     0
-0.2359     0
-0.2259     0
-0.2159     0
-0.2059     0
-0.1959     0
-0.1859     0
-0.1759     0
-0.1659     0
-0.1559     0
-0.1459     0
-0.1359     0
-0.1259     0
-0.1159     6
-0.1059    13
-0.0959    70
-0.0859   213
-0.0759   733
-0.0659  2192
-0.0559  5486
-0.0459 11936
-0.0359 22418
-0.0259 36148
-0.0159 49975
-0.0059 58936
 0.0041 58885
 0.0141 50712
 0.0241 37389
 0.0341 23650
 0.0441 12899
 0.0541  5907
 0.0641  2353
 0.0741   816
 0.0841   244
 0.0941    60
 0.1041    24
 0.1141    16
 0.1241     8
 0.1341     7
 0.1441     8
 0.1541     6
 0.1641     3
 0.1741     0
 0.1841   159
 0.1941   310
 0.2041   303
 0.2141   296
 0.2241   303
 0.2341   310
 0.2441   302
 0.2541   289
 0.2641   296
 0.2741   301
 0.2841   271
 0.2941   283
 0.3041   281
 0.3141   287
 0.3241   265
 0.3341   242
 0.3441   254
 0.3541   266
 0.3641   291
 0.3741   274
 0.3841   267
 0.3941   264
 0.4041   268
 0.4141   260
 0.4241   239
 0.4341   256
 0.4441   260
 0.4541   257
 0.4641   248
 0.4741   242
 0.4841   243
 0.4941   257
 0.5041   233
 0.5141   234
 0.5241   236
 0.5341   243
 0.5441   241
 0.5541   240
 0.5641   233
 0.5741   232
 0.5841   217
 0.5941   229
 0.6041   234
 0.6141   223
 0.6241   225
 0.6341   211
 0.6441   210
 0.6541   216
 0.6641   220
 0.6741   225
 0.6841   230
 0.6941   245
 0.7041   221
 0.7141   210
 0.7241   230
 0.7341   219
 0.7441   220
 0.7541   215
 0.7641   221
 0.7741   220
 0.7841   209
 0.7941   204
 0.8041   214
 0.8141   199
 0.8241   192
 0.8341   208
 0.8441   203
 0.8541   193
 0.8641   191
 0.8741   193
 0.8841   188
 0.8941   195
 0.9041   220
 0.9141   215
 0.9241   209
 0.9341   216
 0.9441   199
 0.9541   203
 0.9641   201
 0.9741   199
 0.9841   192
 0.9941   209
 1.0041   204
 1.0141   202
 1.0241   198
 1.0341   184
 1.0441   181
 1.0541   218
 1.0641   184
 1.0741   183
 1.0841   181
 1.0941   202
 1.1041   213
 1.1141   199
 1.1241   181
 1.1341   176
 1.1441   186
 1.1541   198
 1.1641   172
 1.1741   173
 1.1841   173
 1.1941   176
 1.2041   188
 1.2141   193
 1.2241   159
 1.2341   168
 1.2441   170
 1.2541   159
 1.2641   162
 1.2741   166
 1.2841   159
 1.2941   176
 1.3041   188
 1.3141   170
 1.3241   182
 1.3341   191
 1.3441   184
 1.3541   171
 1.3641   180
 1.3741   183
 1.3841   183
 1.3941   175
 1.4041   175
 1.4141   182
 1.4241   178
 1.4341   156
 1.4441   178
 1.4541   183
 1.4641   173
 1.4741   180
 1.4841   186
 1.4941   174
 1.5041   184
 1.5141   152
 1.5241   178
 1.5341   163
 1.5441   166
 1.5541   150
 1.5641   173
 1.5741   159
 1.5841   141
 1.5941   169
 1.6041   175
 1.6141   147
 1.6241   171
 1.6341   170
 1.6441   166
 1.6541   189
 1.6641   230
 1.6741   309
 1.6841   400
 1.6941   467
 1.7041   561
 1.7141   678
 1.7241   749
 1.7341   818
 1.7441   767
 1.7541   709
 1.7641   606
 1.7741   540
 1.7841   437
 1.7941   378
 1.8041   316
 1.8141   271
 1.8241   235
 1.8341   217
 1.8441   218
 1.8541   194
 1.8641   194
 1.8741   181
 1.8841   202
 1.8941   163
 1.9041   163
 1.9141   175
 1.9241   180
 1.9341   180
 1.9441   215
 1.9541   189
 1.9641   185
 1.9741   196
 1.9841   198
 1.9941   218
 2.0041   213
 2.0141   211
 2.0241   218
 2.0341   210
 2.0441   186
 2.0541   191
 2.0641   178
 2.0741   173
 2.0841   152
 2.0941   167
 2.1041   157
 2.1141   150
 2.1241   149
 2.1341   143
 2.1441   153
 2.1541   174
 2.1641   142
 2.1741   154
 2.1841   164
 2.1941   183
 2.2041   136
 2.2141   157
 2.2241   149
 2.2341   168
 2.2441   145
 2.2541   153
 2.2641   140
 2.2741   124
 2.2841   156
 2.2941   162
 2.3041   139
 2.3141   145
 2.3241   157
 2.3341   146
 2.3441   142
 2.3541   148
 2.3641   153
 2.3741   128
 2.3841   120
 2.3941   138
 2.4041   121
 2.4141   101
 2.4241   125
 2.4341   118
 2.4441   127
 2.4541   145
 2.4641   127
 2.4741   143
 2.4841   119
 2.4941   142
 2.5041   143
 2.5141   143
 2.5241   140
 2.5341   135
 2.5441   125
 2.5541   124
 2.5641   167
 2.5741   141
 2.5841   134
 2.5941   133
 2.6041   154
 2.6141   125
 2.6241   157
 2.6341   150
 2.6441   124
 2.6541   141
 2.6641   132
 2.6741   128
 2.6841   129
 2.6941   125
 2.7041   139
 2.7141   124
 2.7241   114
 2.7341   113
 2.7441   145
 2.7541   113
 2.7641   134
 2.7741   106
 2.7841   124
 2.7941   110
 2.8041   133
 2.8141   117
 2.8241   138
 2.8341   128
 2.8441   139
 2.8541   122
 2.8641   134
 2.8741   145
 2.8841   109
 2.8941   109
 2.9041   108
 2.9141   126
 2.9241   117
 2.9341   120
 2.9441   115
 2.9541   114
 2.9641   127
 2.9741   142
 2.9841   121
 2.9941   113
 3.0041   116
 3.0141   129
 3.0241   113
 3.0341   110
 3.0441   121
 3.0541   104
 3.0641   115
 3.0741   114
 3.0841   109
 3.0941   111
 3.1041   102
 3.1141   103
 3.1241    97
 3.1341    95
 3.1441   105
 3.1541   108
 3.1641   100
 3.1741   135
 3.1841   118
 3.1941   110
 3.2041   113
 3.2141   131
 3.2241   136
 3.2341   143
 3.2441   163
 3.2541   196
 3.2641   214
 3.2741   250
 3.2841   257
 3.2941   279
 3.3041   307
 3.3141   326
 3.3241   292
 3.3341   299
 3.3441   266
 3.3541   225
 3.3641   218
 3.3741   171
 3.3841   154
 3.3941   129
 3.4041   134
 3.4141   107
 3.4241   115
 3.4341   120
 3.4441   103
 3.4541   105
 3.4641   108
 3.4741    95
 3.4841    90
 3.4941   111
 3.5041   112
 3.5141   123
 3.5241   134
 3.5341   143
 3.5441   172
 3.5541   205
 3.5641   239
 3.5741   274
 3.5841   370
 3.5941   522
 3.6041   710
 3.6141   831
 3.6241  1146
 3.6341  1402
 3.6441  1687
 3.6541  2039
 3.6641  2256
 3.6741  2349
 3.6841  2523
 3.6941  2568
 3.7041  2393
 3.7141  2247
 3.7241  2043
 3.7341  1697
 3.7441  1373
 3.7541  1108
 3.7641   839
 3.7741   607
 3.7841   418
 3.7941   309
 3.8041   249
 3.8141   184
 3.8241   131
 3.8341   134
 3.8441   108
 3.8541    95
 3.8641   114
 3.8741   101
 3.8841   120
 3.8941   142
 3.9041   127
 3.9141   141
 3.9241   186
 3.9341   215
 3.9441   269
 3.9541   310
 3.9641   360
 3.9741   410
 3.9841   440
 3.9941   474
 4.0041   512
 4.0141   512
 4.0241   508
 4.0341   443
 4.0441   422
 4.0541   381
 4.0641   345
 4.0741   290
 4.0841   244
 4.0941   174
 4.1041   123
 4.1141   133
 4.1241   118
 4.1341   108
 4.1441    88
 4.1541    96
 4.1641    87
 4.1741    79
 4.1841    88
 4.1941    75
 4.2041    78
 4.2141    79
 4.2241    68
 4.2341    71
 4.2441    77
 4.2541    75
 4.2641    80
 4.2741    73
 4.2841    69
 4.2941    85
 4.3041    72
 4.3141    87
 4.3241    66
 4.3341    84
 4.3441    77
 4.3541    81
 4.3641    86
 4.3741   106
 4.3841   109
 4.3941   132
 4.4041   166
 4.4141   191
 4.4241   221
 4.4341   277
 4.4441   327
 4.4541   368
 4.4641   444
 4.4741   476
 4.4841   555
 4.4941   549
 4.5041   589
 4.5141   577
 4.5241   563
 4.5341   473
 4.5441   428
 4.5541   437
 4.5641   364
 4.5741   276
 4.5841   239
 4.5941   219
 4.6041   177
 4.6141   126
 4.6241   138
 4.6341   103
 4.6441    88
 4.6541    92
 4.6641   102
 4.6741   112
 4.6841    74
 4.6941    82
 4.7041   105
 4.7141    94
 4.7241   106
 4.7341    95
 4.7441    86
 4.7541    97
 4.7641    95
 4.7741    96
 4.7841    92
 4.7941   110
 4.8041   130
 4.8141   122
 4.8241   119
 4.8341   141
 4.8441   157
 4.8541   157
 4.8641   145
 4.8741   182
 4.8841   152
 4.8941   164
 4.9041   181
 4.9141   187
 4.9241   197
 4.9341   207
 4.9441   206
 4.9541   196
 4.9641   159
 4.9741   175
 4.9841   137
 4.9941   156
 5.0041   155
 5.0141   134
 5.0241   105
 5.0341   113
 5.0441   117
 5.0541   103
 5.0641    88
 5.0741   104
 5.0841   103
 5.0941   109
 5.1041    82
 5.1141    89
 5.1241    81
 5.1341    95
 5.1441   100
 5.1541    97
 5.1641   111
 5.1741    90
 5.1841    96
 5.1941   106
 5.2041    96
 5.2141    97
 5.2241   106
 5.2341   101
 5.2441   108
 5.2541   105
 5.2641   116
 5.2741    99
 5.2841   113
 5.2941    96
 5.3041   105
 5.3141    96
 5.3241    83
 5.3341   110
 5.3441   139
 5.3541   135
 5.3641   105
 5.3741   115
 5.3841   116
 5.3941   144
 5.4041   136
 5.4141   154
 5.4241   134
 5.4341   130
 5.4441   122
 5.4541   129
 5.4641   122
 5.4741   117
 5.4841   121
 5.4941   123
 5.5041   110
 5.5141   103
 5.5241   108
 5.5341   104
 5.5441    99
 5.5541    98
 5.5641   106
 5.5741   108
 5.5841   109
 5.5941    90
 5.6041   120
 5.6141    99
 5.6241   103
 5.6341   117
 5.6441   109
 5.6541   100
 5.6641   107
 5.6741    99
 5.6841   127
 5.6941    97
 5.7041    94
 5.7141   107
 5.7241   105
 5.7341   108
 5.7441   139
 5.7541   125
 5.7641   141
 5.7741   154
 5.7841   169
 5.7941   183
 5.8041   225
 5.8141   248
 5.8241   267
 5.8341   309
 5.8441   354
 5.8541   365
 5.8641   384
 5.8741   404
 5.8841   453
 5.8941   434
 5.9041   439
 5.9141   430
 5.9241   412
 5.9341   375
 5.9441   336
 5.9541   309
 5.9641   284
 5.9741   220
 5.9841   231
 5.9941   208
 6.0041   176
 6.0141   174
 6.0241   148
 6.0341   146
 6.0441   131
 6.0541   151
 6.0641   110
 6.0741   136
 6.0841   152
 6.0941   147
 6.1041   150
 6.1141   153
 6.1241   169
 6.1341   153
 6.1441   177
 6.1541   198
 6.1641   178
 6.1741   219
 6.1841   238
 6.1941   302
 6.2041   317
 6.2141   444
 6.2241   710
 6.2341   851
 6.2441  1145
 6.2541  1655
 6.2641  2298
 6.2741  3220
 6.2841  4366
 6.2941  5823
 6.3041  7326
 6.3141  9249
 6.3241 11222
 6.3341 13744
 6.3441 16192
 6.3541 18375
 6.3641 20561
 6.3741 22167
 6.3841 23574
 6.3941 23659
 6.4041 23811
 6.4141 22777
 6.4241 21648
 6.4341 19984
 6.4441 17636
 6.4541 15633
 6.4641 12965
 6.4741 10795
 6.4841  8453
 6.4941  6867
 6.5041  5098
 6.5141  3845
 6.5241  2848
 6.5341  1959
 6.5441  1439
 6.5541  1004
 6.5641   669
 6.5741   518
 6.5841   369
 6.5941   292
 6.6041   244
 6.6141   198
 6.6241   199
 6.6341   171
 6.6441   174
 6.6541   198
 6.6641   168
 6.6741   174
 6.6841   156
 6.6941   179
 6.7041   197
 6.7141   164
 6.7241   166
 6.7341   187
 6.7441   172
 6.7541   162
 6.7641   200
 6.7741   192
 6.7841   191
 6.7941   200
 6.8041   211
 6.8141   206
 6.8241   225
 6.8341   249
 6.8441   270
 6.8541   285
 6.8641   292
 6.8741   335
 6.8841   376
 6.8941   490
 6.9041   554
 6.9141   661
 6.9241   817
 6.9341  1025
 6.9441  1149
 6.9541  1438
 6.9641  1720
 6.9741  2136
 6.9841  2428
 6.9941  2760
 7.0041  3161
 7.0141  3452
 7.0241  3726
 7.0341  4036
 7.0441  4073
 7.0541  4152
 7.0641  4098
 7.0741  4048
 7.0841  3788
 7.0941  3438
 7.1041  3055
 7.1141  2663
 7.1241  2351
 7.1341  2036
 7.1441  1574
 7.1541  1291
 7.1641  1037
 7.1741   840
 7.1841   695
 7.1941   522
 7.2041   427
 7.2141   361
 7.2241   306
 7.2341   256
 7.2441   264
 7.2541   210
 7.2641   235
 7.2741   213
 7.2841   199
 7.2941   221
 7.3041   224
 7.3141   226
 7.3241   258
 7.3341   250
 7.3441   248
 7.3541   279
 7.3641   268
 7.3741   271
 7.3841   274
 7.3941   270
 7.4041   297
 7.4141   316
 7.4241   283
 7.4341   275
 7.4441   310
 7.4541   299
 7.4641   283
 7.4741   249
 7.4841   277
 7.4941   252
 7.5041   236
 7.5141   224
 7.5241   212
 7.5341   237
 7.5441   220
 7.5541   186
 7.5641   232
 7.5741   206
 7.5841   204
 7.5941   202
 7.6041   185
 7.6141   217
 7.6241   200
 7.6341   212
 7.6441   209
 7.6541   207
 7.6641   215
 7.6741   201
 7.6841   197
 7.6941   205
 7.7041   206
 7.7141   240
 7.7241   237
 7.7341   234
 7.7441   233
 7.7541   255
 7.7641   246
 7.7741   247
 7.7841   226
 7.7941   266
 7.8041   264
 7.8141   280
 7.8241   278
 7.8341   261
 7.8441   263
 7.8541   296
 7.8641   325
 7.8741   311
 7.8841   364
 7.8941   338
 7.9041   331
 7.9141   355
 7.9241   398
 7.9341   412
 7.9441   438
 7.9541   469
 7.9641   467
 7.9741   559
 7.9841   576
 7.9941   655
 8.0041   640
 8.0141   725
 8.0241   737
 8.0341   791
 8.0441   844
 8.0541   859
 8.0641   932
 8.0741  1042
 8.0841  1041
 8.0941  1162
 8.1041  1183
 8.1141  1205
 8.1241  1258
 8.1341  1312
 8.1441  1379
 8.1541  1381
 8.1641  1421
 8.1741  1407
 8.1841  1528
 8.1941  1470
 8.2041  1475
 8.2141  1452
 8.2241  1476
 8.2341  1518
 8.2441  1589
 8.2541  1622
 8.2641  1746
 8.2741  1799
 8.2841  1916
 8.2941  2081
 8.3041  2205
 8.3141  2369
 8.3241  2646
 8.3341  2736
 8.3441  2950
 8.3541  3167
 8.3641  3249
 8.3741  3313
 8.3841  3420
 8.3941  3466
 8.4041  3389
 8.4141  3122
 8.4241  2957
 8.4341  2860
 8.4441  2496
 8.4541  2287
 8.4641  1998
 8.4741  1776
 8.4841  1515
 8.4941  1327
 8.5041  1146
 8.5141   976
 8.5241   750
 8.5341   684
 8.5441   647
 8.5541   562
 8.5641   481
 8.5741   463
 8.5841   462
 8.5941   455
 8.6041   457
 8.6141   451
 8.6241   451
 8.6341   428
 8.6441   435
 8.6541   467
 8.6641   426
 8.6741   418
 8.6841   401
 8.6941   375
 8.7041   396
 8.7141   366
 8.7241   381
 8.7341   378
 8.7441   335
 8.7541   345
 8.7641   345
 8.7741   339
 8.7841   330
 8.7941   331
 8.8041   346
 8.8141   315
 8.8241   328
 8.8341   312
 8.8441   330
 8.8541   318
 8.8641   312
 8.8741   346
 8.8841   341
 8.8941   332
 8.9041   312
 8.9141   329
 8.9241   333
 8.9341   337
 8.9441   345
 8.9541   342
 8.9641   329
 8.9741   333
 8.9841   355
 8.9941   369
 9.0041   372
 9.0141   424
 9.0241   404
 9.0341   379
 9.0441   437
 9.0541   414
 9.0641   427
 9.0741   431
 9.0841   448
 9.0941   458
 9.1041   529
 9.1141   520
 9.1241   602
 9.1341   559
 9.1441   572
 9.1541   584
 9.1641   637
 9.1741   635
 9.1841   688
 9.1941   680
 9.2041   736
 9.2141   819
 9.2241   826
 9.2341   886
 9.2441   861
 9.2541   960
 9.2641   988
 9.2741   966
 9.2841  1091
 9.2941  1106
 9.3041  1157
 9.3141  1182
 9.3241  1239
 9.3341  1240
 9.3441  1238
 9.3541  1301
 9.3641  1399
 9.3741  1392
 9.3841  1415
 9.3941  1436
 9.4041  1411
 9.4141  1435
 9.4241  1471
 9.4341  1533
 9.4441  1489
 9.4541  1494
 9.4641  1511
 9.4741  1541
 9.4841  1601
 9.4941  1611
 9.5041  1672
 9.5141  1698
 9.5241  1705
 9.5341  1801
 9.5441  1883
 9.5541  1920
 9.5641  2117
 9.5741  2169
 9.5841  2308
 9.5941  2519
 9.6041  2602
 9.6141  2730
 9.6241  2833
 9.6341  2977
 9.6441  3036
 9.6541  3116
 9.6641  3011
 9.6741  3000
 9.6841  3001
 9.6941  2951
 9.7041  2777
 9.7141  2710
 9.7241  2636
 9.7341  2416
 9.7441  2212
 9.7541  1970
 9.7641  1857
 9.7741  1739
 9.7841  1580
 9.7941  1467
 9.8041  1455
 9.8141  1366
 9.8241  1292
 9.8341  1234
 9.8441  1300
 9.8541  1247
 9.8641  1229
 9.8741  1185
 9.8841  1259
 9.8941  1312
 9.9041  1268
 9.9141  1335
 9.9241  1324
 9.9341  1346
 9.9441  1366
 9.9541  1368
 9.9641  1308
 9.9741  1289
 9.9841  1253
 9.9941  1182
10.0041  1105
10.0141  1043
10.0241  1010
10.0341   852
10.0441   763
10.0541   716
10.0641   650
10.0741   579
10.0841   518
10.0941   496
10.1041   425
10.1141   390
10.1241   351
10.1341   316
10.1441   333
10.1541   297
10.1641   300
10.1741   274
10.1841   263
10.1941   251
10.2041   234
10.2141   225
10.2241   240
10.2341   225
10.2441   200
10.2541   202
10.2641   223
10.2741   200
10.2841   174
10.2941   190
10.3041   199
10.3141   185
10.3241   189
10.3341   172
10.3441   178
10.3541   161
10.3641   177
10.3741   177
10.3841   184
10.3941   183
10.4041   187
10.4141   172
10.4241   181
10.4341   181
10.4441   184
10.4541   209
10.4641   192
10.4741   193
10.4841   188
10.4941   185
10.5041   190
10.5141   219
10.5241   221
10.5341   199
10.5441   193
10.5541   208
10.5641   205
10.5741   215
10.5841   208
10.5941   200
10.6041   211
10.6141   213
10.6241   222
10.6341   208
10.6441   212
10.6541   209
10.6641   212
10.6741   214
10.6841   234
10.6941   217
10.7041   206
10.7141   211
10.7241   226
10.7341   237
10.7441   250
10.7541   283
10.7641   256
10.7741   258
10.7841   258
10.7941   263
10.8041   286
10.8141   293
10.8241   251
10.8341   255
10.8441   288
10.8541   292
10.8641   292
10.8741   298
10.8841   310
10.8941   301
10.9041   306
10.9141   309
10.9241   304
10.9341   333
10.9441   319
10.9541   311
10.9641   316
10.9741   302
10.9841   283
10.9941   295
11.0041   305
11.0141   284
11.0241   307
11.0341   290
11.0441   302
11.0541   292
11.0641   258
11.0741   263
11.0841   230
11.0941   253
11.1041   279
11.1141   281
11.1241   268
11.1341   284
11.1441   300
11.1541   286
11.1641   303
11.1741   319
11.1841   345
11.1941   336
11.2041   386
11.2141   403
11.2241   399
11.2341   410
11.2441   421
11.2541   407
11.2641   409
11.2741   414
11.2841   426
11.2941   411
11.3041   416
11.3141   403
11.3241   389
11.3341   378
11.3441   350
11.3541   355
11.3641   354
11.3741   323
11.3841   305
11.3941   295
11.4041   279
11.4141   278
11.4241   269
11.4341   250
11.4441   244
11.4541   234
11.4641   225
11.4741   210
11.4841   198
11.4941   220
11.5041   214
11.5141   225
11.5241   220
11.5341   223
11.5441   225
11.5541   224
11.5641   222
11.5741   229
11.5841   234
11.5941   223
11.6041   246
11.6141   249
11.6241   228
11.6341   223
11.6441   232
11.6541   214
11.6641   223
11.6741   231
11.6841   217
11.6941   226
11.7041   217
11.7141   192
11.7241   194
11.7341   209
11.7441   199
11.7541   180
11.7641   172
11.7741   185
11.7841   189
11.7941   164
11.8041   172
11.8141   186
11.8241   174
11.8341   169
11.8441   164
11.8541   160
11.8641   172
11.8741   169
11.8841   164
11.8941   169
11.9041   167
11.9141   164
11.9241   166
11.9341   153
11.9441   174
11.9541   171
11.9641   153
11.9741   153
11.9841   169
11.9941   163
12.0041   168
12.0141   180
12.0241   184
12.0341   164
12.0441   164
12.0541   158
12.0641   167
12.0741   162
12.0841   174
12.0941   162
12.1041   165
12.1141   158
12.1241   145
12.1341   167
12.1441   155
12.1541   155
12.1641   175
12.1741   176
12.1841   154
12.1941   153
12.2041   156
12.2141   184
12.2241   196
12.2341   162
12.2441   167
12.2541   157
12.2641   172
12.2741   177
12.2841   163
12.2941   162
12.3041   167
12.3141   159
12.3241   151
12.3341   144
12.3441   151
12.3541   164
12.3641   172
12.3741   160
12.3841   162
12.3941   185
12.4041   173
12.4141   158
12.4241   165
12.4341   163
12.4441   162
12.4541   173
12.4641   166
12.4741   176
12.4841   184
12.4941   168
12.5041   169
12.5141   175
12.5241   180
12.5341   181
12.5441   185
12.5541   171
12.5641   175
12.5741   169
12.5841   174
12.5941   177
12.6041   170
12.6141   176
12.6241   189
12.6341   180
12.6441   176
12.6541   183
12.6641   180
12.6741   169
12.6841   174
12.6941   171
12.7041   165
12.7141   179
12.7241   177
12.7341   173
12.7441   178
12.7541   185
12.7641   189
12.7741   187
12.7841   191
12.7941   195
12.8041   188
12.8141   180
12.8241   181
12.8341   187
12.8441   197
12.8541   201
12.8641   198
12.8741   196
12.8841   196
12.8941   200
12.9041   208
12.9141   204
12.9241   193
12.9341   192
12.9441   200
12.9541   203
12.9641   199
12.9741   195
12.9841   196
12.9941   198
13.0041   200
13.0141   203
13.0241   203
13.0341   204
13.0441   214
13.0541   217
13.0641   212
13.0741   208
13.0841   207
13.0941   208
13.1041   209
13.1141   209
13.1241   204
13.1341   200
13.1441   215
13.1541   225
13.1641   208
13.1741   192
13.1841   216
13.1941   237
13.2041   219
13.2141   219
13.2241   236
13.2341   233
13.2441   262
13.2541   269
13.2641   269
13.2741   292
13.2841   292
13.2941   304
13.3041   323
13.3141   315
13.3241   332
13.3341   344
13.3441   351
13.3541   366
13.3641   355
13.3741   368
13.3841   364
13.3941   349
13.4041   347
13.4141   347
13.4241   358
13.4341   322
13.4441   328
13.4541   356
13.4641   315
13.4741   304
13.4841   299
13.4941   267
13.5041   278
13.5141   272
13.5241   255
13.5341   262
13.5441   256
13.5541   247
13.5641   242
13.5741   241
13.5841   249
13.5941   256
13.6041   241
13.6141   230
13.6241   231
13.6341   233
13.6441   237
13.6541   245
13.6641   251
13.6741   240
13.6841   236
13.6941   250
13.7041   241
13.7141   231
13.7241   247
13.7341   249
13.7441   237
13.7541   241
13.7641   245
13.7741   233
13.7841   227
13.7941   233
13.8041   237
13.8141   245
13.8241   241
13.8341   242
13.8441   258
13.8541   259
13.8641   252
13.8741   238
13.8841   236
13.8941   258
13.9041   278
13.9141   276
13.9241   278
13.9341   303
13.9441   319
13.9541   317
13.9641   334
13.9741   366
13.9841   377
13.9941   378
14.0041   409
14.0141   430
14.0241   420
14.0341   455
14.0441   521
14.0541   566
14.0641   601
14.0741   622
14.0841   633
14.0941   664
14.1041   687
14.1141   707
14.1241   714
14.1341   698
14.1441   699
14.1541   703
14.1641   697
14.1741   711
14.1841   687
14.1941   638
14.2041   633
14.2141   618
14.2241   576
14.2341   539
14.2441   520
14.2541   498
14.2641   470
14.2741   448
14.2841   414
14.2941   389
14.3041   370
14.3141   336
14.3241   324
14.3341   314
14.3441   307
14.3541   301
14.3641   279
14.3741   283
14.3841   282
14.3941   287
14.4041   294
14.4141   273
14.4241   281
14.4341   301
14.4441   294
14.4541   280
14.4641   279
14.4741   292
14.4841   287
14.4941   302
14.5041   305
14.5141   290
14.5241   290
14.5341   284
14.5441   279
14.5541   285
14.5641   285
14.5741   290
14.5841   303
14.5941   300
14.6041   283
14.6141   289
14.6241   303
14.6341   282
14.6441   287
14.6541   314
14.6641   310
14.6741   284
14.6841   290
14.6941   322
14.7041   314
14.7141   308
14.7241   291
14.7341   284
14.7441   291
14.7541   305
14.7641   340
14.7741   337
14.7841   329
14.7941   316
14.8041   309
14.8141   323
14.8241   328
14.8341   340
14.8441   324
14.8541   338
14.8641   367
14.8741   358
14.8841   371
14.8941   391
14.9041   364
14.9141   372
14.9241   374
14.9341   360
14.9441   392
14.9541   391
14.9641   363
14.9741   369
14.9841   369
14.9941   361
15.0041   352
15.0141   344
15.0241   348
15.0341   360
15.0441   378
15.0541   375
15.0641   339
15.0741   328
15.0841   338
15.0941   359
15.1041   359
15.1141   349
15.1241   348
15.1341   347
15.1441   350
15.1541   334
15.1641   322
15.1741   344
15.1841   364
15.1941   349
15.2041   351
15.2141   341
15.2241   333
15.2341   330
15.2441   326
15.2541   333
15.2641   333
15.2741   322
15.2841   341
15.2941   377
15.3041   345
15.3141   342
15.3241   348
15.3341   342
15.3441   344
15.3541   331
15.3641   332
15.3741   327
15.3841   326
15.3941   324
15.4041   334
15.4141   363
15.4241   350
15.4341   328
15.4441   342
15.4541   369
15.4641   370
15.4741   374
15.4841   358
15.4941   350
15.5041   382
15.5141   389
15.5241   395
15.5341   408
15.5441   429
15.5541   403
15.5641   407
15.5741   426
15.5841   441
15.5941   489
15.6041   513
15.6141   527
15.6241   566
15.6341   616
15.6441   611
15.6541   607
15.6641   657
15.6741   671
15.6841   667
15.6941   745
15.7041   780
15.7141   741
15.7241   783
15.7341   819
15.7441   806
15.7541   780
15.7641   788
15.7741   828
15.7841   811
15.7941   813
15.8041   787
15.8141   759
15.8241   742
15.8341   712
15.8441   689
15.8541   671
15.8641   627
15.8741   596
15.8841   574
15.8941   555
15.9041   495
15.9141   537
15.9241   536
15.9341   478
15.9441   481
15.9541   464
15.9641   425
15.9741   445
15.9841   439
15.9941   403
16.0041   413
16.0141   416
16.0241   416
16.0341   406
16.0441   396
16.0541   403
16.0641   405
16.0741   406
16.0841   420
16.0941   424
16.1041   397
16.1141   404
16.1241   417
16.1341   394
16.1441   388
16.1541   387
16.1641   381
16.1741   380
16.1841   392
16.1941   412
16.2041   431
16.2141   421
16.2241   444
16.2341   431
16.2441   415
16.2541   392
16.2641   431
16.2741   421
16.2841   431
16.2941   415
16.3041   392
16.3141   410
16.3241   408
16.3341   440
16.3441   430
16.3541   418
16.3641   423
16.3741   411
16.3841   423
16.3941   408
16.4041   422
16.4141   409
16.4241   433
16.4341   432
16.4441   439
16.4541   426
16.4641   418
16.4741   432
16.4841   431
16.4941   443
16.5041   433
16.5141   462
16.5241   463
16.5341   436
16.5441   430
16.5541   441
16.5641   468
16.5741   455
16.5841   456
16.5941   452
16.6041   449
16.6141   456
16.6241   480
16.6341   463
16.6441   462
16.6541   472
16.6641   462
16.6741   478
16.6841   437
16.6941   450
16.7041   475
16.7141   456
16.7241   462
16.7341   443
16.7441   454
16.7541   465
16.7641   424
16.7741   439
16.7841   459
16.7941   462
16.8041   474
16.8141   469
16.8241   443
16.8341   440
16.8441   454
16.8541   435
16.8641   442
16.8741   410
16.8841   438
16.8941   469
16.9041   441
16.9141   462
16.9241   471
16.9341   464
16.9441   466
16.9541   453
16.9641   458
16.9741   437
16.9841   465
16.9941   479
17.0041   477
17.0141   475
17.0241   471
17.0341   497
17.0441   473
17.0541   468
17.0641   458
17.0741   452
17.0841   489
17.0941   469
17.1041   494
17.1141   481
17.1241   470
17.1341   471
17.1441   471
17.1541   509
17.1641   501
17.1741   446
17.1841   448
17.1941   481
17.2041   474
17.2141   471
17.2241   464
17.2341   467
17.2441   507
17.2541   526
17.2641   494
17.2741   477
17.2841   481
17.2941   497
17.3041   512
17.3141   490
17.3241   510
17.3341   492
17.3441   490
17.3541   478
17.3641   487
17.3741   482
17.3841   485
17.3941   512
17.4041   509
17.4141   487
17.4241   492
17.4341   516
17.4441   530
17.4541   493
17.4641   473
17.4741   495
17.4841   517
17.4941   521
17.5041   501
17.5141   538
17.5241   529
17.5341   527
17.5441   515
17.5541   546
17.5641   525
17.5741   516
17.5841   492
17.5941   532
17.6041   556
17.6141   556
17.6241   552
17.6341   548
17.6441   509
17.6541   550
17.6641   575
17.6741   591
17.6841   571
17.6941   582
17.7041   597
17.7141   541
17.7241   543
17.7341   561
17.7441   542
17.7541   526
17.7641   553
17.7741   544
17.7841   548
17.7941   550
17.8041   522
17.8141   546
17.8241   593
17.8341   536
17.8441   530
17.8541   551
17.8641   535
17.8741   502
17.8841   523
17.8941   536
17.9041   522
17.9141   524
17.9241   511
17.9341   538
17.9441   527
17.9541   513
17.9641   495
17.9741   514
17.9841   513
17.9941   495
18.0041   506
18.0141   519
18.0241   516
18.0341   549
18.0441   555
18.0541   518
18.0641   564
18.0741   528
18.0841   522
18.0941   534
18.1041   533
18.1141   527
18.1241   538
18.1341   560
18.1441   565
18.1541   502
18.1641   528
18.1741   500
18.1841   510
18.1941   573
18.2041   549
18.2141   533
18.2241   545
18.2341   528
18.2441   540
18.2541   523
18.2641   510
18.2741   539
18.2841   537
18.2941   587
18.3041   545
18.3141   543
18.3241   552
18.3341   558
18.3441   566
18.3541   574
18.3641   561
18.3741   580
18.3841   554
18.3941   555
18.4041   542
18.4141   555
18.4241   567
18.4341   548
18.4441   522
18.4541   562
18.4641   555
18.4741   518
18.4841   527
18.4941   545
18.5041   539
18.5141   547
18.5241   541
18.5341   585
18.5441   567
18.5541   522
18.5641   575
18.5741   586
18.5841   567
18.5941   555
18.6041   541
18.6141   579
18.6241   581
18.6341   552
18.6441   583
18.6541   556
18.6641   567
18.6741   569
18.6841   593
18.6941   544
18.7041   556
18.7141   558
18.7241   524
18.7341   544
18.7441   566
18.7541   550
18.7641   571
18.7741   544
18.7841   548
18.7941   586
18.8041   583
18.8141   561
18.8241   561
18.8341   538
18.8441   560
18.8541   565
18.8641   547
18.8741   571
18.8841   561
18.8941   574
18.9041   577
18.9141   604
18.9241   617
18.9341   612
18.9441   603
18.9541   592
18.9641   589
18.9741   590
18.9841   587
18.9941   560
19.0041   568
19.0141   575
19.0241   607
19.0341   594
19.0441   581
19.0541   571
19.0641   557
19.0741   579
19.0841   564
19.0941   576
19.1041   569
19.1141   547
19.1241   589
19.1341   583
19.1441   587
19.1541   594
19.1641   602
19.1741   602
19.1841   570
19.1941   553
19.2041   558
19.2141   547
19.2241   560
19.2341   597
19.2441   597
19.2541   599
19.2641   600
19.2741   555
19.2841   545
19.2941   564
19.3041   593
19.3141   572
19.3241   561
19.3341   575
19.3441   565
19.3541   589
19.3641   613
19.3741   571
19.3841   579
19.3941   598
19.4041   587
19.4141   576
19.4241   568
19.4341   607
19.4441   608
19.4541   573
19.4641   604
19.4741   587
19.4841   571
19.4941   558
19.5041   567
19.5141   560
19.5241   607
19.5341   656
19.5441   632
19.5541   631
19.5641   600
19.5741   546
19.5841   579
19.5941   593
19.6041   600
19.6141   567
19.6241   597
19.6341   576
19.6441   561
19.6541   577
19.6641   596
19.6741   582
19.6841   622
19.6941   600
19.7041   627
19.7141   614
19.7241   574
19.7341   589
19.7441   567
19.7541   599
19.7641   610
19.7741   565
19.7841   594
19.7941   584
19.8041   604
19.8141   610
19.8241   598
19.8341   599
19.8441   601
19.8541   628
19.8641   618
19.8741   602
19.8841   561
19.8941   565
19.9041   593
19.9141   607
19.9241   593
19.9341   558
19.9441   612
19.9541   615
19.9641   604
19.9741   589
19.9841   563
19.9941   585
20.0041   614
20.0141   620
20.0241   605
20.0341   593
20.0441   643
20.0541   583
20.0641   567
20.0741   572
20.0841   594
20.0941   620
20.1041   583
20.1141   578
20.1241   567
20.1341   606
20.1441   606
20.1541   617
20.1641   583
20.1741   591
20.1841   573
20.1941   571
20.2041   600
20.2141   630
20.2241   584
20.2341   597
20.2441   609
20.2541   638
20.2641   602
20.2741   578
20.2841   587
20.2941   589
20.3041   598
20.3141   616
20.3241   607
20.3341   614
20.3441   627
20.3541   561
20.3641   611
20.3741   622
20.3841   580
20.3941   629
20.4041   635
20.4141   602
20.4241   593
20.4341   584
20.4441   578
20.4541   627
20.4641   607
20.4741   608
20.4841   601
20.4941   593
20.5041   593
20.5141   603
20.5241   599
20.5341   593
20.5441   604
20.5541   604
20.5641   583
20.5741   573
20.5841   598
20.5941   636
20.6041   602
20.6141   584
20.6241   576
20.6341   561
20.6441   584
20.6541   628
20.6641   631
20.6741   615
20.6841   610
20.6941   593
20.7041   561
20.7141   598
20.7241   592
20.7341   592
20.7441   617
20.7541   612
20.7641   620
20.7741   609
20.7841   645
20.7941   614
20.8041   646
20.8141   644
20.8241   619
20.8341   607
20.8441   619
20.8541   618
20.8641   637
20.8741   657
20.8841   661
20.8941   641
20.9041   661
20.9141   713
20.9241   692
20.9341   699
20.9441   749
20.9541   764
20.9641   729
20.9741   751
20.9841   725
20.9941   710
21.0041   792
21.0141   800
21.0241   816
21.0341   797
21.0441   831
21.0541   799
21.0641   827
21.0741   845
21.0841   846
21.0941   830
21.1041   861
21.1141   882
21.1241   845
21.1341   815
21.1441   840
21.1541   845
21.1641   887
21.1741   880
21.1841   843
21.1941   792
21.2041   803
21.2141   865
21.2241   803
21.2341   785
21.2441   767
21.2541   784
21.2641   771
21.2741   762
21.2841   734
21.2941   691
21.3041   692
21.3141   694
21.3241   697
21.3341   720
21.3441   649
21.3541   666
21.3641   653
21.3741   623
21.3841   591
21.3941   628
21.4041   607
21.4141   636
21.4241   649
21.4341   619
21.4441   591
21.4541   569
21.4641   627
21.4741   570
21.4841   626
21.4941   589
21.5041   636
21.5141   558
21.5241   600
21.5341   604
21.5441   601
21.5541   608
21.5641   617
21.5741   642
21.5841   543
21.5941   599
21.6041   612
21.6141   624
21.6241   593
21.6341   581
21.6441   586
21.6541   601
21.6641   633
21.6741   614
21.6841   621
21.6941   587
21.7041   598
21.7141   590
21.7241   594
21.7341   618
21.7441   643
21.7541   601
21.7641   574
21.7741   587
21.7841   612
21.7941   578
21.8041   622
21.8141   591
21.8241   575
21.8341   586
21.8441   588
21.8541   630
21.8641   667
21.8741   620
21.8841   557
21.8941   583
21.9041   593
21.9141   598
21.9241   604
21.9341   571
21.9441   601
21.9541   587
21.9641   576
21.9741   604
21.9841   603
21.9941   592
22.0041   623
22.0141   608
22.0241   595
22.0341   598
22.0441   615
22.0541   602
22.0641   573
22.0741   658
22.0841   599
22.0941   560
22.1041   579
22.1141   595
22.1241   582
22.1341   562
22.1441   570
22.1541   577
22.1641   576
22.1741   596
22.1841   593
22.1941   608
22.2041   596
22.2141   617
22.2241   596
22.2341   596
22.2441   588
22.2541   605
22.2641   567
22.2741   574
22.2841   581
22.2941   604
22.3041   576
22.3141   573
22.3241   609
22.3341   589
22.3441   588
22.3541   577
22.3641   541
22.3741   546
22.3841   620
22.3941   563
22.4041   575
22.4141   585
22.4241   618
22.4341   616
22.4441   609
22.4541   604
22.4641   604
22.4741   596
22.4841   567
22.4941   621
22.5041   593
22.5141   578
22.5241   557
22.5341   612
22.5441   578
22.5541   624
22.5641   549
22.5741   579
22.5841   558
22.5941   542
22.6041   573
22.6141   598
22.6241   554
22.6341   593
22.6441   551
22.6541   614
22.6641   579
22.6741   576
22.6841   597
22.6941   572
22.7041   553
22.7141   603
22.7241   557
22.7341   587
22.7441   597
22.7541   597
22.7641   520
22.7741   569
22.7841   576
22.7941   567
22.8041   548
22.8141   585
22.8241   565
22.8341   559
22.8441   601
22.8541   547
22.8641   627
22.8741   605
22.8841   545
22.8941   560
22.9041   531
22.9141   556
22.9241   599
22.9341   544
22.9441   569
22.9541   551
22.9641   542
22.9741   583
22.9841   585
22.9941   573
23.0041   574
23.0141   603
23.0241   596
23.0341   536
23.0441   581
23.0541   545
23.0641   563
23.0741   558
23.0841   554
23.0941   601
23.1041   579
23.1141   551
23.1241   586
23.1341   543
23.1441   559
23.1541   529
23.1641   575
23.1741   588
23.1841   535
23.1941   549
23.2041   547
23.2141   531
23.2241   566
23.2341   551
23.2441   544
23.2541   540
23.2641   578
23.2741   556
23.2841   554
23.2941   575
23.3041   597
23.3141   508
23.3241   555
23.3341   507
23.3441   516
23.3541   552
23.3641   599
23.3741   545
23.3841   530
23.3941   569
23.4041   553
23.4141   553
23.4241   559
23.4341   533
23.4441   523
23.4541   515
23.4641   553
23.4741   563
23.4841   531
23.4941   544
23.5041   584
23.5141   530
23.5241   552
23.5341   523
23.5441   547
23.5541   554
23.5641   525
23.5741   536
23.5841   557
23.5941   567
23.6041   521
23.6141   536
23.6241   561
23.6341   529
23.6441   559
23.6541   568
23.6641   596
23.6741   552
23.6841   598
23.6941   524
23.7041   561
23.7141   611
23.7241   563
23.7341   557
23.7441   610
23.7541   578
23.7641   542
23.7741   565
23.7841   571
23.7941   594
23.8041   583
23.8141   571
23.8241   589
23.8341   602
23.8441   550
23.8541   575
23.8641   541
23.8741   569
23.8841   554
23.8941   568
23.9041   558
23.9141   558
23.9241   537
23.9341   555
23.9441   575
23.9541   570
23.9641   585
23.9741   556
23.9841   534
23.9941   547
24.0041   525
24.0141   537
24.0241   531
24.0341   566
24.0441   560
24.0541   543
24.0641   526
24.0741   530
24.0841   522
24.0941   548
24.1041   485
24.1141   540
24.1241   530
24.1341   539
24.1441   551
24.1541   510
24.1641   512
24.1741   524
24.1841   518
24.1941   530
24.2041   529
24.2141   492
24.2241   493
24.2341   528
24.2441   549
24.2541   537
24.2641   550
24.2741   533
24.2841   546
24.2941   522
24.3041   509
24.3141   507
24.3241   514
24.3341   556
24.3441   493
24.3541   529
24.3641   473
24.3741   542
24.3841   518
24.3941   468
24.4041   523
24.4141   544
24.4241   514
24.4341   498
24.4441   510
24.4541   500
24.4641   501
24.4741   487
24.4841   489
24.4941   481
24.5041   470
24.5141   538
24.5241   517
24.5341   529
24.5441   505
24.5541   512
24.5641   506
24.5741   484
24.5841   503
24.5941   475
24.6041   517
24.6141   527
24.6241   500
24.6341   508
24.6441   491
24.6541   478
24.6641   479
24.6741   502
24.6841   513
24.6941   533
24.7041   490
24.7141   501
24.7241   485
24.7341   509
24.7441   525
24.7541   486
24.7641   513
24.7741   516
24.7841   486
24.7941   502
24.8041   481
24.8141   489
24.8241   499
24.8341   497
24.8441   525
24.8541   502
24.8641   491
24.8741   506
24.8841   452
24.8941   469
24.9041   487
24.9141   468
24.9241   457
24.9341   513
24.9441   509
24.9541   489
24.9641   506
24.9741   520
24.9841   508
24.9941   464
25.0041   470
25.0141   517
25.0241   475
25.0341   497
25.0441   501
25.0541   473
25.0641   489
25.0741   485
25.0841   492
25.0941   485
25.1041   483
25.1141   514
25.1241   478
25.1341   463
25.1441   478
25.1541   458
25.1641   520
25.1741   544
25.1841   497
25.1941   496
25.2041   457
25.2141   511
25.2241   472
25.2341   494
25.2441   486
25.2541   500
25.2641   487
25.2741   497
25.2841   503
25.2941   522
25.3041   494
25.3141   486
25.3241   500
25.3341   544
25.3441   506
25.3541   470
25.3641   504
25.3741   457
25.3841   471
25.3941   505
25.4041   462
25.4141   482
25.4241   470
25.4341   456
25.4441   447
25.4541   454
25.4641   481
25.4741   480
25.4841   462
25.4941   462
25.5041   464
25.5141   447
25.5241   459
25.5341   496
25.5441   456
25.5541   473
25.5641   462
25.5741   455
25.5841   511
25.5941   468
25.6041   451
25.6141   469
25.6241   482
25.6341   484
25.6441   477
25.6541   453
25.6641   443
25.6741   421
25.6841   438
25.6941   499
25.7041   478
25.7141   491
25.7241   488
25.7341   489
25.7441   449
25.7541   442
25.7641   425
25.7741   473
25.7841   458
25.7941   421
25.8041   425
25.8141   466
25.8241   465
25.8341   454
25.8441   415
25.8541   461
25.8641   406
25.8741   469
25.8841   448
25.8941   462
25.9041   445
25.9141   437
25.9241   440
25.9341   487
25.9441   450
25.9541   466
25.9641   410
25.9741   448
25.9841   448
25.9941   454
26.0041   458
26.0141   447
26.0241   431
26.0341   430
26.0441   454
26.0541   430
26.0641   440
26.0741   428
26.0841   435
26.0941   439
26.1041   430
26.1141   390
26.1241   422
26.1341   473
26.1441   415
26.1541   419
26.1641   457
26.1741   417
26.1841   440
26.1941   442
26.2041   408
26.2141   417
26.2241   429
26.2341   412
26.2441   446
26.2541   435
26.2641   434
26.2741   450
26.2841   457
26.2941   423
26.3041   422
26.3141   416
26.3241   406
26.3341   442
26.3441   440
26.3541   413
26.3641   445
26.3741   466
26.3841   452
26.3941   455
26.4041   430
26.4141   430
26.4241   421
26.4341   439
26.4441   388
26.4541   450
26.4641   429
26.4741   449
26.4841   432
26.4941   404
26.5041   414
26.5141   421
26.5241   416
26.5341   427
26.5441   381
26.5541   403
26.5641   420
26.5741   452
26.5841   392
26.5941   434
26.6041   442
26.6141   430
26.6241   453
26.6341   401
26.6441   392
26.6541   414
26.6641   414
26.6741   399
26.6841   400
26.6941   410
26.7041   394
26.7141   447
26.7241   394
26.7341   402
26.7441   416
26.7541   416
26.7641   409
26.7741   384
26.7841   408
26.7941   390
26.8041   382
26.8141   402
26.8241   376
26.8341   433
26.8441   422
26.8541   418
26.8641   435
26.8741   384
26.8841   400
26.8941   394
26.9041   387
26.9141   409
26.9241   434
26.9341   387
26.9441   397
26.9541   375
26.9641   391
26.9741   405
26.9841   396
26.9941   396
27.0041   425
27.0141   404
27.0241   391
27.0341   422
27.0441   398
27.0541   392
27.0641   420
27.0741   379
27.0841   374
27.0941   380
27.1041   381
27.1141   386
27.1241   387
27.1341   383
27.1441   365
27.1541   378
27.1641   365
27.1741   376
27.1841   381
27.1941   418
27.2041   378
27.2141   399
27.2241   398
27.2341   376
27.2441   389
27.2541   402
27.2641   417
27.2741   381
27.2841   386
27.2941   402
27.3041   414
27.3141   396
27.3241   395
27.3341   376
27.3441   383
27.3541   402
27.3641   379
27.3741   373
27.3841   396
27.3941   361
27.4041   377
27.4141   420
27.4241   386
27.4341   379
27.4441   384
27.4541   370
27.4641   346
27.4741   401
27.4841   366
27.4941   379
27.5041   359
27.5141   376
27.5241   367
27.5341   365
27.5441   382
27.5541   386
27.5641   381
27.5741   388
27.5841   354
27.5941   382
27.6041   372
27.6141   358
27.6241   357
27.6341   389
27.6441   343
27.6541   355
27.6641   377
27.6741   354
27.6841   344
27.6941   351
27.7041   366
27.7141   375
27.7241   364
27.7341   360
27.7441   360
27.7541   332
27.7641   368
27.7741   361
27.7841   347
27.7941   366
27.8041   340
27.8141   342
27.8241   341
27.8341   343
27.8441   350
27.8541   364
27.8641   338
27.8741   349
27.8841   329
27.8941   395
27.9041   350
27.9141   344
27.9241   360
27.9341   339
27.9441   323
27.9541   347
27.9641   353
27.9741   351
27.9841   332
27.9941   307
28.0041   337
28.0141   331
28.0241   397
28.0341   363
28.0441   362
28.0541   344
28.0641   351
28.0741   336
28.0841   317
28.0941   347
28.1041   341
28.1141   353
28.1241   346
28.1341   329
28.1441   358
28.1541   357
28.1641   342
28.1741   357
28.1841   317
28.1941   358
28.2041   327
28.2141   333
28.2241   325
28.2341   335
28.2441   339
28.2541   316
28.2641   346
28.2741   344
28.2841   329
28.2941   321
28.3041   335
28.3141   329
28.3241   336
28.3341   326
28.3441   330
28.3541   325
28.3641   330
28.3741   326
28.3841   339
28.3941   337
28.4041   328
28.4141   330
28.4241   303
28.4341   335
28.4441   324
28.4541   348
28.4641   338
28.4741   321
28.4841   354
28.4941   360
28.5041   326
28.5141   336
28.5241   339
28.5341   351
28.5441   344
28.5541   301
28.5641   308
28.5741   301
28.5841   369
28.5941   326
28.6041   311
28.6141   305
28.6241   308
28.6341   318
28.6441   309
28.6541   330
28.6641   333
28.6741   290
28.6841   315
28.6941   333
28.7041   316
28.7141   309
28.7241   304
28.7341   310
28.7441   312
28.7541   326
28.7641   289
28.7741   312
28.7841   289
28.7941   334
28.8041   286
28.8141   313
28.8241   310
28.8341   301
28.8441   295
28.8541   326
28.8641   330
28.8741   315
28.8841   311
28.8941   316
28.9041   312
28.9141   336
28.9241   306
28.9341   300
28.9441   322
28.9541   301
28.9641   300
28.9741   329
28.9841   287
28.9941   291
29.0041   328
29.0141   301
29.0241   321
29.0341   314
29.0441   293
29.0541   310
29.0641   325
29.0741   281
29.0841   287
29.0941   317
29.1041   302
29.1141   287
29.1241   284
29.1341   345
29.1441   288
29.1541   320
29.1641   315
29.1741   330
29.1841   304
29.1941   277
29.2041   309
29.2141   324
29.2241   294
29.2341   295
29.2441   298
29.2541   317
29.2641   267
29.2741   275
29.2841   293
29.2941   306
29.3041   280
29.3141   291
29.3241   290
29.3341   295
29.3441   302
29.3541   269
29.3641   314
29.3741   273
29.3841   309
29.3941   315
29.4041   292
29.4141   280
29.4241   291
29.4341   286
29.4441   247
29.4541   290
29.4641   303
29.4741   315
29.4841   291
29.4941   286
29.5041   282
29.5141   273
29.5241   282
29.5341   286
29.5441   261
29.5541   280
29.5641   281
29.5741   281
29.5841   294
29.5941   280
29.6041   309
29.6141   245
29.6241   261
29.6341   306
29.6441   262
29.6541   271
29.6641   261
29.6741   289
29.6841   278
29.6941   255
29.7041   267
29.7141   265
29.7241   274
29.7341   309
29.7441   286
29.7541   290
29.7641   278
29.7741   280
29.7841   278
29.7941   286
29.8041   280
29.8141   265
29.8241   255
29.8341   272
29.8441   294
29.8541   268
29.8641   297
29.8741   301
29.8841   265
29.8941   268
29.9041   256
29.9141   279
29.9241   285
29.9341   289
29.9441   272
29.9541   257
29.9641   270
29.9741   251
29.9841   271
29.9941   275
30.0041   265
30.0141   276
30.0241   234
30.0341   283
30.0441   276
30.0541   239
30.0641   247
30.0741   264
30.0841   249
30.0941   238
30.1041   276
30.1141   257
30.1241   251
30.1341   239
30.1441   252
30.1541   244
30.1641   241
30.1741   238
30.1841   244
30.1941   265
30.2041   231
30.2141   222
30.2241   268
30.2341   247
30.2441   256
30.2541   243
30.2641   263
30.2741   280
30.2841   255
30.2941   255
30.3041   266
30.3141   228
30.3241   230
30.3341   273
30.3441   256
30.3541   248
30.3641   252
30.3741   265
30.3841   262
30.3941   253
30.4041   230
30.4141   270
30.4241   253
30.4341   239
30.4441   259
30.4541   251
30.4641   240
30.4741   251
30.4841   278
30.4941   228
30.5041   226
30.5141   252
30.5241   221
30.5341   265
30.5441   229
30.5541   250
30.5641   231
30.5741   253
30.5841   228
30.5941   265
30.6041   256
30.6141   242
30.6241   257
30.6341   239
30.6441   236
30.6541   228
30.6641   233
30.6741   245
30.6841   259
30.6941   233
30.7041   247
30.7141   238
30.7241   245
30.7341   233
30.7441   197
30.7541   232
30.7641   214
30.7741   231
30.7841   240
30.7941   229
30.8041   229
30.8141   277
30.8241   236
30.8341   233
30.8441   233
30.8541   226
30.8641   201
30.8741   212
30.8841   203
30.8941   241
30.9041   212
30.9141   231
30.9241   248
30.9341   230
30.9441   196
30.9541   249
30.9641   217
30.9741   234
30.9841   230
30.9941   232
31.0041   217
31.0141   235
31.0241   231
31.0341   225
31.0441   204
31.0541   234
31.0641   216
31.0741   258
31.0841   241
31.0941   206
31.1041   210
31.1141   239
31.1241   251
31.1341   219
31.1441   206
31.1541   208
31.1641   207
31.1741   244
31.1841   225
31.1941   227
31.2041   210
31.2141   201
31.2241   236
31.2341   219
31.2441   256
31.2541   202
31.2641   218
31.2741   220
31.2841   243
31.2941   211
31.3041   229
31.3141   203
31.3241   188
31.3341   248
31.3441   223
31.3541   211
31.3641   214
31.3741   227
31.3841   230
31.3941   266
31.4041   237
31.4141   202
31.4241   228
31.4341   215
31.4441   208
31.4541   213
31.4641   201
31.4741   200
31.4841   197
31.4941   191
31.5041   217
31.5141   240
31.5241   193
31.5341   200
31.5441   199
31.5541   219
31.5641   219
31.5741   200
31.5841   181
31.5941   199
31.6041   207
31.6141   196
31.6241   202
31.6341   215
31.6441   167
31.6541   172
31.6641   198
31.6741   234
31.6841   205
31.6941   185
31.7041   219
31.7141   223
31.7241   209
31.7341   205
31.7441   219
31.7541   233
31.7641   197
31.7741   200
31.7841   213
31.7941   196
31.8041   234
31.8141   200
31.8241   201
31.8341   206
31.8441   184
31.8541   220
31.8641   224
31.8741   194
31.8841   206
31.8941   196
31.9041   205
31.9141   207
31.9241   212
31.9341   218
31.9441   210
31.9541   195
31.9641   208
31.9741   201
31.9841   209
31.9941   180
32.0041   203
32.0141   185
32.0241   182
32.0341   195
32.0441   188
32.0541   178
32.0641   197
32.0741   204
32.0841   205
32.0941   200
32.1041   201
32.1141   201
32.1241   198
32.1341   181
32.1441   199
32.1541   210
32.1641   228
32.1741   196
32.1841   182
32.1941   196
32.2041   198
32.2141   185
32.2241   220
32.2341   209
32.2441   203
32.2541   197
32.2641   216
32.2741   207
32.2841   210
32.2941   198
32.3041   195
32.3141   162
32.3241   170
32.3341   175
32.3441   204
32.3541   193
32.3641   184
32.3741   180
32.3841   194
32.3941   192
32.4041   201
32.4141   167
32.4241   188
32.4341   167
32.4441   192
32.4541   175
32.4641   191
32.4741   175
32.4841   161
32.4941   197
32.5041   172
32.5141   183
32.5241   167
32.5341   172
32.5441   166
32.5541   172
32.5641   178
32.5741   175
32.5841   166
32.5941   178
32.6041   169
32.6141   197
32.6241   178
32.6341   172
32.6441   170
32.6541   164
32.6641   169
32.6741   173
32.6841   174
32.6941   163
32.7041   152
32.7141   173
32.7241   176
32.7341   192
32.7441   175
32.7541   153
32.7641   173
32.7741   164
32.7841   168
32.7941   166
32.8041   159
32.8141   157
32.8241   200
32.8341   161
32.8441   181
32.8541   152
32.8641   150
32.8741   169
32.8841   190
32.8941   180
32.9041   157
32.9141   182
32.9241   157
32.9341   159
32.9441   144
32.9541   173
32.9641   162
32.9741   179
32.9841   161
32.9941   182
33.0041   137
33.0141   150
33.0241   172
33.0341   155
33.0441   149
33.0541   149
33.0641   179
33.0741   170
33.0841   190
33.0941   157
33.1041   179
33.1141   173
33.1241   166
33.1341   132
33.1441   163
33.1541   156
33.1641   154
33.1741   146
33.1841   192
33.1941   179
33.2041   140
33.2141   161
33.2241   162
33.2341   160
33.2441   176
33.2541   171
33.2641   149
33.2741   164
33.2841   159
33.2941   148
33.3041   152
33.3141   142
33.3241   165
33.3341   151
33.3441   165
33.3541   154
33.3641   134
33.3741   141
33.3841   146
33.3941   158
33.4041   153
33.4141   154
33.4241   170
33.4341   155
33.4441   134
33.4541   120
33.4641   137
33.4741   157
33.4841   152
33.4941   159
33.5041   146
33.5141   143
33.5241   147
33.5341   145
33.5441   149
33.5541   175
33.5641   148
33.5741   138
33.5841   129
33.5941   149
33.6041   150
33.6141   139
33.6241   169
33.6341   125
33.6441   137
33.6541   129
33.6641   130
33.6741   157
33.6841   153
33.6941   147
33.7041   141
33.7141   145
33.7241   155
33.7341   138
33.7441   144
33.7541   143
33.7641   118
33.7741   146
33.7841   159
33.7941   125
33.8041   124
33.8141   137
33.8241   134
33.8341   150
33.8441   139
33.8541   136
33.8641   133
33.8741   136
33.8841   171
33.8941   139
33.9041   141
33.9141   110
33.9241   105
33.9341   129
33.9441   144
33.9541   124
33.9641   134
33.9741   116
33.9841   137
33.9941   122
34.0041   130
34.0141   113
34.0241   137
34.0341   119
34.0441   154
34.0541   147
34.0641   142
34.0741   142
34.0841   128
34.0941   128
34.1041   123
34.1141   145
34.1241   137
34.1341   150
34.1441   128
34.1541   144
34.1641   140
34.1741   130
34.1841   123
34.1941   136
34.2041   128
34.2141   119
34.2241   121
34.2341   124
34.2441   146
34.2541   118
34.2641   123
34.2741   117
34.2841   113
34.2941   122
34.3041   117
34.3141   142
34.3241   132
34.3341   130
34.3441   118
34.3541   133
34.3641   122
34.3741   108
34.3841   116
34.3941   124
34.4041   118
34.4141   125
34.4241   120
34.4341   110
34.4441   108
34.4541   119
34.4641   102
34.4741   128
34.4841   127
34.4941   116
34.5041   121
34.5141   112
34.5241   135
34.5341   116
34.5441   121
34.5541   137
34.5641   107
34.5741   124
34.5841   119
34.5941   114
34.6041   129
34.6141   107
34.6241   124
34.6341   124
34.6441   105
34.6541   121
34.6641   131
34.6741   119
34.6841   119
34.6941   115
34.7041   123
34.7141   133
34.7241   123
34.7341   126
34.7441   120
34.7541   134
34.7641   101
34.7741   106
34.7841   102
34.7941   119
34.8041   108
34.8141   107
34.8241   114
34.8341   110
34.8441    96
34.8541   111
34.8641   122
34.8741    96
34.8841   112
34.8941   120
34.9041   116
34.9141   118
34.9241   122
34.9341    93
34.9441   108
34.9541   110
34.9641   121
34.9741   107
34.9841   111
34.9941   126
35.0041   121
35.0141   113
35.0241   113
35.0341   119
35.0441   114
35.0541   108
35.0641   107
35.0741   106
35.0841   118
35.0941    98
35.1041   110
35.1141   112
35.1241   103
35.1341   110
35.1441   111
35.1541   108
35.1641   111
35.1741   122
35.1841   112
35.1941   109
35.2041   105
35.2141   100
35.2241    95
35.2341   107
35.2441   116
35.2541   106
35.2641   107
35.2741   114
35.2841   107
35.2941   115
35.3041   113
35.3141   101
35.3241    88
35.3341   112
35.3441   119
35.3541   118
35.3641    98
35.3741   103
35.3841    85
35.3941    99
35.4041   102
35.4141   106
35.4241    93
35.4341   105
35.4441   102
35.4541    76
35.4641   108
35.4741    90
35.4841    98
35.4941    93
35.5041    99
35.5141    98
35.5241    94
35.5341    91
35.5441   100
35.5541    92
35.5641   111
35.5741    96
35.5841    91
35.5941    88
35.6041    84
35.6141    88
35.6241    91
35.6341    88
35.6441   103
35.6541   113
35.6641   105
35.6741   112
35.6841    91
35.6941    84
35.7041   111
35.7141   102
35.7241    80
35.7341   103
35.7441    80
35.7541    94
35.7641    97
35.7741    87
35.7841    73
35.7941    97
35.8041    88
35.8141    79
35.8241   106
35.8341    93
35.8441    84
35.8541    88
35.8641    96
35.8741    94
35.8841    98
35.8941    94
35.9041    89
35.9141    89
35.9241    92
35.9341   100
35.9441    73
35.9541    86
35.9641    90
35.9741    78
35.9841    87
35.9941    91
36.0041   105
36.0141    85
36.0241    77
36.0341    94
36.0441    85
36.0541    86
36.0641    82
36.0741    76
36.0841    97
36.0941    77
36.1041    97
36.1141    72
36.1241    88
36.1341    81
36.1441    85
36.1541    75
36.1641    91
36.1741    85
36.1841    91
36.1941    89
36.2041    82
36.2141   103
36.2241    88
36.2341    94
36.2441    90
36.2541    82
36.2641    93
36.2741    83
36.2841    99
36.2941    97
36.3041    84
36.3141    80
36.3241    77
36.3341    94
36.3441    80
36.3541    67
36.3641    79
36.3741    69
36.3841    84
36.3941    91
36.4041    90
36.4141    74
36.4241    69
36.4341    87
36.4441    67
36.4541    83
36.4641    84
36.4741    81
36.4841    85
36.4941    87
36.5041    69
36.5141    73
36.5241    76
36.5341    86
36.5441    90
36.5541    73
36.5641    87
36.5741    66
36.5841    74
36.5941    90
36.6041    78
36.6141    80
36.6241    88
36.6341    65
36.6441    66
36.6541    75
36.6641    83
36.6741    71
36.6841    74
36.6941    62
36.7041    82
36.7141    78
36.7241    69
36.7341    80
36.7441    79
36.7541    85
36.7641    65
36.7741    69
36.7841    76
36.7941    83
36.8041    51
36.8141    66
36.8241    84
36.8341    78
36.8441    83
36.8541    78
36.8641    74
36.8741    68
36.8841    68
36.8941    69
36.9041    76
36.9141    80
36.9241    73
36.9341    81
36.9441    79
36.9541    65
36.9641    65
36.9741    66
36.9841    63
36.9941    66
37.0041    66
37.0141    76
37.0241    70
37.0341    77
37.0441    75
37.0541    69
37.0641    71
37.0741    71
37.0841    62
37.0941    60
37.1041    66
37.1141    68
37.1241    60
37.1341    64
37.1441    71
37.1541    67
37.1641    68
37.1741    79
37.1841    82
37.1941    63
37.2041    64
37.2141    58
37.2241    67
37.2341    63
37.2441    71
37.2541    63
37.2641    71
37.2741    68
37.2841    63
37.2941    69
37.3041    77
37.3141    56
37.3241    70
37.3341    77
37.3441    67
37.3541    59
37.3641    76
37.3741    66
37.3841    61
37.3941    56
37.4041    57
37.4141    69
37.4241    62
37.4341    67
37.4441    66
37.4541    58
37.4641    60
37.4741    61
37.4841    54
37.4941    67
37.5041    64
37.5141    58
37.5241    61
37.5341    59
37.5441    71
37.5541    67
37.5641    65
37.5741    64
37.5841    79
37.5941    61
37.6041    50
37.6141    49
37.6241    54
37.6341    55
37.6441    59
37.6541    50
37.6641    59
37.6741    54
37.6841    53
37.6941    61
37.7041    58
37.7141    64
37.7241    67
37.7341    64
37.7441    61
37.7541    59
37.7641    46
37.7741    55
37.7841    63
37.7941    64
37.8041    61
37.8141    51
37.8241    50
37.8341    47
37.8441    48
37.8541    49
37.8641    55
37.8741    51
37.8841    58
37.8941    59
37.9041    53
37.9141    55
37.9241    49
37.9341    49
37.9441    58
37.9541    52
37.9641    52
37.9741    55
37.9841    47
37.9941    48
38.0041    53
38.0141    58
38.0241    58
38.0341    45
38.0441    59
38.0541    49
38.0641    56
38.0741    61
38.0841    42
38.0941    53
38.1041    49
38.1141    59
38.1241    57
38.1341    54
38.1441    45
38.1541    49
38.1641    50
38.1741    53
38.1841    40
38.1941    52
38.2041    51
38.2141    49
38.2241    52
38.2341    53
38.2441    41
38.2541    42
38.2641    51
38.2741    41
38.2841    42
38.2941    49
38.3041    46
38.3141    40
38.3241    48
38.3341    44
38.3441    39
38.3541    44
38.3641    52
38.3741    57
38.3841    44
38.3941    40
38.4041    58
38.4141    49
38.4241    52
38.4341    36
38.4441    45
38.4541    61
38.4641    42
38.4741    43
38.4841    38
38.4941    43
38.5041    44
38.5141    56
38.5241    50
38.5341    51
38.5441    45
38.5541    43
38.5641    36
38.5741    48
38.5841    57
38.5941    24
38.6041    38
38.6141    28
38.6241    41
38.6341    54
38.6441    44
38.6541    41
38.6641    47
38.6741    44
38.6841    46
38.6941    43
38.7041    42
38.7141    61
38.7241    44
38.7341    48
38.7441    37
38.7541    35
38.7641    40
38.7741    32
38.7841    46
38.7941    49
38.8041    50
38.8141    48
38.8241    40
38.8341    50
38.8441    45
38.8541    36
38.8641    47
38.8741    36
38.8841    38
38.8941    41
38.9041    43
38.9141    41
38.9241    31
38.9341    39
38.9441    44
38.9541    53
38.9641    40
38.9741    41
38.9841    38
38.9941    40
39.0041    42
39.0141    33
39.0241    42
39.0341    24
39.0441    39
39.0541    49
39.0641    29
39.0741    39
39.0841    41
39.0941    50
39.1041    39
39.1141    37
39.1241    34
39.1341    36
39.1441    39
39.1541    47
39.1641    45
39.1741    42
39.1841    39
39.1941    42
39.2041    34
39.2141    32
39.2241    26
39.2341    43
39.2441    40
39.2541    53
39.2641    30
39.2741    30
39.2841    36
39.2941    30
39.3041    33
39.3141    37
39.3241    36
39.3341    31
39.3441    35
39.3541    33
39.3641    39
39.3741    28
39.3841    39
39.3941    37
39.4041    36
39.4141    23
39.4241    43
39.4341    37
39.4441    28
39.4541    31
39.4641    35
39.4741    30
39.4841    34
39.4941    35
39.5041    42
39.5141    38
39.5241    31
39.5341    31
39.5441    29
39.5541    26
39.5641    31
39.5741    32
39.5841    33
39.5941    30
39.6041    36
39.6141    32
39.6241    27
39.6341    31
39.6441    31
39.6541    27
39.6641    31
39.6741    23
39.6841    27
39.6941    32
39.7041    34
39.7141    29
39.7241    31
39.7341    33
39.7441    27
39.7541    25
39.7641    27
39.7741    31
39.7841    28
39.7941    32
39.8041    26
39.8141    22
39.8241    26
39.8341    26
39.8441    32
39.8541    34
39.8641    36
39.8741    23
39.8841    27
39.8941    41
39.9041    30
39.9141    30
39.9241    29
39.9341    30
39.9441    28
39.9541    30
39.9641    32
39.9741    34
39.9841    33
