Bruker Nano GmbH Berlin, Germany
Esprit 1.9

Date: 5/14/2021 3:53:18 PM
Real time: 20283
Life time: 19066
Pulse density: 86568


Detector type: XFlash 430
Window type: Custom type
Detector thickness: 0.45
Si dead layer:0.029

Calibration, lin.: 10
Calibration, abs.: -955.9
Mn FWHM: 137.05
Fano factor: 0.121
Channels: 4096

Energy Counts
-0.9559     0
-0.9459     0
-0.9359     0
-0.9259     0
-0.9159     0
-0.9059     0
-0.8959     0
-0.8859     0
-0.8759     0
-0.8659     0
-0.8559     0
-0.8459     0
-0.8359     0
-0.8259     0
-0.8159     0
-0.8059     0
-0.7959     0
-0.7859     0
-0.7759     0
-0.7659     0
-0.7559     0
-0.7459     0
-0.7359     0
-0.7259     0
-0.7159     0
-0.7059     0
-0.6959     0
-0.6859     0
-0.6759     0
-0.6659     0
-0.6559     0
-0.6459     0
-0.6359     0
-0.6259     0
-0.6159     0
-0.6059     0
-0.5959     0
-0.5859     0
-0.5759     0
-0.5659     0
-0.5559     0
-0.5459     0
-0.5359     0
-0.5259     0
-0.5159     0
-0.5059     0
-0.4959     0
-0.4859     0
-0.4759     0
-0.4659     0
-0.4559     0
-0.4459     0
-0.4359     0
-0.4259     0
-0.4159     0
-0.4059     0
-0.3959     0
-0.3859     0
-0.3759     0
-0.3659     0
-0.3559     0
-0.3459     0
-0.3359     0
-0.3259     0
-0.3159     0
-0.3059     0
-0.2959     0
-0.2859     0
-0.2759     0
-0.2659     0
-0.2559     0
-0.2459     0
-0.2359     0
-0.2259     0
-0.2159     0
-0.2059     0
-0.1959     0
-0.1859     0
-0.1759     0
-0.1659     0
-0.1559     1
-0.1459     0
-0.1359     0
-0.1259     0
-0.1159     4
-0.1059     9
-0.0959    40
-0.0859   193
-0.0759   743
-0.0659  2265
-0.0559  5483
-0.0459 12102
-0.0359 22830
-0.0259 36330
-0.0159 49766
-0.0059 58347
 0.0041 58455
 0.0141 50367
 0.0241 37579
 0.0341 23820
 0.0441 12898
 0.0541  5983
 0.0641  2371
 0.0741   836
 0.0841   234
 0.0941    69
 0.1041    21
 0.1141    11
 0.1241     6
 0.1341     8
 0.1441    10
 0.1541     3
 0.1641     4
 0.1741     3
 0.1841   168
 0.1941   331
 0.2041   294
 0.2141   308
 0.2241   327
 0.2341   316
 0.2441   337
 0.2541   309
 0.2641   316
 0.2741   320
 0.2841   303
 0.2941   299
 0.3041   293
 0.3141   300
 0.3241   299
 0.3341   282
 0.3441   281
 0.3541   285
 0.3641   288
 0.3741   271
 0.3841   279
 0.3941   272
 0.4041   289
 0.4141   286
 0.4241   287
 0.4341   301
 0.4441   265
 0.4541   287
 0.4641   279
 0.4741   276
 0.4841   269
 0.4941   248
 0.5041   258
 0.5141   269
 0.5241   270
 0.5341   280
 0.5441   271
 0.5541   246
 0.5641   253
 0.5741   260
 0.5841   257
 0.5941   256
 0.6041   262
 0.6141   263
 0.6241   252
 0.6341   249
 0.6441   227
 0.6541   236
 0.6641   239
 0.6741   234
 0.6841   232
 0.6941   237
 0.7041   246
 0.7141   252
 0.7241   239
 0.7341   222
 0.7441   233
 0.7541   236
 0.7641   248
 0.7741   244
 0.7841   247
 0.7941   242
 0.8041   239
 0.8141   239
 0.8241   227
 0.8341   201
 0.8441   203
 0.8541   209
 0.8641   203
 0.8741   216
 0.8841   229
 0.8941   227
 0.9041   209
 0.9141   202
 0.9241   208
 0.9341   224
 0.9441   209
 0.9541   205
 0.9641   206
 0.9741   210
 0.9841   210
 0.9941   212
 1.0041   212
 1.0141   199
 1.0241   224
 1.0341   207
 1.0441   221
 1.0541   201
 1.0641   197
 1.0741   197
 1.0841   192
 1.0941   208
 1.1041   198
 1.1141   194
 1.1241   199
 1.1341   196
 1.1441   176
 1.1541   180
 1.1641   168
 1.1741   180
 1.1841   192
 1.1941   191
 1.2041   207
 1.2141   182
 1.2241   177
 1.2341   190
 1.2441   183
 1.2541   198
 1.2641   214
 1.2741   181
 1.2841   188
 1.2941   178
 1.3041   171
 1.3141   152
 1.3241   195
 1.3341   176
 1.3441   189
 1.3541   190
 1.3641   182
 1.3741   180
 1.3841   177
 1.3941   198
 1.4041   190
 1.4141   157
 1.4241   191
 1.4341   172
 1.4441   181
 1.4541   192
 1.4641   197
 1.4741   182
 1.4841   200
 1.4941   185
 1.5041   188
 1.5141   174
 1.5241   185
 1.5341   169
 1.5441   180
 1.5541   171
 1.5641   166
 1.5741   184
 1.5841   175
 1.5941   158
 1.6041   158
 1.6141   167
 1.6241   159
 1.6341   202
 1.6441   222
 1.6541   220
 1.6641   241
 1.6741   341
 1.6841   378
 1.6941   460
 1.7041   582
 1.7141   655
 1.7241   784
 1.7341   800
 1.7441   736
 1.7541   682
 1.7641   600
 1.7741   522
 1.7841   419
 1.7941   374
 1.8041   356
 1.8141   288
 1.8241   278
 1.8341   245
 1.8441   229
 1.8541   203
 1.8641   213
 1.8741   205
 1.8841   216
 1.8941   214
 1.9041   205
 1.9141   206
 1.9241   179
 1.9341   191
 1.9441   174
 1.9541   195
 1.9641   195
 1.9741   189
 1.9841   211
 1.9941   237
 2.0041   217
 2.0141   217
 2.0241   218
 2.0341   232
 2.0441   200
 2.0541   180
 2.0641   193
 2.0741   165
 2.0841   195
 2.0941   196
 2.1041   196
 2.1141   161
 2.1241   160
 2.1341   188
 2.1441   162
 2.1541   158
 2.1641   170
 2.1741   156
 2.1841   165
 2.1941   181
 2.2041   165
 2.2141   140
 2.2241   150
 2.2341   155
 2.2441   193
 2.2541   133
 2.2641   136
 2.2741   153
 2.2841   142
 2.2941   170
 2.3041   139
 2.3141   163
 2.3241   163
 2.3341   153
 2.3441   136
 2.3541   162
 2.3641   155
 2.3741   154
 2.3841   171
 2.3941   158
 2.4041   141
 2.4141   145
 2.4241   141
 2.4341   137
 2.4441   140
 2.4541   161
 2.4641   137
 2.4741   168
 2.4841   149
 2.4941   150
 2.5041   129
 2.5141   114
 2.5241   128
 2.5341   132
 2.5441   128
 2.5541   141
 2.5641   130
 2.5741   152
 2.5841   145
 2.5941   140
 2.6041   140
 2.6141   134
 2.6241   147
 2.6341   126
 2.6441   149
 2.6541   138
 2.6641   150
 2.6741   125
 2.6841   135
 2.6941   150
 2.7041   147
 2.7141   129
 2.7241   146
 2.7341   118
 2.7441   130
 2.7541   139
 2.7641   125
 2.7741   137
 2.7841   121
 2.7941   153
 2.8041   144
 2.8141   128
 2.8241   124
 2.8341   143
 2.8441   146
 2.8541   129
 2.8641   136
 2.8741   105
 2.8841   139
 2.8941   134
 2.9041   122
 2.9141   132
 2.9241   123
 2.9341   113
 2.9441   147
 2.9541   136
 2.9641   132
 2.9741   158
 2.9841   160
 2.9941   127
 3.0041   133
 3.0141   130
 3.0241   137
 3.0341   125
 3.0441   121
 3.0541   125
 3.0641   115
 3.0741   120
 3.0841   106
 3.0941   115
 3.1041   121
 3.1141   119
 3.1241    92
 3.1341   115
 3.1441    96
 3.1541   100
 3.1641   120
 3.1741   113
 3.1841   131
 3.1941   117
 3.2041   126
 3.2141   134
 3.2241   120
 3.2341   140
 3.2441   158
 3.2541   181
 3.2641   193
 3.2741   214
 3.2841   225
 3.2941   271
 3.3041   244
 3.3141   280
 3.3241   240
 3.3341   254
 3.3441   230
 3.3541   196
 3.3641   186
 3.3741   166
 3.3841   133
 3.3941   129
 3.4041   136
 3.4141   127
 3.4241   127
 3.4341   106
 3.4441   117
 3.4541    96
 3.4641   110
 3.4741   112
 3.4841   125
 3.4941   122
 3.5041   128
 3.5141   147
 3.5241   164
 3.5341   202
 3.5441   243
 3.5541   287
 3.5641   415
 3.5741   561
 3.5841   802
 3.5941  1159
 3.6041  1563
 3.6141  2099
 3.6241  2767
 3.6341  3503
 3.6441  4354
 3.6541  5054
 3.6641  5945
 3.6741  6449
 3.6841  6642
 3.6941  6867
 3.7041  6546
 3.7141  5951
 3.7241  5234
 3.7341  4453
 3.7441  3644
 3.7541  2827
 3.7641  2131
 3.7741  1596
 3.7841  1070
 3.7941   765
 3.8041   518
 3.8141   357
 3.8241   263
 3.8341   196
 3.8441   167
 3.8541   142
 3.8641   154
 3.8741   163
 3.8841   177
 3.8941   215
 3.9041   262
 3.9141   291
 3.9241   422
 3.9341   519
 3.9441   611
 3.9541   742
 3.9641   898
 3.9741  1076
 3.9841  1209
 3.9941  1301
 4.0041  1396
 4.0141  1377
 4.0241  1441
 4.0341  1246
 4.0441  1184
 4.0541  1054
 4.0641   848
 4.0741   667
 4.0841   539
 4.0941   436
 4.1041   322
 4.1141   243
 4.1241   173
 4.1341   154
 4.1441   127
 4.1541   107
 4.1641    83
 4.1741    83
 4.1841    78
 4.1941    78
 4.2041    79
 4.2141    85
 4.2241    76
 4.2341    78
 4.2441    77
 4.2541    73
 4.2641    79
 4.2741    75
 4.2841    53
 4.2941    75
 4.3041    96
 4.3141    76
 4.3241    97
 4.3341    61
 4.3441    86
 4.3541    70
 4.3641    79
 4.3741   104
 4.3841    91
 4.3941    91
 4.4041   116
 4.4141   125
 4.4241   178
 4.4341   171
 4.4441   201
 4.4541   216
 4.4641   246
 4.4741   285
 4.4841   293
 4.4941   319
 4.5041   326
 4.5141   295
 4.5241   280
 4.5341   301
 4.5441   247
 4.5541   230
 4.5641   212
 4.5741   180
 4.5841   154
 4.5941   142
 4.6041   121
 4.6141   122
 4.6241   114
 4.6341    91
 4.6441   109
 4.6541    87
 4.6641    89
 4.6741   105
 4.6841    79
 4.6941    86
 4.7041    84
 4.7141    86
 4.7241    82
 4.7341    72
 4.7441    78
 4.7541    91
 4.7641    88
 4.7741    84
 4.7841    79
 4.7941    72
 4.8041    84
 4.8141    97
 4.8241    88
 4.8341    88
 4.8441   117
 4.8541   104
 4.8641   102
 4.8741   110
 4.8841   124
 4.8941   136
 4.9041   129
 4.9141   107
 4.9241   145
 4.9341   129
 4.9441   150
 4.9541   123
 4.9641   135
 4.9741    99
 4.9841   104
 4.9941   106
 5.0041   108
 5.0141   104
 5.0241   103
 5.0341   110
 5.0441    78
 5.0541    84
 5.0641    71
 5.0741    81
 5.0841    97
 5.0941    74
 5.1041    90
 5.1141    91
 5.1241   115
 5.1341    95
 5.1441    80
 5.1541    98
 5.1641    82
 5.1741    74
 5.1841    84
 5.1941    75
 5.2041    74
 5.2141   103
 5.2241    80
 5.2341    70
 5.2441    76
 5.2541    96
 5.2641    78
 5.2741    77
 5.2841    80
 5.2941    78
 5.3041    94
 5.3141    71
 5.3241    90
 5.3341   103
 5.3441   102
 5.3541   100
 5.3641   101
 5.3741   113
 5.3841   112
 5.3941    97
 5.4041   114
 5.4141   103
 5.4241   116
 5.4341   110
 5.4441   101
 5.4541    98
 5.4641    96
 5.4741   106
 5.4841   101
 5.4941   126
 5.5041    84
 5.5141    81
 5.5241    99
 5.5341    78
 5.5441   101
 5.5541    98
 5.5641    79
 5.5741    87
 5.5841    94
 5.5941    99
 5.6041    91
 5.6141    79
 5.6241    83
 5.6341    77
 5.6441    99
 5.6541    76
 5.6641    93
 5.6741    91
 5.6841    74
 5.6941    89
 5.7041    86
 5.7141   108
 5.7241    99
 5.7341   105
 5.7441    94
 5.7541   113
 5.7641   117
 5.7741   121
 5.7841   114
 5.7941   124
 5.8041   145
 5.8141   150
 5.8241   171
 5.8341   184
 5.8441   199
 5.8541   237
 5.8641   229
 5.8741   247
 5.8841   232
 5.8941   229
 5.9041   235
 5.9141   242
 5.9241   283
 5.9341   217
 5.9441   195
 5.9541   203
 5.9641   173
 5.9741   183
 5.9841   154
 5.9941   125
 6.0041   115
 6.0141   108
 6.0241   123
 6.0341   145
 6.0441   118
 6.0541   122
 6.0641   116
 6.0741    79
 6.0841   114
 6.0941   128
 6.1041   103
 6.1141   124
 6.1241   125
 6.1341   108
 6.1441   122
 6.1541   122
 6.1641   135
 6.1741   150
 6.1841   180
 6.1941   177
 6.2041   214
 6.2141   268
 6.2241   311
 6.2341   397
 6.2441   523
 6.2541   707
 6.2641  1090
 6.2741  1406
 6.2841  1763
 6.2941  2409
 6.3041  3125
 6.3141  3764
 6.3241  4861
 6.3341  5679
 6.3441  6767
 6.3541  7524
 6.3641  8485
 6.3741  9174
 6.3841  9639
 6.3941 10049
 6.4041  9855
 6.4141  9691
 6.4241  8912
 6.4341  8295
 6.4441  7424
 6.4541  6417
 6.4641  5454
 6.4741  4520
 6.4841  3551
 6.4941  2868
 6.5041  2208
 6.5141  1599
 6.5241  1209
 6.5341   879
 6.5441   647
 6.5541   499
 6.5641   330
 6.5741   280
 6.5841   221
 6.5941   195
 6.6041   168
 6.6141   147
 6.6241   153
 6.6341   123
 6.6441   156
 6.6541   125
 6.6641   154
 6.6741   123
 6.6841   148
 6.6941   125
 6.7041   133
 6.7141   146
 6.7241   164
 6.7341   132
 6.7441   133
 6.7541   133
 6.7641   132
 6.7741   135
 6.7841   151
 6.7941   169
 6.8041   180
 6.8141   164
 6.8241   160
 6.8341   179
 6.8441   192
 6.8541   175
 6.8641   159
 6.8741   212
 6.8841   222
 6.8941   260
 6.9041   267
 6.9141   394
 6.9241   414
 6.9341   461
 6.9441   613
 6.9541   673
 6.9641   836
 6.9741   913
 6.9841  1045
 6.9941  1248
 7.0041  1316
 7.0141  1478
 7.0241  1568
 7.0341  1696
 7.0441  1699
 7.0541  1797
 7.0641  1771
 7.0741  1624
 7.0841  1577
 7.0941  1528
 7.1041  1307
 7.1141  1168
 7.1241  1039
 7.1341   903
 7.1441   737
 7.1541   578
 7.1641   495
 7.1741   452
 7.1841   386
 7.1941   303
 7.2041   263
 7.2141   264
 7.2241   202
 7.2341   189
 7.2441   210
 7.2541   199
 7.2641   202
 7.2741   216
 7.2841   220
 7.2941   213
 7.3041   197
 7.3141   214
 7.3241   207
 7.3341   251
 7.3441   283
 7.3541   250
 7.3641   279
 7.3741   235
 7.3841   276
 7.3941   283
 7.4041   261
 7.4141   253
 7.4241   252
 7.4341   256
 7.4441   254
 7.4541   261
 7.4641   266
 7.4741   270
 7.4841   233
 7.4941   232
 7.5041   240
 7.5141   247
 7.5241   206
 7.5341   208
 7.5441   196
 7.5541   202
 7.5641   205
 7.5741   188
 7.5841   183
 7.5941   199
 7.6041   219
 7.6141   210
 7.6241   195
 7.6341   186
 7.6441   225
 7.6541   179
 7.6641   195
 7.6741   216
 7.6841   208
 7.6941   218
 7.7041   200
 7.7141   190
 7.7241   209
 7.7341   204
 7.7441   204
 7.7541   223
 7.7641   228
 7.7741   215
 7.7841   268
 7.7941   235
 7.8041   243
 7.8141   260
 7.8241   246
 7.8341   251
 7.8441   277
 7.8541   281
 7.8641   270
 7.8741   290
 7.8841   292
 7.8941   309
 7.9041   326
 7.9141   322
 7.9241   359
 7.9341   359
 7.9441   411
 7.9541   410
 7.9641   418
 7.9741   477
 7.9841   518
 7.9941   568
 8.0041   612
 8.0141   631
 8.0241   696
 8.0341   766
 8.0441   776
 8.0541   810
 8.0641   891
 8.0741   903
 8.0841   954
 8.0941  1057
 8.1041  1073
 8.1141  1141
 8.1241  1197
 8.1341  1223
 8.1441  1240
 8.1541  1307
 8.1641  1321
 8.1741  1317
 8.1841  1354
 8.1941  1367
 8.2041  1303
 8.2141  1370
 8.2241  1422
 8.2341  1403
 8.2441  1474
 8.2541  1551
 8.2641  1553
 8.2741  1652
 8.2841  1841
 8.2941  1870
 8.3041  2085
 8.3141  2258
 8.3241  2389
 8.3341  2594
 8.3441  2691
 8.3541  2855
 8.3641  2960
 8.3741  3032
 8.3841  3070
 8.3941  3124
 8.4041  2994
 8.4141  2857
 8.4241  2782
 8.4341  2465
 8.4441  2252
 8.4541  2048
 8.4641  1874
 8.4741  1652
 8.4841  1400
 8.4941  1205
 8.5041   976
 8.5141   851
 8.5241   749
 8.5341   646
 8.5441   519
 8.5541   476
 8.5641   440
 8.5741   434
 8.5841   423
 8.5941   396
 8.6041   373
 8.6141   382
 8.6241   359
 8.6341   364
 8.6441   407
 8.6541   385
 8.6641   384
 8.6741   393
 8.6841   397
 8.6941   357
 8.7041   336
 8.7141   379
 8.7241   325
 8.7341   320
 8.7441   359
 8.7541   327
 8.7641   319
 8.7741   328
 8.7841   333
 8.7941   328
 8.8041   322
 8.8141   279
 8.8241   326
 8.8341   292
 8.8441   302
 8.8541   317
 8.8641   339
 8.8741   343
 8.8841   314
 8.8941   299
 8.9041   320
 8.9141   316
 8.9241   297
 8.9341   329
 8.9441   330
 8.9541   312
 8.9641   340
 8.9741   326
 8.9841   341
 8.9941   383
 9.0041   356
 9.0141   388
 9.0241   410
 9.0341   395
 9.0441   418
 9.0541   413
 9.0641   419
 9.0741   439
 9.0841   433
 9.0941   465
 9.1041   453
 9.1141   455
 9.1241   497
 9.1341   528
 9.1441   525
 9.1541   575
 9.1641   544
 9.1741   613
 9.1841   614
 9.1941   672
 9.2041   691
 9.2141   711
 9.2241   782
 9.2341   833
 9.2441   827
 9.2541   881
 9.2641   934
 9.2741   981
 9.2841   967
 9.2941  1004
 9.3041  1050
 9.3141  1059
 9.3241  1118
 9.3341  1209
 9.3441  1218
 9.3541  1267
 9.3641  1292
 9.3741  1329
 9.3841  1312
 9.3941  1305
 9.4041  1331
 9.4141  1343
 9.4241  1423
 9.4341  1393
 9.4441  1425
 9.4541  1422
 9.4641  1381
 9.4741  1449
 9.4841  1433
 9.4941  1477
 9.5041  1525
 9.5141  1605
 9.5241  1607
 9.5341  1743
 9.5441  1694
 9.5541  1831
 9.5641  1958
 9.5741  2047
 9.5841  2126
 9.5941  2279
 9.6041  2381
 9.6141  2573
 9.6241  2699
 9.6341  2740
 9.6441  2809
 9.6541  2846
 9.6641  2887
 9.6741  2856
 9.6841  2839
 9.6941  2769
 9.7041  2631
 9.7141  2469
 9.7241  2424
 9.7341  2249
 9.7441  2081
 9.7541  1821
 9.7641  1720
 9.7741  1603
 9.7841  1538
 9.7941  1434
 9.8041  1346
 9.8141  1270
 9.8241  1223
 9.8341  1163
 9.8441  1103
 9.8541  1140
 9.8641  1160
 9.8741  1215
 9.8841  1158
 9.8941  1206
 9.9041  1234
 9.9141  1290
 9.9241  1245
 9.9341  1332
 9.9441  1304
 9.9541  1199
 9.9641  1254
 9.9741  1223
 9.9841  1179
 9.9941  1115
10.0041  1091
10.0141  1027
10.0241   919
10.0341   829
10.0441   787
10.0541   706
10.0641   614
10.0741   557
10.0841   503
10.0941   438
10.1041   400
10.1141   372
10.1241   336
10.1341   337
10.1441   298
10.1541   291
10.1641   246
10.1741   252
10.1841   272
10.1941   241
10.2041   243
10.2141   223
10.2241   234
10.2341   217
10.2441   209
10.2541   193
10.2641   199
10.2741   208
10.2841   182
10.2941   173
10.3041   177
10.3141   182
10.3241   187
10.3341   170
10.3441   185
10.3541   179
10.3641   163
10.3741   167
10.3841   181
10.3941   164
10.4041   173
10.4141   173
10.4241   163
10.4341   164
10.4441   160
10.4541   196
10.4641   184
10.4741   175
10.4841   157
10.4941   178
10.5041   185
10.5141   190
10.5241   183
10.5341   186
10.5441   191
10.5541   196
10.5641   184
10.5741   176
10.5841   182
10.5941   186
10.6041   187
10.6141   191
10.6241   184
10.6341   193
10.6441   208
10.6541   199
10.6641   192
10.6741   201
10.6841   236
10.6941   226
10.7041   195
10.7141   224
10.7241   208
10.7341   218
10.7441   237
10.7541   239
10.7641   225
10.7741   238
10.7841   261
10.7941   245
10.8041   262
10.8141   281
10.8241   278
10.8341   276
10.8441   269
10.8541   288
10.8641   289
10.8741   284
10.8841   313
10.8941   289
10.9041   311
10.9141   300
10.9241   285
10.9341   273
10.9441   283
10.9541   280
10.9641   291
10.9741   284
10.9841   290
10.9941   267
11.0041   281
11.0141   269
11.0241   263
11.0341   263
11.0441   266
11.0541   283
11.0641   275
11.0741   265
11.0841   245
11.0941   246
11.1041   274
11.1141   278
11.1241   257
11.1341   276
11.1441   277
11.1541   271
11.1641   299
11.1741   296
11.1841   303
11.1941   317
11.2041   334
11.2141   356
11.2241   369
11.2341   379
11.2441   393
11.2541   409
11.2641   414
11.2741   415
11.2841   411
11.2941   445
11.3041   399
11.3141   404
11.3241   381
11.3341   388
11.3441   400
11.3541   353
11.3641   327
11.3741   318
11.3841   282
11.3941   264
11.4041   261
11.4141   242
11.4241   239
11.4341   218
11.4441   227
11.4541   213
11.4641   212
11.4741   208
11.4841   201
11.4941   198
11.5041   207
11.5141   210
11.5241   222
11.5341   211
11.5441   216
11.5541   237
11.5641   229
11.5741   227
11.5841   217
11.5941   207
11.6041   220
11.6141   223
11.6241   223
11.6341   221
11.6441   207
11.6541   217
11.6641   225
11.6741   217
11.6841   220
11.6941   213
11.7041   189
11.7141   192
11.7241   198
11.7341   182
11.7441   197
11.7541   185
11.7641   183
11.7741   194
11.7841   190
11.7941   176
11.8041   178
11.8141   178
11.8241   186
11.8341   173
11.8441   168
11.8541   183
11.8641   198
11.8741   186
11.8841   172
11.8941   188
11.9041   195
11.9141   178
11.9241   178
11.9341   183
11.9441   186
11.9541   198
11.9641   193
11.9741   186
11.9841   183
11.9941   189
12.0041   181
12.0141   175
12.0241   177
12.0341   172
12.0441   191
12.0541   178
12.0641   178
12.0741   185
12.0841   167
12.0941   162
12.1041   168
12.1141   166
12.1241   162
12.1341   154
12.1441   155
12.1541   168
12.1641   166
12.1741   163
12.1841   159
12.1941   160
12.2041   160
12.2141   147
12.2241   134
12.2341   141
12.2441   156
12.2541   155
12.2641   157
12.2741   146
12.2841   145
12.2941   155
12.3041   156
12.3141   166
12.3241   165
12.3341   150
12.3441   148
12.3541   148
12.3641   145
12.3741   155
12.3841   163
12.3941   156
12.4041   159
12.4141   156
12.4241   150
12.4341   164
12.4441   163
12.4541   156
12.4641   144
12.4741   161
12.4841   172
12.4941   167
12.5041   163
12.5141   170
12.5241   173
12.5341   171
12.5441   172
12.5541   165
12.5641   164
12.5741   163
12.5841   165
12.5941   160
12.6041   173
12.6141   182
12.6241   185
12.6341   188
12.6441   179
12.6541   168
12.6641   167
12.6741   179
12.6841   189
12.6941   170
12.7041   167
12.7141   181
12.7241   192
12.7341   196
12.7441   172
12.7541   169
12.7641   184
12.7741   169
12.7841   158
12.7941   158
12.8041   165
12.8141   183
12.8241   179
12.8341   180
12.8441   184
12.8541   172
12.8641   177
12.8741   174
12.8841   184
12.8941   179
12.9041   168
12.9141   181
12.9241   182
12.9341   181
12.9441   181
12.9541   181
12.9641   180
12.9741   174
12.9841   166
12.9941   176
13.0041   190
13.0141   170
13.0241   161
13.0341   171
13.0441   172
13.0541   187
13.0641   201
13.0741   189
13.0841   175
13.0941   196
13.1041   195
13.1141   176
13.1241   182
13.1341   188
13.1441   191
13.1541   197
13.1641   191
13.1741   192
13.1841   190
13.1941   192
13.2041   219
13.2141   221
13.2241   217
13.2341   210
13.2441   208
13.2541   218
13.2641   226
13.2741   231
13.2841   235
13.2941   241
13.3041   248
13.3141   264
13.3241   269
13.3341   262
13.3441   265
13.3541   285
13.3641   282
13.3741   274
13.3841   273
13.3941   276
13.4041   297
13.4141   282
13.4241   259
13.4341   249
13.4441   258
13.4541   246
13.4641   226
13.4741   237
13.4841   233
13.4941   230
13.5041   228
13.5141   223
13.5241   213
13.5341   219
13.5441   226
13.5541   205
13.5641   213
13.5741   230
13.5841   216
13.5941   215
13.6041   216
13.6141   215
13.6241   223
13.6341   228
13.6441   229
13.6541   228
13.6641   225
13.6741   219
13.6841   217
13.6941   218
13.7041   214
13.7141   206
13.7241   205
13.7341   196
13.7441   199
13.7541   214
13.7641   217
13.7741   220
13.7841   221
13.7941   246
13.8041   256
13.8141   231
13.8241   224
13.8341   214
13.8441   220
13.8541   222
13.8641   211
13.8741   234
13.8841   241
13.8941   225
13.9041   241
13.9141   239
13.9241   244
13.9341   261
13.9441   248
13.9541   277
13.9641   293
13.9741   309
13.9841   312
13.9941   298
14.0041   320
14.0141   350
14.0241   374
14.0341   399
14.0441   418
14.0541   434
14.0641   472
14.0741   491
14.0841   492
14.0941   510
14.1041   539
14.1141   553
14.1241   548
14.1341   544
14.1441   542
14.1541   534
14.1641   542
14.1741   561
14.1841   548
14.1941   507
14.2041   501
14.2141   491
14.2241   463
14.2341   443
14.2441   419
14.2541   406
14.2641   388
14.2741   374
14.2841   341
14.2941   297
14.3041   296
14.3141   296
14.3241   280
14.3341   263
14.3441   261
14.3541   275
14.3641   272
14.3741   254
14.3841   235
14.3941   234
14.4041   260
14.4141   271
14.4241   267
14.4341   262
14.4441   259
14.4541   254
14.4641   247
14.4741   250
14.4841   253
14.4941   266
14.5041   280
14.5141   267
14.5241   245
14.5341   245
14.5441   264
14.5541   265
14.5641   265
14.5741   262
14.5841   261
14.5941   252
14.6041   251
14.6141   284
14.6241   284
14.6341   268
14.6441   260
14.6541   272
14.6641   291
14.6741   281
14.6841   265
14.6941   268
14.7041   280
14.7141   281
14.7241   282
14.7341   270
14.7441   254
14.7541   275
14.7641   289
14.7741   278
14.7841   262
14.7941   266
14.8041   288
14.8141   292
14.8241   273
14.8341   294
14.8441   326
14.8541   308
14.8641   317
14.8741   320
14.8841   319
14.8941   288
14.9041   277
14.9141   305
14.9241   320
14.9341   316
14.9441   308
14.9541   311
14.9641   308
14.9741   311
14.9841   293
14.9941   277
15.0041   285
15.0141   292
15.0241   276
15.0341   270
15.0441   291
15.0541   312
15.0641   300
15.0741   276
15.0841   280
15.0941   308
15.1041   293
15.1141   303
15.1241   308
15.1341   281
15.1441   279
15.1541   299
15.1641   284
15.1741   273
15.1841   295
15.1941   315
15.2041   315
15.2141   300
15.2241   310
15.2341   313
15.2441   312
15.2541   291
15.2641   292
15.2741   301
15.2841   311
15.2941   303
15.3041   309
15.3141   305
15.3241   284
15.3341   294
15.3441   313
15.3541   318
15.3641   312
15.3741   304
15.3841   294
15.3941   311
15.4041   327
15.4141   332
15.4241   332
15.4341   348
15.4441   324
15.4541   308
15.4641   312
15.4741   307
15.4841   310
15.4941   323
15.5041   342
15.5141   327
15.5241   319
15.5341   337
15.5441   345
15.5541   368
15.5641   406
15.5741   386
15.5841   396
15.5941   401
15.6041   385
15.6141   392
15.6241   437
15.6341   438
15.6441   437
15.6541   467
15.6641   485
15.6741   498
15.6841   482
15.6941   477
15.7041   525
15.7141   536
15.7241   553
15.7341   590
15.7441   588
15.7541   557
15.7641   532
15.7741   545
15.7841   572
15.7941   586
15.8041   583
15.8141   551
15.8241   552
15.8341   568
15.8441   529
15.8541   486
15.8641   485
15.8741   469
15.8841   441
15.8941   480
15.9041   441
15.9141   436
15.9241   413
15.9341   385
15.9441   372
15.9541   360
15.9641   365
15.9741   382
15.9841   387
15.9941   378
16.0041   370
16.0141   359
16.0241   375
16.0341   388
16.0441   377
16.0541   359
16.0641   361
16.0741   348
16.0841   360
16.0941   383
16.1041   394
16.1141   372
16.1241   367
16.1341   382
16.1441   350
16.1541   346
16.1641   375
16.1741   388
16.1841   379
16.1941   366
16.2041   351
16.2141   368
16.2241   363
16.2341   350
16.2441   360
16.2541   389
16.2641   419
16.2741   403
16.2841   372
16.2941   362
16.3041   372
16.3141   387
16.3241   366
16.3341   372
16.3441   390
16.3541   386
16.3641   395
16.3741   376
16.3841   365
16.3941   374
16.4041   384
16.4141   399
16.4241   402
16.4341   416
16.4441   379
16.4541   347
16.4641   382
16.4741   393
16.4841   404
16.4941   389
16.5041   381
16.5141   380
16.5241   381
16.5341   395
16.5441   410
16.5541   432
16.5641   424
16.5741   419
16.5841   409
16.5941   414
16.6041   414
16.6141   409
16.6241   410
16.6341   401
16.6441   435
16.6541   415
16.6641   396
16.6741   399
16.6841   389
16.6941   433
16.7041   413
16.7141   410
16.7241   411
16.7341   385
16.7441   406
16.7541   414
16.7641   398
16.7741   400
16.7841   403
16.7941   389
16.8041   425
16.8141   415
16.8241   396
16.8341   400
16.8441   429
16.8541   404
16.8641   400
16.8741   402
16.8841   398
16.8941   403
16.9041   415
16.9141   419
16.9241   411
16.9341   398
16.9441   404
16.9541   399
16.9641   411
16.9741   425
16.9841   436
16.9941   413
17.0041   420
17.0141   419
17.0241   431
17.0341   428
17.0441   436
17.0541   431
17.0641   414
17.0741   419
17.0841   433
17.0941   447
17.1041   421
17.1141   424
17.1241   433
17.1341   468
17.1441   451
17.1541   414
17.1641   452
17.1741   439
17.1841   431
17.1941   462
17.2041   450
17.2141   450
17.2241   444
17.2341   453
17.2441   433
17.2541   431
17.2641   457
17.2741   428
17.2841   428
17.2941   436
17.3041   435
17.3141   431
17.3241   445
17.3341   462
17.3441   470
17.3541   447
17.3641   425
17.3741   446
17.3841   483
17.3941   458
17.4041   443
17.4141   453
17.4241   455
17.4341   431
17.4441   450
17.4541   448
17.4641   455
17.4741   477
17.4841   494
17.4941   473
17.5041   465
17.5141   455
17.5241   456
17.5341   468
17.5441   494
17.5541   528
17.5641   498
17.5741   469
17.5841   482
17.5941   483
17.6041   484
17.6141   489
17.6241   508
17.6341   511
17.6441   487
17.6541   514
17.6641   492
17.6741   507
17.6841   528
17.6941   516
17.7041   524
17.7141   465
17.7241   504
17.7341   486
17.7441   496
17.7541   513
17.7641   516
17.7741   507
17.7841   456
17.7941   508
17.8041   507
17.8141   484
17.8241   474
17.8341   486
17.8441   475
17.8541   497
17.8641   498
17.8741   490
17.8841   480
17.8941   488
17.9041   474
17.9141   477
17.9241   497
17.9341   495
17.9441   471
17.9541   508
17.9641   507
17.9741   505
17.9841   495
17.9941   486
18.0041   493
18.0141   496
18.0241   512
18.0341   510
18.0441   529
18.0541   525
18.0641   520
18.0741   512
18.0841   502
18.0941   526
18.1041   501
18.1141   483
18.1241   521
18.1341   510
18.1441   494
18.1541   493
18.1641   498
18.1741   493
18.1841   478
18.1941   512
18.2041   507
18.2141   482
18.2241   501
18.2341   494
18.2441   515
18.2541   505
18.2641   511
18.2741   522
18.2841   482
18.2941   505
18.3041   485
18.3141   523
18.3241   529
18.3341   534
18.3441   510
18.3541   487
18.3641   522
18.3741   504
18.3841   508
18.3941   527
18.4041   506
18.4141   527
18.4241   511
18.4341   507
18.4441   511
18.4541   553
18.4641   514
18.4741   537
18.4841   516
18.4941   488
18.5041   514
18.5141   520
18.5241   532
18.5341   523
18.5441   536
18.5541   521
18.5641   497
18.5741   500
18.5841   523
18.5941   495
18.6041   522
18.6141   529
18.6241   533
18.6341   535
18.6441   520
18.6541   511
18.6641   499
18.6741   507
18.6841   529
18.6941   507
18.7041   504
18.7141   514
18.7241   529
18.7341   564
18.7441   547
18.7541   540
18.7641   521
18.7741   500
18.7841   533
18.7941   552
18.8041   549
18.8141   512
18.8241   508
18.8341   535
18.8441   550
18.8541   554
18.8641   556
18.8741   546
18.8841   526
18.8941   531
18.9041   519
18.9141   552
18.9241   556
18.9341   495
18.9441   503
18.9541   541
18.9641   514
18.9741   518
18.9841   537
18.9941   555
19.0041   537
19.0141   538
19.0241   568
19.0341   538
19.0441   546
19.0541   543
19.0641   567
19.0741   533
19.0841   546
19.0941   519
19.1041   529
19.1141   519
19.1241   522
19.1341   507
19.1441   542
19.1541   540
19.1641   536
19.1741   522
19.1841   574
19.1941   542
19.2041   519
19.2141   550
19.2241   543
19.2341   526
19.2441   530
19.2541   566
19.2641   583
19.2741   535
19.2841   559
19.2941   592
19.3041   541
19.3141   549
19.3241   572
19.3341   569
19.3441   561
19.3541   534
19.3641   567
19.3741   586
19.3841   600
19.3941   545
19.4041   531
19.4141   562
19.4241   548
19.4341   529
19.4441   538
19.4541   521
19.4641   542
19.4741   542
19.4841   563
19.4941   577
19.5041   545
19.5141   563
19.5241   582
19.5341   551
19.5441   568
19.5541   592
19.5641   545
19.5741   568
19.5841   590
19.5941   581
19.6041   551
19.6141   561
19.6241   552
19.6341   568
19.6441   580
19.6541   579
19.6641   591
19.6741   555
19.6841   571
19.6941   571
19.7041   575
19.7141   538
19.7241   545
19.7341   531
19.7441   550
19.7541   560
19.7641   567
19.7741   558
19.7841   555
19.7941   549
19.8041   565
19.8141   565
19.8241   613
19.8341   595
19.8441   585
19.8541   576
19.8641   616
19.8741   590
19.8841   590
19.8941   608
19.9041   580
19.9141   542
19.9241   582
19.9341   563
19.9441   544
19.9541   625
19.9641   592
19.9741   594
19.9841   572
19.9941   557
20.0041   571
20.0141   578
20.0241   564
20.0341   611
20.0441   574
20.0541   619
20.0641   634
20.0741   558
20.0841   588
20.0941   607
20.1041   581
20.1141   562
20.1241   575
20.1341   590
20.1441   583
20.1541   596
20.1641   562
20.1741   567
20.1841   532
20.1941   558
20.2041   601
20.2141   585
20.2241   597
20.2341   591
20.2441   588
20.2541   579
20.2641   584
20.2741   555
20.2841   595
20.2941   585
20.3041   569
20.3141   582
20.3241   539
20.3341   584
20.3441   590
20.3541   587
20.3641   613
20.3741   565
20.3841   574
20.3941   575
20.4041   600
20.4141   637
20.4241   568
20.4341   597
20.4441   566
20.4541   601
20.4641   607
20.4741   590
20.4841   580
20.4941   591
20.5041   599
20.5141   619
20.5241   586
20.5341   590
20.5441   577
20.5541   548
20.5641   571
20.5741   562
20.5841   602
20.5941   575
20.6041   594
20.6141   617
20.6241   604
20.6341   605
20.6441   573
20.6541   571
20.6641   616
20.6741   608
20.6841   580
20.6941   573
20.7041   575
20.7141   596
20.7241   602
20.7341   600
20.7441   596
20.7541   627
20.7641   626
20.7741   644
20.7841   613
20.7941   649
20.8041   621
20.8141   606
20.8241   627
20.8341   613
20.8441   670
20.8541   642
20.8641   651
20.8741   665
20.8841   659
20.8941   672
20.9041   714
20.9141   691
20.9241   674
20.9341   711
20.9441   766
20.9541   763
20.9641   822
20.9741   749
20.9841   751
20.9941   793
21.0041   822
21.0141   855
21.0241   771
21.0341   802
21.0441   845
21.0541   884
21.0641   875
21.0741   883
21.0841   886
21.0941   883
21.1041   821
21.1141   823
21.1241   846
21.1341   906
21.1441   873
21.1541   861
21.1641   867
21.1741   886
21.1841   903
21.1941   884
21.2041   881
21.2141   858
21.2241   835
21.2341   804
21.2441   781
21.2541   766
21.2641   748
21.2741   789
21.2841   720
21.2941   651
21.3041   711
21.3141   686
21.3241   660
21.3341   684
21.3441   697
21.3541   646
21.3641   634
21.3741   619
21.3841   636
21.3941   621
21.4041   642
21.4141   623
21.4241   592
21.4341   619
21.4441   622
21.4541   620
21.4641   598
21.4741   627
21.4841   606
21.4941   639
21.5041   643
21.5141   596
21.5241   578
21.5341   636
21.5441   569
21.5541   600
21.5641   575
21.5741   587
21.5841   593
21.5941   573
21.6041   613
21.6141   603
21.6241   578
21.6341   620
21.6441   592
21.6541   600
21.6641   601
21.6741   597
21.6841   570
21.6941   566
21.7041   589
21.7141   602
21.7241   588
21.7341   615
21.7441   624
21.7541   639
21.7641   615
21.7741   611
21.7841   599
21.7941   569
21.8041   582
21.8141   586
21.8241   684
21.8341   612
21.8441   621
21.8541   605
21.8641   603
21.8741   597
21.8841   581
21.8941   617
21.9041   589
21.9141   584
21.9241   578
21.9341   607
21.9441   572
21.9541   557
21.9641   585
21.9741   596
21.9841   602
21.9941   604
22.0041   581
22.0141   621
22.0241   644
22.0341   590
22.0441   584
22.0541   594
22.0641   617
22.0741   620
22.0841   668
22.0941   597
22.1041   582
22.1141   590
22.1241   579
22.1341   606
22.1441   649
22.1541   602
22.1641   603
22.1741   597
22.1841   608
22.1941   593
22.2041   587
22.2141   653
22.2241   616
22.2341   595
22.2441   583
22.2541   570
22.2641   646
22.2741   592
22.2841   606
22.2941   623
22.3041   615
22.3141   582
22.3241   588
22.3341   632
22.3441   610
22.3541   641
22.3641   613
22.3741   600
22.3841   643
22.3941   580
22.4041   626
22.4141   611
22.4241   555
22.4341   631
22.4441   585
22.4541   609
22.4641   598
22.4741   568
22.4841   608
22.4941   633
22.5041   595
22.5141   604
22.5241   622
22.5341   573
22.5441   625
22.5541   557
22.5641   606
22.5741   595
22.5841   565
22.5941   610
22.6041   604
22.6141   643
22.6241   601
22.6341   619
22.6441   611
22.6541   625
22.6641   613
22.6741   576
22.6841   652
22.6941   598
22.7041   546
22.7141   573
22.7241   601
22.7341   608
22.7441   591
22.7541   607
22.7641   608
22.7741   583
22.7841   581
22.7941   583
22.8041   585
22.8141   643
22.8241   602
22.8341   589
22.8441   613
22.8541   643
22.8641   589
22.8741   543
22.8841   554
22.8941   569
22.9041   552
22.9141   577
22.9241   580
22.9341   588
22.9441   590
22.9541   636
22.9641   574
22.9741   553
22.9841   622
22.9941   600
23.0041   586
23.0141   549
23.0241   601
23.0341   577
23.0441   557
23.0541   612
23.0641   561
23.0741   582
23.0841   629
23.0941   566
23.1041   574
23.1141   544
23.1241   582
23.1341   561
23.1441   538
23.1541   551
23.1641   548
23.1741   584
23.1841   562
23.1941   634
23.2041   553
23.2141   596
23.2241   594
23.2341   541
23.2441   591
23.2541   581
23.2641   543
23.2741   592
23.2841   582
23.2941   606
23.3041   584
23.3141   583
23.3241   614
23.3341   572
23.3441   570
23.3541   575
23.3641   579
23.3741   587
23.3841   549
23.3941   571
23.4041   570
23.4141   597
23.4241   602
23.4341   565
23.4441   616
23.4541   563
23.4641   558
23.4741   574
23.4841   601
23.4941   564
23.5041   568
23.5141   566
23.5241   561
23.5341   585
23.5441   619
23.5541   573
23.5641   545
23.5741   591
23.5841   566
23.5941   579
23.6041   559
23.6141   548
23.6241   609
23.6341   616
23.6441   594
23.6541   568
23.6641   595
23.6741   564
23.6841   652
23.6941   642
23.7041   609
23.7141   615
23.7241   646
23.7341   588
23.7441   605
23.7541   601
23.7641   591
23.7741   581
23.7841   640
23.7941   623
23.8041   637
23.8141   583
23.8241   615
23.8341   628
23.8441   639
23.8541   629
23.8641   589
23.8741   628
23.8841   627
23.8941   591
23.9041   602
23.9141   588
23.9241   596
23.9341   557
23.9441   571
23.9541   613
23.9641   603
23.9741   596
23.9841   583
23.9941   558
24.0041   538
24.0141   569
24.0241   589
24.0341   529
24.0441   578
24.0541   604
24.0641   592
24.0741   574
24.0841   558
24.0941   568
24.1041   553
24.1141   559
24.1241   605
24.1341   535
24.1441   546
24.1541   546
24.1641   577
24.1741   515
24.1841   551
24.1941   581
24.2041   537
24.2141   517
24.2241   563
24.2341   580
24.2441   568
24.2541   594
24.2641   562
24.2741   564
24.2841   568
24.2941   548
24.3041   567
24.3141   564
24.3241   565
24.3341   553
24.3441   540
24.3541   561
24.3641   560
24.3741   547
24.3841   586
24.3941   551
24.4041   570
24.4141   543
24.4241   566
24.4341   551
24.4441   557
24.4541   531
24.4641   566
24.4741   541
24.4841   575
24.4941   549
24.5041   559
24.5141   516
24.5241   547
24.5341   548
24.5441   535
24.5541   563
24.5641   494
24.5741   547
24.5841   540
24.5941   539
24.6041   529
24.6141   528
24.6241   566
24.6341   553
24.6441   517
24.6541   563
24.6641   531
24.6741   556
24.6841   572
24.6941   525
24.7041   536
24.7141   552
24.7241   554
24.7341   549
24.7441   562
24.7541   540
24.7641   549
24.7741   559
24.7841   522
24.7941   506
24.8041   544
24.8141   539
24.8241   516
24.8341   510
24.8441   524
24.8541   538
24.8641   501
24.8741   537
24.8841   526
24.8941   579
24.9041   545
24.9141   529
24.9241   532
24.9341   542
24.9441   539
24.9541   494
24.9641   532
24.9741   548
24.9841   553
24.9941   570
25.0041   560
25.0141   539
25.0241   555
25.0341   551
25.0441   531
25.0541   521
25.0641   534
25.0741   516
25.0841   550
25.0941   501
25.1041   487
25.1141   517
25.1241   551
25.1341   533
25.1441   535
25.1541   532
25.1641   520
25.1741   538
25.1841   543
25.1941   524
25.2041   543
25.2141   519
25.2241   518
25.2341   538
25.2441   536
25.2541   572
25.2641   522
25.2741   511
25.2841   533
25.2941   521
25.3041   524
25.3141   568
25.3241   497
25.3341   522
25.3441   563
25.3541   529
25.3641   518
25.3741   536
25.3841   548
25.3941   509
25.4041   501
25.4141   501
25.4241   498
25.4341   520
25.4441   509
25.4541   515
25.4641   500
25.4741   519
25.4841   504
25.4941   516
25.5041   501
25.5141   474
25.5241   513
25.5341   491
25.5441   485
25.5541   479
25.5641   495
25.5741   492
25.5841   500
25.5941   513
25.6041   493
25.6141   486
25.6241   516
25.6341   485
25.6441   463
25.6541   459
25.6641   502
25.6741   482
25.6841   474
25.6941   479
25.7041   516
25.7141   502
25.7241   482
25.7341   482
25.7441   492
25.7541   489
25.7641   504
25.7741   473
25.7841   493
25.7941   462
25.8041   498
25.8141   484
25.8241   487
25.8341   470
25.8441   477
25.8541   472
25.8641   463
25.8741   496
25.8841   473
25.8941   478
25.9041   494
25.9141   495
25.9241   499
25.9341   477
25.9441   474
25.9541   489
25.9641   448
25.9741   477
25.9841   501
25.9941   495
26.0041   460
26.0141   509
26.0241   470
26.0341   523
26.0441   456
26.0541   444
26.0641   497
26.0741   492
26.0841   488
26.0941   529
26.1041   511
26.1141   467
26.1241   471
26.1341   488
26.1441   519
26.1541   488
26.1641   462
26.1741   486
26.1841   468
26.1941   472
26.2041   477
26.2141   462
26.2241   485
26.2341   449
26.2441   470
26.2541   461
26.2641   487
26.2741   456
26.2841   448
26.2941   463
26.3041   493
26.3141   475
26.3241   463
26.3341   461
26.3441   454
26.3541   456
26.3641   439
26.3741   489
26.3841   478
26.3941   475
26.4041   458
26.4141   469
26.4241   480
26.4341   450
26.4441   437
26.4541   446
26.4641   477
26.4741   445
26.4841   469
26.4941   468
26.5041   472
26.5141   433
26.5241   436
26.5341   460
26.5441   454
26.5541   460
26.5641   481
26.5741   479
26.5841   456
26.5941   438
26.6041   467
26.6141   457
26.6241   443
26.6341   469
26.6441   447
26.6541   443
26.6641   395
26.6741   447
26.6841   418
26.6941   439
26.7041   449
26.7141   446
26.7241   453
26.7341   422
26.7441   477
26.7541   448
26.7641   448
26.7741   453
26.7841   450
26.7941   454
26.8041   432
26.8141   433
26.8241   415
26.8341   462
26.8441   474
26.8541   443
26.8641   411
26.8741   445
26.8841   436
26.8941   451
26.9041   427
26.9141   420
26.9241   425
26.9341   420
26.9441   415
26.9541   475
26.9641   435
26.9741   457
26.9841   417
26.9941   441
27.0041   440
27.0141   411
27.0241   436
27.0341   427
27.0441   427
27.0541   431
27.0641   448
27.0741   436
27.0841   471
27.0941   438
27.1041   420
27.1141   432
27.1241   468
27.1341   441
27.1441   434
27.1541   403
27.1641   473
27.1741   424
27.1841   449
27.1941   434
27.2041   425
27.2141   438
27.2241   417
27.2341   403
27.2441   429
27.2541   437
27.2641   433
27.2741   468
27.2841   421
27.2941   408
27.3041   433
27.3141   450
27.3241   408
27.3341   421
27.3441   399
27.3541   448
27.3641   460
27.3741   427
27.3841   397
27.3941   429
27.4041   448
27.4141   399
27.4241   416
27.4341   427
27.4441   421
27.4541   407
27.4641   409
27.4741   426
27.4841   406
27.4941   406
27.5041   478
27.5141   435
27.5241   416
27.5341   404
27.5441   376
27.5541   400
27.5641   409
27.5741   441
27.5841   421
27.5941   388
27.6041   388
27.6141   421
27.6241   413
27.6341   364
27.6441   424
27.6541   410
27.6641   430
27.6741   435
27.6841   433
27.6941   391
27.7041   414
27.7141   391
27.7241   371
27.7341   426
27.7441   400
27.7541   414
27.7641   425
27.7741   386
27.7841   419
27.7941   407
27.8041   420
27.8141   424
27.8241   392
27.8341   385
27.8441   405
27.8541   406
27.8641   371
27.8741   409
27.8841   422
27.8941   383
27.9041   369
27.9141   400
27.9241   389
27.9341   382
27.9441   371
27.9541   376
27.9641   373
27.9741   394
27.9841   416
27.9941   384
28.0041   389
28.0141   407
28.0241   404
28.0341   390
28.0441   401
28.0541   375
28.0641   384
28.0741   350
28.0841   404
28.0941   382
28.1041   382
28.1141   399
28.1241   372
28.1341   421
28.1441   402
28.1541   374
28.1641   402
28.1741   387
28.1841   350
28.1941   367
28.2041   373
28.2141   375
28.2241   379
28.2341   347
28.2441   368
28.2541   385
28.2641   379
28.2741   374
28.2841   363
28.2941   365
28.3041   376
28.3141   342
28.3241   326
28.3341   388
28.3441   375
28.3541   382
28.3641   378
28.3741   385
28.3841   367
28.3941   393
28.4041   356
28.4141   388
28.4241   385
28.4341   338
28.4441   342
28.4541   360
28.4641   394
28.4741   354
28.4841   343
28.4941   360
28.5041   365
28.5141   359
28.5241   366
28.5341   367
28.5441   336
28.5541   418
28.5641   393
28.5741   393
28.5841   336
28.5941   368
28.6041   360
28.6141   404
28.6241   350
28.6341   381
28.6441   380
28.6541   342
28.6641   326
28.6741   393
28.6841   352
28.6941   351
28.7041   340
28.7141   352
28.7241   373
28.7341   364
28.7441   345
28.7541   327
28.7641   362
28.7741   351
28.7841   353
28.7941   361
28.8041   353
28.8141   357
28.8241   357
28.8341   363
28.8441   347
28.8541   367
28.8641   367
28.8741   334
28.8841   329
28.8941   340
28.9041   316
28.9141   320
28.9241   334
28.9341   332
28.9441   333
28.9541   343
28.9641   358
28.9741   338
28.9841   374
28.9941   337
29.0041   327
29.0141   335
29.0241   342
29.0341   348
29.0441   372
29.0541   363
29.0641   366
29.0741   327
29.0841   315
29.0941   350
29.1041   317
29.1141   333
29.1241   376
29.1341   331
29.1441   337
29.1541   338
29.1641   341
29.1741   332
29.1841   326
29.1941   343
29.2041   315
29.2141   329
29.2241   313
29.2341   311
29.2441   335
29.2541   331
29.2641   337
29.2741   302
29.2841   334
29.2941   335
29.3041   346
29.3141   326
29.3241   321
29.3341   310
29.3441   338
29.3541   309
29.3641   328
29.3741   348
29.3841   326
29.3941   335
29.4041   322
29.4141   327
29.4241   366
29.4341   335
29.4441   313
29.4541   304
29.4641   326
29.4741   318
29.4841   307
29.4941   311
29.5041   307
29.5141   344
29.5241   318
29.5341   339
29.5441   317
29.5541   327
29.5641   303
29.5741   325
29.5841   343
29.5941   354
29.6041   306
29.6141   303
29.6241   345
29.6341   319
29.6441   287
29.6541   312
29.6641   298
29.6741   290
29.6841   300
29.6941   310
29.7041   317
29.7141   305
29.7241   327
29.7341   314
29.7441   287
29.7541   291
29.7641   304
29.7741   304
29.7841   303
29.7941   319
29.8041   306
29.8141   322
29.8241   288
29.8341   305
29.8441   333
29.8541   311
29.8641   303
29.8741   304
29.8841   318
29.8941   302
29.9041   290
29.9141   315
29.9241   295
29.9341   308
29.9441   285
29.9541   311
29.9641   283
29.9741   302
29.9841   299
29.9941   305
30.0041   307
30.0141   285
30.0241   301
30.0341   286
30.0441   304
30.0541   293
30.0641   292
30.0741   311
30.0841   273
30.0941   282
30.1041   312
30.1141   282
30.1241   298
30.1341   303
30.1441   273
30.1541   249
30.1641   273
30.1741   276
30.1841   286
30.1941   289
30.2041   296
30.2141   280
30.2241   285
30.2341   284
30.2441   276
30.2541   269
30.2641   298
30.2741   291
30.2841   272
30.2941   302
30.3041   285
30.3141   292
30.3241   263
30.3341   278
30.3441   278
30.3541   279
30.3641   272
30.3741   277
30.3841   277
30.3941   264
30.4041   277
30.4141   270
30.4241   275
30.4341   294
30.4441   299
30.4541   302
30.4641   291
30.4741   273
30.4841   283
30.4941   271
30.5041   265
30.5141   275
30.5241   260
30.5341   269
30.5441   280
30.5541   282
30.5641   266
30.5741   283
30.5841   251
30.5941   295
30.6041   278
30.6141   293
30.6241   268
30.6341   296
30.6441   294
30.6541   252
30.6641   279
30.6741   265
30.6841   281
30.6941   296
30.7041   281
30.7141   255
30.7241   244
30.7341   252
30.7441   248
30.7541   279
30.7641   258
30.7741   254
30.7841   275
30.7941   274
30.8041   256
30.8141   308
30.8241   290
30.8341   279
30.8441   258
30.8541   254
30.8641   250
30.8741   261
30.8841   244
30.8941   279
30.9041   265
30.9141   239
30.9241   256
30.9341   249
30.9441   264
30.9541   246
30.9641   242
30.9741   257
30.9841   262
30.9941   242
31.0041   238
31.0141   252
31.0241   272
31.0341   246
31.0441   248
31.0541   236
31.0641   238
31.0741   251
31.0841   257
31.0941   269
31.1041   266
31.1141   286
31.1241   248
31.1341   286
31.1441   246
31.1541   229
31.1641   253
31.1741   267
31.1841   235
31.1941   250
31.2041   248
31.2141   228
31.2241   249
31.2341   280
31.2441   257
31.2541   240
31.2641   267
31.2741   238
31.2841   239
31.2941   231
31.3041   248
31.3141   259
31.3241   237
31.3341   248
31.3441   238
31.3541   258
31.3641   238
31.3741   214
31.3841   264
31.3941   240
31.4041   233
31.4141   245
31.4241   241
31.4341   238
31.4441   240
31.4541   234
31.4641   226
31.4741   225
31.4841   250
31.4941   242
31.5041   245
31.5141   227
31.5241   262
31.5341   261
31.5441   236
31.5541   236
31.5641   229
31.5741   222
31.5841   228
31.5941   221
31.6041   242
31.6141   211
31.6241   252
31.6341   242
31.6441   224
31.6541   223
31.6641   219
31.6741   225
31.6841   196
31.6941   240
31.7041   234
31.7141   243
31.7241   211
31.7341   237
31.7441   208
31.7541   247
31.7641   219
31.7741   249
31.7841   248
31.7941   255
31.8041   235
31.8141   236
31.8241   196
31.8341   229
31.8441   226
31.8541   244
31.8641   246
31.8741   217
31.8841   235
31.8941   246
31.9041   244
31.9141   226
31.9241   202
31.9341   240
31.9441   241
31.9541   235
31.9641   241
31.9741   227
31.9841   236
31.9941   229
32.0041   220
32.0141   242
32.0241   217
32.0341   207
32.0441   219
32.0541   236
32.0641   199
32.0741   228
32.0841   235
32.0941   223
32.1041   249
32.1141   225
32.1241   217
32.1341   215
32.1441   237
32.1541   205
32.1641   200
32.1741   200
32.1841   217
32.1941   216
32.2041   211
32.2141   204
32.2241   201
32.2341   206
32.2441   196
32.2541   217
32.2641   205
32.2741   203
32.2841   220
32.2941   202
32.3041   202
32.3141   212
32.3241   203
32.3341   215
32.3441   182
32.3541   217
32.3641   213
32.3741   238
32.3841   207
32.3941   202
32.4041   197
32.4141   220
32.4241   203
32.4341   222
32.4441   213
32.4541   207
32.4641   219
32.4741   203
32.4841   202
32.4941   174
32.5041   180
32.5141   187
32.5241   200
32.5341   210
32.5441   211
32.5541   201
32.5641   198
32.5741   207
32.5841   185
32.5941   191
32.6041   216
32.6141   179
32.6241   201
32.6341   209
32.6441   199
32.6541   197
32.6641   206
32.6741   213
32.6841   183
32.6941   191
32.7041   174
32.7141   196
32.7241   185
32.7341   157
32.7441   197
32.7541   205
32.7641   190
32.7741   207
32.7841   190
32.7941   196
32.8041   199
32.8141   184
32.8241   177
32.8341   195
32.8441   193
32.8541   192
32.8641   196
32.8741   194
32.8841   210
32.8941   201
32.9041   216
32.9141   175
32.9241   199
32.9341   177
32.9441   196
32.9541   186
32.9641   185
32.9741   170
32.9841   178
32.9941   164
33.0041   184
33.0141   199
33.0241   174
33.0341   181
33.0441   187
33.0541   204
33.0641   182
33.0741   174
33.0841   198
33.0941   193
33.1041   176
33.1141   177
33.1241   180
33.1341   190
33.1441   174
33.1541   160
33.1641   182
33.1741   165
33.1841   177
33.1941   158
33.2041   172
33.2141   163
33.2241   195
33.2341   179
33.2441   190
33.2541   170
33.2641   152
33.2741   172
33.2841   165
33.2941   184
33.3041   186
33.3141   166
33.3241   169
33.3341   162
33.3441   183
33.3541   155
33.3641   191
33.3741   145
33.3841   191
33.3941   178
33.4041   167
33.4141   180
33.4241   164
33.4341   173
33.4441   166
33.4541   156
33.4641   156
33.4741   189
33.4841   168
33.4941   186
33.5041   162
33.5141   171
33.5241   185
33.5341   157
33.5441   148
33.5541   159
33.5641   154
33.5741   174
33.5841   186
33.5941   165
33.6041   150
33.6141   157
33.6241   169
33.6341   153
33.6441   173
33.6541   163
33.6641   148
33.6741   159
33.6841   156
33.6941   163
33.7041   168
33.7141   156
33.7241   172
33.7341   167
33.7441   141
33.7541   144
33.7641   166
33.7741   180
33.7841   167
33.7941   161
33.8041   158
33.8141   171
33.8241   141
33.8341   141
33.8441   160
33.8541   140
33.8641   141
33.8741   157
33.8841   166
33.8941   174
33.9041   138
33.9141   158
33.9241   146
33.9341   142
33.9441   148
33.9541   158
33.9641   155
33.9741   163
33.9841   158
33.9941   159
34.0041   132
34.0141   158
34.0241   172
34.0341   155
34.0441   158
34.0541   179
34.0641   163
34.0741   136
34.0841   148
34.0941   166
34.1041   130
34.1141   137
34.1241   128
34.1341   151
34.1441   146
34.1541   137
34.1641   153
34.1741   163
34.1841   159
34.1941   145
34.2041   146
34.2141   141
34.2241   144
34.2341   149
34.2441   154
34.2541   133
34.2641   124
34.2741   159
34.2841   133
34.2941   152
34.3041   136
34.3141   152
34.3241   143
34.3341   152
34.3441   143
34.3541   169
34.3641   134
34.3741   149
34.3841   146
34.3941   134
34.4041   136
34.4141   125
34.4241   151
34.4341   130
34.4441   142
34.4541   154
34.4641   142
34.4741   152
34.4841   125
34.4941   136
34.5041   156
34.5141   155
34.5241   139
34.5341   154
34.5441   134
34.5541   146
34.5641   129
34.5741   127
34.5841   142
34.5941   132
34.6041   136
34.6141   152
34.6241   136
34.6341   124
34.6441   130
34.6541   136
34.6641   148
34.6741   132
34.6841   149
34.6941   130
34.7041   132
34.7141   100
34.7241   142
34.7341   138
34.7441   115
34.7541   128
34.7641   131
34.7741   136
34.7841   129
34.7941   125
34.8041   139
34.8141   123
34.8241   125
34.8341   127
34.8441   129
34.8541   118
34.8641   137
34.8741   125
34.8841   134
34.8941   110
34.9041   115
34.9141   130
34.9241   124
34.9341   126
34.9441   151
34.9541   104
34.9641   138
34.9741   132
34.9841   126
34.9941   122
35.0041   117
35.0141   153
35.0241   144
35.0341   136
35.0441   138
35.0541   114
35.0641   108
35.0741   121
35.0841   125
35.0941   120
35.1041   131
35.1141   124
35.1241   122
35.1341   127
35.1441   124
35.1541   122
35.1641   113
35.1741   136
35.1841   115
35.1941   129
35.2041   115
35.2141   125
35.2241   129
35.2341   131
35.2441   132
35.2541   136
35.2641   120
35.2741   112
35.2841   136
35.2941   121
35.3041   117
35.3141   114
35.3241   141
35.3341   114
35.3441   128
35.3541   110
35.3641   123
35.3741   117
35.3841   111
35.3941   116
35.4041   127
35.4141   117
35.4241   142
35.4341   127
35.4441   115
35.4541   111
35.4641   115
35.4741   129
35.4841   108
35.4941   108
35.5041   117
35.5141   113
35.5241   106
35.5341    96
35.5441   109
35.5541   107
35.5641   107
35.5741   100
35.5841   105
35.5941   113
35.6041   115
35.6141   115
35.6241   124
35.6341   101
35.6441   117
35.6541   126
35.6641   114
35.6741   111
35.6841   108
35.6941    98
35.7041   116
35.7141   117
35.7241   104
35.7341   114
35.7441   108
35.7541   107
35.7641   123
35.7741   114
35.7841   102
35.7941   103
35.8041   114
35.8141   112
35.8241    98
35.8341    89
35.8441   118
35.8541   109
35.8641   112
35.8741   109
35.8841   102
35.8941   109
35.9041   131
35.9141   105
35.9241    96
35.9341    97
35.9441   103
35.9541   108
35.9641    97
35.9741    93
35.9841    98
35.9941    98
36.0041    77
36.0141    91
36.0241    96
36.0341    97
36.0441    85
36.0541   116
36.0641    91
36.0741   105
36.0841   118
36.0941   127
36.1041   103
36.1141    82
36.1241    79
36.1341   104
36.1441    93
36.1541    87
36.1641   106
36.1741    95
36.1841    86
36.1941   111
36.2041   101
36.2141    98
36.2241    93
36.2341   114
36.2441   103
36.2541   103
36.2641    89
36.2741    88
36.2841    92
36.2941    84
36.3041    88
36.3141   115
36.3241   100
36.3341   103
36.3441    84
36.3541    98
36.3641    93
36.3741    94
36.3841    97
36.3941    86
36.4041   100
36.4141    89
36.4241    84
36.4341    86
36.4441   101
36.4541    91
36.4641    94
36.4741   102
36.4841   106
36.4941    81
36.5041   107
36.5141    88
36.5241    92
36.5341    96
36.5441    90
36.5541    87
36.5641   117
36.5741   103
36.5841    80
36.5941    94
36.6041    91
36.6141    94
36.6241    96
36.6341    79
36.6441    83
36.6541    93
36.6641    80
36.6741    89
36.6841    74
36.6941    91
36.7041    90
36.7141    77
36.7241   107
36.7341   111
36.7441    89
36.7541    78
36.7641    80
36.7741    77
36.7841    75
36.7941    96
36.8041    88
36.8141    97
36.8241    90
36.8341    89
36.8441   111
36.8541    83
36.8641    94
36.8741    74
36.8841    68
36.8941    80
36.9041    85
36.9141    90
36.9241   100
36.9341    89
36.9441    91
36.9541    90
36.9641    82
36.9741    92
36.9841    76
36.9941    79
37.0041    86
37.0141    90
37.0241    74
37.0341    82
37.0441    84
37.0541    84
37.0641    79
37.0741    89
37.0841    77
37.0941    84
37.1041    76
37.1141    85
37.1241    81
37.1341    77
37.1441    96
37.1541    81
37.1641    84
37.1741    94
37.1841    79
37.1941    80
37.2041    71
37.2141    72
37.2241    93
37.2341    73
37.2441    64
37.2541    74
37.2641    74
37.2741    73
37.2841    86
37.2941    67
37.3041    82
37.3141    71
37.3241    71
37.3341    83
37.3441    72
37.3541    69
37.3641    65
37.3741    75
37.3841    83
37.3941    72
37.4041    60
37.4141    70
37.4241    77
37.4341    73
37.4441    65
37.4541    78
37.4641    78
37.4741    68
37.4841    76
37.4941    63
37.5041    65
37.5141    77
37.5241    69
37.5341    91
37.5441    73
37.5541    82
37.5641    72
37.5741    80
37.5841    70
37.5941    58
37.6041    67
37.6141    73
37.6241    64
37.6341    56
37.6441    60
37.6541    66
37.6641    76
37.6741    59
37.6841    60
37.6941    67
37.7041    58
37.7141    50
37.7241    68
37.7341    64
37.7441    73
37.7541    76
37.7641    72
37.7741    53
37.7841    61
37.7941    65
37.8041    68
37.8141    66
37.8241    67
37.8341    75
37.8441    70
37.8541    66
37.8641    59
37.8741    76
37.8841    58
37.8941    63
37.9041    71
37.9141    63
37.9241    66
37.9341    67
37.9441    70
37.9541    78
37.9641    52
37.9741    75
37.9841    58
37.9941    64
38.0041    55
38.0141    78
38.0241    60
38.0341    59
38.0441    62
38.0541    61
38.0641    57
38.0741    68
38.0841    72
38.0941    59
38.1041    61
38.1141    57
38.1241    68
38.1341    65
38.1441    60
38.1541    55
38.1641    64
38.1741    59
38.1841    72
38.1941    50
38.2041    64
38.2141    58
38.2241    51
38.2341    60
38.2441    53
38.2541    57
38.2641    63
38.2741    55
38.2841    56
38.2941    63
38.3041    60
38.3141    46
38.3241    45
38.3341    53
38.3441    59
38.3541    51
38.3641    68
38.3741    49
38.3841    51
38.3941    47
38.4041    54
38.4141    51
38.4241    42
38.4341    67
38.4441    57
38.4541    47
38.4641    51
38.4741    55
38.4841    52
38.4941    53
38.5041    58
38.5141    56
38.5241    50
38.5341    53
38.5441    54
38.5541    63
38.5641    50
38.5741    54
38.5841    52
38.5941    63
38.6041    55
38.6141    50
38.6241    52
38.6341    55
38.6441    58
38.6541    44
38.6641    56
38.6741    48
38.6841    52
38.6941    46
38.7041    58
38.7141    39
38.7241    49
38.7341    57
38.7441    44
38.7541    46
38.7641    50
38.7741    53
38.7841    48
38.7941    46
38.8041    49
38.8141    42
38.8241    40
38.8341    68
38.8441    47
38.8541    39
38.8641    45
38.8741    47
38.8841    40
38.8941    56
38.9041    60
38.9141    41
38.9241    37
38.9341    36
38.9441    40
38.9541    49
38.9641    58
38.9741    38
38.9841    42
38.9941    59
39.0041    49
39.0141    50
39.0241    50
39.0341    51
39.0441    63
39.0541    40
39.0641    33
39.0741    45
39.0841    49
39.0941    43
39.1041    43
39.1141    53
39.1241    32
39.1341    51
39.1441    58
39.1541    49
39.1641    39
39.1741    54
39.1841    40
39.1941    34
39.2041    36
39.2141    47
39.2241    37
39.2341    28
39.2441    40
39.2541    45
39.2641    40
39.2741    43
39.2841    45
39.2941    44
39.3041    38
39.3141    32
39.3241    45
39.3341    34
39.3441    40
39.3541    47
39.3641    39
39.3741    32
39.3841    32
39.3941    45
39.4041    53
39.4141    40
39.4241    43
39.4341    29
39.4441    37
39.4541    39
39.4641    39
39.4741    36
39.4841    29
39.4941    35
39.5041    34
39.5141    45
39.5241    37
39.5341    47
39.5441    38
39.5541    43
39.5641    41
39.5741    46
39.5841    33
39.5941    30
39.6041    32
39.6141    36
39.6241    40
39.6341    41
39.6441    33
39.6541    39
39.6641    36
39.6741    41
39.6841    48
39.6941    35
39.7041    40
39.7141    38
39.7241    40
39.7341    41
39.7441    29
39.7541    43
39.7641    37
39.7741    42
39.7841    34
39.7941    43
39.8041    41
39.8141    37
39.8241    27
39.8341    32
39.8441    36
39.8541    35
39.8641    36
39.8741    36
39.8841    37
39.8941    38
39.9041    36
39.9141    31
39.9241    40
39.9341    29
39.9441    23
39.9541    49
39.9641    29
39.9741    29
39.9841    24
39.9941    43
