Bruker Nano GmbH Berlin, Germany
Esprit 1.9

Date: 5/14/2021 3:50:20 PM
Real time: 18671
Life time: 17456
Pulse density: 93803


Detector type: XFlash 430
Window type: Custom type
Detector thickness: 0.45
Si dead layer:0.029

Calibration, lin.: 10
Calibration, abs.: -955.9
Mn FWHM: 137.05
Fano factor: 0.121
Channels: 4095

Energy Counts
-0.9559     0
-0.9459     0
-0.9359     0
-0.9259     0
-0.9159     0
-0.9059     0
-0.8959     0
-0.8859     0
-0.8759     0
-0.8659     0
-0.8559     0
-0.8459     0
-0.8359     0
-0.8259     0
-0.8159     0
-0.8059     0
-0.7959     0
-0.7859     0
-0.7759     0
-0.7659     0
-0.7559     0
-0.7459     0
-0.7359     0
-0.7259     0
-0.7159     0
-0.7059     0
-0.6959     0
-0.6859     0
-0.6759     0
-0.6659     0
-0.6559     0
-0.6459     0
-0.6359     0
-0.6259     0
-0.6159     0
-0.6059     0
-0.5959     0
-0.5859     0
-0.5759     0
-0.5659     0
-0.5559     0
-0.5459     0
-0.5359     0
-0.5259     0
-0.5159     0
-0.5059     0
-0.4959     0
-0.4859     0
-0.4759     0
-0.4659     0
-0.4559     0
-0.4459     0
-0.4359     0
-0.4259     0
-0.4159     0
-0.4059     0
-0.3959     0
-0.3859     0
-0.3759     0
-0.3659     0
-0.3559     0
-0.3459     0
-0.3359     0
-0.3259     0
-0.3159     0
-0.3059     0
-0.2959     0
-0.2859     0
-0.2759     0
-0.2659     0
-0.2559     0
-0.2459     0
-0.2359     0
-0.2259     0
-0.2159     0
-0.2059     0
-0.1959     0
-0.1859     0
-0.1759     0
-0.1659     0
-0.1559     0
-0.1459     0
-0.1359     1
-0.1259     0
-0.1159     4
-0.1059    12
-0.0959    43
-0.0859   230
-0.0759   715
-0.0659  2008
-0.0559  5132
-0.0459 10958
-0.0359 20759
-0.0259 33352
-0.0159 45702
-0.0059 53499
 0.0041 53582
 0.0141 46106
 0.0241 34443
 0.0341 21516
 0.0441 11783
 0.0541  5526
 0.0641  2167
 0.0741   750
 0.0841   211
 0.0941    64
 0.1041    21
 0.1141    10
 0.1241     5
 0.1341     7
 0.1441     8
 0.1541     6
 0.1641     5
 0.1741     1
 0.1841   173
 0.1941   338
 0.2041   322
 0.2141   305
 0.2241   304
 0.2341   294
 0.2441   293
 0.2541   303
 0.2641   326
 0.2741   333
 0.2841   318
 0.2941   294
 0.3041   302
 0.3141   303
 0.3241   316
 0.3341   267
 0.3441   277
 0.3541   301
 0.3641   289
 0.3741   280
 0.3841   261
 0.3941   284
 0.4041   290
 0.4141   276
 0.4241   290
 0.4341   283
 0.4441   282
 0.4541   279
 0.4641   274
 0.4741   254
 0.4841   272
 0.4941   269
 0.5041   256
 0.5141   260
 0.5241   290
 0.5341   272
 0.5441   266
 0.5541   274
 0.5641   273
 0.5741   255
 0.5841   256
 0.5941   249
 0.6041   255
 0.6141   261
 0.6241   261
 0.6341   258
 0.6441   246
 0.6541   228
 0.6641   225
 0.6741   214
 0.6841   232
 0.6941   244
 0.7041   214
 0.7141   203
 0.7241   215
 0.7341   235
 0.7441   233
 0.7541   242
 0.7641   239
 0.7741   226
 0.7841   205
 0.7941   201
 0.8041   225
 0.8141   219
 0.8241   216
 0.8341   225
 0.8441   219
 0.8541   209
 0.8641   207
 0.8741   219
 0.8841   205
 0.8941   187
 0.9041   210
 0.9141   215
 0.9241   219
 0.9341   210
 0.9441   197
 0.9541   203
 0.9641   211
 0.9741   226
 0.9841   203
 0.9941   196
 1.0041   199
 1.0141   193
 1.0241   208
 1.0341   189
 1.0441   218
 1.0541   218
 1.0641   222
 1.0741   201
 1.0841   214
 1.0941   189
 1.1041   180
 1.1141   173
 1.1241   196
 1.1341   204
 1.1441   203
 1.1541   208
 1.1641   219
 1.1741   189
 1.1841   175
 1.1941   196
 1.2041   199
 1.2141   177
 1.2241   169
 1.2341   182
 1.2441   176
 1.2541   191
 1.2641   193
 1.2741   181
 1.2841   196
 1.2941   195
 1.3041   190
 1.3141   190
 1.3241   179
 1.3341   159
 1.3441   194
 1.3541   208
 1.3641   173
 1.3741   182
 1.3841   176
 1.3941   168
 1.4041   178
 1.4141   195
 1.4241   183
 1.4341   183
 1.4441   181
 1.4541   173
 1.4641   180
 1.4741   192
 1.4841   200
 1.4941   208
 1.5041   158
 1.5141   173
 1.5241   182
 1.5341   180
 1.5441   175
 1.5541   185
 1.5641   169
 1.5741   165
 1.5841   165
 1.5941   147
 1.6041   161
 1.6141   174
 1.6241   181
 1.6341   186
 1.6441   184
 1.6541   196
 1.6641   210
 1.6741   287
 1.6841   360
 1.6941   392
 1.7041   504
 1.7141   563
 1.7241   655
 1.7341   666
 1.7441   671
 1.7541   633
 1.7641   596
 1.7741   517
 1.7841   439
 1.7941   383
 1.8041   332
 1.8141   258
 1.8241   255
 1.8341   238
 1.8441   225
 1.8541   189
 1.8641   182
 1.8741   189
 1.8841   175
 1.8941   188
 1.9041   169
 1.9141   182
 1.9241   176
 1.9341   176
 1.9441   177
 1.9541   200
 1.9641   213
 1.9741   214
 1.9841   215
 1.9941   223
 2.0041   201
 2.0141   212
 2.0241   212
 2.0341   198
 2.0441   220
 2.0541   219
 2.0641   190
 2.0741   190
 2.0841   156
 2.0941   171
 2.1041   159
 2.1141   166
 2.1241   172
 2.1341   161
 2.1441   167
 2.1541   157
 2.1641   174
 2.1741   162
 2.1841   151
 2.1941   160
 2.2041   148
 2.2141   150
 2.2241   175
 2.2341   145
 2.2441   157
 2.2541   164
 2.2641   163
 2.2741   157
 2.2841   149
 2.2941   159
 2.3041   158
 2.3141   151
 2.3241   155
 2.3341   119
 2.3441   137
 2.3541   139
 2.3641   157
 2.3741   174
 2.3841   148
 2.3941   121
 2.4041   147
 2.4141   126
 2.4241   138
 2.4341   157
 2.4441   146
 2.4541   163
 2.4641   163
 2.4741   137
 2.4841   154
 2.4941   129
 2.5041   133
 2.5141   139
 2.5241   133
 2.5341   152
 2.5441   137
 2.5541   119
 2.5641   135
 2.5741   143
 2.5841   135
 2.5941   141
 2.6041   158
 2.6141   127
 2.6241   132
 2.6341   145
 2.6441   130
 2.6541   123
 2.6641   130
 2.6741   134
 2.6841   140
 2.6941   119
 2.7041   117
 2.7141   114
 2.7241   132
 2.7341   142
 2.7441   115
 2.7541   127
 2.7641   127
 2.7741   152
 2.7841   140
 2.7941   132
 2.8041   149
 2.8141   137
 2.8241   124
 2.8341   151
 2.8441   136
 2.8541   139
 2.8641   136
 2.8741   131
 2.8841   134
 2.8941   130
 2.9041   129
 2.9141   122
 2.9241   121
 2.9341   115
 2.9441   127
 2.9541   121
 2.9641   145
 2.9741   126
 2.9841   136
 2.9941   125
 3.0041   126
 3.0141   110
 3.0241   114
 3.0341   129
 3.0441   109
 3.0541   128
 3.0641   126
 3.0741   111
 3.0841   121
 3.0941   111
 3.1041    92
 3.1141   108
 3.1241    99
 3.1341   112
 3.1441   119
 3.1541   111
 3.1641   110
 3.1741   130
 3.1841   111
 3.1941   103
 3.2041   116
 3.2141   135
 3.2241   125
 3.2341   122
 3.2441   157
 3.2541   177
 3.2641   222
 3.2741   195
 3.2841   254
 3.2941   274
 3.3041   254
 3.3141   244
 3.3241   258
 3.3341   248
 3.3441   230
 3.3541   211
 3.3641   200
 3.3741   177
 3.3841   139
 3.3941   133
 3.4041   150
 3.4141   119
 3.4241   125
 3.4341   104
 3.4441    97
 3.4541    86
 3.4641   104
 3.4741    81
 3.4841    98
 3.4941   109
 3.5041   103
 3.5141   115
 3.5241   104
 3.5341   118
 3.5441   142
 3.5541   129
 3.5641   176
 3.5741   186
 3.5841   213
 3.5941   301
 3.6041   339
 3.6141   430
 3.6241   551
 3.6341   671
 3.6441   841
 3.6541   971
 3.6641  1065
 3.6741  1122
 3.6841  1104
 3.6941  1168
 3.7041  1104
 3.7141  1059
 3.7241   928
 3.7341   806
 3.7441   669
 3.7541   523
 3.7641   430
 3.7741   320
 3.7841   246
 3.7941   200
 3.8041   158
 3.8141   120
 3.8241   101
 3.8341    94
 3.8441    90
 3.8541    93
 3.8641    87
 3.8741    99
 3.8841    95
 3.8941    91
 3.9041   115
 3.9141    96
 3.9241   120
 3.9341   130
 3.9441   145
 3.9541   180
 3.9641   180
 3.9741   197
 3.9841   197
 3.9941   241
 4.0041   246
 4.0141   249
 4.0241   260
 4.0341   214
 4.0441   192
 4.0541   220
 4.0641   171
 4.0741   148
 4.0841   157
 4.0941   124
 4.1041   112
 4.1141   105
 4.1241   101
 4.1341    92
 4.1441    89
 4.1541    85
 4.1641    76
 4.1741    74
 4.1841    73
 4.1941    78
 4.2041    69
 4.2141    78
 4.2241    84
 4.2341    70
 4.2441    76
 4.2541    74
 4.2641    79
 4.2741    75
 4.2841    74
 4.2941    87
 4.3041    76
 4.3141    71
 4.3241    73
 4.3341    73
 4.3441    70
 4.3541    70
 4.3641    86
 4.3741    86
 4.3841    83
 4.3941   103
 4.4041   128
 4.4141   139
 4.4241   192
 4.4341   187
 4.4441   219
 4.4541   243
 4.4641   260
 4.4741   261
 4.4841   289
 4.4941   284
 4.5041   358
 4.5141   305
 4.5241   320
 4.5341   308
 4.5441   264
 4.5541   252
 4.5641   194
 4.5741   176
 4.5841   157
 4.5941   135
 4.6041   131
 4.6141   106
 4.6241   105
 4.6341    92
 4.6441    98
 4.6541   102
 4.6641    72
 4.6741    78
 4.6841    86
 4.6941    70
 4.7041   110
 4.7141    71
 4.7241    81
 4.7341    68
 4.7441    78
 4.7541    90
 4.7641    80
 4.7741    90
 4.7841    86
 4.7941    98
 4.8041    89
 4.8141   107
 4.8241    95
 4.8341   104
 4.8441   103
 4.8541   120
 4.8641    98
 4.8741   108
 4.8841   114
 4.8941   114
 4.9041   141
 4.9141   136
 4.9241   131
 4.9341   126
 4.9441   118
 4.9541   116
 4.9641   114
 4.9741   109
 4.9841   118
 4.9941   106
 5.0041   113
 5.0141    88
 5.0241   110
 5.0341    99
 5.0441   100
 5.0541    92
 5.0641    97
 5.0741    79
 5.0841    80
 5.0941    68
 5.1041    88
 5.1141    89
 5.1241    68
 5.1341    66
 5.1441    81
 5.1541    91
 5.1641   100
 5.1741    77
 5.1841    72
 5.1941    82
 5.2041    95
 5.2141    81
 5.2241    98
 5.2341    92
 5.2441    98
 5.2541    92
 5.2641    79
 5.2741    89
 5.2841    93
 5.2941    93
 5.3041    86
 5.3141   116
 5.3241   121
 5.3341   130
 5.3441   108
 5.3541   152
 5.3641   178
 5.3741   168
 5.3841   210
 5.3941   186
 5.4041   213
 5.4141   199
 5.4241   202
 5.4341   189
 5.4441   201
 5.4541   177
 5.4641   187
 5.4741   163
 5.4841   147
 5.4941   126
 5.5041   123
 5.5141   107
 5.5241    96
 5.5341    82
 5.5441   121
 5.5541    90
 5.5641   103
 5.5741    94
 5.5841    99
 5.5941    81
 5.6041   102
 5.6141    85
 5.6241    92
 5.6341   100
 5.6441    88
 5.6541    81
 5.6641    95
 5.6741    83
 5.6841    85
 5.6941    95
 5.7041   111
 5.7141    85
 5.7241    97
 5.7341   129
 5.7441   103
 5.7541   114
 5.7641   125
 5.7741   146
 5.7841   132
 5.7941   159
 5.8041   204
 5.8141   212
 5.8241   264
 5.8341   305
 5.8441   319
 5.8541   361
 5.8641   401
 5.8741   445
 5.8841   392
 5.8941   459
 5.9041   420
 5.9141   404
 5.9241   395
 5.9341   366
 5.9441   335
 5.9541   332
 5.9641   281
 5.9741   211
 5.9841   204
 5.9941   199
 6.0041   159
 6.0141   168
 6.0241   142
 6.0341   117
 6.0441   130
 6.0541   105
 6.0641   133
 6.0741   121
 6.0841   143
 6.0941   117
 6.1041   123
 6.1141   126
 6.1241   128
 6.1341   125
 6.1441   149
 6.1541   151
 6.1641   140
 6.1741   164
 6.1841   178
 6.1941   224
 6.2041   248
 6.2141   316
 6.2241   403
 6.2341   535
 6.2441   726
 6.2541  1026
 6.2641  1362
 6.2741  1880
 6.2841  2550
 6.2941  3345
 6.3041  4406
 6.3141  5459
 6.3241  6750
 6.3341  8101
 6.3441  9541
 6.3541 10868
 6.3641 12024
 6.3741 13039
 6.3841 13486
 6.3941 14280
 6.4041 14037
 6.4141 13485
 6.4241 12888
 6.4341 11774
 6.4441 10733
 6.4541  9168
 6.4641  7795
 6.4741  6339
 6.4841  5189
 6.4941  4075
 6.5041  3116
 6.5141  2264
 6.5241  1734
 6.5341  1227
 6.5441   913
 6.5541   609
 6.5641   490
 6.5741   370
 6.5841   268
 6.5941   193
 6.6041   192
 6.6141   151
 6.6241   155
 6.6341   133
 6.6441   154
 6.6541   136
 6.6641   147
 6.6741   128
 6.6841   161
 6.6941   136
 6.7041   153
 6.7141   142
 6.7241   135
 6.7341   139
 6.7441   132
 6.7541   142
 6.7641   149
 6.7741   152
 6.7841   143
 6.7941   147
 6.8041   139
 6.8141   166
 6.8241   155
 6.8341   175
 6.8441   184
 6.8541   160
 6.8641   202
 6.8741   245
 6.8841   276
 6.8941   300
 6.9041   352
 6.9141   370
 6.9241   475
 6.9341   578
 6.9441   641
 6.9541   824
 6.9641  1030
 6.9741  1134
 6.9841  1389
 6.9941  1601
 7.0041  1807
 7.0141  2015
 7.0241  2192
 7.0341  2201
 7.0441  2309
 7.0541  2385
 7.0641  2244
 7.0741  2214
 7.0841  2085
 7.0941  1850
 7.1041  1765
 7.1141  1544
 7.1241  1319
 7.1341  1086
 7.1441   923
 7.1541   789
 7.1641   657
 7.1741   527
 7.1841   444
 7.1941   345
 7.2041   309
 7.2141   274
 7.2241   234
 7.2341   233
 7.2441   220
 7.2541   191
 7.2641   214
 7.2741   185
 7.2841   194
 7.2941   203
 7.3041   237
 7.3141   243
 7.3241   262
 7.3341   278
 7.3441   300
 7.3541   297
 7.3641   344
 7.3741   313
 7.3841   340
 7.3941   346
 7.4041   398
 7.4141   376
 7.4241   386
 7.4341   423
 7.4441   401
 7.4541   406
 7.4641   401
 7.4741   395
 7.4841   370
 7.4941   377
 7.5041   341
 7.5141   311
 7.5241   318
 7.5341   262
 7.5441   294
 7.5541   272
 7.5641   243
 7.5741   256
 7.5841   227
 7.5941   252
 7.6041   204
 7.6141   200
 7.6241   192
 7.6341   201
 7.6441   218
 7.6541   218
 7.6641   218
 7.6741   205
 7.6841   207
 7.6941   219
 7.7041   208
 7.7141   225
 7.7241   239
 7.7341   223
 7.7441   233
 7.7541   246
 7.7641   249
 7.7741   234
 7.7841   249
 7.7941   245
 7.8041   251
 7.8141   262
 7.8241   277
 7.8341   294
 7.8441   300
 7.8541   294
 7.8641   291
 7.8741   313
 7.8841   321
 7.8941   318
 7.9041   340
 7.9141   359
 7.9241   369
 7.9341   385
 7.9441   405
 7.9541   445
 7.9641   435
 7.9741   533
 7.9841   502
 7.9941   536
 8.0041   622
 8.0141   605
 8.0241   616
 8.0341   678
 8.0441   771
 8.0541   837
 8.0641   837
 8.0741   870
 8.0841   954
 8.0941   997
 8.1041  1037
 8.1141  1122
 8.1241  1165
 8.1341  1242
 8.1441  1243
 8.1541  1236
 8.1641  1350
 8.1741  1356
 8.1841  1343
 8.1941  1338
 8.2041  1343
 8.2141  1406
 8.2241  1423
 8.2341  1460
 8.2441  1485
 8.2541  1495
 8.2641  1600
 8.2741  1667
 8.2841  1870
 8.2941  1985
 8.3041  2185
 8.3141  2296
 8.3241  2410
 8.3341  2621
 8.3441  2817
 8.3541  3009
 8.3641  3252
 8.3741  3298
 8.3841  3294
 8.3941  3185
 8.4041  3266
 8.4141  3138
 8.4241  2966
 8.4341  2763
 8.4441  2557
 8.4541  2292
 8.4641  1973
 8.4741  1763
 8.4841  1548
 8.4941  1312
 8.5041  1139
 8.5141   933
 8.5241   785
 8.5341   690
 8.5441   575
 8.5541   526
 8.5641   445
 8.5741   426
 8.5841   411
 8.5941   393
 8.6041   389
 8.6141   396
 8.6241   354
 8.6341   375
 8.6441   368
 8.6541   366
 8.6641   349
 8.6741   372
 8.6841   353
 8.6941   369
 8.7041   360
 8.7141   381
 8.7241   361
 8.7341   352
 8.7441   328
 8.7541   339
 8.7641   301
 8.7741   320
 8.7841   332
 8.7941   323
 8.8041   299
 8.8141   323
 8.8241   320
 8.8341   334
 8.8441   317
 8.8541   328
 8.8641   316
 8.8741   293
 8.8841   330
 8.8941   318
 8.9041   341
 8.9141   366
 8.9241   311
 8.9341   298
 8.9441   329
 8.9541   365
 8.9641   350
 8.9741   378
 8.9841   397
 8.9941   390
 9.0041   395
 9.0141   422
 9.0241   406
 9.0341   431
 9.0441   450
 9.0541   432
 9.0641   450
 9.0741   456
 9.0841   461
 9.0941   479
 9.1041   478
 9.1141   483
 9.1241   523
 9.1341   549
 9.1441   565
 9.1541   561
 9.1641   585
 9.1741   663
 9.1841   669
 9.1941   671
 9.2041   710
 9.2141   736
 9.2241   729
 9.2341   814
 9.2441   865
 9.2541   867
 9.2641   922
 9.2741   932
 9.2841   954
 9.2941  1029
 9.3041  1076
 9.3141  1089
 9.3241  1149
 9.3341  1162
 9.3441  1205
 9.3541  1244
 9.3641  1267
 9.3741  1254
 9.3841  1280
 9.3941  1347
 9.4041  1385
 9.4141  1376
 9.4241  1420
 9.4341  1404
 9.4441  1400
 9.4541  1424
 9.4641  1447
 9.4741  1448
 9.4841  1442
 9.4941  1542
 9.5041  1514
 9.5141  1505
 9.5241  1612
 9.5341  1664
 9.5441  1707
 9.5541  1805
 9.5641  1826
 9.5741  1981
 9.5841  2115
 9.5941  2171
 9.6041  2294
 9.6141  2453
 9.6241  2481
 9.6341  2560
 9.6441  2629
 9.6541  2655
 9.6641  2697
 9.6741  2683
 9.6841  2676
 9.6941  2643
 9.7041  2454
 9.7141  2395
 9.7241  2220
 9.7341  2143
 9.7441  1948
 9.7541  1813
 9.7641  1678
 9.7741  1566
 9.7841  1442
 9.7941  1394
 9.8041  1299
 9.8141  1213
 9.8241  1198
 9.8341  1171
 9.8441  1137
 9.8541  1161
 9.8641  1129
 9.8741  1170
 9.8841  1203
 9.8941  1252
 9.9041  1262
 9.9141  1316
 9.9241  1388
 9.9341  1368
 9.9441  1326
 9.9541  1402
 9.9641  1384
 9.9741  1317
 9.9841  1232
 9.9941  1169
10.0041  1131
10.0141  1086
10.0241   988
10.0341   904
10.0441   838
10.0541   704
10.0641   650
10.0741   605
10.0841   543
10.0941   492
10.1041   439
10.1141   386
10.1241   362
10.1341   324
10.1441   318
10.1541   325
10.1641   292
10.1741   267
10.1841   262
10.1941   254
10.2041   256
10.2141   241
10.2241   221
10.2341   224
10.2441   212
10.2541   245
10.2641   236
10.2741   218
10.2841   185
10.2941   186
10.3041   197
10.3141   197
10.3241   176
10.3341   190
10.3441   194
10.3541   174
10.3641   182
10.3741   175
10.3841   187
10.3941   204
10.4041   198
10.4141   189
10.4241   187
10.4341   184
10.4441   172
10.4541   184
10.4641   181
10.4741   173
10.4841   169
10.4941   185
10.5041   184
10.5141   179
10.5241   185
10.5341   188
10.5441   186
10.5541   185
10.5641   202
10.5741   207
10.5841   184
10.5941   186
10.6041   199
10.6141   197
10.6241   197
10.6341   199
10.6441   205
10.6541   208
10.6641   223
10.6741   206
10.6841   196
10.6941   206
10.7041   198
10.7141   203
10.7241   228
10.7341   239
10.7441   246
10.7541   239
10.7641   214
10.7741   226
10.7841   254
10.7941   267
10.8041   241
10.8141   255
10.8241   274
10.8341   282
10.8441   300
10.8541   294
10.8641   278
10.8741   291
10.8841   294
10.8941   298
10.9041   292
10.9141   311
10.9241   303
10.9341   296
10.9441   280
10.9541   304
10.9641   293
10.9741   294
10.9841   286
10.9941   304
11.0041   279
11.0141   270
11.0241   280
11.0341   271
11.0441   296
11.0541   275
11.0641   251
11.0741   246
11.0841   255
11.0941   243
11.1041   274
11.1141   256
11.1241   266
11.1341   269
11.1441   251
11.1541   287
11.1641   322
11.1741   308
11.1841   298
11.1941   324
11.2041   336
11.2141   359
11.2241   388
11.2341   359
11.2441   346
11.2541   393
11.2641   402
11.2741   398
11.2841   401
11.2941   391
11.3041   396
11.3141   379
11.3241   364
11.3341   357
11.3441   359
11.3541   345
11.3641   333
11.3741   301
11.3841   301
11.3941   278
11.4041   252
11.4141   248
11.4241   253
11.4341   217
11.4441   209
11.4541   217
11.4641   197
11.4741   194
11.4841   200
11.4941   190
11.5041   204
11.5141   206
11.5241   196
11.5341   208
11.5441   220
11.5541   229
11.5641   217
11.5741   203
11.5841   217
11.5941   229
11.6041   241
11.6141   243
11.6241   240
11.6341   227
11.6441   227
11.6541   224
11.6641   219
11.6741   228
11.6841   216
11.6941   222
11.7041   218
11.7141   227
11.7241   207
11.7341   184
11.7441   186
11.7541   194
11.7641   174
11.7741   165
11.7841   179
11.7941   171
11.8041   187
11.8141   190
11.8241   164
11.8341   140
11.8441   143
11.8541   154
11.8641   163
11.8741   165
11.8841   156
11.8941   152
11.9041   165
11.9141   160
11.9241   172
11.9341   174
11.9441   176
11.9541   176
11.9641   169
11.9741   171
11.9841   165
11.9941   171
12.0041   173
12.0141   176
12.0241   175
12.0341   167
12.0441   174
12.0541   166
12.0641   166
12.0741   175
12.0841   191
12.0941   170
12.1041   150
12.1141   166
12.1241   166
12.1341   169
12.1441   156
12.1541   148
12.1641   145
12.1741   160
12.1841   181
12.1941   170
12.2041   150
12.2141   153
12.2241   150
12.2341   142
12.2441   149
12.2541   142
12.2641   148
12.2741   163
12.2841   153
12.2941   152
12.3041   156
12.3141   147
12.3241   131
12.3341   134
12.3441   136
12.3541   138
12.3641   163
12.3741   168
12.3841   152
12.3941   139
12.4041   141
12.4141   156
12.4241   156
12.4341   153
12.4441   153
12.4541   150
12.4641   160
12.4741   160
12.4841   158
12.4941   161
12.5041   162
12.5141   156
12.5241   148
12.5341   152
12.5441   156
12.5541   158
12.5641   149
12.5741   158
12.5841   166
12.5941   167
12.6041   176
12.6141   183
12.6241   177
12.6341   170
12.6441   184
12.6541   187
12.6641   172
12.6741   171
12.6841   155
12.6941   153
12.7041   161
12.7141   169
12.7241   153
12.7341   161
12.7441   182
12.7541   161
12.7641   159
12.7741   172
12.7841   170
12.7941   163
12.8041   165
12.8141   170
12.8241   169
12.8341   165
12.8441   165
12.8541   174
12.8641   179
12.8741   174
12.8841   170
12.8941   170
12.9041   177
12.9141   180
12.9241   176
12.9341   173
12.9441   177
12.9541   187
12.9641   196
12.9741   190
12.9841   182
12.9941   185
13.0041   191
13.0141   190
13.0241   185
13.0341   182
13.0441   186
13.0541   187
13.0641   185
13.0741   184
13.0841   186
13.0941   187
13.1041   189
13.1141   189
13.1241   193
13.1341   202
13.1441   210
13.1541   208
13.1641   205
13.1741   205
13.1841   207
13.1941   217
13.2041   219
13.2141   201
13.2241   193
13.2341   205
13.2441   209
13.2541   227
13.2641   225
13.2741   229
13.2841   234
13.2941   229
13.3041   222
13.3141   227
13.3241   238
13.3341   241
13.3441   242
13.3541   236
13.3641   255
13.3741   275
13.3841   273
13.3941   265
13.4041   260
13.4141   243
13.4241   224
13.4341   229
13.4441   251
13.4541   264
13.4641   249
13.4741   235
13.4841   229
13.4941   232
13.5041   231
13.5141   227
13.5241   226
13.5341   221
13.5441   226
13.5541   223
13.5641   203
13.5741   195
13.5841   221
13.5941   230
13.6041   196
13.6141   190
13.6241   213
13.6341   211
13.6441   215
13.6541   232
13.6641   237
13.6741   229
13.6841   235
13.6941   234
13.7041   223
13.7141   224
13.7241   219
13.7341   217
13.7441   213
13.7541   209
13.7641   223
13.7741   234
13.7841   229
13.7941   225
13.8041   232
13.8141   231
13.8241   209
13.8341   202
13.8441   213
13.8541   217
13.8641   219
13.8741   235
13.8841   236
13.8941   236
13.9041   237
13.9141   238
13.9241   250
13.9341   261
13.9441   272
13.9541   275
13.9641   268
13.9741   251
13.9841   250
13.9941   266
14.0041   277
14.0141   283
14.0241   327
14.0341   337
14.0441   341
14.0541   364
14.0641   367
14.0741   382
14.0841   374
14.0941   370
14.1041   410
14.1141   415
14.1241   400
14.1341   415
14.1441   432
14.1541   425
14.1641   414
14.1741   407
14.1841   402
14.1941   407
14.2041   404
14.2141   409
14.2241   376
14.2341   356
14.2441   360
14.2541   337
14.2641   314
14.2741   302
14.2841   291
14.2941   278
14.3041   265
14.3141   270
14.3241   273
14.3341   263
14.3441   261
14.3541   264
14.3641   253
14.3741   248
14.3841   257
14.3941   249
14.4041   254
14.4141   256
14.4241   240
14.4341   250
14.4441   257
14.4541   243
14.4641   246
14.4741   256
14.4841   256
14.4941   246
14.5041   250
14.5141   256
14.5241   249
14.5341   249
14.5441   261
14.5541   247
14.5641   250
14.5741   263
14.5841   253
14.5941   251
14.6041   250
14.6141   253
14.6241   262
14.6341   260
14.6441   250
14.6541   250
14.6641   252
14.6741   264
14.6841   286
14.6941   287
14.7041   286
14.7141   278
14.7241   280
14.7341   283
14.7441   281
14.7541   292
14.7641   283
14.7741   271
14.7841   264
14.7941   269
14.8041   286
14.8141   299
14.8241   291
14.8341   283
14.8441   272
14.8541   274
14.8641   306
14.8741   314
14.8841   320
14.8941   319
14.9041   312
14.9141   311
14.9241   313
14.9341   300
14.9441   295
14.9541   302
14.9641   306
14.9741   321
14.9841   321
14.9941   289
15.0041   295
15.0141   325
15.0241   310
15.0341   292
15.0441   288
15.0541   304
15.0641   299
15.0741   281
15.0841   278
15.0941   306
15.1041   303
15.1141   299
15.1241   297
15.1341   292
15.1441   310
15.1541   284
15.1641   278
15.1741   299
15.1841   301
15.1941   290
15.2041   300
15.2141   289
15.2241   286
15.2341   284
15.2441   265
15.2541   286
15.2641   303
15.2741   285
15.2841   288
15.2941   298
15.3041   276
15.3141   282
15.3241   293
15.3341   282
15.3441   290
15.3541   318
15.3641   311
15.3741   295
15.3841   291
15.3941   307
15.4041   295
15.4141   310
15.4241   326
15.4341   320
15.4441   305
15.4541   329
15.4641   348
15.4741   325
15.4841   338
15.4941   352
15.5041   348
15.5141   340
15.5241   343
15.5341   381
15.5441   398
15.5541   423
15.5641   443
15.5741   481
15.5841   529
15.5941   562
15.6041   609
15.6141   671
15.6241   706
15.6341   731
15.6441   801
15.6541   901
15.6641   928
15.6741   962
15.6841  1016
15.6941  1055
15.7041  1104
15.7141  1140
15.7241  1139
15.7341  1172
15.7441  1206
15.7541  1222
15.7641  1213
15.7741  1172
15.7841  1133
15.7941  1093
15.8041  1084
15.8141  1042
15.8241   996
15.8341   930
15.8441   868
15.8541   836
15.8641   770
15.8741   716
15.8841   685
15.8941   641
15.9041   598
15.9141   550
15.9241   511
15.9341   478
15.9441   439
15.9541   416
15.9641   402
15.9741   396
15.9841   372
15.9941   369
16.0041   357
16.0141   344
16.0241   344
16.0341   357
16.0441   337
16.0541   339
16.0641   327
16.0741   340
16.0841   346
16.0941   342
16.1041   337
16.1141   306
16.1241   304
16.1341   336
16.1441   364
16.1541   347
16.1641   355
16.1741   373
16.1841   347
16.1941   339
16.2041   325
16.2141   340
16.2241   337
16.2341   339
16.2441   341
16.2541   343
16.2641   344
16.2741   358
16.2841   373
16.2941   358
16.3041   351
16.3141   355
16.3241   350
16.3341   339
16.3441   362
16.3541   376
16.3641   379
16.3741   398
16.3841   362
16.3941   325
16.4041   325
16.4141   330
16.4241   357
16.4341   362
16.4441   361
16.4541   344
16.4641   322
16.4741   339
16.4841   355
16.4941   371
16.5041   361
16.5141   351
16.5241   369
16.5341   363
16.5441   366
16.5541   372
16.5641   370
16.5741   371
16.5841   374
16.5941   350
16.6041   347
16.6141   357
16.6241   376
16.6341   391
16.6441   382
16.6541   367
16.6641   366
16.6741   352
16.6841   357
16.6941   371
16.7041   385
16.7141   365
16.7241   341
16.7341   391
16.7441   408
16.7541   407
16.7641   399
16.7741   404
16.7841   369
16.7941   375
16.8041   392
16.8141   385
16.8241   394
16.8341   380
16.8441   362
16.8541   390
16.8641   388
16.8741   368
16.8841   386
16.8941   383
16.9041   390
16.9141   411
16.9241   391
16.9341   394
16.9441   393
16.9541   404
16.9641   387
16.9741   375
16.9841   373
16.9941   394
17.0041   422
17.0141   422
17.0241   418
17.0341   404
17.0441   406
17.0541   407
17.0641   407
17.0741   408
17.0841   408
17.0941   398
17.1041   405
17.1141   407
17.1241   402
17.1341   391
17.1441   400
17.1541   401
17.1641   406
17.1741   402
17.1841   406
17.1941   391
17.2041   398
17.2141   412
17.2241   415
17.2341   412
17.2441   414
17.2541   391
17.2641   399
17.2741   415
17.2841   407
17.2941   393
17.3041   426
17.3141   444
17.3241   438
17.3341   402
17.3441   433
17.3541   426
17.3641   432
17.3741   459
17.3841   433
17.3941   434
17.4041   434
17.4141   448
17.4241   439
17.4341   442
17.4441   464
17.4541   442
17.4641   437
17.4741   433
17.4841   446
17.4941   447
17.5041   465
17.5141   477
17.5241   490
17.5341   493
17.5441   482
17.5541   500
17.5641   520
17.5741   509
17.5841   536
17.5941   519
17.6041   511
17.6141   577
17.6241   564
17.6341   579
17.6441   567
17.6541   575
17.6641   551
17.6741   519
17.6841   537
17.6941   546
17.7041   537
17.7141   546
17.7241   554
17.7341   554
17.7441   525
17.7541   508
17.7641   495
17.7741   506
17.7841   531
17.7941   498
17.8041   495
17.8141   513
17.8241   488
17.8341   485
17.8441   495
17.8541   481
17.8641   470
17.8741   490
17.8841   483
17.8941   479
17.9041   464
17.9141   468
17.9241   460
17.9341   466
17.9441   455
17.9541   480
17.9641   484
17.9741   491
17.9841   474
17.9941   437
18.0041   493
18.0141   451
18.0241   468
18.0341   471
18.0441   455
18.0541   461
18.0641   477
18.0741   455
18.0841   477
18.0941   452
18.1041   467
18.1141   486
18.1241   453
18.1341   461
18.1441   450
18.1541   466
18.1641   476
18.1741   471
18.1841   445
18.1941   480
18.2041   459
18.2141   440
18.2241   448
18.2341   467
18.2441   482
18.2541   478
18.2641   462
18.2741   444
18.2841   462
18.2941   477
18.3041   480
18.3141   476
18.3241   485
18.3341   469
18.3441   458
18.3541   462
18.3641   470
18.3741   465
18.3841   471
18.3941   484
18.4041   487
18.4141   489
18.4241   457
18.4341   436
18.4441   449
18.4541   485
18.4641   491
18.4741   470
18.4841   504
18.4941   497
18.5041   480
18.5141   457
18.5241   452
18.5341   434
18.5441   470
18.5541   464
18.5641   476
18.5741   468
18.5841   470
18.5941   514
18.6041   491
18.6141   497
18.6241   482
18.6341   463
18.6441   472
18.6541   470
18.6641   473
18.6741   468
18.6841   446
18.6941   474
18.7041   490
18.7141   490
18.7241   499
18.7341   524
18.7441   518
18.7541   495
18.7641   493
18.7741   507
18.7841   507
18.7941   484
18.8041   496
18.8141   486
18.8241   470
18.8341   488
18.8441   474
18.8541   474
18.8641   468
18.8741   475
18.8841   475
18.8941   483
18.9041   466
18.9141   507
18.9241   528
18.9341   462
18.9441   493
18.9541   516
18.9641   505
18.9741   518
18.9841   483
18.9941   500
19.0041   513
19.0141   467
19.0241   476
19.0341   509
19.0441   510
19.0541   527
19.0641   530
19.0741   549
19.0841   502
19.0941   510
19.1041   504
19.1141   492
19.1241   507
19.1341   532
19.1441   478
19.1541   500
19.1641   512
19.1741   465
19.1841   517
19.1941   510
19.2041   505
19.2141   505
19.2241   488
19.2341   501
19.2441   524
19.2541   542
19.2641   498
19.2741   492
19.2841   499
19.2941   482
19.3041   497
19.3141   548
19.3241   524
19.3341   529
19.3441   503
19.3541   516
19.3641   527
19.3741   549
19.3841   508
19.3941   522
19.4041   506
19.4141   524
19.4241   541
19.4341   521
19.4441   563
19.4541   512
19.4641   501
19.4741   521
19.4841   516
19.4941   503
19.5041   525
19.5141   533
19.5241   507
19.5341   531
19.5441   505
19.5541   504
19.5641   542
19.5741   552
19.5841   544
19.5941   522
19.6041   525
19.6141   539
19.6241   514
19.6341   512
19.6441   556
19.6541   526
19.6641   538
19.6741   529
19.6841   551
19.6941   513
19.7041   570
19.7141   549
19.7241   547
19.7341   529
19.7441   505
19.7541   515
19.7641   549
19.7741   513
19.7841   537
19.7941   511
19.8041   521
19.8141   533
19.8241   572
19.8341   527
19.8441   532
19.8541   560
19.8641   562
19.8741   538
19.8841   508
19.8941   526
19.9041   510
19.9141   525
19.9241   553
19.9341   563
19.9441   543
19.9541   539
19.9641   494
19.9741   508
19.9841   528
19.9941   540
20.0041   533
20.0141   550
20.0241   551
20.0341   529
20.0441   534
20.0541   530
20.0641   564
20.0741   518
20.0841   541
20.0941   530
20.1041   534
20.1141   546
20.1241   528
20.1341   559
20.1441   544
20.1541   588
20.1641   579
20.1741   549
20.1841   520
20.1941   542
20.2041   513
20.2141   555
20.2241   553
20.2341   557
20.2441   554
20.2541   573
20.2641   533
20.2741   543
20.2841   541
20.2941   520
20.3041   548
20.3141   547
20.3241   538
20.3341   559
20.3441   506
20.3541   521
20.3641   553
20.3741   511
20.3841   523
20.3941   538
20.4041   525
20.4141   536
20.4241   543
20.4341   544
20.4441   509
20.4541   526
20.4641   559
20.4741   553
20.4841   583
20.4941   558
20.5041   556
20.5141   533
20.5241   564
20.5341   531
20.5441   551
20.5541   547
20.5641   542
20.5741   566
20.5841   579
20.5941   579
20.6041   556
20.6141   610
20.6241   559
20.6341   563
20.6441   546
20.6541   585
20.6641   577
20.6741   609
20.6841   559
20.6941   600
20.7041   561
20.7141   580
20.7241   567
20.7341   563
20.7441   543
20.7541   570
20.7641   538
20.7741   571
20.7841   561
20.7941   558
20.8041   591
20.8141   617
20.8241   581
20.8341   593
20.8441   586
20.8541   578
20.8641   616
20.8741   632
20.8841   606
20.8941   624
20.9041   637
20.9141   669
20.9241   690
20.9341   682
20.9441   698
20.9541   716
20.9641   691
20.9741   697
20.9841   724
20.9941   764
21.0041   788
21.0141   811
21.0241   816
21.0341   835
21.0441   812
21.0541   807
21.0641   802
21.0741   878
21.0841   880
21.0941   843
21.1041   858
21.1141   879
21.1241   866
21.1341   830
21.1441   882
21.1541   852
21.1641   864
21.1741   850
21.1841   870
21.1941   762
21.2041   812
21.2141   869
21.2241   833
21.2341   806
21.2441   788
21.2541   745
21.2641   759
21.2741   738
21.2841   724
21.2941   695
21.3041   699
21.3141   714
21.3241   651
21.3341   658
21.3441   660
21.3541   636
21.3641   625
21.3741   591
21.3841   611
21.3941   623
21.4041   605
21.4141   576
21.4241   526
21.4341   564
21.4441   551
21.4541   525
21.4641   552
21.4741   586
21.4841   543
21.4941   532
21.5041   602
21.5141   609
21.5241   544
21.5341   592
21.5441   579
21.5541   546
21.5641   590
21.5741   593
21.5841   523
21.5941   592
21.6041   534
21.6141   558
21.6241   585
21.6341   538
21.6441   547
21.6541   581
21.6641   573
21.6741   561
21.6841   595
21.6941   546
21.7041   564
21.7141   531
21.7241   616
21.7341   574
21.7441   563
21.7541   575
21.7641   552
21.7741   570
21.7841   607
21.7941   539
21.8041   538
21.8141   534
21.8241   501
21.8341   578
21.8441   588
21.8541   556
21.8641   580
21.8741   566
21.8841   576
21.8941   529
21.9041   574
21.9141   587
21.9241   569
21.9341   513
21.9441   551
21.9541   564
21.9641   580
21.9741   581
21.9841   590
21.9941   520
22.0041   593
22.0141   557
22.0241   535
22.0341   605
22.0441   541
22.0541   556
22.0641   589
22.0741   585
22.0841   551
22.0941   551
22.1041   555
22.1141   573
22.1241   549
22.1341   573
22.1441   568
22.1541   579
22.1641   539
22.1741   550
22.1841   569
22.1941   623
22.2041   577
22.2141   594
22.2241   543
22.2341   547
22.2441   586
22.2541   554
22.2641   585
22.2741   573
22.2841   590
22.2941   569
22.3041   579
22.3141   565
22.3241   550
22.3341   593
22.3441   511
22.3541   546
22.3641   569
22.3741   559
22.3841   567
22.3941   561
22.4041   550
22.4141   589
22.4241   506
22.4341   581
22.4441   530
22.4541   566
22.4641   552
22.4741   557
22.4841   557
22.4941   530
22.5041   536
22.5141   567
22.5241   572
22.5341   533
22.5441   604
22.5541   559
22.5641   564
22.5741   569
22.5841   536
22.5941   566
22.6041   553
22.6141   560
22.6241   573
22.6341   543
22.6441   555
22.6541   523
22.6641   564
22.6741   601
22.6841   561
22.6941   597
22.7041   584
22.7141   593
22.7241   590
22.7341   582
22.7441   562
22.7541   548
22.7641   561
22.7741   586
22.7841   559
22.7941   572
22.8041   597
22.8141   590
22.8241   538
22.8341   586
22.8441   563
22.8541   543
22.8641   547
22.8741   584
22.8841   556
22.8941   573
22.9041   541
22.9141   553
22.9241   508
22.9341   607
22.9441   559
22.9541   572
22.9641   585
22.9741   554
22.9841   578
22.9941   563
23.0041   541
23.0141   520
23.0241   543
23.0341   557
23.0441   558
23.0541   513
23.0641   525
23.0741   578
23.0841   558
23.0941   520
23.1041   609
23.1141   603
23.1241   554
23.1341   604
23.1441   558
23.1541   546
23.1641   538
23.1741   521
23.1841   577
23.1941   543
23.2041   566
23.2141   523
23.2241   565
23.2341   555
23.2441   583
23.2541   535
23.2641   544
23.2741   542
23.2841   525
23.2941   517
23.3041   550
23.3141   558
23.3241   549
23.3341   572
23.3441   581
23.3541   558
23.3641   548
23.3741   522
23.3841   546
23.3941   563
23.4041   557
23.4141   517
23.4241   578
23.4341   568
23.4441   503
23.4541   569
23.4641   552
23.4741   539
23.4841   569
23.4941   594
23.5041   489
23.5141   535
23.5241   548
23.5341   542
23.5441   546
23.5541   533
23.5641   603
23.5741   525
23.5841   576
23.5941   574
23.6041   535
23.6141   537
23.6241   566
23.6341   537
23.6441   518
23.6541   574
23.6641   563
23.6741   584
23.6841   559
23.6941   551
23.7041   588
23.7141   583
23.7241   623
23.7341   587
23.7441   617
23.7541   598
23.7641   568
23.7741   572
23.7841   623
23.7941   608
23.8041   597
23.8141   611
23.8241   560
23.8341   622
23.8441   626
23.8541   580
23.8641   588
23.8741   580
23.8841   581
23.8941   602
23.9041   549
23.9141   563
23.9241   534
23.9341   542
23.9441   596
23.9541   553
23.9641   560
23.9741   563
23.9841   562
23.9941   557
24.0041   522
24.0141   536
24.0241   512
24.0341   581
24.0441   553
24.0541   532
24.0641   549
24.0741   540
24.0841   553
24.0941   510
24.1041   583
24.1141   548
24.1241   565
24.1341   560
24.1441   532
24.1541   503
24.1641   499
24.1741   541
24.1841   554
24.1941   491
24.2041   539
24.2141   492
24.2241   511
24.2341   537
24.2441   509
24.2541   530
24.2641   546
24.2741   544
24.2841   550
24.2941   539
24.3041   517
24.3141   554
24.3241   487
24.3341   552
24.3441   518
24.3541   572
24.3641   563
24.3741   533
24.3841   533
24.3941   480
24.4041   536
24.4141   506
24.4241   540
24.4341   524
24.4441   481
24.4541   531
24.4641   510
24.4741   505
24.4841   556
24.4941   526
24.5041   567
24.5141   515
24.5241   525
24.5341   524
24.5441   497
24.5541   548
24.5641   510
24.5741   486
24.5841   519
24.5941   548
24.6041   529
24.6141   517
24.6241   509
24.6341   511
24.6441   530
24.6541   500
24.6641   489
24.6741   532
24.6841   517
24.6941   573
24.7041   534
24.7141   522
24.7241   485
24.7341   494
24.7441   526
24.7541   499
24.7641   487
24.7741   490
24.7841   482
24.7941   536
24.8041   506
24.8141   503
24.8241   517
24.8341   564
24.8441   512
24.8541   499
24.8641   489
24.8741   531
24.8841   497
24.8941   501
24.9041   511
24.9141   516
24.9241   484
24.9341   493
24.9441   525
24.9541   517
24.9641   510
24.9741   505
24.9841   512
24.9941   495
25.0041   480
25.0141   501
25.0241   512
25.0341   500
25.0441   537
25.0541   509
25.0641   535
25.0741   515
25.0841   539
25.0941   507
25.1041   482
25.1141   503
25.1241   556
25.1341   507
25.1441   521
25.1541   548
25.1641   539
25.1741   528
25.1841   514
25.1941   514
25.2041   520
25.2141   509
25.2241   541
25.2341   488
25.2441   534
25.2541   519
25.2641   510
25.2741   517
25.2841   530
25.2941   489
25.3041   491
25.3141   539
25.3241   502
25.3341   516
25.3441   517
25.3541   525
25.3641   507
25.3741   513
25.3841   476
25.3941   507
25.4041   509
25.4141   518
25.4241   500
25.4341   484
25.4441   557
25.4541   489
25.4641   493
25.4741   484
25.4841   468
25.4941   492
25.5041   493
25.5141   491
25.5241   470
25.5341   477
25.5441   474
25.5541   507
25.5641   477
25.5741   500
25.5841   473
25.5941   487
25.6041   459
25.6141   500
25.6241   471
25.6341   498
25.6441   528
25.6541   520
25.6641   485
25.6741   487
25.6841   496
25.6941   470
25.7041   485
25.7141   491
25.7241   468
25.7341   458
25.7441   460
25.7541   503
25.7641   494
25.7741   477
25.7841   439
25.7941   499
25.8041   449
25.8141   456
25.8241   501
25.8341   487
25.8441   513
25.8541   494
25.8641   463
25.8741   487
25.8841   466
25.8941   446
25.9041   465
25.9141   451
25.9241   457
25.9341   473
25.9441   486
25.9541   497
25.9641   459
25.9741   482
25.9841   497
25.9941   489
26.0041   463
26.0141   472
26.0241   465
26.0341   461
26.0441   471
26.0541   461
26.0641   488
26.0741   466
26.0841   471
26.0941   411
26.1041   484
26.1141   435
26.1241   467
26.1341   449
26.1441   484
26.1541   445
26.1641   478
26.1741   462
26.1841   491
26.1941   477
26.2041   458
26.2141   442
26.2241   442
26.2341   463
26.2441   457
26.2541   436
26.2641   472
26.2741   445
26.2841   446
26.2941   453
26.3041   486
26.3141   506
26.3241   443
26.3341   434
26.3441   482
26.3541   449
26.3641   500
26.3741   490
26.3841   468
26.3941   483
26.4041   445
26.4141   489
26.4241   462
26.4341   436
26.4441   447
26.4541   438
26.4641   448
26.4741   470
26.4841   420
26.4941   427
26.5041   443
26.5141   445
26.5241   465
26.5341   445
26.5441   445
26.5541   434
26.5641   451
26.5741   437
26.5841   435
26.5941   437
26.6041   440
26.6141   418
26.6241   449
26.6341   451
26.6441   486
26.6541   454
26.6641   421
26.6741   401
26.6841   448
26.6941   416
26.7041   444
26.7141   427
26.7241   395
26.7341   436
26.7441   458
26.7541   421
26.7641   462
26.7741   430
26.7841   445
26.7941   436
26.8041   467
26.8141   459
26.8241   433
26.8341   438
26.8441   439
26.8541   438
26.8641   455
26.8741   447
26.8841   436
26.8941   450
26.9041   421
26.9141   422
26.9241   458
26.9341   402
26.9441   414
26.9541   438
26.9641   414
26.9741   395
26.9841   413
26.9941   431
27.0041   417
27.0141   426
27.0241   409
27.0341   455
27.0441   422
27.0541   459
27.0641   412
27.0741   445
27.0841   411
27.0941   409
27.1041   424
27.1141   407
27.1241   382
27.1341   422
27.1441   404
27.1541   453
27.1641   419
27.1741   446
27.1841   432
27.1941   418
27.2041   413
27.2141   420
27.2241   436
27.2341   411
27.2441   416
27.2541   423
27.2641   430
27.2741   393
27.2841   431
27.2941   417
27.3041   449
27.3141   398
27.3241   410
27.3341   419
27.3441   424
27.3541   416
27.3641   433
27.3741   407
27.3841   423
27.3941   468
27.4041   419
27.4141   402
27.4241   401
27.4341   420
27.4441   418
27.4541   430
27.4641   388
27.4741   412
27.4841   349
27.4941   414
27.5041   411
27.5141   391
27.5241   423
27.5341   417
27.5441   413
27.5541   391
27.5641   404
27.5741   387
27.5841   395
27.5941   404
27.6041   410
27.6141   402
27.6241   406
27.6341   423
27.6441   419
27.6541   404
27.6641   410
27.6741   399
27.6841   419
27.6941   367
27.7041   412
27.7141   388
27.7241   386
27.7341   397
27.7441   387
27.7541   394
27.7641   379
27.7741   405
27.7841   419
27.7941   434
27.8041   406
27.8141   452
27.8241   377
27.8341   418
27.8441   366
27.8541   395
27.8641   398
27.8741   363
27.8841   379
27.8941   360
27.9041   384
27.9141   382
27.9241   379
27.9341   373
27.9441   367
27.9541   408
27.9641   390
27.9741   396
27.9841   381
27.9941   394
28.0041   412
28.0141   423
28.0241   402
28.0341   413
28.0441   391
28.0541   371
28.0641   342
28.0741   377
28.0841   385
28.0941   344
28.1041   348
28.1141   394
28.1241   364
28.1341   367
28.1441   336
28.1541   352
28.1641   398
28.1741   355
28.1841   374
28.1941   356
28.2041   393
28.2141   366
28.2241   378
28.2341   372
28.2441   385
28.2541   356
28.2641   340
28.2741   397
28.2841   396
28.2941   381
28.3041   351
28.3141   378
28.3241   386
28.3341   394
28.3441   379
28.3541   351
28.3641   382
28.3741   377
28.3841   374
28.3941   327
28.4041   365
28.4141   378
28.4241   384
28.4341   368
28.4441   344
28.4541   357
28.4641   399
28.4741   362
28.4841   340
28.4941   348
28.5041   369
28.5141   351
28.5241   361
28.5341   365
28.5441   353
28.5541   384
28.5641   351
28.5741   391
28.5841   356
28.5941   340
28.6041   372
28.6141   344
28.6241   375
28.6341   367
28.6441   338
28.6541   351
28.6641   381
28.6741   336
28.6841   353
28.6941   354
28.7041   311
28.7141   337
28.7241   346
28.7341   320
28.7441   372
28.7541   356
28.7641   327
28.7741   338
28.7841   379
28.7941   333
28.8041   345
28.8141   366
28.8241   338
28.8341   358
28.8441   344
28.8541   361
28.8641   336
28.8741   314
28.8841   332
28.8941   357
28.9041   337
28.9141   357
28.9241   341
28.9341   340
28.9441   337
28.9541   315
28.9641   343
28.9741   309
28.9841   321
28.9941   331
29.0041   330
29.0141   344
29.0241   341
29.0341   337
29.0441   309
29.0541   324
29.0641   310
29.0741   308
29.0841   341
29.0941   373
29.1041   318
29.1141   332
29.1241   337
29.1341   341
29.1441   329
29.1541   336
29.1641   309
29.1741   341
29.1841   331
29.1941   318
29.2041   316
29.2141   338
29.2241   312
29.2341   309
29.2441   344
29.2541   341
29.2641   318
29.2741   334
29.2841   307
29.2941   313
29.3041   330
29.3141   329
29.3241   336
29.3341   288
29.3441   314
29.3541   337
29.3641   346
29.3741   340
29.3841   293
29.3941   378
29.4041   337
29.4141   333
29.4241   347
29.4341   307
29.4441   334
29.4541   289
29.4641   314
29.4741   327
29.4841   311
29.4941   319
29.5041   327
29.5141   334
29.5241   330
29.5341   304
29.5441   328
29.5541   303
29.5641   319
29.5741   321
29.5841   328
29.5941   299
29.6041   302
29.6141   309
29.6241   337
29.6341   278
29.6441   336
29.6541   327
29.6641   316
29.6741   336
29.6841   346
29.6941   309
29.7041   314
29.7141   311
29.7241   299
29.7341   299
29.7441   317
29.7541   314
29.7641   313
29.7741   310
29.7841   298
29.7941   317
29.8041   315
29.8141   306
29.8241   286
29.8341   296
29.8441   303
29.8541   287
29.8641   319
29.8741   309
29.8841   280
29.8941   312
29.9041   297
29.9141   301
29.9241   342
29.9341   310
29.9441   312
29.9541   311
29.9641   295
29.9741   289
29.9841   310
29.9941   333
30.0041   287
30.0141   309
30.0241   268
30.0341   292
30.0441   295
30.0541   299
30.0641   287
30.0741   278
30.0841   290
30.0941   292
30.1041   265
30.1141   302
30.1241   293
30.1341   268
30.1441   273
30.1541   253
30.1641   280
30.1741   298
30.1841   282
30.1941   298
30.2041   263
30.2141   270
30.2241   316
30.2341   284
30.2441   266
30.2541   298
30.2641   300
30.2741   276
30.2841   283
30.2941   274
30.3041   274
30.3141   284
30.3241   294
30.3341   256
30.3441   283
30.3541   294
30.3641   285
30.3741   274
30.3841   295
30.3941   271
30.4041   260
30.4141   281
30.4241   276
30.4341   279
30.4441   286
30.4541   295
30.4641   280
30.4741   288
30.4841   293
30.4941   301
30.5041   243
30.5141   239
30.5241   270
30.5341   286
30.5441   296
30.5541   289
30.5641   265
30.5741   272
30.5841   281
30.5941   276
30.6041   269
30.6141   271
30.6241   290
30.6341   293
30.6441   288
30.6541   278
30.6641   268
30.6741   294
30.6841   283
30.6941   289
30.7041   292
30.7141   261
30.7241   261
30.7341   287
30.7441   280
30.7541   277
30.7641   284
30.7741   258
30.7841   277
30.7941   283
30.8041   272
30.8141   264
30.8241   244
30.8341   254
30.8441   267
30.8541   265
30.8641   271
30.8741   276
30.8841   265
30.8941   250
30.9041   252
30.9141   272
30.9241   255
30.9341   280
30.9441   274
30.9541   285
30.9641   258
30.9741   271
30.9841   261
30.9941   273
31.0041   252
31.0141   231
31.0241   253
31.0341   245
31.0441   257
31.0541   254
31.0641   278
31.0741   246
31.0841   248
31.0941   281
31.1041   275
31.1141   265
31.1241   250
31.1341   257
31.1441   253
31.1541   272
31.1641   252
31.1741   263
31.1841   264
31.1941   242
31.2041   245
31.2141   244
31.2241   272
31.2341   274
31.2441   285
31.2541   271
31.2641   253
31.2741   269
31.2841   223
31.2941   225
31.3041   233
31.3141   249
31.3241   225
31.3341   244
31.3441   253
31.3541   251
31.3641   235
31.3741   269
31.3841   229
31.3941   238
31.4041   244
31.4141   235
31.4241   238
31.4341   217
31.4441   201
31.4541   253
31.4641   244
31.4741   231
31.4841   236
31.4941   263
31.5041   236
31.5141   258
31.5241   229
31.5341   229
31.5441   217
31.5541   240
31.5641   239
31.5741   238
31.5841   236
31.5941   245
31.6041   250
31.6141   233
31.6241   246
31.6341   243
31.6441   206
31.6541   228
31.6641   226
31.6741   221
31.6841   247
31.6941   220
31.7041   220
31.7141   242
31.7241   259
31.7341   256
31.7441   213
31.7541   221
31.7641   232
31.7741   227
31.7841   228
31.7941   229
31.8041   239
31.8141   204
31.8241   205
31.8341   254
31.8441   248
31.8541   235
31.8641   216
31.8741   218
31.8841   238
31.8941   236
31.9041   237
31.9141   249
31.9241   223
31.9341   231
31.9441   228
31.9541   242
31.9641   228
31.9741   239
31.9841   224
31.9941   224
32.0041   254
32.0141   223
32.0241   220
32.0341   212
32.0441   247
32.0541   223
32.0641   230
32.0741   218
32.0841   243
32.0941   239
32.1041   196
32.1141   222
32.1241   224
32.1341   211
32.1441   250
32.1541   215
32.1641   207
32.1741   216
32.1841   235
32.1941   242
32.2041   228
32.2141   213
32.2241   236
32.2341   218
32.2441   232
32.2541   205
32.2641   228
32.2741   225
32.2841   209
32.2941   192
32.3041   225
32.3141   225
32.3241   231
32.3341   210
32.3441   243
32.3541   220
32.3641   236
32.3741   209
32.3841   182
32.3941   227
32.4041   207
32.4141   200
32.4241   205
32.4341   194
32.4441   189
32.4541   211
32.4641   244
32.4741   221
32.4841   204
32.4941   202
32.5041   220
32.5141   211
32.5241   206
32.5341   202
32.5441   194
32.5541   202
32.5641   210
32.5741   220
32.5841   207
32.5941   208
32.6041   189
32.6141   212
32.6241   189
32.6341   210
32.6441   227
32.6541   198
32.6641   192
32.6741   212
32.6841   224
32.6941   214
32.7041   192
32.7141   198
32.7241   221
32.7341   214
32.7441   209
32.7541   179
32.7641   219
32.7741   194
32.7841   205
32.7941   189
32.8041   181
32.8141   207
32.8241   198
32.8341   187
32.8441   204
32.8541   180
32.8641   191
32.8741   194
32.8841   170
32.8941   189
32.9041   171
32.9141   179
32.9241   183
32.9341   203
32.9441   182
32.9541   199
32.9641   169
32.9741   195
32.9841   181
32.9941   202
33.0041   173
33.0141   176
33.0241   194
33.0341   179
33.0441   199
33.0541   202
33.0641   181
33.0741   187
33.0841   177
33.0941   166
33.1041   181
33.1141   188
33.1241   183
33.1341   201
33.1441   193
33.1541   181
33.1641   191
33.1741   183
33.1841   185
33.1941   200
33.2041   167
33.2141   190
33.2241   189
33.2341   187
33.2441   158
33.2541   172
33.2641   201
33.2741   181
33.2841   177
33.2941   154
33.3041   170
33.3141   185
33.3241   173
33.3341   167
33.3441   185
33.3541   185
33.3641   177
33.3741   169
33.3841   209
33.3941   186
33.4041   180
33.4141   168
33.4241   176
33.4341   153
33.4441   162
33.4541   155
33.4641   165
33.4741   162
33.4841   170
33.4941   185
33.5041   154
33.5141   196
33.5241   185
33.5341   173
33.5441   179
33.5541   149
33.5641   156
33.5741   177
33.5841   158
33.5941   173
33.6041   170
33.6141   181
33.6241   154
33.6341   162
33.6441   173
33.6541   172
33.6641   155
33.6741   157
33.6841   148
33.6941   162
33.7041   148
33.7141   162
33.7241   153
33.7341   161
33.7441   149
33.7541   171
33.7641   177
33.7741   165
33.7841   180
33.7941   181
33.8041   175
33.8141   172
33.8241   147
33.8341   168
33.8441   168
33.8541   166
33.8641   162
33.8741   165
33.8841   159
33.8941   161
33.9041   169
33.9141   161
33.9241   157
33.9341   162
33.9441   142
33.9541   142
33.9641   165
33.9741   170
33.9841   161
33.9941   149
34.0041   173
34.0141   161
34.0241   152
34.0341   131
34.0441   152
34.0541   165
34.0641   145
34.0741   160
34.0841   144
34.0941   166
34.1041   164
34.1141   162
34.1241   158
34.1341   172
34.1441   158
34.1541   151
34.1641   151
34.1741   136
34.1841   156
34.1941   155
34.2041   168
34.2141   167
34.2241   166
34.2341   149
34.2441   129
34.2541   149
34.2641   149
34.2741   144
34.2841   140
34.2941   157
34.3041   129
34.3141   134
34.3241   154
34.3341   152
34.3441   178
34.3541   142
34.3641   161
34.3741   164
34.3841   157
34.3941   131
34.4041   144
34.4141   163
34.4241   123
34.4341   133
34.4441   149
34.4541   152
34.4641   125
34.4741   159
34.4841   147
34.4941   151
34.5041   125
34.5141   150
34.5241   147
34.5341   143
34.5441   148
34.5541   161
34.5641   144
34.5741   133
34.5841   157
34.5941   133
34.6041   142
34.6141   142
34.6241   147
34.6341   153
34.6441   141
34.6541   127
34.6641   139
34.6741   116
34.6841   151
34.6941   141
34.7041   139
34.7141   110
34.7241   138
34.7341   117
34.7441   144
34.7541   143
34.7641   128
34.7741   125
34.7841   140
34.7941   124
34.8041   124
34.8141   138
34.8241   134
34.8341   111
34.8441   135
34.8541   140
34.8641   138
34.8741   135
34.8841   131
34.8941   119
34.9041   138
34.9141   137
34.9241   137
34.9341   123
34.9441   134
34.9541   131
34.9641   114
34.9741   128
34.9841   142
34.9941   131
35.0041   138
35.0141   119
35.0241   121
35.0341   117
35.0441   141
35.0541   113
35.0641   113
35.0741   149
35.0841   144
35.0941   119
35.1041   145
35.1141   137
35.1241   130
35.1341   141
35.1441   134
35.1541   136
35.1641   115
35.1741   135
35.1841   134
35.1941   117
35.2041   120
35.2141   126
35.2241   116
35.2341   135
35.2441   135
35.2541   128
35.2641   121
35.2741   124
35.2841   124
35.2941   120
35.3041   132
35.3141   125
35.3241   117
35.3341   133
35.3441   128
35.3541   121
35.3641   109
35.3741   121
35.3841   113
35.3941   116
35.4041   131
35.4141   123
35.4241   121
35.4341   114
35.4441   114
35.4541   113
35.4641   105
35.4741   122
35.4841   121
35.4941   119
35.5041   105
35.5141   124
35.5241   116
35.5341   126
35.5441   104
35.5541   108
35.5641    96
35.5741   125
35.5841   132
35.5941   106
35.6041   126
35.6141   133
35.6241   114
35.6341   110
35.6441   118
35.6541   110
35.6641   108
35.6741   109
35.6841   114
35.6941   115
35.7041   116
35.7141   132
35.7241   111
35.7341   102
35.7441   110
35.7541   112
35.7641   142
35.7741   107
35.7841   111
35.7941   121
35.8041   118
35.8141   108
35.8241   120
35.8341   120
35.8441   116
35.8541   109
35.8641   125
35.8741   100
35.8841   126
35.8941   110
35.9041   114
35.9141   108
35.9241   122
35.9341    98
35.9441   105
35.9541   109
35.9641    98
35.9741   105
35.9841   122
35.9941    95
36.0041   109
36.0141   102
36.0241   124
36.0341    69
36.0441    98
36.0541   112
36.0641   101
36.0741   104
36.0841    97
36.0941    92
36.1041   108
36.1141   111
36.1241    82
36.1341    89
36.1441    92
36.1541    95
36.1641    98
36.1741    98
36.1841    96
36.1941    94
36.2041   106
36.2141   108
36.2241   100
36.2341   111
36.2441   108
36.2541    92
36.2641   107
36.2741    81
36.2841    99
36.2941   113
36.3041    99
36.3141    98
36.3241   106
36.3341   101
36.3441   111
36.3541   109
36.3641    91
36.3741    98
36.3841   106
36.3941    86
36.4041    84
36.4141    86
36.4241   100
36.4341    81
36.4441    90
36.4541    90
36.4641    97
36.4741   106
36.4841    97
36.4941   102
36.5041    93
36.5141    89
36.5241    93
36.5341   104
36.5441    95
36.5541    93
36.5641    94
36.5741    94
36.5841    99
36.5941    98
36.6041   107
36.6141    96
36.6241    94
36.6341    98
36.6441    85
36.6541    86
36.6641    70
36.6741    84
36.6841    86
36.6941   108
36.7041    98
36.7141    80
36.7241    81
36.7341    66
36.7441    83
36.7541    66
36.7641    93
36.7741    75
36.7841    91
36.7941    78
36.8041    92
36.8141    89
36.8241    88
36.8341    93
36.8441    94
36.8541    82
36.8641    77
36.8741    97
36.8841    76
36.8941    89
36.9041    85
36.9141    90
36.9241    86
36.9341    84
36.9441    83
36.9541    90
36.9641    85
36.9741    92
36.9841    84
36.9941    86
37.0041    73
37.0141    84
37.0241    72
37.0341    90
37.0441    91
37.0541    86
37.0641    97
37.0741    76
37.0841    77
37.0941    90
37.1041    82
37.1141    77
37.1241    97
37.1341    80
37.1441    82
37.1541    79
37.1641    65
37.1741   101
37.1841    90
37.1941    72
37.2041    81
37.2141    89
37.2241    69
37.2341    66
37.2441    93
37.2541    86
37.2641    85
37.2741    89
37.2841    81
37.2941    70
37.3041    65
37.3141    84
37.3241    84
37.3341    92
37.3441    68
37.3541    89
37.3641   110
37.3741    77
37.3841    78
37.3941    88
37.4041    76
37.4141    77
37.4241    75
37.4341    68
37.4441    61
37.4541    74
37.4641    69
37.4741    80
37.4841    94
37.4941    73
37.5041    78
37.5141    62
37.5241    57
37.5341    77
37.5441    77
37.5541    69
37.5641    65
37.5741    76
37.5841    60
37.5941    71
37.6041    70
37.6141    63
37.6241    62
37.6341    68
37.6441    63
37.6541    79
37.6641    76
37.6741    71
37.6841    60
37.6941    76
37.7041    65
37.7141    53
37.7241    67
37.7341    66
37.7441    63
37.7541    76
37.7641    70
37.7741    65
37.7841    63
37.7941    62
37.8041    63
37.8141    65
37.8241    64
37.8341    63
37.8441    80
37.8541    67
37.8641    72
37.8741    68
37.8841    78
37.8941    74
37.9041    76
37.9141    78
37.9241    63
37.9341    52
37.9441    72
37.9541    74
37.9641    56
37.9741    65
37.9841    60
37.9941    75
38.0041    59
38.0141    77
38.0241    67
38.0341    67
38.0441    54
38.0541    59
38.0641    64
38.0741    62
38.0841    54
38.0941    60
38.1041    61
38.1141    62
38.1241    65
38.1341    69
38.1441    58
38.1541    65
38.1641    69
38.1741    70
38.1841    76
38.1941    68
38.2041    59
38.2141    67
38.2241    50
38.2341    67
38.2441    58
38.2541    60
38.2641    63
38.2741    60
38.2841    69
38.2941    53
38.3041    58
38.3141    48
38.3241    46
38.3341    55
38.3441    59
38.3541    60
38.3641    55
38.3741    54
38.3841    50
38.3941    59
38.4041    55
38.4141    46
38.4241    57
38.4341    56
38.4441    67
38.4541    50
38.4641    52
38.4741    45
38.4841    70
38.4941    49
38.5041    54
38.5141    49
38.5241    65
38.5341    54
38.5441    54
38.5541    48
38.5641    52
38.5741    50
38.5841    70
38.5941    55
38.6041    52
38.6141    65
38.6241    54
38.6341    63
38.6441    59
38.6541    65
38.6641    55
38.6741    62
38.6841    53
38.6941    59
38.7041    46
38.7141    66
38.7241    52
38.7341    49
38.7441    51
38.7541    50
38.7641    41
38.7741    57
38.7841    46
38.7941    51
38.8041    45
38.8141    49
38.8241    54
38.8341    52
38.8441    55
38.8541    56
38.8641    58
38.8741    43
38.8841    47
38.8941    57
38.9041    50
38.9141    43
38.9241    47
38.9341    46
38.9441    47
38.9541    42
38.9641    47
38.9741    56
38.9841    45
38.9941    45
39.0041    50
39.0141    64
39.0241    47
39.0341    52
39.0441    50
39.0541    47
39.0641    31
39.0741    46
39.0841    47
39.0941    41
39.1041    49
39.1141    43
39.1241    59
39.1341    32
39.1441    55
39.1541    57
39.1641    46
39.1741    54
39.1841    44
39.1941    43
39.2041    40
39.2141    43
39.2241    36
39.2341    39
39.2441    43
39.2541    42
39.2641    52
39.2741    48
39.2841    33
39.2941    36
39.3041    44
39.3141    45
39.3241    43
39.3341    41
39.3441    44
39.3541    50
39.3641    41
39.3741    46
39.3841    42
39.3941    38
39.4041    36
39.4141    50
39.4241    38
39.4341    37
39.4441    40
39.4541    43
39.4641    39
39.4741    43
39.4841    41
39.4941    42
39.5041    28
39.5141    50
39.5241    37
39.5341    44
39.5441    42
39.5541    34
39.5641    40
39.5741    41
39.5841    39
39.5941    36
39.6041    45
39.6141    27
39.6241    29
39.6341    35
39.6441    37
39.6541    37
39.6641    45
39.6741    46
39.6841    43
39.6941    37
39.7041    29
39.7141    35
39.7241    43
39.7341    32
39.7441    37
39.7541    21
39.7641    50
39.7741    37
39.7841    23
39.7941    26
39.8041    43
39.8141    44
39.8241    27
39.8341    36
39.8441    25
39.8541    34
39.8641    33
39.8741    33
39.8841    38
39.8941    36
39.9041    35
39.9141    34
39.9241    40
39.9341    44
39.9441    30
39.9541    38
39.9641    37
39.9741    39
39.9841    40
