Bruker Nano GmbH Berlin, Germany
Esprit 1.9

Date: 4/1/2021 4:53:45 PM
Real time: 16719
Life time: 15559
Pulse density: 104289


Detector type: XFlash 430
Window type: Custom type
Detector thickness: 0.45
Si dead layer:0.029

Calibration, lin.: 10
Calibration, abs.: -955.9
Mn FWHM: 137.05
Fano factor: 0.121
Channels: 4095

Energy Counts
-0.9559     0
-0.9459     0
-0.9359     0
-0.9259     0
-0.9159     0
-0.9059     0
-0.8959     0
-0.8859     0
-0.8759     0
-0.8659     0
-0.8559     0
-0.8459     0
-0.8359     0
-0.8259     0
-0.8159     0
-0.8059     0
-0.7959     0
-0.7859     0
-0.7759     0
-0.7659     0
-0.7559     0
-0.7459     0
-0.7359     0
-0.7259     0
-0.7159     0
-0.7059     0
-0.6959     0
-0.6859     0
-0.6759     0
-0.6659     0
-0.6559     0
-0.6459     0
-0.6359     0
-0.6259     0
-0.6159     0
-0.6059     0
-0.5959     0
-0.5859     0
-0.5759     0
-0.5659     0
-0.5559     0
-0.5459     0
-0.5359     0
-0.5259     0
-0.5159     0
-0.5059     0
-0.4959     0
-0.4859     0
-0.4759     0
-0.4659     0
-0.4559     0
-0.4459     0
-0.4359     0
-0.4259     0
-0.4159     0
-0.4059     0
-0.3959     0
-0.3859     0
-0.3759     0
-0.3659     0
-0.3559     0
-0.3459     0
-0.3359     0
-0.3259     0
-0.3159     0
-0.3059     0
-0.2959     0
-0.2859     0
-0.2759     0
-0.2659     0
-0.2559     0
-0.2459     0
-0.2359     0
-0.2259     0
-0.2159     0
-0.2059     0
-0.1959     0
-0.1859     0
-0.1759     0
-0.1659     0
-0.1559     0
-0.1459     0
-0.1359     0
-0.1259     0
-0.1159     2
-0.1059    11
-0.0959    42
-0.0859   169
-0.0759   599
-0.0659  1782
-0.0559  4490
-0.0459  9824
-0.0359 18502
-0.0259 29393
-0.0159 40516
-0.0059 47731
 0.0041 48100
 0.0141 41277
 0.0241 30551
 0.0341 19457
 0.0441 10567
 0.0541  4819
 0.0641  1991
 0.0741   638
 0.0841   198
 0.0941    53
 0.1041    19
 0.1141     9
 0.1241     7
 0.1341     2
 0.1441     6
 0.1541     2
 0.1641     2
 0.1741     1
 0.1841   131
 0.1941   250
 0.2041   239
 0.2141   228
 0.2241   216
 0.2341   219
 0.2441   237
 0.2541   219
 0.2641   238
 0.2741   251
 0.2841   254
 0.2941   235
 0.3041   259
 0.3141   243
 0.3241   235
 0.3341   225
 0.3441   243
 0.3541   234
 0.3641   224
 0.3741   207
 0.3841   230
 0.3941   212
 0.4041   229
 0.4141   249
 0.4241   210
 0.4341   206
 0.4441   212
 0.4541   219
 0.4641   210
 0.4741   196
 0.4841   204
 0.4941   231
 0.5041   205
 0.5141   214
 0.5241   231
 0.5341   231
 0.5441   206
 0.5541   205
 0.5641   210
 0.5741   218
 0.5841   196
 0.5941   190
 0.6041   197
 0.6141   208
 0.6241   206
 0.6341   199
 0.6441   191
 0.6541   198
 0.6641   208
 0.6741   194
 0.6841   191
 0.6941   176
 0.7041   176
 0.7141   191
 0.7241   194
 0.7341   187
 0.7441   171
 0.7541   183
 0.7641   188
 0.7741   180
 0.7841   183
 0.7941   176
 0.8041   162
 0.8141   169
 0.8241   166
 0.8341   176
 0.8441   180
 0.8541   182
 0.8641   183
 0.8741   179
 0.8841   178
 0.8941   174
 0.9041   168
 0.9141   167
 0.9241   154
 0.9341   172
 0.9441   170
 0.9541   160
 0.9641   151
 0.9741   163
 0.9841   180
 0.9941   174
 1.0041   159
 1.0141   135
 1.0241   137
 1.0341   140
 1.0441   186
 1.0541   159
 1.0641   164
 1.0741   145
 1.0841   151
 1.0941   150
 1.1041   149
 1.1141   142
 1.1241   141
 1.1341   130
 1.1441   159
 1.1541   167
 1.1641   166
 1.1741   166
 1.1841   144
 1.1941   142
 1.2041   142
 1.2141   138
 1.2241   154
 1.2341   154
 1.2441   176
 1.2541   154
 1.2641   148
 1.2741   134
 1.2841   137
 1.2941   156
 1.3041   130
 1.3141   137
 1.3241   138
 1.3341   141
 1.3441   155
 1.3541   139
 1.3641   136
 1.3741   153
 1.3841   162
 1.3941   156
 1.4041   133
 1.4141   146
 1.4241   150
 1.4341   151
 1.4441   163
 1.4541   155
 1.4641   148
 1.4741   133
 1.4841   137
 1.4941   136
 1.5041   132
 1.5141   133
 1.5241   133
 1.5341   126
 1.5441   118
 1.5541   144
 1.5641   132
 1.5741   131
 1.5841   133
 1.5941   135
 1.6041   130
 1.6141   141
 1.6241   141
 1.6341   143
 1.6441   149
 1.6541   160
 1.6641   201
 1.6741   242
 1.6841   310
 1.6941   401
 1.7041   466
 1.7141   559
 1.7241   598
 1.7341   599
 1.7441   623
 1.7541   566
 1.7641   538
 1.7741   475
 1.7841   393
 1.7941   305
 1.8041   249
 1.8141   227
 1.8241   223
 1.8341   201
 1.8441   195
 1.8541   167
 1.8641   168
 1.8741   160
 1.8841   171
 1.8941   151
 1.9041   154
 1.9141   151
 1.9241   163
 1.9341   161
 1.9441   136
 1.9541   156
 1.9641   164
 1.9741   171
 1.9841   164
 1.9941   196
 2.0041   173
 2.0141   179
 2.0241   187
 2.0341   178
 2.0441   158
 2.0541   162
 2.0641   158
 2.0741   166
 2.0841   144
 2.0941   146
 2.1041   147
 2.1141   137
 2.1241   151
 2.1341   124
 2.1441   123
 2.1541   128
 2.1641   137
 2.1741   144
 2.1841   125
 2.1941   128
 2.2041   129
 2.2141   142
 2.2241   135
 2.2341   132
 2.2441   119
 2.2541   123
 2.2641   113
 2.2741   131
 2.2841   142
 2.2941   125
 2.3041   112
 2.3141   112
 2.3241   123
 2.3341   133
 2.3441   145
 2.3541   136
 2.3641   120
 2.3741   134
 2.3841   135
 2.3941   130
 2.4041   114
 2.4141   114
 2.4241   133
 2.4341   124
 2.4441   140
 2.4541   126
 2.4641   106
 2.4741   133
 2.4841   123
 2.4941   125
 2.5041   132
 2.5141   121
 2.5241   114
 2.5341   125
 2.5441   133
 2.5541   124
 2.5641   123
 2.5741   130
 2.5841   107
 2.5941   121
 2.6041   106
 2.6141   130
 2.6241   124
 2.6341   123
 2.6441   117
 2.6541   103
 2.6641   121
 2.6741   125
 2.6841   116
 2.6941   117
 2.7041   126
 2.7141   109
 2.7241    96
 2.7341   105
 2.7441   116
 2.7541   101
 2.7641   132
 2.7741   125
 2.7841   124
 2.7941   118
 2.8041   123
 2.8141   123
 2.8241   128
 2.8341   144
 2.8441   114
 2.8541   123
 2.8641   124
 2.8741   119
 2.8841   136
 2.8941   127
 2.9041   104
 2.9141   110
 2.9241    95
 2.9341    99
 2.9441   113
 2.9541   104
 2.9641   100
 2.9741   113
 2.9841   122
 2.9941   114
 3.0041   102
 3.0141   112
 3.0241   103
 3.0341    81
 3.0441   122
 3.0541   114
 3.0641   107
 3.0741   101
 3.0841   106
 3.0941    89
 3.1041    91
 3.1141    92
 3.1241   102
 3.1341    98
 3.1441    95
 3.1541    98
 3.1641    91
 3.1741    96
 3.1841    85
 3.1941   115
 3.2041   102
 3.2141    82
 3.2241   105
 3.2341   105
 3.2441   128
 3.2541   138
 3.2641   129
 3.2741   136
 3.2841   193
 3.2941   165
 3.3041   168
 3.3141   201
 3.3241   169
 3.3341   158
 3.3441   163
 3.3541   166
 3.3641   144
 3.3741   117
 3.3841   104
 3.3941    99
 3.4041    89
 3.4141    99
 3.4241    87
 3.4341    79
 3.4441    68
 3.4541    94
 3.4641    97
 3.4741    98
 3.4841    87
 3.4941    87
 3.5041    95
 3.5141    90
 3.5241    98
 3.5341   103
 3.5441   124
 3.5541   158
 3.5641   173
 3.5741   204
 3.5841   228
 3.5941   307
 3.6041   402
 3.6141   499
 3.6241   633
 3.6341   858
 3.6441   968
 3.6541  1183
 3.6641  1348
 3.6741  1414
 3.6841  1481
 3.6941  1483
 3.7041  1440
 3.7141  1322
 3.7241  1226
 3.7341  1043
 3.7441   867
 3.7541   682
 3.7641   528
 3.7741   397
 3.7841   301
 3.7941   223
 3.8041   171
 3.8141   129
 3.8241   107
 3.8341    92
 3.8441   104
 3.8541    89
 3.8641    89
 3.8741    90
 3.8841    87
 3.8941    90
 3.9041   102
 3.9141   120
 3.9241   126
 3.9341   149
 3.9441   168
 3.9541   187
 3.9641   245
 3.9741   265
 3.9841   296
 3.9941   292
 4.0041   292
 4.0141   297
 4.0241   277
 4.0341   284
 4.0441   283
 4.0541   259
 4.0641   220
 4.0741   167
 4.0841   165
 4.0941   128
 4.1041   120
 4.1141    88
 4.1241    97
 4.1341    99
 4.1441    85
 4.1541    57
 4.1641    58
 4.1741    64
 4.1841    73
 4.1941    55
 4.2041    62
 4.2141    62
 4.2241    73
 4.2341    75
 4.2441    78
 4.2541    62
 4.2641    62
 4.2741    68
 4.2841    71
 4.2941    66
 4.3041    67
 4.3141    69
 4.3241    67
 4.3341    72
 4.3441    69
 4.3541    87
 4.3641    88
 4.3741   101
 4.3841   139
 4.3941   164
 4.4041   200
 4.4141   242
 4.4241   271
 4.4341   332
 4.4441   415
 4.4541   464
 4.4641   581
 4.4741   654
 4.4841   721
 4.4941   700
 4.5041   726
 4.5141   758
 4.5241   704
 4.5341   680
 4.5441   599
 4.5541   524
 4.5641   439
 4.5741   341
 4.5841   307
 4.5941   228
 4.6041   187
 4.6141   162
 4.6241   181
 4.6341   129
 4.6441   115
 4.6541    93
 4.6641    82
 4.6741   103
 4.6841    74
 4.6941    77
 4.7041    96
 4.7141    95
 4.7241    70
 4.7341    91
 4.7441    81
 4.7541    92
 4.7641    87
 4.7741   122
 4.7841   100
 4.7941    87
 4.8041   102
 4.8141   103
 4.8241   118
 4.8341   129
 4.8441   119
 4.8541   152
 4.8641   142
 4.8741   191
 4.8841   189
 4.8941   183
 4.9041   229
 4.9141   224
 4.9241   263
 4.9341   230
 4.9441   241
 4.9541   183
 4.9641   188
 4.9741   173
 4.9841   181
 4.9941   148
 5.0041   126
 5.0141   135
 5.0241   128
 5.0341   103
 5.0441    94
 5.0541    93
 5.0641   107
 5.0741    88
 5.0841    80
 5.0941    91
 5.1041    72
 5.1141    74
 5.1241    84
 5.1341    96
 5.1441    88
 5.1541    68
 5.1641    83
 5.1741    79
 5.1841    72
 5.1941    74
 5.2041    76
 5.2141    91
 5.2241    83
 5.2341    92
 5.2441    88
 5.2541    87
 5.2641    84
 5.2741    94
 5.2841    97
 5.2941    78
 5.3041   101
 5.3141    82
 5.3241    95
 5.3341   115
 5.3441   130
 5.3541   114
 5.3641   133
 5.3741   141
 5.3841   150
 5.3941   148
 5.4041   148
 5.4141   144
 5.4241   157
 5.4341   159
 5.4441   148
 5.4541   136
 5.4641   131
 5.4741   118
 5.4841   113
 5.4941   125
 5.5041   110
 5.5141   110
 5.5241    98
 5.5341    82
 5.5441   100
 5.5541    96
 5.5641   101
 5.5741   100
 5.5841    80
 5.5941   104
 5.6041    84
 5.6141   102
 5.6241    97
 5.6341    92
 5.6441    93
 5.6541    97
 5.6641    65
 5.6741    81
 5.6841    90
 5.6941   118
 5.7041   104
 5.7141    96
 5.7241   113
 5.7341   107
 5.7441   124
 5.7541   115
 5.7641   142
 5.7741   172
 5.7841   225
 5.7941   262
 5.8041   284
 5.8141   322
 5.8241   390
 5.8341   477
 5.8441   569
 5.8541   612
 5.8641   673
 5.8741   684
 5.8841   729
 5.8941   702
 5.9041   699
 5.9141   663
 5.9241   680
 5.9341   645
 5.9441   543
 5.9541   489
 5.9641   402
 5.9741   334
 5.9841   295
 5.9941   261
 6.0041   227
 6.0141   187
 6.0241   162
 6.0341   162
 6.0441   110
 6.0541   137
 6.0641   136
 6.0741   128
 6.0841   138
 6.0941   130
 6.1041   123
 6.1141   159
 6.1241   158
 6.1341   161
 6.1441   152
 6.1541   171
 6.1641   201
 6.1741   241
 6.1841   216
 6.1941   327
 6.2041   474
 6.2141   576
 6.2241   769
 6.2341  1087
 6.2441  1597
 6.2541  2220
 6.2641  3076
 6.2741  4174
 6.2841  5754
 6.2941  7510
 6.3041  9812
 6.3141 12320
 6.3241 15254
 6.3341 18615
 6.3441 21707
 6.3541 24489
 6.3641 27140
 6.3741 29572
 6.3841 31058
 6.3941 31974
 6.4041 31760
 6.4141 30581
 6.4241 29180
 6.4341 26383
 6.4441 23729
 6.4541 20663
 6.4641 17401
 6.4741 14231
 6.4841 11400
 6.4941  9025
 6.5041  6878
 6.5141  5002
 6.5241  3660
 6.5341  2633
 6.5441  1772
 6.5541  1327
 6.5641   825
 6.5741   647
 6.5841   452
 6.5941   345
 6.6041   280
 6.6141   218
 6.6241   192
 6.6341   183
 6.6441   177
 6.6541   160
 6.6641   151
 6.6741   178
 6.6841   150
 6.6941   161
 6.7041   171
 6.7141   159
 6.7241   175
 6.7341   163
 6.7441   157
 6.7541   207
 6.7641   164
 6.7741   190
 6.7841   192
 6.7941   192
 6.8041   208
 6.8141   216
 6.8241   220
 6.8341   239
 6.8441   248
 6.8541   302
 6.8641   352
 6.8741   382
 6.8841   422
 6.8941   510
 6.9041   666
 6.9141   821
 6.9241   945
 6.9341  1154
 6.9441  1572
 6.9541  1779
 6.9641  2213
 6.9741  2621
 6.9841  3218
 6.9941  3572
 7.0041  4073
 7.0141  4397
 7.0241  4950
 7.0341  5189
 7.0441  5288
 7.0541  5482
 7.0641  5383
 7.0741  5082
 7.0841  4758
 7.0941  4351
 7.1041  3924
 7.1141  3346
 7.1241  2948
 7.1341  2387
 7.1441  1974
 7.1541  1565
 7.1641  1257
 7.1741   996
 7.1841   798
 7.1941   557
 7.2041   465
 7.2141   338
 7.2241   288
 7.2341   252
 7.2441   193
 7.2541   174
 7.2641   177
 7.2741   179
 7.2841   156
 7.2941   172
 7.3041   185
 7.3141   189
 7.3241   188
 7.3341   211
 7.3441   199
 7.3541   218
 7.3641   227
 7.3741   250
 7.3841   247
 7.3941   240
 7.4041   243
 7.4141   257
 7.4241   261
 7.4341   300
 7.4441   260
 7.4541   273
 7.4641   283
 7.4741   268
 7.4841   239
 7.4941   269
 7.5041   246
 7.5141   235
 7.5241   210
 7.5341   209
 7.5441   198
 7.5541   194
 7.5641   186
 7.5741   182
 7.5841   174
 7.5941   167
 7.6041   160
 7.6141   160
 7.6241   157
 7.6341   159
 7.6441   150
 7.6541   168
 7.6641   170
 7.6741   153
 7.6841   154
 7.6941   176
 7.7041   175
 7.7141   143
 7.7241   159
 7.7341   182
 7.7441   166
 7.7541   193
 7.7641   177
 7.7741   192
 7.7841   179
 7.7941   174
 7.8041   193
 7.8141   200
 7.8241   237
 7.8341   196
 7.8441   208
 7.8541   219
 7.8641   187
 7.8741   243
 7.8841   257
 7.8941   223
 7.9041   243
 7.9141   263
 7.9241   267
 7.9341   283
 7.9441   318
 7.9541   336
 7.9641   358
 7.9741   370
 7.9841   428
 7.9941   435
 8.0041   487
 8.0141   505
 8.0241   538
 8.0341   593
 8.0441   632
 8.0541   584
 8.0641   746
 8.0741   761
 8.0841   757
 8.0941   782
 8.1041   836
 8.1141   917
 8.1241   988
 8.1341   952
 8.1441   998
 8.1541  1006
 8.1641  1032
 8.1741  1059
 8.1841  1064
 8.1941  1088
 8.2041  1082
 8.2141  1116
 8.2241  1135
 8.2341  1157
 8.2441  1147
 8.2541  1252
 8.2641  1268
 8.2741  1373
 8.2841  1409
 8.2941  1505
 8.3041  1598
 8.3141  1748
 8.3241  1887
 8.3341  1942
 8.3441  2093
 8.3541  2259
 8.3641  2330
 8.3741  2463
 8.3841  2460
 8.3941  2418
 8.4041  2327
 8.4141  2368
 8.4241  2149
 8.4341  1913
 8.4441  1846
 8.4541  1596
 8.4641  1422
 8.4741  1301
 8.4841  1100
 8.4941   944
 8.5041   830
 8.5141   649
 8.5241   625
 8.5341   497
 8.5441   444
 8.5541   401
 8.5641   377
 8.5741   354
 8.5841   355
 8.5941   337
 8.6041   332
 8.6141   348
 8.6241   317
 8.6341   338
 8.6441   315
 8.6541   295
 8.6641   314
 8.6741   315
 8.6841   315
 8.6941   303
 8.7041   280
 8.7141   280
 8.7241   294
 8.7341   250
 8.7441   256
 8.7541   261
 8.7641   269
 8.7741   246
 8.7841   247
 8.7941   242
 8.8041   225
 8.8141   211
 8.8241   229
 8.8341   235
 8.8441   237
 8.8541   226
 8.8641   233
 8.8741   243
 8.8841   215
 8.8941   207
 8.9041   240
 8.9141   251
 8.9241   244
 8.9341   250
 8.9441   241
 8.9541   257
 8.9641   256
 8.9741   251
 8.9841   274
 8.9941   261
 9.0041   288
 9.0141   286
 9.0241   298
 9.0341   269
 9.0441   278
 9.0541   290
 9.0641   345
 9.0741   335
 9.0841   336
 9.0941   346
 9.1041   334
 9.1141   373
 9.1241   372
 9.1341   393
 9.1441   423
 9.1541   422
 9.1641   439
 9.1741   413
 9.1841   465
 9.1941   511
 9.2041   528
 9.2141   568
 9.2241   592
 9.2341   606
 9.2441   637
 9.2541   647
 9.2641   688
 9.2741   750
 9.2841   765
 9.2941   790
 9.3041   839
 9.3141   808
 9.3241   856
 9.3341   934
 9.3441   923
 9.3541   951
 9.3641   962
 9.3741   950
 9.3841  1015
 9.3941  1026
 9.4041  1039
 9.4141  1042
 9.4241  1049
 9.4341  1066
 9.4441  1076
 9.4541  1088
 9.4641  1095
 9.4741  1118
 9.4841  1092
 9.4941  1153
 9.5041  1162
 9.5141  1266
 9.5241  1259
 9.5341  1269
 9.5441  1301
 9.5541  1370
 9.5641  1478
 9.5741  1571
 9.5841  1703
 9.5941  1736
 9.6041  1846
 9.6141  1988
 9.6241  2006
 9.6341  2070
 9.6441  2177
 9.6541  2213
 9.6641  2223
 9.6741  2233
 9.6841  2209
 9.6941  2101
 9.7041  2026
 9.7141  1932
 9.7241  1845
 9.7341  1775
 9.7441  1554
 9.7541  1427
 9.7641  1373
 9.7741  1289
 9.7841  1174
 9.7941  1094
 9.8041  1027
 9.8141   995
 9.8241   922
 9.8341   879
 9.8441   895
 9.8541   866
 9.8641   841
 9.8741   858
 9.8841   915
 9.8941   985
 9.9041   951
 9.9141   982
 9.9241  1058
 9.9341  1013
 9.9441  1010
 9.9541  1027
 9.9641   976
 9.9741   947
 9.9841   947
 9.9941   899
10.0041   840
10.0141   787
10.0241   714
10.0341   652
10.0441   584
10.0541   548
10.0641   454
10.0741   409
10.0841   373
10.0941   337
10.1041   315
10.1141   273
10.1241   250
10.1341   209
10.1441   213
10.1541   199
10.1641   201
10.1741   183
10.1841   182
10.1941   180
10.2041   179
10.2141   176
10.2241   163
10.2341   157
10.2441   155
10.2541   161
10.2641   156
10.2741   150
10.2841   158
10.2941   152
10.3041   121
10.3141   128
10.3241   126
10.3341   121
10.3441   121
10.3541   111
10.3641   112
10.3741   125
10.3841   109
10.3941   121
10.4041   123
10.4141   119
10.4241   108
10.4341   116
10.4441   119
10.4541   139
10.4641   133
10.4741   123
10.4841   137
10.4941   130
10.5041   143
10.5141   137
10.5241   128
10.5341   142
10.5441   138
10.5541   127
10.5641   128
10.5741   141
10.5841   129
10.5941   131
10.6041   155
10.6141   151
10.6241   137
10.6341   143
10.6441   141
10.6541   158
10.6641   168
10.6741   134
10.6841   153
10.6941   158
10.7041   156
10.7141   162
10.7241   151
10.7341   152
10.7441   169
10.7541   178
10.7641   199
10.7741   212
10.7841   194
10.7941   209
10.8041   186
10.8141   168
10.8241   194
10.8341   194
10.8441   198
10.8541   194
10.8641   197
10.8741   203
10.8841   249
10.8941   235
10.9041   213
10.9141   203
10.9241   205
10.9341   204
10.9441   222
10.9541   222
10.9641   210
10.9741   193
10.9841   207
10.9941   190
11.0041   217
11.0141   211
11.0241   208
11.0341   210
11.0441   204
11.0541   191
11.0641   201
11.0741   210
11.0841   205
11.0941   185
11.1041   181
11.1141   188
11.1241   177
11.1341   209
11.1441   221
11.1541   237
11.1641   230
11.1741   221
11.1841   232
11.1941   246
11.2041   249
11.2141   264
11.2241   281
11.2341   298
11.2441   311
11.2541   323
11.2641   323
11.2741   294
11.2841   305
11.2941   326
11.3041   324
11.3141   330
11.3241   288
11.3341   262
11.3441   259
11.3541   257
11.3641   245
11.3741   240
11.3841   235
11.3941   215
11.4041   198
11.4141   191
11.4241   181
11.4341   168
11.4441   166
11.4541   171
11.4641   155
11.4741   146
11.4841   145
11.4941   156
11.5041   155
11.5141   156
11.5241   153
11.5341   165
11.5441   157
11.5541   167
11.5641   174
11.5741   184
11.5841   182
11.5941   173
11.6041   167
11.6141   175
11.6241   193
11.6341   187
11.6441   177
11.6541   171
11.6641   175
11.6741   170
11.6841   148
11.6941   148
11.7041   148
11.7141   157
11.7241   149
11.7341   146
11.7441   158
11.7541   136
11.7641   117
11.7741   126
11.7841   119
11.7941   126
11.8041   124
11.8141   119
11.8241   112
11.8341   115
11.8441   112
11.8541   126
11.8641   126
11.8741   121
11.8841   127
11.8941   128
11.9041   114
11.9141   126
11.9241   118
11.9341   115
11.9441   116
11.9541   132
11.9641   147
11.9741   133
11.9841   109
11.9941   101
12.0041   104
12.0141   119
12.0241   120
12.0341   116
12.0441   113
12.0541   117
12.0641   126
12.0741   126
12.0841   130
12.0941   122
12.1041   100
12.1141   104
12.1241   112
12.1341   113
12.1441   114
12.1541   110
12.1641   120
12.1741   123
12.1841   112
12.1941   121
12.2041   110
12.2141    98
12.2241   102
12.2341   117
12.2441   114
12.2541   122
12.2641   116
12.2741   106
12.2841   104
12.2941   120
12.3041   116
12.3141   106
12.3241   112
12.3341   112
12.3441   109
12.3541   111
12.3641   117
12.3741   128
12.3841   118
12.3941   109
12.4041   111
12.4141   105
12.4241   100
12.4341   102
12.4441   116
12.4541   125
12.4641   110
12.4741   113
12.4841   116
12.4941   125
12.5041   135
12.5141   121
12.5241   125
12.5341   133
12.5441   126
12.5541   118
12.5641   129
12.5741   129
12.5841   120
12.5941   119
12.6041   133
12.6141   137
12.6241   135
12.6341   132
12.6441   126
12.6541   125
12.6641   127
12.6741   127
12.6841   124
12.6941   122
12.7041   126
12.7141   130
12.7241   131
12.7341   122
12.7441   119
12.7541   124
12.7641   124
12.7741   119
12.7841   119
12.7941   121
12.8041   121
12.8141   125
12.8241   129
12.8341   130
12.8441   130
12.8541   131
12.8641   132
12.8741   131
12.8841   127
12.8941   122
12.9041   119
12.9141   116
12.9241   113
12.9341   115
12.9441   117
12.9541   120
12.9641   130
12.9741   140
12.9841   137
12.9941   129
13.0041   141
13.0141   148
13.0241   142
13.0341   151
13.0441   142
13.0541   135
13.0641   138
13.0741   128
13.0841   148
13.0941   151
13.1041   123
13.1141   122
13.1241   139
13.1341   144
13.1441   135
13.1541   134
13.1641   136
13.1741   133
13.1841   140
13.1941   140
13.2041   143
13.2141   142
13.2241   152
13.2341   160
13.2441   154
13.2541   148
13.2641   148
13.2741   158
13.2841   166
13.2941   184
13.3041   180
13.3141   172
13.3241   179
13.3341   185
13.3441   185
13.3541   178
13.3641   180
13.3741   193
13.3841   203
13.3941   203
13.4041   194
13.4141   178
13.4241   171
13.4341   171
13.4441   172
13.4541   172
13.4641   170
13.4741   167
13.4841   162
13.4941   168
13.5041   177
13.5141   178
13.5241   171
13.5341   164
13.5441   158
13.5541   150
13.5641   146
13.5741   149
13.5841   151
13.5941   150
13.6041   147
13.6141   144
13.6241   139
13.6341   131
13.6441   130
13.6541   137
13.6641   145
13.6741   150
13.6841   154
13.6941   157
13.7041   159
13.7141   157
13.7241   156
13.7341   161
13.7441   162
13.7541   156
13.7641   151
13.7741   150
13.7841   154
13.7941   160
13.8041   160
13.8141   160
13.8241   168
13.8341   175
13.8441   172
13.8541   169
13.8641   169
13.8741   170
13.8841   170
13.8941   173
13.9041   180
13.9141   190
13.9241   193
13.9341   193
13.9441   202
13.9541   213
13.9641   222
13.9741   235
13.9841   251
13.9941   267
14.0041   276
14.0141   285
14.0241   307
14.0341   333
14.0441   358
14.0541   384
14.0641   407
14.0741   428
14.0841   452
14.0941   477
14.1041   500
14.1141   522
14.1241   539
14.1341   552
14.1441   559
14.1541   546
14.1641   522
14.1741   510
14.1841   508
14.1941   495
14.2041   471
14.2141   447
14.2241   421
14.2341   393
14.2441   369
14.2541   352
14.2641   333
14.2741   299
14.2841   269
14.2941   254
14.3041   236
14.3141   228
14.3241   221
14.3341   191
14.3441   190
14.3541   200
14.3641   199
14.3741   201
14.3841   178
14.3941   172
14.4041   172
14.4141   168
14.4241   171
14.4341   171
14.4441   174
14.4541   168
14.4641   161
14.4741   181
14.4841   186
14.4941   174
14.5041   169
14.5141   175
14.5241   174
14.5341   152
14.5441   159
14.5541   177
14.5641   176
14.5741   178
14.5841   184
14.5941   178
14.6041   172
14.6141   166
14.6241   182
14.6341   190
14.6441   182
14.6541   174
14.6641   170
14.6741   173
14.6841   177
14.6941   174
14.7041   181
14.7141   186
14.7241   180
14.7341   185
14.7441   203
14.7541   205
14.7641   187
14.7741   184
14.7841   183
14.7941   186
14.8041   198
14.8141   193
14.8241   183
14.8341   206
14.8441   218
14.8541   215
14.8641   219
14.8741   229
14.8841   219
14.8941   213
14.9041   224
14.9141   236
14.9241   236
14.9341   240
14.9441   227
14.9541   226
14.9641   229
14.9741   233
14.9841   247
14.9941   239
15.0041   228
15.0141   237
15.0241   237
15.0341   201
15.0441   210
15.0541   226
15.0641   222
15.0741   196
15.0841   216
15.0941   223
15.1041   202
15.1141   201
15.1241   193
15.1341   191
15.1441   196
15.1541   198
15.1641   184
15.1741   178
15.1841   192
15.1941   186
15.2041   181
15.2141   184
15.2241   198
15.2341   198
15.2441   199
15.2541   191
15.2641   188
15.2741   194
15.2841   180
15.2941   176
15.3041   184
15.3141   200
15.3241   210
15.3341   194
15.3441   192
15.3541   189
15.3641   190
15.3741   205
15.3841   199
15.3941   208
15.4041   220
15.4141   183
15.4241   189
15.4341   196
15.4441   208
15.4541   200
15.4641   204
15.4741   206
15.4841   199
15.4941   204
15.5041   208
15.5141   205
15.5241   221
15.5341   234
15.5441   239
15.5541   252
15.5641   256
15.5741   256
15.5841   258
15.5941   276
15.6041   304
15.6141   307
15.6241   305
15.6341   345
15.6441   367
15.6541   365
15.6641   381
15.6741   419
15.6841   457
15.6941   481
15.7041   485
15.7141   480
15.7241   503
15.7341   532
15.7441   548
15.7541   497
15.7641   535
15.7741   537
15.7841   518
15.7941   527
15.8041   489
15.8141   468
15.8241   453
15.8341   453
15.8441   445
15.8541   430
15.8641   384
15.8741   393
15.8841   350
15.8941   343
15.9041   346
15.9141   315
15.9241   296
15.9341   289
15.9441   277
15.9541   282
15.9641   259
15.9741   246
15.9841   247
15.9941   251
16.0041   225
16.0141   197
16.0241   218
16.0341   237
16.0441   232
16.0541   234
16.0641   232
16.0741   217
16.0841   205
16.0941   233
16.1041   236
16.1141   222
16.1241   227
16.1341   239
16.1441   240
16.1541   244
16.1641   214
16.1741   224
16.1841   237
16.1941   210
16.2041   188
16.2141   205
16.2241   227
16.2341   236
16.2441   221
16.2541   233
16.2641   233
16.2741   234
16.2841   221
16.2941   208
16.3041   229
16.3141   236
16.3241   223
16.3341   227
16.3441   225
16.3541   200
16.3641   211
16.3741   244
16.3841   244
16.3941   238
16.4041   246
16.4141   237
16.4241   225
16.4341   236
16.4441   248
16.4541   221
16.4641   236
16.4741   250
16.4841   257
16.4941   246
16.5041   253
16.5141   268
16.5241   237
16.5341   220
16.5441   233
16.5541   220
16.5641   230
16.5741   238
16.5841   252
16.5941   245
16.6041   236
16.6141   231
16.6241   229
16.6341   227
16.6441   241
16.6541   254
16.6641   253
16.6741   221
16.6841   241
16.6941   265
16.7041   263
16.7141   246
16.7241   257
16.7341   251
16.7441   232
16.7541   238
16.7641   266
16.7741   252
16.7841   244
16.7941   241
16.8041   258
16.8141   245
16.8241   244
16.8341   253
16.8441   237
16.8541   238
16.8641   249
16.8741   251
16.8841   223
16.8941   234
16.9041   251
16.9141   258
16.9241   263
16.9341   235
16.9441   222
16.9541   246
16.9641   259
16.9741   257
16.9841   247
16.9941   234
17.0041   261
17.0141   255
17.0241   246
17.0341   237
17.0441   253
17.0541   253
17.0641   243
17.0741   237
17.0841   255
17.0941   245
17.1041   233
17.1141   243
17.1241   249
17.1341   254
17.1441   246
17.1541   247
17.1641   245
17.1741   238
17.1841   247
17.1941   267
17.2041   257
17.2141   257
17.2241   263
17.2341   242
17.2441   257
17.2541   263
17.2641   263
17.2741   282
17.2841   266
17.2941   238
17.3041   230
17.3141   251
17.3241   249
17.3341   246
17.3441   250
17.3541   260
17.3641   246
17.3741   270
17.3841   272
17.3941   259
17.4041   264
17.4141   257
17.4241   263
17.4341   247
17.4441   260
17.4541   260
17.4641   265
17.4741   275
17.4841   272
17.4941   288
17.5041   297
17.5141   298
17.5241   302
17.5341   294
17.5441   294
17.5541   282
17.5641   278
17.5741   289
17.5841   305
17.5941   320
17.6041   283
17.6141   277
17.6241   279
17.6341   286
17.6441   306
17.6541   319
17.6641   310
17.6741   281
17.6841   283
17.6941   311
17.7041   318
17.7141   305
17.7241   312
17.7341   317
17.7441   314
17.7541   329
17.7641   311
17.7741   300
17.7841   294
17.7941   295
17.8041   286
17.8141   307
17.8241   301
17.8341   289
17.8441   278
17.8541   279
17.8641   272
17.8741   288
17.8841   282
17.8941   290
17.9041   286
17.9141   311
17.9241   317
17.9341   272
17.9441   278
17.9541   271
17.9641   295
17.9741   296
17.9841   301
17.9941   275
18.0041   283
18.0141   281
18.0241   288
18.0341   283
18.0441   274
18.0541   262
18.0641   258
18.0741   269
18.0841   275
18.0941   293
18.1041   286
18.1141   288
18.1241   289
18.1341   291
18.1441   309
18.1541   296
18.1641   289
18.1741   271
18.1841   285
18.1941   286
18.2041   266
18.2141   291
18.2241   284
18.2341   287
18.2441   295
18.2541   274
18.2641   293
18.2741   303
18.2841   287
18.2941   309
18.3041   267
18.3141   276
18.3241   281
18.3341   290
18.3441   267
18.3541   266
18.3641   283
18.3741   306
18.3841   319
18.3941   282
18.4041   283
18.4141   304
18.4241   299
18.4341   327
18.4441   308
18.4541   318
18.4641   343
18.4741   324
18.4841   305
18.4941   296
18.5041   272
18.5141   294
18.5241   273
18.5341   292
18.5441   283
18.5541   299
18.5641   326
18.5741   321
18.5841   297
18.5941   315
18.6041   324
18.6141   325
18.6241   302
18.6341   327
18.6441   301
18.6541   270
18.6641   304
18.6741   333
18.6841   313
18.6941   315
18.7041   311
18.7141   315
18.7241   319
18.7341   310
18.7441   302
18.7541   307
18.7641   322
18.7741   316
18.7841   328
18.7941   333
18.8041   314
18.8141   322
18.8241   319
18.8341   311
18.8441   314
18.8541   320
18.8641   317
18.8741   318
18.8841   309
18.8941   309
18.9041   315
18.9141   313
18.9241   321
18.9341   320
18.9441   317
18.9541   311
18.9641   323
18.9741   321
18.9841   303
18.9941   316
19.0041   349
19.0141   318
19.0241   281
19.0341   312
19.0441   315
19.0541   312
19.0641   318
19.0741   321
19.0841   327
19.0941   339
19.1041   312
19.1141   318
19.1241   328
19.1341   329
19.1441   321
19.1541   318
19.1641   307
19.1741   321
19.1841   309
19.1941   304
19.2041   328
19.2141   318
19.2241   292
19.2341   314
19.2441   309
19.2541   316
19.2641   334
19.2741   317
19.2841   312
19.2941   310
19.3041   327
19.3141   307
19.3241   302
19.3341   333
19.3441   352
19.3541   341
19.3641   342
19.3741   326
19.3841   309
19.3941   297
19.4041   286
19.4141   298
19.4241   328
19.4341   336
19.4441   338
19.4541   334
19.4641   303
19.4741   319
19.4841   326
19.4941   322
19.5041   336
19.5141   321
19.5241   312
19.5341   315
19.5441   328
19.5541   331
19.5641   322
19.5741   333
19.5841   331
19.5941   338
19.6041   324
19.6141   325
19.6241   329
19.6341   326
19.6441   371
19.6541   316
19.6641   341
19.6741   334
19.6841   325
19.6941   333
19.7041   345
19.7141   319
19.7241   321
19.7341   354
19.7441   349
19.7541   338
19.7641   344
19.7741   350
19.7841   355
19.7941   347
19.8041   343
19.8141   330
19.8241   344
19.8341   353
19.8441   358
19.8541   354
19.8641   327
19.8741   324
19.8841   370
19.8941   359
19.9041   356
19.9141   386
19.9241   352
19.9341   316
19.9441   368
19.9541   351
19.9641   336
19.9741   361
19.9841   346
19.9941   357
20.0041   351
20.0141   347
20.0241   333
20.0341   340
20.0441   351
20.0541   369
20.0641   331
20.0741   328
20.0841   358
20.0941   363
20.1041   357
20.1141   330
20.1241   326
20.1341   334
20.1441   340
20.1541   369
20.1641   385
20.1741   339
20.1841   363
20.1941   365
20.2041   324
20.2141   356
20.2241   349
20.2341   352
20.2441   383
20.2541   359
20.2641   353
20.2741   364
20.2841   340
20.2941   366
20.3041   341
20.3141   334
20.3241   369
20.3341   371
20.3441   351
20.3541   330
20.3641   346
20.3741   321
20.3841   343
20.3941   364
20.4041   374
20.4141   377
20.4241   353
20.4341   334
20.4441   332
20.4541   344
20.4641   377
20.4741   359
20.4841   357
20.4941   351
20.5041   322
20.5141   341
20.5241   367
20.5341   383
20.5441   347
20.5541   357
20.5641   351
20.5741   401
20.5841   380
20.5941   347
20.6041   372
20.6141   383
20.6241   350
20.6341   356
20.6441   361
20.6541   350
20.6641   354
20.6741   403
20.6841   398
20.6941   368
20.7041   370
20.7141   364
20.7241   366
20.7341   360
20.7441   377
20.7541   357
20.7641   377
20.7741   370
20.7841   337
20.7941   373
20.8041   399
20.8141   377
20.8241   367
20.8341   378
20.8441   377
20.8541   373
20.8641   412
20.8741   418
20.8841   427
20.8941   437
20.9041   457
20.9141   463
20.9241   442
20.9341   474
20.9441   456
20.9541   499
20.9641   537
20.9741   473
20.9841   519
20.9941   533
21.0041   538
21.0141   537
21.0241   581
21.0341   565
21.0441   589
21.0541   626
21.0641   598
21.0741   602
21.0841   553
21.0941   604
21.1041   587
21.1141   613
21.1241   625
21.1341   603
21.1441   618
21.1541   612
21.1641   616
21.1741   595
21.1841   661
21.1941   619
21.2041   621
21.2141   601
21.2241   559
21.2341   580
21.2441   523
21.2541   495
21.2641   529
21.2741   447
21.2841   494
21.2941   504
21.3041   451
21.3141   472
21.3241   424
21.3341   438
21.3441   395
21.3541   440
21.3641   445
21.3741   411
21.3841   389
21.3941   426
21.4041   424
21.4141   414
21.4241   400
21.4341   402
21.4441   404
21.4541   421
21.4641   360
21.4741   383
21.4841   407
21.4941   392
21.5041   386
21.5141   390
21.5241   373
21.5341   367
21.5441   377
21.5541   345
21.5641   340
21.5741   365
21.5841   363
21.5941   367
21.6041   372
21.6141   367
21.6241   374
21.6341   356
21.6441   383
21.6541   361
21.6641   360
21.6741   371
21.6841   383
21.6941   391
21.7041   360
21.7141   377
21.7241   376
21.7341   339
21.7441   400
21.7541   411
21.7641   406
21.7741   374
21.7841   396
21.7941   365
21.8041   372
21.8141   381
21.8241   393
21.8341   367
21.8441   376
21.8541   377
21.8641   402
21.8741   412
21.8841   385
21.8941   410
21.9041   351
21.9141   366
21.9241   424
21.9341   368
21.9441   395
21.9541   358
21.9641   349
21.9741   382
21.9841   408
21.9941   436
22.0041   385
22.0141   392
22.0241   419
22.0341   385
22.0441   399
22.0541   404
22.0641   398
22.0741   370
22.0841   368
22.0941   373
22.1041   399
22.1141   342
22.1241   397
22.1341   400
22.1441   394
22.1541   402
22.1641   378
22.1741   390
22.1841   417
22.1941   378
22.2041   384
22.2141   389
22.2241   396
22.2341   424
22.2441   405
22.2541   377
22.2641   377
22.2741   380
22.2841   384
22.2941   365
22.3041   366
22.3141   408
22.3241   412
22.3341   410
22.3441   382
22.3541   423
22.3641   383
22.3741   401
22.3841   379
22.3941   402
22.4041   406
22.4141   392
22.4241   384
22.4341   391
22.4441   411
22.4541   367
22.4641   378
22.4741   379
22.4841   402
22.4941   416
22.5041   379
22.5141   433
22.5241   358
22.5341   390
22.5441   411
22.5541   370
22.5641   381
22.5741   379
22.5841   401
22.5941   389
22.6041   378
22.6141   389
22.6241   384
22.6341   364
22.6441   388
22.6541   406
22.6641   411
22.6741   390
22.6841   408
22.6941   383
22.7041   410
22.7141   415
22.7241   389
22.7341   396
22.7441   395
22.7541   410
22.7641   425
22.7741   392
22.7841   364
22.7941   383
22.8041   380
22.8141   391
22.8241   391
22.8341   407
22.8441   410
22.8541   374
22.8641   386
22.8741   380
22.8841   437
22.8941   408
22.9041   408
22.9141   414
22.9241   358
22.9341   405
22.9441   393
22.9541   393
22.9641   379
22.9741   384
22.9841   381
22.9941   422
23.0041   388
23.0141   366
23.0241   388
23.0341   357
23.0441   400
23.0541   404
23.0641   388
23.0741   407
23.0841   382
23.0941   373
23.1041   386
23.1141   410
23.1241   354
23.1341   400
23.1441   403
23.1541   380
23.1641   391
23.1741   363
23.1841   370
23.1941   390
23.2041   363
23.2141   406
23.2241   382
23.2341   381
23.2441   383
23.2541   381
23.2641   354
23.2741   392
23.2841   455
23.2941   390
23.3041   387
23.3141   405
23.3241   383
23.3341   403
23.3441   379
23.3541   425
23.3641   391
23.3741   385
23.3841   394
23.3941   370
23.4041   397
23.4141   390
23.4241   418
23.4341   417
23.4441   407
23.4541   392
23.4641   399
23.4741   410
23.4841   373
23.4941   375
23.5041   383
23.5141   405
23.5241   356
23.5341   402
23.5441   385
23.5541   353
23.5641   371
23.5741   401
23.5841   410
23.5941   421
23.6041   386
23.6141   416
23.6241   409
23.6341   439
23.6441   431
23.6541   410
23.6641   362
23.6741   422
23.6841   409
23.6941   400
23.7041   410
23.7141   437
23.7241   424
23.7341   424
23.7441   446
23.7541   407
23.7641   404
23.7741   422
23.7841   436
23.7941   368
23.8041   423
23.8141   406
23.8241   448
23.8341   426
23.8441   438
23.8541   463
23.8641   424
23.8741   406
23.8841   414
23.8941   425
23.9041   406
23.9141   416
23.9241   402
23.9341   406
23.9441   402
23.9541   418
23.9641   409
23.9741   400
23.9841   394
23.9941   365
24.0041   429
24.0141   390
24.0241   388
24.0341   368
24.0441   376
24.0541   400
24.0641   387
24.0741   384
24.0841   376
24.0941   380
24.1041   418
24.1141   368
24.1241   347
24.1341   368
24.1441   399
24.1541   376
24.1641   406
24.1741   405
24.1841   354
24.1941   368
24.2041   384
24.2141   388
24.2241   387
24.2341   400
24.2441   381
24.2541   383
24.2641   401
24.2741   393
24.2841   381
24.2941   384
24.3041   381
24.3141   378
24.3241   370
24.3341   387
24.3441   423
24.3541   408
24.3641   358
24.3741   381
24.3841   398
24.3941   395
24.4041   360
24.4141   382
24.4241   367
24.4341   398
24.4441   335
24.4541   388
24.4641   372
24.4741   389
24.4841   372
24.4941   355
24.5041   406
24.5141   341
24.5241   360
24.5341   385
24.5441   384
24.5541   379
24.5641   364
24.5741   361
24.5841   370
24.5941   354
24.6041   393
24.6141   385
24.6241   370
24.6341   374
24.6441   355
24.6541   347
24.6641   387
24.6741   371
24.6841   405
24.6941   359
24.7041   421
24.7141   381
24.7241   355
24.7341   373
24.7441   378
24.7541   360
24.7641   389
24.7741   364
24.7841   401
24.7941   370
24.8041   397
24.8141   383
24.8241   366
24.8341   367
24.8441   370
24.8541   404
24.8641   392
24.8741   373
24.8841   362
24.8941   392
24.9041   374
24.9141   379
24.9241   380
24.9341   382
24.9441   384
24.9541   359
24.9641   418
24.9741   360
24.9841   374
24.9941   374
25.0041   382
25.0141   391
25.0241   403
25.0341   393
25.0441   385
25.0541   387
25.0641   395
25.0741   336
25.0841   374
25.0941   385
25.1041   362
25.1141   368
25.1241   370
25.1341   363
25.1441   400
25.1541   405
25.1641   371
25.1741   390
25.1841   370
25.1941   368
25.2041   353
25.2141   400
25.2241   365
25.2341   378
25.2441   344
25.2541   359
25.2641   381
25.2741   370
25.2841   395
25.2941   383
25.3041   381
25.3141   381
25.3241   382
25.3341   357
25.3441   396
25.3541   392
25.3641   380
25.3741   378
25.3841   393
25.3941   404
25.4041   375
25.4141   407
25.4241   359
25.4341   372
25.4441   355
25.4541   354
25.4641   372
25.4741   377
25.4841   367
25.4941   362
25.5041   377
25.5141   373
25.5241   358
25.5341   400
25.5441   357
25.5541   336
25.5641   363
25.5741   346
25.5841   337
25.5941   385
25.6041   332
25.6141   346
25.6241   366
25.6341   344
25.6441   356
25.6541   363
25.6641   365
25.6741   356
25.6841   335
25.6941   352
25.7041   337
25.7141   353
25.7241   364
25.7341   376
25.7441   370
25.7541   334
25.7641   330
25.7741   356
25.7841   348
25.7941   364
25.8041   346
25.8141   316
25.8241   362
25.8341   366
25.8441   361
25.8541   407
25.8641   341
25.8741   328
25.8841   337
25.8941   330
25.9041   347
25.9141   351
25.9241   357
25.9341   383
25.9441   382
25.9541   353
25.9641   343
25.9741   335
25.9841   328
25.9941   343
26.0041   374
26.0141   360
26.0241   367
26.0341   366
26.0441   354
26.0541   343
26.0641   347
26.0741   363
26.0841   358
26.0941   341
26.1041   355
26.1141   365
26.1241   364
26.1341   353
26.1441   331
26.1541   316
26.1641   331
26.1741   346
26.1841   331
26.1941   310
26.2041   367
26.2141   383
26.2241   350
26.2341   379
26.2441   344
26.2541   353
26.2641   355
26.2741   335
26.2841   341
26.2941   384
26.3041   321
26.3141   355
26.3241   343
26.3341   369
26.3441   371
26.3541   377
26.3641   333
26.3741   356
26.3841   346
26.3941   337
26.4041   325
26.4141   337
26.4241   327
26.4341   331
26.4441   344
26.4541   356
26.4641   338
26.4741   332
26.4841   347
26.4941   359
26.5041   340
26.5141   343
26.5241   328
26.5341   350
26.5441   330
26.5541   335
26.5641   305
26.5741   348
26.5841   316
26.5941   322
26.6041   312
26.6141   329
26.6241   341
26.6341   343
26.6441   336
26.6541   334
26.6641   334
26.6741   332
26.6841   347
26.6941   336
26.7041   341
26.7141   351
26.7241   314
26.7341   337
26.7441   320
26.7541   331
26.7641   329
26.7741   344
26.7841   287
26.7941   331
26.8041   320
26.8141   322
26.8241   330
26.8341   332
26.8441   343
26.8541   348
26.8641   308
26.8741   316
26.8841   300
26.8941   321
26.9041   310
26.9141   343
26.9241   305
26.9341   312
26.9441   337
26.9541   325
26.9641   322
26.9741   305
26.9841   318
26.9941   309
27.0041   364
27.0141   319
27.0241   341
27.0341   348
27.0441   329
27.0541   307
27.0641   334
27.0741   321
27.0841   343
27.0941   305
27.1041   292
27.1141   322
27.1241   313
27.1341   335
27.1441   316
27.1541   324
27.1641   318
27.1741   326
27.1841   318
27.1941   340
27.2041   324
27.2141   336
27.2241   329
27.2341   315
27.2441   300
27.2541   305
27.2641   331
27.2741   312
27.2841   336
27.2941   289
27.3041   348
27.3141   306
27.3241   270
27.3341   312
27.3441   327
27.3541   323
27.3641   297
27.3741   348
27.3841   319
27.3941   318
27.4041   308
27.4141   300
27.4241   313
27.4341   327
27.4441   303
27.4541   310
27.4641   333
27.4741   344
27.4841   344
27.4941   319
27.5041   327
27.5141   341
27.5241   335
27.5341   325
27.5441   327
27.5541   334
27.5641   311
27.5741   325
27.5841   285
27.5941   286
27.6041   350
27.6141   309
27.6241   332
27.6341   327
27.6441   314
27.6541   331
27.6641   345
27.6741   283
27.6841   304
27.6941   327
27.7041   308
27.7141   292
27.7241   285
27.7341   313
27.7441   337
27.7541   330
27.7641   311
27.7741   317
27.7841   314
27.7941   350
27.8041   291
27.8141   291
27.8241   278
27.8341   284
27.8441   288
27.8541   316
27.8641   309
27.8741   298
27.8841   312
27.8941   285
27.9041   307
27.9141   304
27.9241   306
27.9341   303
27.9441   290
27.9541   286
27.9641   279
27.9741   285
27.9841   314
27.9941   325
28.0041   311
28.0141   278
28.0241   293
28.0341   316
28.0441   307
28.0541   282
28.0641   289
28.0741   268
28.0841   272
28.0941   302
28.1041   310
28.1141   280
28.1241   262
28.1341   295
28.1441   280
28.1541   275
28.1641   289
28.1741   287
28.1841   270
28.1941   296
28.2041   285
28.2141   300
28.2241   296
28.2341   296
28.2441   307
28.2541   290
28.2641   305
28.2741   252
28.2841   275
28.2941   276
28.3041   262
28.3141   295
28.3241   273
28.3341   281
28.3441   301
28.3541   303
28.3641   312
28.3741   295
28.3841   281
28.3941   266
28.4041   293
28.4141   282
28.4241   288
28.4341   279
28.4441   297
28.4541   284
28.4641   294
28.4741   261
28.4841   282
28.4941   309
28.5041   286
28.5141   258
28.5241   292
28.5341   309
28.5441   302
28.5541   263
28.5641   290
28.5741   286
28.5841   258
28.5941   295
28.6041   269
28.6141   270
28.6241   283
28.6341   306
28.6441   282
28.6541   286
28.6641   313
28.6741   285
28.6841   304
28.6941   289
28.7041   279
28.7141   275
28.7241   264
28.7341   245
28.7441   272
28.7541   271
28.7641   278
28.7741   264
28.7841   279
28.7941   255
28.8041   245
28.8141   294
28.8241   286
28.8341   287
28.8441   278
28.8541   284
28.8641   284
28.8741   273
28.8841   266
28.8941   272
28.9041   266
28.9141   269
28.9241   270
28.9341   266
28.9441   274
28.9541   261
28.9641   279
28.9741   283
28.9841   262
28.9941   294
29.0041   262
29.0141   262
29.0241   300
29.0341   240
29.0441   247
29.0541   277
29.0641   285
29.0741   238
29.0841   255
29.0941   247
29.1041   246
29.1141   245
29.1241   263
29.1341   274
29.1441   276
29.1541   255
29.1641   250
29.1741   284
29.1841   259
29.1941   264
29.2041   272
29.2141   262
29.2241   263
29.2341   265
29.2441   264
29.2541   258
29.2641   257
29.2741   250
29.2841   268
29.2941   233
29.3041   259
29.3141   256
29.3241   261
29.3341   248
29.3441   254
29.3541   259
29.3641   251
29.3741   262
29.3841   270
29.3941   250
29.4041   254
29.4141   257
29.4241   249
29.4341   243
29.4441   243
29.4541   268
29.4641   273
29.4741   251
29.4841   262
29.4941   225
29.5041   236
29.5141   232
29.5241   275
29.5341   259
29.5441   267
29.5541   261
29.5641   229
29.5741   245
29.5841   242
29.5941   263
29.6041   252
29.6141   258
29.6241   260
29.6341   257
29.6441   241
29.6541   241
29.6641   269
29.6741   237
29.6841   244
29.6941   258
29.7041   223
29.7141   240
29.7241   239
29.7341   246
29.7441   235
29.7541   247
29.7641   241
29.7741   248
29.7841   220
29.7941   254
29.8041   273
29.8141   272
29.8241   259
29.8341   231
29.8441   229
29.8541   255
29.8641   251
29.8741   252
29.8841   259
29.8941   253
29.9041   267
29.9141   214
29.9241   228
29.9341   253
29.9441   242
29.9541   242
29.9641   261
29.9741   259
29.9841   254
29.9941   225
30.0041   240
30.0141   248
30.0241   242
30.0341   222
30.0441   261
30.0541   241
30.0641   243
30.0741   247
30.0841   230
30.0941   249
30.1041   238
30.1141   220
30.1241   235
30.1341   229
30.1441   228
30.1541   245
30.1641   233
30.1741   255
30.1841   228
30.1941   228
30.2041   204
30.2141   224
30.2241   234
30.2341   230
30.2441   240
30.2541   234
30.2641   258
30.2741   241
30.2841   239
30.2941   243
30.3041   236
30.3141   227
30.3241   229
30.3341   230
30.3441   230
30.3541   231
30.3641   240
30.3741   234
30.3841   256
30.3941   206
30.4041   215
30.4141   241
30.4241   222
30.4341   226
30.4441   214
30.4541   231
30.4641   255
30.4741   219
30.4841   206
30.4941   218
30.5041   203
30.5141   220
30.5241   240
30.5341   222
30.5441   232
30.5541   216
30.5641   216
30.5741   226
30.5841   234
30.5941   213
30.6041   220
30.6141   244
30.6241   209
30.6341   218
30.6441   224
30.6541   230
30.6641   224
30.6741   202
30.6841   234
30.6941   232
30.7041   222
30.7141   233
30.7241   220
30.7341   222
30.7441   219
30.7541   231
30.7641   208
30.7741   216
30.7841   209
30.7941   224
30.8041   222
30.8141   220
30.8241   223
30.8341   205
30.8441   210
30.8541   207
30.8641   181
30.8741   193
30.8841   205
30.8941   210
30.9041   205
30.9141   211
30.9241   222
30.9341   221
30.9441   214
30.9541   219
30.9641   234
30.9741   222
30.9841   202
30.9941   217
31.0041   231
31.0141   216
31.0241   219
31.0341   196
31.0441   189
31.0541   208
31.0641   202
31.0741   232
31.0841   218
31.0941   198
31.1041   198
31.1141   216
31.1241   195
31.1341   208
31.1441   201
31.1541   230
31.1641   210
31.1741   217
31.1841   215
31.1941   226
31.2041   222
31.2141   203
31.2241   185
31.2341   205
31.2441   198
31.2541   206
31.2641   177
31.2741   194
31.2841   204
31.2941   223
31.3041   217
31.3141   186
31.3241   190
31.3341   208
31.3441   195
31.3541   205
31.3641   186
31.3741   189
31.3841   211
31.3941   199
31.4041   187
31.4141   166
31.4241   185
31.4341   204
31.4441   210
31.4541   208
31.4641   216
31.4741   183
31.4841   185
31.4941   198
31.5041   204
31.5141   203
31.5241   194
31.5341   201
31.5441   186
31.5541   179
31.5641   192
31.5741   195
31.5841   196
31.5941   216
31.6041   208
31.6141   190
31.6241   198
31.6341   178
31.6441   208
31.6541   211
31.6641   209
31.6741   186
31.6841   174
31.6941   195
31.7041   209
31.7141   203
31.7241   206
31.7341   189
31.7441   209
31.7541   206
31.7641   208
31.7741   201
31.7841   200
31.7941   182
31.8041   188
31.8141   234
31.8241   186
31.8341   203
31.8441   213
31.8541   227
31.8641   210
31.8741   184
31.8841   180
31.8941   210
31.9041   201
31.9141   197
31.9241   172
31.9341   195
31.9441   197
31.9541   187
31.9641   172
31.9741   185
31.9841   180
31.9941   208
32.0041   189
32.0141   185
32.0241   189
32.0341   213
32.0441   223
32.0541   206
32.0641   206
32.0741   204
32.0841   200
32.0941   192
32.1041   200
32.1141   209
32.1241   178
32.1341   217
32.1441   199
32.1541   188
32.1641   213
32.1741   198
32.1841   190
32.1941   204
32.2041   206
32.2141   219
32.2241   216
32.2341   199
32.2441   197
32.2541   199
32.2641   207
32.2741   222
32.2841   204
32.2941   190
32.3041   211
32.3141   192
32.3241   208
32.3341   197
32.3441   183
32.3541   181
32.3641   206
32.3741   166
32.3841   163
32.3941   169
32.4041   189
32.4141   162
32.4241   191
32.4341   163
32.4441   176
32.4541   178
32.4641   163
32.4741   196
32.4841   180
32.4941   171
32.5041   189
32.5141   187
32.5241   179
32.5341   147
32.5441   175
32.5541   173
32.5641   167
32.5741   181
32.5841   179
32.5941   167
32.6041   171
32.6141   184
32.6241   158
32.6341   161
32.6441   185
32.6541   161
32.6641   173
32.6741   179
32.6841   166
32.6941   151
32.7041   169
32.7141   172
32.7241   155
32.7341   154
32.7441   155
32.7541   163
32.7641   157
32.7741   147
32.7841   156
32.7941   161
32.8041   152
32.8141   172
32.8241   139
32.8341   173
32.8441   178
32.8541   168
32.8641   151
32.8741   132
32.8841   144
32.8941   150
32.9041   145
32.9141   145
32.9241   137
32.9341   159
32.9441   161
32.9541   166
32.9641   155
32.9741   150
32.9841   155
32.9941   165
33.0041   162
33.0141   159
33.0241   157
33.0341   178
33.0441   159
33.0541   166
33.0641   160
33.0741   169
33.0841   140
33.0941   135
33.1041   149
33.1141   157
33.1241   164
33.1341   177
33.1441   145
33.1541   158
33.1641   172
33.1741   160
33.1841   137
33.1941   145
33.2041   147
33.2141   144
33.2241   169
33.2341   142
33.2441   170
33.2541   165
33.2641   138
33.2741   174
33.2841   153
33.2941   162
33.3041   165
33.3141   146
33.3241   144
33.3341   141
33.3441   152
33.3541   146
33.3641   142
33.3741   149
33.3841   160
33.3941   172
33.4041   141
33.4141   148
33.4241   166
33.4341   144
33.4441   151
33.4541   141
33.4641   140
33.4741   151
33.4841   135
33.4941   151
33.5041   124
33.5141   129
33.5241   137
33.5341   143
33.5441   154
33.5541   146
33.5641   134
33.5741   126
33.5841   134
33.5941   157
33.6041   159
33.6141   143
33.6241   161
33.6341   130
33.6441   142
33.6541   125
33.6641   107
33.6741   127
33.6841   136
33.6941   120
33.7041   147
33.7141   139
33.7241   134
33.7341   138
33.7441   133
33.7541   147
33.7641   126
33.7741   121
33.7841   118
33.7941   127
33.8041   147
33.8141   135
33.8241   141
33.8341   143
33.8441   125
33.8541   131
33.8641   112
33.8741   134
33.8841   133
33.8941   128
33.9041   140
33.9141   132
33.9241   135
33.9341   131
33.9441   140
33.9541   141
33.9641   144
33.9741   148
33.9841   134
33.9941   131
34.0041   160
34.0141   139
34.0241   120
34.0341   139
34.0441   142
34.0541   117
34.0641   142
34.0741   127
34.0841   123
34.0941   120
34.1041   129
34.1141   128
34.1241   119
34.1341   111
34.1441   115
34.1541   113
34.1641   113
34.1741   142
34.1841   114
34.1941   124
34.2041   116
34.2141   122
34.2241   157
34.2341   125
34.2441   132
34.2541   124
34.2641   115
34.2741   148
34.2841   117
34.2941   133
34.3041   136
34.3141   127
34.3241   117
34.3341   107
34.3441   128
34.3541   135
34.3641   124
34.3741   110
34.3841   134
34.3941   116
34.4041   110
34.4141   126
34.4241   120
34.4341   126
34.4441   130
34.4541   129
34.4641   128
34.4741   112
34.4841   125
34.4941   118
34.5041   115
34.5141   124
34.5241   107
34.5341   119
34.5441   127
34.5541   135
34.5641   124
34.5741   114
34.5841   130
34.5941   120
34.6041   113
34.6141   102
34.6241   125
34.6341   117
34.6441   100
34.6541   132
34.6641   125
34.6741   114
34.6841   126
34.6941   105
34.7041   122
34.7141   122
34.7241   126
34.7341   107
34.7441   119
34.7541   125
34.7641   108
34.7741   108
34.7841   121
34.7941   124
34.8041   119
34.8141   103
34.8241   114
34.8341   129
34.8441   126
34.8541   113
34.8641   115
34.8741   120
34.8841   118
34.8941   121
34.9041   119
34.9141   114
34.9241   109
34.9341   125
34.9441   127
34.9541   112
34.9641   103
34.9741   109
34.9841   109
34.9941   103
35.0041   128
35.0141   137
35.0241   122
35.0341   118
35.0441    88
35.0541    97
35.0641   103
35.0741   136
35.0841   108
35.0941   101
35.1041   108
35.1141   104
35.1241   107
35.1341   112
35.1441    95
35.1541    98
35.1641    98
35.1741   108
35.1841   104
35.1941   108
35.2041   111
35.2141   103
35.2241    94
35.2341    98
35.2441    99
35.2541   103
35.2641    95
35.2741    98
35.2841    97
35.2941   100
35.3041   104
35.3141    99
35.3241    96
35.3341   116
35.3441   109
35.3541    92
35.3641   104
35.3741   107
35.3841   113
35.3941    97
35.4041   113
35.4141   113
35.4241    93
35.4341    97
35.4441    99
35.4541    94
35.4641   101
35.4741   118
35.4841   101
35.4941   102
35.5041   105
35.5141   105
35.5241   107
35.5341    78
35.5441    99
35.5541   105
35.5641   101
35.5741   109
35.5841    96
35.5941   102
35.6041    85
35.6141    79
35.6241    87
35.6341    89
35.6441    91
35.6541    85
35.6641    92
35.6741   104
35.6841    99
35.6941    83
35.7041    97
35.7141    88
35.7241    96
35.7341    96
35.7441    93
35.7541    91
35.7641    95
35.7741    93
35.7841    96
35.7941   104
35.8041    73
35.8141    78
35.8241    95
35.8341    91
35.8441    94
35.8541    98
35.8641    90
35.8741    98
35.8841    87
35.8941    87
35.9041    90
35.9141    90
35.9241    91
35.9341   100
35.9441    96
35.9541    82
35.9641    79
35.9741    88
35.9841    85
35.9941    99
36.0041    76
36.0141    78
36.0241    95
36.0341   100
36.0441    91
36.0541    87
36.0641    93
36.0741    90
36.0841    79
36.0941    96
36.1041    88
36.1141    87
36.1241    99
36.1341    98
36.1441    83
36.1541    88
36.1641    93
36.1741   102
36.1841    81
36.1941    82
36.2041    94
36.2141    80
36.2241    83
36.2341    77
36.2441    96
36.2541    90
36.2641    84
36.2741    78
36.2841    85
36.2941    83
36.3041    78
36.3141    90
36.3241    96
36.3341    93
36.3441    89
36.3541    86
36.3641    91
36.3741    90
36.3841    98
36.3941    98
36.4041    93
36.4141   100
36.4241    85
36.4341    93
36.4441   100
36.4541    67
36.4641    78
36.4741    71
36.4841    78
36.4941    90
36.5041    76
36.5141    76
36.5241    96
36.5341    97
36.5441    84
36.5541    91
36.5641    79
36.5741    68
36.5841    77
36.5941    89
36.6041    72
36.6141    82
36.6241    71
36.6341    62
36.6441    80
36.6541    69
36.6641    88
36.6741    72
36.6841    87
36.6941    77
36.7041    95
36.7141    75
36.7241    70
36.7341    59
36.7441    69
36.7541    85
36.7641    73
36.7741    81
36.7841    85
36.7941    81
36.8041    71
36.8141    74
36.8241    67
36.8341    56
36.8441    67
36.8541    77
36.8641    74
36.8741    73
36.8841    74
36.8941    72
36.9041    69
36.9141    71
36.9241    65
36.9341    85
36.9441    89
36.9541    98
36.9641    82
36.9741    74
36.9841    63
36.9941    64
37.0041    67
37.0141    69
37.0241    86
37.0341    76
37.0441    77
37.0541    83
37.0641    87
37.0741    61
37.0841    83
37.0941    79
37.1041    52
37.1141    65
37.1241    68
37.1341    70
37.1441    72
37.1541    69
37.1641    81
37.1741    70
37.1841    78
37.1941    73
37.2041    81
37.2141    74
37.2241    76
37.2341    76
37.2441    55
37.2541    65
37.2641    59
37.2741    67
37.2841    69
37.2941    49
37.3041    78
37.3141    64
37.3241    66
37.3341    71
37.3441    61
37.3541    63
37.3641    50
37.3741    71
37.3841    64
37.3941    55
37.4041    58
37.4141    54
37.4241    61
37.4341    64
37.4441    58
37.4541    85
37.4641    53
37.4741    68
37.4841    78
37.4941    61
37.5041    65
37.5141    57
37.5241    68
37.5341    57
37.5441    80
37.5541    64
37.5641    67
37.5741    66
37.5841    63
37.5941    64
37.6041    67
37.6141    54
37.6241    64
37.6341    48
37.6441    57
37.6541    65
37.6641    52
37.6741    75
37.6841    62
37.6941    53
37.7041    56
37.7141    67
37.7241    51
37.7341    69
37.7441    54
37.7541    60
37.7641    54
37.7741    69
37.7841    54
37.7941    59
37.8041    57
37.8141    54
37.8241    56
37.8341    57
37.8441    54
37.8541    75
37.8641    54
37.8741    66
37.8841    60
37.8941    63
37.9041    67
37.9141    52
37.9241    57
37.9341    44
37.9441    61
37.9541    49
37.9641    40
37.9741    51
37.9841    53
37.9941    52
38.0041    52
38.0141    38
38.0241    49
38.0341    68
38.0441    60
38.0541    65
38.0641    50
38.0741    46
38.0841    57
38.0941    56
38.1041    59
38.1141    50
38.1241    44
38.1341    57
38.1441    55
38.1541    59
38.1641    46
38.1741    43
38.1841    52
38.1941    49
38.2041    60
38.2141    51
38.2241    47
38.2341    53
38.2441    59
38.2541    56
38.2641    52
38.2741    49
38.2841    44
38.2941    44
38.3041    40
38.3141    45
38.3241    44
38.3341    47
38.3441    42
38.3541    51
38.3641    60
38.3741    44
38.3841    45
38.3941    54
38.4041    40
38.4141    44
38.4241    52
38.4341    46
38.4441    45
38.4541    61
38.4641    60
38.4741    54
38.4841    44
38.4941    55
38.5041    55
38.5141    52
38.5241    57
38.5341    58
38.5441    52
38.5541    48
38.5641    43
38.5741    53
38.5841    44
38.5941    47
38.6041    48
38.6141    34
38.6241    35
38.6341    52
38.6441    40
38.6541    52
38.6641    53
38.6741    34
38.6841    41
38.6941    47
38.7041    55
38.7141    39
38.7241    42
38.7341    47
38.7441    47
38.7541    44
38.7641    52
38.7741    54
38.7841    43
38.7941    39
38.8041    47
38.8141    38
38.8241    48
38.8341    57
38.8441    57
38.8541    48
38.8641    39
38.8741    46
38.8841    45
38.8941    44
38.9041    44
38.9141    41
38.9241    47
38.9341    44
38.9441    37
38.9541    45
38.9641    48
38.9741    42
38.9841    52
38.9941    39
39.0041    41
39.0141    34
39.0241    37
39.0341    51
39.0441    39
39.0541    41
39.0641    50
39.0741    43
39.0841    51
39.0941    45
39.1041    52
39.1141    39
39.1241    39
39.1341    38
39.1441    44
39.1541    34
39.1641    43
39.1741    48
39.1841    36
39.1941    47
39.2041    29
39.2141    35
39.2241    40
39.2341    35
39.2441    37
39.2541    37
39.2641    44
39.2741    38
39.2841    39
39.2941    49
39.3041    36
39.3141    36
39.3241    34
39.3341    34
39.3441    37
39.3541    42
39.3641    35
39.3741    42
39.3841    37
39.3941    31
39.4041    31
39.4141    30
39.4241    31
39.4341    38
39.4441    33
39.4541    42
39.4641    42
39.4741    47
39.4841    36
39.4941    16
39.5041    23
39.5141    41
39.5241    34
39.5341    39
39.5441    48
39.5541    40
39.5641    43
39.5741    40
39.5841    40
39.5941    38
39.6041    39
39.6141    37
39.6241    37
39.6341    37
39.6441    28
39.6541    45
39.6641    39
39.6741    40
39.6841    33
39.6941    33
39.7041    27
39.7141    36
39.7241    35
39.7341    28
39.7441    37
39.7541    26
39.7641    31
39.7741    31
39.7841    34
39.7941    29
39.8041    33
39.8141    31
39.8241    39
39.8341    26
39.8441    28
39.8541    29
39.8641    35
39.8741    39
39.8841    28
39.8941    43
39.9041    22
39.9141    31
39.9241    25
39.9341    35
39.9441    40
39.9541    33
39.9641    32
39.9741    40
39.9841    29
