Bruker Nano GmbH Berlin, Germany
Esprit 1.9

Date: 4/1/2021 4:23:55 PM
Real time: 34146
Life time: 32282
Pulse density: 77420


Detector type: XFlash 430
Window type: Custom type
Detector thickness: 0.45
Si dead layer:0.029

Calibration, lin.: 10
Calibration, abs.: -955.9
Mn FWHM: 137.05
Fano factor: 0.121
Channels: 4096

Energy Counts
-0.9559     0
-0.9459     0
-0.9359     0
-0.9259     0
-0.9159     0
-0.9059     0
-0.8959     0
-0.8859     0
-0.8759     0
-0.8659     0
-0.8559     0
-0.8459     0
-0.8359     0
-0.8259     0
-0.8159     0
-0.8059     0
-0.7959     0
-0.7859     0
-0.7759     0
-0.7659     0
-0.7559     0
-0.7459     0
-0.7359     0
-0.7259     0
-0.7159     0
-0.7059     0
-0.6959     0
-0.6859     0
-0.6759     0
-0.6659     0
-0.6559     0
-0.6459     0
-0.6359     0
-0.6259     0
-0.6159     0
-0.6059     0
-0.5959     0
-0.5859     0
-0.5759     0
-0.5659     0
-0.5559     0
-0.5459     0
-0.5359     0
-0.5259     0
-0.5159     0
-0.5059     0
-0.4959     0
-0.4859     0
-0.4759     0
-0.4659     0
-0.4559     0
-0.4459     0
-0.4359     0
-0.4259     0
-0.4159     0
-0.4059     0
-0.3959     0
-0.3859     0
-0.3759     0
-0.3659     0
-0.3559     0
-0.3459     0
-0.3359     0
-0.3259     0
-0.3159     0
-0.3059     0
-0.2959     0
-0.2859     0
-0.2759     0
-0.2659     0
-0.2559     0
-0.2459     0
-0.2359     0
-0.2259     0
-0.2159     0
-0.2059     0
-0.1959     0
-0.1859     0
-0.1759     0
-0.1659     0
-0.1559     0
-0.1459     0
-0.1359     0
-0.1259     0
-0.1159     4
-0.1059    27
-0.0959    87
-0.0859   364
-0.0759  1192
-0.0659  3612
-0.0559  9393
-0.0459 20668
-0.0359 38371
-0.0259 61918
-0.0159 84374
-0.0059 99131
 0.0041 99221
 0.0141 85751
 0.0241 63162
 0.0341 40039
 0.0441 21322
 0.0541 10063
 0.0641  4073
 0.0741  1416
 0.0841   395
 0.0941   118
 0.1041    45
 0.1141    24
 0.1241    11
 0.1341     9
 0.1441     8
 0.1541     5
 0.1641     7
 0.1741    40
 0.1841   286
 0.1941   558
 0.2041   500
 0.2141   484
 0.2241   517
 0.2341   523
 0.2441   460
 0.2541   516
 0.2641   503
 0.2741   521
 0.2841   514
 0.2941   490
 0.3041   491
 0.3141   516
 0.3241   523
 0.3341   520
 0.3441   503
 0.3541   482
 0.3641   504
 0.3741   502
 0.3841   498
 0.3941   493
 0.4041   465
 0.4141   471
 0.4241   447
 0.4341   473
 0.4441   471
 0.4541   479
 0.4641   471
 0.4741   447
 0.4841   477
 0.4941   467
 0.5041   448
 0.5141   428
 0.5241   441
 0.5341   461
 0.5441   437
 0.5541   425
 0.5641   426
 0.5741   442
 0.5841   449
 0.5941   427
 0.6041   404
 0.6141   410
 0.6241   400
 0.6341   405
 0.6441   402
 0.6541   401
 0.6641   413
 0.6741   416
 0.6841   411
 0.6941   408
 0.7041   407
 0.7141   406
 0.7241   403
 0.7341   381
 0.7441   378
 0.7541   370
 0.7641   375
 0.7741   375
 0.7841   387
 0.7941   398
 0.8041   393
 0.8141   374
 0.8241   371
 0.8341   408
 0.8441   389
 0.8541   363
 0.8641   342
 0.8741   322
 0.8841   357
 0.8941   361
 0.9041   363
 0.9141   351
 0.9241   344
 0.9341   344
 0.9441   358
 0.9541   350
 0.9641   351
 0.9741   368
 0.9841   345
 0.9941   360
 1.0041   330
 1.0141   353
 1.0241   331
 1.0341   347
 1.0441   351
 1.0541   357
 1.0641   341
 1.0741   348
 1.0841   318
 1.0941   310
 1.1041   325
 1.1141   324
 1.1241   322
 1.1341   308
 1.1441   334
 1.1541   339
 1.1641   342
 1.1741   330
 1.1841   311
 1.1941   325
 1.2041   304
 1.2141   323
 1.2241   324
 1.2341   317
 1.2441   294
 1.2541   291
 1.2641   305
 1.2741   324
 1.2841   333
 1.2941   326
 1.3041   300
 1.3141   302
 1.3241   303
 1.3341   282
 1.3441   314
 1.3541   297
 1.3641   310
 1.3741   319
 1.3841   324
 1.3941   310
 1.4041   302
 1.4141   299
 1.4241   308
 1.4341   311
 1.4441   290
 1.4541   285
 1.4641   311
 1.4741   313
 1.4841   311
 1.4941   322
 1.5041   311
 1.5141   285
 1.5241   309
 1.5341   298
 1.5441   281
 1.5541   287
 1.5641   311
 1.5741   333
 1.5841   291
 1.5941   270
 1.6041   309
 1.6141   295
 1.6241   308
 1.6341   307
 1.6441   327
 1.6541   361
 1.6641   438
 1.6741   520
 1.6841   592
 1.6941   755
 1.7041   925
 1.7141  1042
 1.7241  1140
 1.7341  1206
 1.7441  1223
 1.7541  1190
 1.7641   999
 1.7741   915
 1.7841   795
 1.7941   631
 1.8041   549
 1.8141   450
 1.8241   404
 1.8341   381
 1.8441   375
 1.8541   349
 1.8641   347
 1.8741   316
 1.8841   307
 1.8941   311
 1.9041   305
 1.9141   306
 1.9241   346
 1.9341   310
 1.9441   336
 1.9541   308
 1.9641   330
 1.9741   350
 1.9841   353
 1.9941   346
 2.0041   358
 2.0141   361
 2.0241   348
 2.0341   395
 2.0441   361
 2.0541   315
 2.0641   329
 2.0741   297
 2.0841   316
 2.0941   265
 2.1041   278
 2.1141   304
 2.1241   304
 2.1341   323
 2.1441   291
 2.1541   279
 2.1641   276
 2.1741   287
 2.1841   271
 2.1941   291
 2.2041   229
 2.2141   266
 2.2241   258
 2.2341   271
 2.2441   247
 2.2541   228
 2.2641   265
 2.2741   268
 2.2841   246
 2.2941   268
 2.3041   245
 2.3141   241
 2.3241   227
 2.3341   239
 2.3441   249
 2.3541   251
 2.3641   245
 2.3741   231
 2.3841   252
 2.3941   254
 2.4041   226
 2.4141   227
 2.4241   231
 2.4341   241
 2.4441   262
 2.4541   209
 2.4641   244
 2.4741   223
 2.4841   234
 2.4941   228
 2.5041   235
 2.5141   245
 2.5241   239
 2.5341   233
 2.5441   239
 2.5541   232
 2.5641   225
 2.5741   261
 2.5841   233
 2.5941   240
 2.6041   238
 2.6141   270
 2.6241   234
 2.6341   253
 2.6441   225
 2.6541   217
 2.6641   228
 2.6741   221
 2.6841   224
 2.6941   213
 2.7041   212
 2.7141   239
 2.7241   236
 2.7341   212
 2.7441   223
 2.7541   227
 2.7641   231
 2.7741   242
 2.7841   209
 2.7941   216
 2.8041   238
 2.8141   225
 2.8241   212
 2.8341   228
 2.8441   219
 2.8541   214
 2.8641   222
 2.8741   224
 2.8841   230
 2.8941   217
 2.9041   195
 2.9141   214
 2.9241   222
 2.9341   197
 2.9441   231
 2.9541   181
 2.9641   221
 2.9741   211
 2.9841   205
 2.9941   203
 3.0041   230
 3.0141   209
 3.0241   216
 3.0341   201
 3.0441   184
 3.0541   192
 3.0641   207
 3.0741   165
 3.0841   197
 3.0941   175
 3.1041   180
 3.1141   200
 3.1241   181
 3.1341   163
 3.1441   170
 3.1541   184
 3.1641   188
 3.1741   194
 3.1841   196
 3.1941   173
 3.2041   183
 3.2141   184
 3.2241   185
 3.2341   193
 3.2441   228
 3.2541   232
 3.2641   214
 3.2741   238
 3.2841   285
 3.2941   252
 3.3041   247
 3.3141   273
 3.3241   275
 3.3341   280
 3.3441   245
 3.3541   251
 3.3641   193
 3.3741   214
 3.3841   180
 3.3941   181
 3.4041   189
 3.4141   189
 3.4241   176
 3.4341   160
 3.4441   171
 3.4541   141
 3.4641   150
 3.4741   180
 3.4841   189
 3.4941   159
 3.5041   170
 3.5141   179
 3.5241   187
 3.5341   183
 3.5441   220
 3.5541   227
 3.5641   242
 3.5741   287
 3.5841   378
 3.5941   458
 3.6041   544
 3.6141   721
 3.6241   885
 3.6341  1077
 3.6441  1328
 3.6541  1550
 3.6641  1780
 3.6741  1867
 3.6841  1899
 3.6941  1936
 3.7041  1923
 3.7141  1786
 3.7241  1566
 3.7341  1369
 3.7441  1105
 3.7541   906
 3.7641   695
 3.7741   503
 3.7841   401
 3.7941   330
 3.8041   269
 3.8141   202
 3.8241   192
 3.8341   149
 3.8441   148
 3.8541   164
 3.8641   172
 3.8741   156
 3.8841   151
 3.8941   160
 3.9041   175
 3.9141   182
 3.9241   190
 3.9341   246
 3.9441   240
 3.9541   264
 3.9641   311
 3.9741   336
 3.9841   378
 3.9941   349
 4.0041   381
 4.0141   389
 4.0241   391
 4.0341   334
 4.0441   331
 4.0541   312
 4.0641   260
 4.0741   233
 4.0841   210
 4.0941   191
 4.1041   187
 4.1141   168
 4.1241   139
 4.1341   143
 4.1441   134
 4.1541   125
 4.1641   111
 4.1741   123
 4.1841   144
 4.1941   133
 4.2041   126
 4.2141   132
 4.2241   132
 4.2341   126
 4.2441   119
 4.2541   123
 4.2641   136
 4.2741   127
 4.2841   125
 4.2941   130
 4.3041   123
 4.3141   126
 4.3241   132
 4.3341   122
 4.3441   131
 4.3541   128
 4.3641   111
 4.3741   124
 4.3841   141
 4.3941   139
 4.4041   168
 4.4141   179
 4.4241   161
 4.4341   165
 4.4441   157
 4.4541   208
 4.4641   226
 4.4741   235
 4.4841   242
 4.4941   229
 4.5041   230
 4.5141   217
 4.5241   196
 4.5341   204
 4.5441   234
 4.5541   193
 4.5641   166
 4.5741   147
 4.5841   172
 4.5941   152
 4.6041   162
 4.6141   153
 4.6241   156
 4.6341   133
 4.6441   132
 4.6541   137
 4.6641   127
 4.6741   146
 4.6841   129
 4.6941   112
 4.7041   129
 4.7141   141
 4.7241   125
 4.7341   124
 4.7441   121
 4.7541   125
 4.7641   135
 4.7741   133
 4.7841   149
 4.7941   148
 4.8041   141
 4.8141   131
 4.8241   115
 4.8341   132
 4.8441   133
 4.8541   142
 4.8641   131
 4.8741   156
 4.8841   153
 4.8941   164
 4.9041   167
 4.9141   154
 4.9241   151
 4.9341   164
 4.9441   153
 4.9541   146
 4.9641   158
 4.9741   146
 4.9841   160
 4.9941   135
 5.0041   144
 5.0141   143
 5.0241   128
 5.0341   145
 5.0441   158
 5.0541   154
 5.0641   139
 5.0741   168
 5.0841   154
 5.0941   174
 5.1041   159
 5.1141   153
 5.1241   145
 5.1341   149
 5.1441   144
 5.1541   145
 5.1641   140
 5.1741   148
 5.1841   143
 5.1941   141
 5.2041   125
 5.2141   142
 5.2241   140
 5.2341   158
 5.2441   142
 5.2541   113
 5.2641   144
 5.2741   141
 5.2841   128
 5.2941   141
 5.3041   156
 5.3141   140
 5.3241   151
 5.3341   146
 5.3441   155
 5.3541   156
 5.3641   141
 5.3741   151
 5.3841   157
 5.3941   178
 5.4041   166
 5.4141   173
 5.4241   181
 5.4341   171
 5.4441   171
 5.4541   175
 5.4641   177
 5.4741   169
 5.4841   170
 5.4941   140
 5.5041   160
 5.5141   162
 5.5241   148
 5.5341   175
 5.5441   150
 5.5541   158
 5.5641   143
 5.5741   151
 5.5841   146
 5.5941   173
 5.6041   158
 5.6141   160
 5.6241   159
 5.6341   161
 5.6441   145
 5.6541   146
 5.6641   143
 5.6741   130
 5.6841   177
 5.6941   158
 5.7041   152
 5.7141   179
 5.7241   176
 5.7341   188
 5.7441   165
 5.7541   173
 5.7641   180
 5.7741   193
 5.7841   192
 5.7941   199
 5.8041   223
 5.8141   251
 5.8241   247
 5.8341   304
 5.8441   307
 5.8541   330
 5.8641   349
 5.8741   354
 5.8841   336
 5.8941   375
 5.9041   384
 5.9141   390
 5.9241   343
 5.9341   337
 5.9441   327
 5.9541   330
 5.9641   279
 5.9741   235
 5.9841   219
 5.9941   210
 6.0041   201
 6.0141   193
 6.0241   190
 6.0341   178
 6.0441   184
 6.0541   162
 6.0641   168
 6.0741   165
 6.0841   174
 6.0941   167
 6.1041   168
 6.1141   159
 6.1241   160
 6.1341   166
 6.1441   196
 6.1541   170
 6.1641   177
 6.1741   171
 6.1841   179
 6.1941   176
 6.2041   213
 6.2141   200
 6.2241   282
 6.2341   286
 6.2441   339
 6.2541   433
 6.2641   554
 6.2741   714
 6.2841   936
 6.2941  1120
 6.3041  1324
 6.3141  1797
 6.3241  2166
 6.3341  2510
 6.3441  2920
 6.3541  3155
 6.3641  3584
 6.3741  3925
 6.3841  4102
 6.3941  4322
 6.4041  4261
 6.4141  4180
 6.4241  3812
 6.4341  3545
 6.4441  3225
 6.4541  2837
 6.4641  2390
 6.4741  1991
 6.4841  1613
 6.4941  1346
 6.5041  1005
 6.5141   802
 6.5241   632
 6.5341   509
 6.5441   410
 6.5541   347
 6.5641   320
 6.5741   286
 6.5841   240
 6.5941   212
 6.6041   199
 6.6141   218
 6.6241   231
 6.6341   243
 6.6441   234
 6.6541   224
 6.6641   229
 6.6741   201
 6.6841   205
 6.6941   204
 6.7041   218
 6.7141   231
 6.7241   174
 6.7341   221
 6.7441   217
 6.7541   181
 6.7641   207
 6.7741   200
 6.7841   203
 6.7941   217
 6.8041   197
 6.8141   210
 6.8241   235
 6.8341   226
 6.8441   237
 6.8541   224
 6.8641   235
 6.8741   259
 6.8841   234
 6.8941   293
 6.9041   273
 6.9141   285
 6.9241   346
 6.9341   388
 6.9441   426
 6.9541   481
 6.9641   493
 6.9741   554
 6.9841   595
 6.9941   666
 7.0041   734
 7.0141   725
 7.0241   810
 7.0341   904
 7.0441   939
 7.0541   887
 7.0641   833
 7.0741   811
 7.0841   848
 7.0941   848
 7.1041   739
 7.1141   665
 7.1241   652
 7.1341   609
 7.1441   524
 7.1541   487
 7.1641   408
 7.1741   392
 7.1841   384
 7.1941   358
 7.2041   348
 7.2141   338
 7.2241   350
 7.2341   370
 7.2441   349
 7.2541   322
 7.2641   345
 7.2741   331
 7.2841   330
 7.2941   375
 7.3041   382
 7.3141   367
 7.3241   405
 7.3341   425
 7.3441   422
 7.3541   415
 7.3641   486
 7.3741   437
 7.3841   443
 7.3941   433
 7.4041   427
 7.4141   392
 7.4241   429
 7.4341   383
 7.4441   374
 7.4541   402
 7.4641   361
 7.4741   351
 7.4841   344
 7.4941   359
 7.5041   354
 7.5141   351
 7.5241   347
 7.5341   325
 7.5441   339
 7.5541   317
 7.5641   319
 7.5741   297
 7.5841   385
 7.5941   343
 7.6041   316
 7.6141   311
 7.6241   333
 7.6341   353
 7.6441   354
 7.6541   368
 7.6641   361
 7.6741   372
 7.6841   414
 7.6941   428
 7.7041   404
 7.7141   371
 7.7241   407
 7.7341   439
 7.7441   427
 7.7541   411
 7.7641   416
 7.7741   431
 7.7841   481
 7.7941   477
 7.8041   487
 7.8141   491
 7.8241   510
 7.8341   468
 7.8441   560
 7.8541   494
 7.8641   567
 7.8741   546
 7.8841   605
 7.8941   611
 7.9041   606
 7.9141   654
 7.9241   717
 7.9341   676
 7.9441   741
 7.9541   817
 7.9641   817
 7.9741   857
 7.9841   910
 7.9941   995
 8.0041  1127
 8.0141  1199
 8.0241  1208
 8.0341  1391
 8.0441  1413
 8.0541  1533
 8.0641  1625
 8.0741  1719
 8.0841  1776
 8.0941  1925
 8.1041  2111
 8.1141  2114
 8.1241  2233
 8.1341  2324
 8.1441  2299
 8.1541  2398
 8.1641  2482
 8.1741  2479
 8.1841  2493
 8.1941  2576
 8.2041  2609
 8.2141  2536
 8.2241  2680
 8.2341  2550
 8.2441  2690
 8.2541  2740
 8.2641  2895
 8.2741  3029
 8.2841  3056
 8.2941  3368
 8.3041  3602
 8.3141  3777
 8.3241  4173
 8.3341  4412
 8.3441  4572
 8.3541  4828
 8.3641  4979
 8.3741  5169
 8.3841  5241
 8.3941  5174
 8.4041  5088
 8.4141  4890
 8.4241  4664
 8.4341  4280
 8.4441  3858
 8.4541  3430
 8.4641  3136
 8.4741  2728
 8.4841  2416
 8.4941  2041
 8.5041  1772
 8.5141  1432
 8.5241  1250
 8.5341  1068
 8.5441   914
 8.5541   801
 8.5641   738
 8.5741   686
 8.5841   647
 8.5941   648
 8.6041   616
 8.6141   629
 8.6241   606
 8.6341   602
 8.6441   608
 8.6541   578
 8.6641   592
 8.6741   606
 8.6841   606
 8.6941   628
 8.7041   641
 8.7141   648
 8.7241   621
 8.7341   636
 8.7441   588
 8.7541   626
 8.7641   633
 8.7741   595
 8.7841   623
 8.7941   613
 8.8041   660
 8.8141   619
 8.8241   613
 8.8341   585
 8.8441   620
 8.8541   596
 8.8641   581
 8.8741   590
 8.8841   631
 8.8941   639
 8.9041   587
 8.9141   627
 8.9241   604
 8.9341   644
 8.9441   671
 8.9541   688
 8.9641   648
 8.9741   664
 8.9841   704
 8.9941   698
 9.0041   692
 9.0141   710
 9.0241   741
 9.0341   789
 9.0441   800
 9.0541   773
 9.0641   798
 9.0741   782
 9.0841   840
 9.0941   879
 9.1041   889
 9.1141   902
 9.1241   954
 9.1341  1027
 9.1441  1050
 9.1541  1050
 9.1641  1098
 9.1741  1179
 9.1841  1239
 9.1941  1243
 9.2041  1362
 9.2141  1375
 9.2241  1472
 9.2341  1594
 9.2441  1580
 9.2541  1718
 9.2641  1803
 9.2741  1848
 9.2841  1932
 9.2941  1964
 9.3041  2061
 9.3141  2167
 9.3241  2229
 9.3341  2220
 9.3441  2341
 9.3541  2460
 9.3641  2480
 9.3741  2541
 9.3841  2514
 9.3941  2574
 9.4041  2593
 9.4141  2703
 9.4241  2704
 9.4341  2727
 9.4441  2741
 9.4541  2812
 9.4641  2869
 9.4741  2813
 9.4841  2941
 9.4941  2920
 9.5041  3089
 9.5141  3113
 9.5241  3239
 9.5341  3375
 9.5441  3481
 9.5541  3714
 9.5641  3856
 9.5741  4086
 9.5841  4380
 9.5941  4728
 9.6041  4944
 9.6141  5160
 9.6241  5434
 9.6341  5652
 9.6441  5833
 9.6541  5916
 9.6641  5986
 9.6741  5900
 9.6841  5963
 9.6941  5927
 9.7041  5602
 9.7141  5353
 9.7241  5101
 9.7341  4758
 9.7441  4350
 9.7541  4102
 9.7641  3744
 9.7741  3547
 9.7841  3260
 9.7941  3053
 9.8041  2777
 9.8141  2692
 9.8241  2558
 9.8341  2498
 9.8441  2405
 9.8541  2439
 9.8641  2425
 9.8741  2469
 9.8841  2511
 9.8941  2587
 9.9041  2739
 9.9141  2722
 9.9241  2703
 9.9341  2760
 9.9441  2827
 9.9541  2840
 9.9641  2767
 9.9741  2679
 9.9841  2663
 9.9941  2485
10.0041  2370
10.0141  2218
10.0241  2051
10.0341  1840
10.0441  1678
10.0541  1521
10.0641  1404
10.0741  1234
10.0841  1095
10.0941   983
10.1041   873
10.1141   837
10.1241   745
10.1341   662
10.1441   611
10.1541   599
10.1641   531
10.1741   536
10.1841   506
10.1941   491
10.2041   464
10.2141   475
10.2241   469
10.2341   437
10.2441   424
10.2541   398
10.2641   406
10.2741   397
10.2841   377
10.2941   364
10.3041   352
10.3141   336
10.3241   337
10.3341   336
10.3441   341
10.3541   360
10.3641   349
10.3741   338
10.3841   328
10.3941   331
10.4041   318
10.4141   317
10.4241   342
10.4341   349
10.4441   351
10.4541   326
10.4641   347
10.4741   358
10.4841   355
10.4941   356
10.5041   358
10.5141   342
10.5241   343
10.5341   352
10.5441   357
10.5541   351
10.5641   370
10.5741   381
10.5841   371
10.5941   379
10.6041   388
10.6141   393
10.6241   383
10.6341   376
10.6441   391
10.6541   383
10.6641   413
10.6741   437
10.6841   439
10.6941   438
10.7041   451
10.7141   486
10.7241   450
10.7341   480
10.7441   497
10.7541   487
10.7641   504
10.7741   493
10.7841   499
10.7941   497
10.8041   516
10.8141   532
10.8241   549
10.8341   573
10.8441   586
10.8541   586
10.8641   586
10.8741   574
10.8841   601
10.8941   575
10.9041   590
10.9141   621
10.9241   630
10.9341   610
10.9441   581
10.9541   568
10.9641   596
10.9741   579
10.9841   560
10.9941   572
11.0041   580
11.0141   562
11.0241   544
11.0341   530
11.0441   534
11.0541   537
11.0641   530
11.0741   533
11.0841   542
11.0941   530
11.1041   512
11.1141   532
11.1241   522
11.1341   564
11.1441   558
11.1541   564
11.1641   578
11.1741   600
11.1841   611
11.1941   637
11.2041   695
11.2141   734
11.2241   773
11.2341   820
11.2441   811
11.2541   811
11.2641   803
11.2741   812
11.2841   844
11.2941   831
11.3041   831
11.3141   795
11.3241   769
11.3341   758
11.3441   727
11.3541   722
11.3641   684
11.3741   657
11.3841   605
11.3941   584
11.4041   549
11.4141   512
11.4241   479
11.4341   474
11.4441   460
11.4541   439
11.4641   410
11.4741   393
11.4841   406
11.4941   388
11.5041   387
11.5141   401
11.5241   422
11.5341   419
11.5441   428
11.5541   425
11.5641   432
11.5741   440
11.5841   422
11.5941   422
11.6041   431
11.6141   427
11.6241   442
11.6341   445
11.6441   452
11.6541   419
11.6641   415
11.6741   415
11.6841   423
11.6941   405
11.7041   376
11.7141   386
11.7241   402
11.7341   418
11.7441   384
11.7541   360
11.7641   337
11.7741   324
11.7841   340
11.7941   345
11.8041   365
11.8141   348
11.8241   334
11.8341   332
11.8441   310
11.8541   300
11.8641   292
11.8741   306
11.8841   306
11.8941   312
11.9041   304
11.9141   317
11.9241   333
11.9341   342
11.9441   358
11.9541   344
11.9641   338
11.9741   322
11.9841   319
11.9941   327
12.0041   336
12.0141   344
12.0241   360
12.0341   361
12.0441   355
12.0541   334
12.0641   311
12.0741   315
12.0841   334
12.0941   347
12.1041   341
12.1141   320
12.1241   303
12.1341   325
12.1441   344
12.1541   342
12.1641   312
12.1741   302
12.1841   323
12.1941   314
12.2041   303
12.2141   320
12.2241   315
12.2341   312
12.2441   308
12.2541   296
12.2641   298
12.2741   302
12.2841   305
12.2941   327
12.3041   346
12.3141   316
12.3241   310
12.3341   328
12.3441   306
12.3541   287
12.3641   296
12.3741   306
12.3841   305
12.3941   303
12.4041   300
12.4141   303
12.4241   297
12.4341   330
12.4441   340
12.4541   311
12.4641   306
12.4741   318
12.4841   323
12.4941   311
12.5041   333
12.5141   342
12.5241   331
12.5341   305
12.5441   314
12.5541   330
12.5641   298
12.5741   307
12.5841   335
12.5941   329
12.6041   314
12.6141   319
12.6241   333
12.6341   330
12.6441   323
12.6541   329
12.6641   355
12.6741   367
12.6841   343
12.6941   334
12.7041   324
12.7141   326
12.7241   334
12.7341   341
12.7441   349
12.7541   333
12.7641   334
12.7741   315
12.7841   317
12.7941   358
12.8041   367
12.8141   354
12.8241   357
12.8341   367
12.8441   365
12.8541   348
12.8641   332
12.8741   321
12.8841   349
12.8941   370
12.9041   371
12.9141   362
12.9241   348
12.9341   343
12.9441   347
12.9541   354
12.9641   353
12.9741   363
12.9841   358
12.9941   363
13.0041   368
13.0141   386
13.0241   359
13.0341   350
13.0441   370
13.0541   372
13.0641   367
13.0741   371
13.0841   357
13.0941   369
13.1041   371
13.1141   377
13.1241   387
13.1341   356
13.1441   351
13.1541   383
13.1641   373
13.1741   365
13.1841   405
13.1941   401
13.2041   388
13.2141   408
13.2241   392
13.2341   361
13.2441   386
13.2541   407
13.2641   404
13.2741   423
13.2841   409
13.2941   412
13.3041   455
13.3141   451
13.3241   444
13.3341   447
13.3441   449
13.3541   447
13.3641   442
13.3741   446
13.3841   449
13.3941   469
13.4041   451
13.4141   461
13.4241   486
13.4341   457
13.4441   438
13.4541   437
13.4641   447
13.4741   442
13.4841   440
13.4941   437
13.5041   416
13.5141   419
13.5241   416
13.5341   407
13.5441   425
13.5541   444
13.5641   443
13.5741   441
13.5841   451
13.5941   436
13.6041   407
13.6141   420
13.6241   442
13.6341   433
13.6441   420
13.6541   418
13.6641   430
13.6741   418
13.6841   420
13.6941   434
13.7041   417
13.7141   421
13.7241   412
13.7341   423
13.7441   431
13.7541   427
13.7641   425
13.7741   417
13.7841   429
13.7941   439
13.8041   418
13.8141   425
13.8241   435
13.8341   428
13.8441   441
13.8541   443
13.8641   459
13.8741   459
13.8841   447
13.8941   456
13.9041   443
13.9141   432
13.9241   450
13.9341   436
13.9441   431
13.9541   453
13.9641   459
13.9741   468
13.9841   480
13.9941   479
14.0041   481
14.0141   496
14.0241   510
14.0341   499
14.0441   498
14.0541   507
14.0641   512
14.0741   524
14.0841   535
14.0941   555
14.1041   539
14.1141   522
14.1241   531
14.1341   530
14.1441   512
14.1541   515
14.1641   541
14.1741   549
14.1841   542
14.1941   543
14.2041   540
14.2141   526
14.2241   545
14.2341   536
14.2441   503
14.2541   500
14.2641   509
14.2741   519
14.2841   503
14.2941   489
14.3041   481
14.3141   474
14.3241   479
14.3341   494
14.3441   512
14.3541   491
14.3641   474
14.3741   478
14.3841   455
14.3941   478
14.4041   516
14.4141   485
14.4241   480
14.4341   492
14.4441   475
14.4541   482
14.4641   487
14.4741   475
14.4841   467
14.4941   488
14.5041   509
14.5141   501
14.5241   488
14.5341   505
14.5441   513
14.5541   501
14.5641   500
14.5741   496
14.5841   506
14.5941   505
14.6041   499
14.6141   495
14.6241   498
14.6341   493
14.6441   495
14.6541   494
14.6641   484
14.6741   516
14.6841   526
14.6941   522
14.7041   521
14.7141   508
14.7241   529
14.7341   529
14.7441   498
14.7541   514
14.7641   537
14.7741   549
14.7841   537
14.7941   520
14.8041   523
14.8141   550
14.8241   539
14.8341   532
14.8441   543
14.8541   531
14.8641   527
14.8741   532
14.8841   547
14.8941   557
14.9041   557
14.9141   561
14.9241   532
14.9341   534
14.9441   537
14.9541   575
14.9641   582
14.9741   557
14.9841   557
14.9941   551
15.0041   555
15.0141   571
15.0241   576
15.0341   557
15.0441   554
15.0541   566
15.0641   566
15.0741   555
15.0841   547
15.0941   545
15.1041   558
15.1141   557
15.1241   553
15.1341   539
15.1441   560
15.1541   565
15.1641   548
15.1741   566
15.1841   563
15.1941   580
15.2041   600
15.2141   556
15.2241   549
15.2341   549
15.2441   522
15.2541   529
15.2641   581
15.2741   578
15.2841   573
15.2941   561
15.3041   559
15.3141   563
15.3241   581
15.3341   585
15.3441   579
15.3541   567
15.3641   586
15.3741   592
15.3841   594
15.3941   610
15.4041   580
15.4141   560
15.4241   575
15.4341   594
15.4441   586
15.4541   588
15.4641   588
15.4741   591
15.4841   577
15.4941   597
15.5041   602
15.5141   569
15.5241   567
15.5341   601
15.5441   600
15.5541   605
15.5641   622
15.5741   602
15.5841   602
15.5941   608
15.6041   604
15.6141   618
15.6241   621
15.6341   621
15.6441   626
15.6541   668
15.6641   667
15.6741   672
15.6841   669
15.6941   676
15.7041   689
15.7141   691
15.7241   680
15.7341   675
15.7441   682
15.7541   676
15.7641   704
15.7741   688
15.7841   680
15.7941   661
15.8041   650
15.8141   673
15.8241   677
15.8341   702
15.8441   701
15.8541   661
15.8641   644
15.8741   661
15.8841   670
15.8941   637
15.9041   649
15.9141   663
15.9241   639
15.9341   645
15.9441   643
15.9541   651
15.9641   629
15.9741   630
15.9841   642
15.9941   646
16.0041   647
16.0141   655
16.0241   638
16.0341   642
16.0441   620
16.0541   627
16.0641   644
16.0741   667
16.0841   667
16.0941   681
16.1041   647
16.1141   670
16.1241   704
16.1341   694
16.1441   672
16.1541   674
16.1641   662
16.1741   639
16.1841   658
16.1941   674
16.2041   657
16.2141   672
16.2241   671
16.2341   670
16.2441   670
16.2541   661
16.2641   672
16.2741   672
16.2841   698
16.2941   702
16.3041   676
16.3141   659
16.3241   655
16.3341   656
16.3441   682
16.3541   665
16.3641   703
16.3741   696
16.3841   686
16.3941   699
16.4041   702
16.4141   732
16.4241   713
16.4341   674
16.4441   688
16.4541   673
16.4641   682
16.4741   663
16.4841   681
16.4941   639
16.5041   642
16.5141   704
16.5241   708
16.5341   710
16.5441   718
16.5541   694
16.5641   698
16.5741   693
16.5841   714
16.5941   659
16.6041   699
16.6141   712
16.6241   719
16.6341   720
16.6441   701
16.6541   721
16.6641   724
16.6741   708
16.6841   716
16.6941   736
16.7041   714
16.7141   745
16.7241   736
16.7341   749
16.7441   733
16.7541   719
16.7641   712
16.7741   736
16.7841   799
16.7941   771
16.8041   717
16.8141   715
16.8241   722
16.8341   737
16.8441   755
16.8541   733
16.8641   722
16.8741   718
16.8841   709
16.8941   740
16.9041   745
16.9141   771
16.9241   775
16.9341   774
16.9441   734
16.9541   731
16.9641   769
16.9741   793
16.9841   790
16.9941   796
17.0041   764
17.0141   761
17.0241   742
17.0341   779
17.0441   790
17.0541   780
17.0641   762
17.0741   734
17.0841   726
17.0941   753
17.1041   778
17.1141   771
17.1241   779
17.1341   749
17.1441   739
17.1541   793
17.1641   790
17.1741   776
17.1841   808
17.1941   786
17.2041   770
17.2141   780
17.2241   767
17.2341   794
17.2441   808
17.2541   776
17.2641   774
17.2741   773
17.2841   803
17.2941   812
17.3041   817
17.3141   807
17.3241   809
17.3341   813
17.3441   849
17.3541   786
17.3641   759
17.3741   809
17.3841   804
17.3941   830
17.4041   781
17.4141   769
17.4241   779
17.4341   811
17.4441   794
17.4541   784
17.4641   792
17.4741   803
17.4841   808
17.4941   851
17.5041   808
17.5141   852
17.5241   822
17.5341   837
17.5441   827
17.5541   848
17.5641   833
17.5741   835
17.5841   866
17.5941   819
17.6041   861
17.6141   830
17.6241   811
17.6341   848
17.6441   891
17.6541   904
17.6641   876
17.6741   864
17.6841   855
17.6941   865
17.7041   864
17.7141   863
17.7241   835
17.7341   813
17.7441   875
17.7541   900
17.7641   856
17.7741   857
17.7841   824
17.7941   825
17.8041   845
17.8141   845
17.8241   865
17.8341   880
17.8441   867
17.8541   854
17.8641   853
17.8741   895
17.8841   880
17.8941   841
17.9041   867
17.9141   846
17.9241   865
17.9341   891
17.9441   857
17.9541   874
17.9641   865
17.9741   881
17.9841   899
17.9941   838
18.0041   855
18.0141   859
18.0241   886
18.0341   897
18.0441   918
18.0541   920
18.0641   893
18.0741   871
18.0841   845
18.0941   876
18.1041   869
18.1141   903
18.1241   880
18.1341   856
18.1441   868
18.1541   859
18.1641   902
18.1741   860
18.1841   866
18.1941   888
18.2041   902
18.2141   898
18.2241   887
18.2341   914
18.2441   906
18.2541   857
18.2641   901
18.2741   877
18.2841   919
18.2941   914
18.3041   904
18.3141   879
18.3241   911
18.3341   864
18.3441   904
18.3541   874
18.3641   906
18.3741   929
18.3841   915
18.3941   946
18.4041   899
18.4141   875
18.4241   875
18.4341   882
18.4441   944
18.4541   916
18.4641   894
18.4741   908
18.4841   899
18.4941   913
18.5041   877
18.5141   938
18.5241   920
18.5341   917
18.5441   878
18.5541   892
18.5641   921
18.5741   928
18.5841   899
18.5941   923
18.6041   949
18.6141   926
18.6241   924
18.6341   944
18.6441   952
18.6541   915
18.6641   907
18.6741   914
18.6841   940
18.6941   925
18.7041   911
18.7141   956
18.7241   956
18.7341   990
18.7441   980
18.7541   923
18.7641   927
18.7741   945
18.7841   961
18.7941   924
18.8041   943
18.8141   966
18.8241   988
18.8341   944
18.8441   915
18.8541   950
18.8641   923
18.8741   980
18.8841   982
18.8941   921
18.9041   918
18.9141   932
18.9241   919
18.9341   954
18.9441  1001
18.9541   958
18.9641   954
18.9741   971
18.9841   971
18.9941   945
19.0041   942
19.0141   992
19.0241   935
19.0341   985
19.0441   957
19.0541   964
19.0641   928
19.0741   958
19.0841   919
19.0941   946
19.1041   996
19.1141   976
19.1241   918
19.1341   994
19.1441   960
19.1541   942
19.1641   946
19.1741   945
19.1841  1000
19.1941   978
19.2041   928
19.2141   966
19.2241   984
19.2341   956
19.2441   963
19.2541   973
19.2641   972
19.2741   983
19.2841   973
19.2941   968
19.3041  1001
19.3141   954
19.3241   966
19.3341   982
19.3441   971
19.3541   964
19.3641   971
19.3741   989
19.3841   963
19.3941   974
19.4041   988
19.4141   997
19.4241   928
19.4341   965
19.4441  1007
19.4541   998
19.4641   991
19.4741   979
19.4841   967
19.4941   962
19.5041   955
19.5141   992
19.5241  1006
19.5341  1023
19.5441   990
19.5541   971
19.5641   954
19.5741   988
19.5841   978
19.5941   998
19.6041   945
19.6141   982
19.6241   978
19.6341   975
19.6441  1005
19.6541  1027
19.6641  1032
19.6741   984
19.6841  1040
19.6941  1036
19.7041   985
19.7141  1007
19.7241   979
19.7341   968
19.7441   914
19.7541   941
19.7641   973
19.7741   963
19.7841   988
19.7941   994
19.8041   981
19.8141   983
19.8241   991
19.8341   978
19.8441   968
19.8541   998
19.8641  1009
19.8741  1017
19.8841  1020
19.8941   968
19.9041   963
19.9141  1021
19.9241  1000
19.9341   975
19.9441   980
19.9541   986
19.9641   986
19.9741   984
19.9841  1024
19.9941  1009
20.0041   979
20.0141  1011
20.0241   977
20.0341   946
20.0441   981
20.0541   971
20.0641  1041
20.0741  1013
20.0841  1010
20.0941   973
20.1041   976
20.1141  1021
20.1241  1013
20.1341   993
20.1441   981
20.1541  1039
20.1641  1044
20.1741  1000
20.1841   964
20.1941   994
20.2041  1031
20.2141  1003
20.2241   995
20.2341  1003
20.2441  1025
20.2541  1016
20.2641  1016
20.2741   950
20.2841  1035
20.2941  1064
20.3041  1045
20.3141   982
20.3241  1029
20.3341  1022
20.3441  1024
20.3541  1046
20.3641  1034
20.3741   976
20.3841  1010
20.3941   998
20.4041  1027
20.4141   980
20.4241  1043
20.4341  1085
20.4441  1036
20.4541  1027
20.4641  1020
20.4741  1020
20.4841  1029
20.4941   977
20.5041  1026
20.5141  1041
20.5241  1006
20.5341   997
20.5441  1029
20.5541  1054
20.5641  1005
20.5741   994
20.5841  1000
20.5941  1056
20.6041  1000
20.6141  1069
20.6241  1069
20.6341  1007
20.6441  1031
20.6541   968
20.6641  1003
20.6741  1058
20.6841  1029
20.6941   999
20.7041  1022
20.7141  1045
20.7241  1026
20.7341  1069
20.7441  1033
20.7541   999
20.7641  1015
20.7741   973
20.7841  1000
20.7941  1039
20.8041  1006
20.8141  1076
20.8241  1061
20.8341  1070
20.8441  1066
20.8541  1106
20.8641  1080
20.8741  1150
20.8841  1174
20.8941  1161
20.9041  1175
20.9141  1199
20.9241  1208
20.9341  1212
20.9441  1314
20.9541  1223
20.9641  1309
20.9741  1334
20.9841  1305
20.9941  1404
21.0041  1381
21.0141  1409
21.0241  1453
21.0341  1443
21.0441  1495
21.0541  1397
21.0641  1425
21.0741  1467
21.0841  1473
21.0941  1474
21.1041  1494
21.1141  1450
21.1241  1556
21.1341  1561
21.1441  1553
21.1541  1559
21.1641  1538
21.1741  1549
21.1841  1559
21.1941  1450
21.2041  1486
21.2141  1471
21.2241  1432
21.2341  1405
21.2441  1303
21.2541  1360
21.2641  1275
21.2741  1271
21.2841  1254
21.2941  1250
21.3041  1236
21.3141  1206
21.3241  1128
21.3341  1121
21.3441  1130
21.3541  1140
21.3641  1160
21.3741  1085
21.3841  1122
21.3941  1071
21.4041  1074
21.4141  1062
21.4241  1049
21.4341  1028
21.4441  1032
21.4541   975
21.4641  1041
21.4741  1090
21.4841  1023
21.4941  1040
21.5041  1008
21.5141  1015
21.5241  1032
21.5341  1080
21.5441  1023
21.5541   983
21.5641  1018
21.5741  1052
21.5841  1021
21.5941  1006
21.6041  1011
21.6141  1046
21.6241  1011
21.6341  1022
21.6441  1058
21.6541  1034
21.6641   999
21.6741   994
21.6841  1094
21.6941  1047
21.7041  1062
21.7141  1028
21.7241   988
21.7341  1003
21.7441  1016
21.7541  1046
21.7641  1073
21.7741  1012
21.7841   985
21.7941  1003
21.8041  1016
21.8141  1035
21.8241   970
21.8341  1038
21.8441  1037
21.8541  1076
21.8641  1084
21.8741  1008
21.8841  1087
21.8941  1067
21.9041   987
21.9141  1049
21.9241  1013
21.9341  1032
21.9441  1012
21.9541  1027
21.9641  1004
21.9741  1002
21.9841  1018
21.9941  1031
22.0041  1039
22.0141   992
22.0241  1000
22.0341  1022
22.0441  1019
22.0541  1031
22.0641  1057
22.0741  1013
22.0841  1019
22.0941  1019
22.1041  1065
22.1141  1064
22.1241  1006
22.1341  1016
22.1441  1027
22.1541  1060
22.1641  1029
22.1741   992
22.1841  1089
22.1941  1011
22.2041  1023
22.2141  1045
22.2241  1110
22.2341   994
22.2441  1047
22.2541  1052
22.2641  1076
22.2741  1020
22.2841  1009
22.2941  1041
22.3041  1039
22.3141  1011
22.3241  1081
22.3341  1022
22.3441  1016
22.3541   970
22.3641  1017
22.3741  1010
22.3841   987
22.3941   990
22.4041  1018
22.4141  1019
22.4241   966
22.4341   942
22.4441  1001
22.4541  1020
22.4641  1017
22.4741  1016
22.4841   973
22.4941  1008
22.5041   975
22.5141  1022
22.5241   971
22.5341  1011
22.5441  1049
22.5541  1013
22.5641  1054
22.5741  1019
22.5841  1019
22.5941   989
22.6041  1013
22.6141  1050
22.6241  1018
22.6341   932
22.6441  1008
22.6541  1005
22.6641  1023
22.6741   980
22.6841   989
22.6941  1033
22.7041   994
22.7141   977
22.7241   947
22.7341  1043
22.7441   965
22.7541   986
22.7641   980
22.7741   987
22.7841  1077
22.7941   985
22.8041   978
22.8141  1013
22.8241   981
22.8341  1045
22.8441  1050
22.8541   951
22.8641  1018
22.8741   986
22.8841   980
22.8941  1009
22.9041  1024
22.9141  1053
22.9241  1048
22.9341   977
22.9441   999
22.9541  1016
22.9641  1005
22.9741   971
22.9841   946
22.9941  1003
23.0041  1033
23.0141  1011
23.0241   986
23.0341   999
23.0441   951
23.0541   986
23.0641  1040
23.0741   951
23.0841   978
23.0941   965
23.1041   989
23.1141   957
23.1241   934
23.1341  1008
23.1441  1014
23.1541   991
23.1641  1075
23.1741   963
23.1841   977
23.1941  1020
23.2041   991
23.2141  1051
23.2241   969
23.2341   972
23.2441  1008
23.2541   967
23.2641  1048
23.2741   932
23.2841   999
23.2941   988
23.3041   969
23.3141   986
23.3241  1059
23.3341   991
23.3441   999
23.3541   936
23.3641   968
23.3741   982
23.3841   986
23.3941   977
23.4041   999
23.4141   950
23.4241   963
23.4341   983
23.4441  1031
23.4541   894
23.4641  1012
23.4741   991
23.4841   929
23.4941   971
23.5041   974
23.5141   966
23.5241   969
23.5341   972
23.5441   961
23.5541   978
23.5641   956
23.5741   974
23.5841   966
23.5941   999
23.6041   963
23.6141   999
23.6241  1025
23.6341  1031
23.6441   976
23.6541   991
23.6641  1021
23.6741  1017
23.6841  1023
23.6941   985
23.7041   987
23.7141  1031
23.7241  1027
23.7341  1048
23.7441  1034
23.7541  1052
23.7641  1042
23.7741  1033
23.7841  1018
23.7941  1012
23.8041  1053
23.8141  1032
23.8241  1028
23.8341  1054
23.8441  1074
23.8541  1045
23.8641   985
23.8741  1026
23.8841  1022
23.8941  1042
23.9041  1056
23.9141   988
23.9241  1071
23.9341  1035
23.9441   947
23.9541   987
23.9641   938
23.9741   955
23.9841   970
23.9941   976
24.0041   919
24.0141   969
24.0241  1002
24.0341   936
24.0441   996
24.0541   901
24.0641   911
24.0741   983
24.0841   955
24.0941   968
24.1041   895
24.1141   898
24.1241   970
24.1341  1000
24.1441  1006
24.1541   934
24.1641   876
24.1741   906
24.1841   984
24.1941   931
24.2041   964
24.2141   927
24.2241   929
24.2341  1018
24.2441   949
24.2541   925
24.2641   930
24.2741   958
24.2841   942
24.2941   940
24.3041   918
24.3141  1006
24.3241   970
24.3341   979
24.3441   927
24.3541   964
24.3641   948
24.3741   938
24.3841   925
24.3941   866
24.4041   861
24.4141   925
24.4241   907
24.4341   943
24.4441   926
24.4541   890
24.4641   911
24.4741   925
24.4841   889
24.4941   896
24.5041   953
24.5141   883
24.5241   849
24.5341   898
24.5441   927
24.5541   948
24.5641   868
24.5741   869
24.5841   898
24.5941   931
24.6041   932
24.6141   927
24.6241   927
24.6341   934
24.6441   939
24.6541   866
24.6641   876
24.6741   912
24.6841   885
24.6941   921
24.7041   896
24.7141   855
24.7241   853
24.7341   894
24.7441   901
24.7541   884
24.7641   907
24.7741   870
24.7841   866
24.7941   918
24.8041   903
24.8141   932
24.8241   904
24.8341   881
24.8441   879
24.8541   878
24.8641   899
24.8741   868
24.8841   904
24.8941   887
24.9041   852
24.9141   916
24.9241   925
24.9341   951
24.9441   948
24.9541   877
24.9641   921
24.9741   863
24.9841   900
24.9941   896
25.0041   908
25.0141   886
25.0241   939
25.0341   937
25.0441   888
25.0541   919
25.0641   896
25.0741   886
25.0841   907
25.0941   915
25.1041   893
25.1141   907
25.1241   865
25.1341   918
25.1441   936
25.1541   888
25.1641   896
25.1741   924
25.1841   867
25.1941   901
25.2041   964
25.2141   926
25.2241   910
25.2341   915
25.2441   872
25.2541   902
25.2641   937
25.2741   899
25.2841   893
25.2941   873
25.3041   884
25.3141   871
25.3241   839
25.3341   835
25.3441   841
25.3541   848
25.3641   864
25.3741   877
25.3841   854
25.3941   814
25.4041   868
25.4141   880
25.4241   820
25.4341   810
25.4441   896
25.4541   873
25.4641   849
25.4741   803
25.4841   836
25.4941   825
25.5041   768
25.5141   842
25.5241   827
25.5341   820
25.5441   833
25.5541   836
25.5641   819
25.5741   827
25.5841   861
25.5941   832
25.6041   840
25.6141   818
25.6241   822
25.6341   838
25.6441   824
25.6541   865
25.6641   859
25.6741   862
25.6841   852
25.6941   838
25.7041   818
25.7141   882
25.7241   861
25.7341   841
25.7441   793
25.7541   836
25.7641   844
25.7741   810
25.7841   876
25.7941   843
25.8041   821
25.8141   820
25.8241   844
25.8341   762
25.8441   832
25.8541   816
25.8641   812
25.8741   799
25.8841   792
25.8941   793
25.9041   819
25.9141   764
25.9241   786
25.9341   817
25.9441   800
25.9541   813
25.9641   796
25.9741   813
25.9841   845
25.9941   786
26.0041   777
26.0141   809
26.0241   816
26.0341   823
26.0441   812
26.0541   837
26.0641   804
26.0741   775
26.0841   807
26.0941   771
26.1041   782
26.1141   829
26.1241   826
26.1341   800
26.1441   761
26.1541   752
26.1641   789
26.1741   738
26.1841   742
26.1941   799
26.2041   867
26.2141   819
26.2241   773
26.2341   772
26.2441   791
26.2541   791
26.2641   741
26.2741   772
26.2841   771
26.2941   807
26.3041   819
26.3141   806
26.3241   813
26.3341   798
26.3441   772
26.3541   781
26.3641   812
26.3741   763
26.3841   799
26.3941   819
26.4041   818
26.4141   807
26.4241   785
26.4341   762
26.4441   760
26.4541   734
26.4641   740
26.4741   748
26.4841   756
26.4941   755
26.5041   758
26.5141   777
26.5241   754
26.5341   795
26.5441   785
26.5541   713
26.5641   777
26.5741   757
26.5841   792
26.5941   787
26.6041   767
26.6141   811
26.6241   736
26.6341   787
26.6441   790
26.6541   744
26.6641   790
26.6741   759
26.6841   764
26.6941   785
26.7041   731
26.7141   798
26.7241   736
26.7341   744
26.7441   778
26.7541   722
26.7641   795
26.7741   766
26.7841   760
26.7941   738
26.8041   712
26.8141   738
26.8241   758
26.8341   713
26.8441   736
26.8541   751
26.8641   759
26.8741   775
26.8841   723
26.8941   762
26.9041   759
26.9141   777
26.9241   719
26.9341   743
26.9441   704
26.9541   716
26.9641   746
26.9741   753
26.9841   734
26.9941   723
27.0041   744
27.0141   748
27.0241   693
27.0341   753
27.0441   730
27.0541   698
27.0641   722
27.0741   762
27.0841   751
27.0941   746
27.1041   709
27.1141   677
27.1241   725
27.1341   745
27.1441   679
27.1541   719
27.1641   747
27.1741   711
27.1841   713
27.1941   716
27.2041   710
27.2141   694
27.2241   708
27.2341   775
27.2441   747
27.2541   707
27.2641   746
27.2741   703
27.2841   681
27.2941   710
27.3041   722
27.3141   721
27.3241   695
27.3341   716
27.3441   710
27.3541   687
27.3641   709
27.3741   649
27.3841   679
27.3941   710
27.4041   722
27.4141   760
27.4241   726
27.4341   705
27.4441   714
27.4541   692
27.4641   666
27.4741   722
27.4841   705
27.4941   677
27.5041   709
27.5141   641
27.5241   678
27.5341   668
27.5441   709
27.5541   676
27.5641   699
27.5741   669
27.5841   671
27.5941   663
27.6041   690
27.6141   674
27.6241   693
27.6341   682
27.6441   735
27.6541   630
27.6641   678
27.6741   706
27.6841   681
27.6941   691
27.7041   687
27.7141   678
27.7241   725
27.7341   690
27.7441   675
27.7541   629
27.7641   617
27.7741   656
27.7841   650
27.7941   631
27.8041   663
27.8141   653
27.8241   649
27.8341   625
27.8441   696
27.8541   650
27.8641   650
27.8741   650
27.8841   669
27.8941   622
27.9041   685
27.9141   617
27.9241   647
27.9341   665
27.9441   642
27.9541   662
27.9641   652
27.9741   657
27.9841   695
27.9941   634
28.0041   646
28.0141   654
28.0241   645
28.0341   638
28.0441   598
28.0541   669
28.0641   626
28.0741   661
28.0841   617
28.0941   607
28.1041   666
28.1141   665
28.1241   622
28.1341   609
28.1441   636
28.1541   639
28.1641   605
28.1741   652
28.1841   634
28.1941   621
28.2041   611
28.2141   642
28.2241   632
28.2341   675
28.2441   634
28.2541   658
28.2641   670
28.2741   644
28.2841   638
28.2941   613
28.3041   653
28.3141   639
28.3241   620
28.3341   641
28.3441   600
28.3541   603
28.3641   612
28.3741   625
28.3841   629
28.3941   639
28.4041   614
28.4141   640
28.4241   661
28.4341   581
28.4441   638
28.4541   615
28.4641   598
28.4741   665
28.4841   661
28.4941   581
28.5041   598
28.5141   605
28.5241   629
28.5341   570
28.5441   624
28.5541   602
28.5641   617
28.5741   632
28.5841   587
28.5941   596
28.6041   593
28.6141   621
28.6241   628
28.6341   585
28.6441   611
28.6541   633
28.6641   612
28.6741   590
28.6841   577
28.6941   582
28.7041   651
28.7141   563
28.7241   576
28.7341   610
28.7441   629
28.7541   589
28.7641   594
28.7741   602
28.7841   629
28.7941   617
28.8041   585
28.8141   599
28.8241   583
28.8341   548
28.8441   581
28.8541   616
28.8641   588
28.8741   579
28.8841   591
28.8941   547
28.9041   582
28.9141   571
28.9241   533
28.9341   588
28.9441   611
28.9541   595
28.9641   589
28.9741   560
28.9841   571
28.9941   579
29.0041   598
29.0141   583
29.0241   529
29.0341   524
29.0441   528
29.0541   568
29.0641   541
29.0741   550
29.0841   568
29.0941   546
29.1041   577
29.1141   565
29.1241   598
29.1341   584
29.1441   614
29.1541   603
29.1641   580
29.1741   524
29.1841   562
29.1941   564
29.2041   555
29.2141   561
29.2241   566
29.2341   560
29.2441   567
29.2541   532
29.2641   559
29.2741   554
29.2841   535
29.2941   547
29.3041   526
29.3141   569
29.3241   540
29.3341   531
29.3441   516
29.3541   521
29.3641   567
29.3741   577
29.3841   566
29.3941   531
29.4041   538
29.4141   568
29.4241   530
29.4341   509
29.4441   550
29.4541   556
29.4641   563
29.4741   532
29.4841   501
29.4941   532
29.5041   560
29.5141   566
29.5241   575
29.5341   521
29.5441   576
29.5541   529
29.5641   517
29.5741   572
29.5841   493
29.5941   531
29.6041   542
29.6141   546
29.6241   512
29.6341   532
29.6441   518
29.6541   522
29.6641   485
29.6741   489
29.6841   518
29.6941   550
29.7041   511
29.7141   526
29.7241   550
29.7341   516
29.7441   519
29.7541   504
29.7641   467
29.7741   513
29.7841   516
29.7941   495
29.8041   497
29.8141   522
29.8241   507
29.8341   491
29.8441   496
29.8541   538
29.8641   512
29.8741   514
29.8841   499
29.8941   489
29.9041   529
29.9141   481
29.9241   511
29.9341   460
29.9441   497
29.9541   477
29.9641   501
29.9741   496
29.9841   538
29.9941   501
30.0041   504
30.0141   470
30.0241   499
30.0341   509
30.0441   494
30.0541   505
30.0641   499
30.0741   471
30.0841   474
30.0941   518
30.1041   525
30.1141   487
30.1241   502
30.1341   480
30.1441   495
30.1541   491
30.1641   478
30.1741   457
30.1841   497
30.1941   481
30.2041   476
30.2141   479
30.2241   480
30.2341   486
30.2441   474
30.2541   466
30.2641   437
30.2741   467
30.2841   471
30.2941   484
30.3041   471
30.3141   457
30.3241   486
30.3341   489
30.3441   512
30.3541   487
30.3641   474
30.3741   424
30.3841   445
30.3941   458
30.4041   539
30.4141   503
30.4241   499
30.4341   496
30.4441   479
30.4541   455
30.4641   474
30.4741   473
30.4841   463
30.4941   473
30.5041   473
30.5141   450
30.5241   457
30.5341   466
30.5441   487
30.5541   444
30.5641   479
30.5741   467
30.5841   441
30.5941   471
30.6041   435
30.6141   442
30.6241   424
30.6341   448
30.6441   459
30.6541   481
30.6641   483
30.6741   446
30.6841   437
30.6941   447
30.7041   398
30.7141   444
30.7241   475
30.7341   435
30.7441   431
30.7541   450
30.7641   446
30.7741   452
30.7841   442
30.7941   444
30.8041   441
30.8141   439
30.8241   426
30.8341   445
30.8441   425
30.8541   431
30.8641   441
30.8741   428
30.8841   433
30.8941   484
30.9041   435
30.9141   380
30.9241   446
30.9341   448
30.9441   444
30.9541   438
30.9641   407
30.9741   422
30.9841   429
30.9941   445
31.0041   430
31.0141   426
31.0241   422
31.0341   436
31.0441   418
31.0541   447
31.0641   440
31.0741   412
31.0841   400
31.0941   400
31.1041   380
31.1141   428
31.1241   420
31.1341   405
31.1441   461
31.1541   404
31.1641   405
31.1741   404
31.1841   411
31.1941   436
31.2041   424
31.2141   406
31.2241   442
31.2341   431
31.2441   399
31.2541   407
31.2641   428
31.2741   417
31.2841   396
31.2941   401
31.3041   370
31.3141   395
31.3241   393
31.3341   398
31.3441   407
31.3541   394
31.3641   395
31.3741   388
31.3841   395
31.3941   416
31.4041   426
31.4141   380
31.4241   356
31.4341   407
31.4441   427
31.4541   366
31.4641   402
31.4741   392
31.4841   401
31.4941   356
31.5041   386
31.5141   412
31.5241   393
31.5341   386
31.5441   381
31.5541   405
31.5641   374
31.5741   390
31.5841   405
31.5941   394
31.6041   371
31.6141   378
31.6241   390
31.6341   429
31.6441   403
31.6541   382
31.6641   358
31.6741   362
31.6841   403
31.6941   391
31.7041   386
31.7141   416
31.7241   373
31.7341   395
31.7441   395
31.7541   398
31.7641   406
31.7741   395
31.7841   428
31.7941   373
31.8041   383
31.8141   385
31.8241   376
31.8341   387
31.8441   397
31.8541   398
31.8641   377
31.8741   376
31.8841   387
31.8941   346
31.9041   351
31.9141   326
31.9241   357
31.9341   359
31.9441   360
31.9541   359
31.9641   359
31.9741   378
31.9841   388
31.9941   379
32.0041   400
32.0141   370
32.0241   377
32.0341   351
32.0441   375
32.0541   383
32.0641   350
32.0741   383
32.0841   402
32.0941   400
32.1041   368
32.1141   357
32.1241   352
32.1341   385
32.1441   357
32.1541   355
32.1641   345
32.1741   360
32.1841   344
32.1941   408
32.2041   347
32.2141   373
32.2241   383
32.2341   370
32.2441   354
32.2541   361
32.2641   375
32.2741   350
32.2841   341
32.2941   337
32.3041   338
32.3141   361
32.3241   359
32.3341   394
32.3441   342
32.3541   348
32.3641   346
32.3741   354
32.3841   333
32.3941   325
32.4041   359
32.4141   330
32.4241   361
32.4341   348
32.4441   353
32.4541   343
32.4641   342
32.4741   321
32.4841   358
32.4941   348
32.5041   331
32.5141   360
32.5241   362
32.5341   309
32.5441   313
32.5541   337
32.5641   361
32.5741   310
32.5841   306
32.5941   345
32.6041   342
32.6141   313
32.6241   328
32.6341   318
32.6441   317
32.6541   316
32.6641   341
32.6741   334
32.6841   328
32.6941   323
32.7041   315
32.7141   334
32.7241   297
32.7341   324
32.7441   310
32.7541   315
32.7641   316
32.7741   319
32.7841   298
32.7941   315
32.8041   338
32.8141   309
32.8241   313
32.8341   313
32.8441   351
32.8541   296
32.8641   269
32.8741   348
32.8841   313
32.8941   306
32.9041   294
32.9141   315
32.9241   298
32.9341   290
32.9441   307
32.9541   342
32.9641   328
32.9741   304
32.9841   326
32.9941   315
33.0041   294
33.0141   314
33.0241   328
33.0341   316
33.0441   301
33.0541   301
33.0641   280
33.0741   310
33.0841   326
33.0941   322
33.1041   305
33.1141   313
33.1241   306
33.1341   325
33.1441   265
33.1541   287
33.1641   308
33.1741   277
33.1841   292
33.1941   314
33.2041   323
33.2141   312
33.2241   314
33.2341   301
33.2441   293
33.2541   311
33.2641   289
33.2741   318
33.2841   284
33.2941   286
33.3041   294
33.3141   284
33.3241   285
33.3341   278
33.3441   286
33.3541   312
33.3641   284
33.3741   295
33.3841   279
33.3941   304
33.4041   291
33.4141   277
33.4241   277
33.4341   277
33.4441   295
33.4541   279
33.4641   270
33.4741   302
33.4841   269
33.4941   282
33.5041   280
33.5141   289
33.5241   303
33.5341   268
33.5441   261
33.5541   290
33.5641   254
33.5741   261
33.5841   273
33.5941   290
33.6041   286
33.6141   267
33.6241   288
33.6341   286
33.6441   281
33.6541   282
33.6641   305
33.6741   268
33.6841   278
33.6941   260
33.7041   285
33.7141   253
33.7241   271
33.7341   256
33.7441   260
33.7541   267
33.7641   268
33.7741   269
33.7841   272
33.7941   276
33.8041   284
33.8141   283
33.8241   262
33.8341   307
33.8441   241
33.8541   264
33.8641   278
33.8741   227
33.8841   271
33.8941   253
33.9041   274
33.9141   244
33.9241   233
33.9341   244
33.9441   268
33.9541   250
33.9641   255
33.9741   258
33.9841   257
33.9941   249
34.0041   250
34.0141   263
34.0241   258
34.0341   242
34.0441   261
34.0541   254
34.0641   287
34.0741   223
34.0841   249
34.0941   261
34.1041   261
34.1141   241
34.1241   228
34.1341   225
34.1441   233
34.1541   264
34.1641   226
34.1741   249
34.1841   243
34.1941   236
34.2041   217
34.2141   244
34.2241   262
34.2341   256
34.2441   238
34.2541   237
34.2641   238
34.2741   237
34.2841   230
34.2941   240
34.3041   247
34.3141   229
34.3241   246
34.3341   255
34.3441   249
34.3541   268
34.3641   252
34.3741   221
34.3841   258
34.3941   237
34.4041   233
34.4141   237
34.4241   276
34.4341   231
34.4441   235
34.4541   274
34.4641   219
34.4741   195
34.4841   223
34.4941   239
34.5041   203
34.5141   227
34.5241   239
34.5341   216
34.5441   208
34.5541   218
34.5641   197
34.5741   227
34.5841   216
34.5941   247
34.6041   243
34.6141   236
34.6241   219
34.6341   216
34.6441   252
34.6541   230
34.6641   215
34.6741   212
34.6841   233
34.6941   217
34.7041   206
34.7141   201
34.7241   220
34.7341   231
34.7441   226
34.7541   238
34.7641   198
34.7741   218
34.7841   228
34.7941   203
34.8041   228
34.8141   199
34.8241   234
34.8341   180
34.8441   227
34.8541   206
34.8641   217
34.8741   203
34.8841   221
34.8941   227
34.9041   194
34.9141   214
34.9241   203
34.9341   206
34.9441   213
34.9541   230
34.9641   202
34.9741   229
34.9841   198
34.9941   231
35.0041   205
35.0141   200
35.0241   196
35.0341   205
35.0441   219
35.0541   216
35.0641   195
35.0741   187
35.0841   214
35.0941   214
35.1041   204
35.1141   222
35.1241   212
35.1341   225
35.1441   220
35.1541   198
35.1641   203
35.1741   186
35.1841   221
35.1941   219
35.2041   187
35.2141   200
35.2241   208
35.2341   216
35.2441   191
35.2541   174
35.2641   225
35.2741   206
35.2841   198
35.2941   208
35.3041   204
35.3141   178
35.3241   217
35.3341   206
35.3441   221
35.3541   186
35.3641   189
35.3741   181
35.3841   196
35.3941   193
35.4041   170
35.4141   180
35.4241   195
35.4341   193
35.4441   214
35.4541   170
35.4641   193
35.4741   172
35.4841   217
35.4941   178
35.5041   177
35.5141   207
35.5241   186
35.5341   180
35.5441   203
35.5541   198
35.5641   175
35.5741   208
35.5841   187
35.5941   177
35.6041   185
35.6141   197
35.6241   182
35.6341   188
35.6441   181
35.6541   182
35.6641   183
35.6741   183
35.6841   181
35.6941   192
35.7041   199
35.7141   176
35.7241   187
35.7341   175
35.7441   166
35.7541   182
35.7641   182
35.7741   181
35.7841   189
35.7941   166
35.8041   194
35.8141   173
35.8241   169
35.8341   183
35.8441   175
35.8541   173
35.8641   164
35.8741   164
35.8841   199
35.8941   181
35.9041   168
35.9141   182
35.9241   168
35.9341   194
35.9441   158
35.9541   177
35.9641   162
35.9741   180
35.9841   172
35.9941   148
36.0041   201
36.0141   170
36.0241   167
36.0341   181
36.0441   154
36.0541   156
36.0641   165
36.0741   175
36.0841   151
36.0941   183
36.1041   149
36.1141   162
36.1241   171
36.1341   172
36.1441   153
36.1541   172
36.1641   183
36.1741   159
36.1841   157
36.1941   181
36.2041   218
36.2141   157
36.2241   157
36.2341   149
36.2441   152
36.2541   152
36.2641   148
36.2741   168
36.2841   189
36.2941   159
36.3041   156
36.3141   160
36.3241   162
36.3341   163
36.3441   170
36.3541   163
36.3641   163
36.3741   161
36.3841   137
36.3941   162
36.4041   155
36.4141   178
36.4241   168
36.4341   146
36.4441   156
36.4541   145
36.4641   165
36.4741   164
36.4841   157
36.4941   171
36.5041   161
36.5141   153
36.5241   176
36.5341   165
36.5441   150
36.5541   153
36.5641   158
36.5741   155
36.5841   164
36.5941   153
36.6041   141
36.6141   160
36.6241   136
36.6341   136
36.6441   142
36.6541   148
36.6641   157
36.6741   150
36.6841   152
36.6941   145
36.7041   148
36.7141   141
36.7241   150
36.7341   157
36.7441   164
36.7541   139
36.7641   145
36.7741   127
36.7841   150
36.7941   148
36.8041   139
36.8141   161
36.8241   150
36.8341   139
36.8441   138
36.8541   135
36.8641   132
36.8741   147
36.8841   140
36.8941   141
36.9041   156
36.9141   126
36.9241   135
36.9341   141
36.9441   140
36.9541   136
36.9641   131
36.9741   138
36.9841   134
36.9941   150
37.0041   128
37.0141   135
37.0241   145
37.0341   129
37.0441   136
37.0541   132
37.0641   125
37.0741   136
37.0841   125
37.0941   131
37.1041   156
37.1141   126
37.1241    94
37.1341   119
37.1441   127
37.1541   122
37.1641   123
37.1741   135
37.1841   120
37.1941   134
37.2041   134
37.2141   133
37.2241   152
37.2341   108
37.2441   126
37.2541   138
37.2641   126
37.2741   136
37.2841   123
37.2941   132
37.3041   105
37.3141   131
37.3241   117
37.3341   117
37.3441   133
37.3541   147
37.3641   128
37.3741   119
37.3841   132
37.3941   115
37.4041   125
37.4141   125
37.4241   117
37.4341   102
37.4441   120
37.4541   121
37.4641   114
37.4741   131
37.4841   115
37.4941   113
37.5041   110
37.5141   139
37.5241   127
37.5341   113
37.5441   113
37.5541   118
37.5641   106
37.5741   120
37.5841   131
37.5941   123
37.6041   146
37.6141   128
37.6241   120
37.6341   105
37.6441   115
37.6541   104
37.6641   126
37.6741   105
37.6841   104
37.6941   124
37.7041   141
37.7141   102
37.7241   111
37.7341   107
37.7441   124
37.7541   102
37.7641   112
37.7741   104
37.7841   114
37.7941   120
37.8041   115
37.8141   125
37.8241   123
37.8341   124
37.8441   111
37.8541   116
37.8641   113
37.8741   117
37.8841   110
37.8941   106
37.9041   124
37.9141   103
37.9241   125
37.9341   115
37.9441   115
37.9541   110
37.9641   107
37.9741   120
37.9841   122
37.9941   129
38.0041   104
38.0141    88
38.0241    96
38.0341   115
38.0441   108
38.0541   122
38.0641   120
38.0741    97
38.0841    98
38.0941    81
38.1041   100
38.1141   108
38.1241   118
38.1341   105
38.1441    89
38.1541    90
38.1641    85
38.1741    97
38.1841   116
38.1941   105
38.2041   109
38.2141    95
38.2241    96
38.2341    90
38.2441    99
38.2541   116
38.2641    97
38.2741    95
38.2841    98
38.2941    87
38.3041    98
38.3141    97
38.3241    89
38.3341    94
38.3441   107
38.3541   107
38.3641   111
38.3741    96
38.3841   109
38.3941    88
38.4041   102
38.4141    74
38.4241    77
38.4341    82
38.4441    86
38.4541    94
38.4641    86
38.4741   107
38.4841   101
38.4941    93
38.5041    97
38.5141    98
38.5241    87
38.5341    83
38.5441   106
38.5541    89
38.5641    97
38.5741    89
38.5841    87
38.5941    81
38.6041    89
38.6141    85
38.6241    89
38.6341    73
38.6441    91
38.6541    94
38.6641    83
38.6741    81
38.6841    78
38.6941    89
38.7041    82
38.7141    87
38.7241    71
38.7341    87
38.7441    78
38.7541    76
38.7641    88
38.7741    81
38.7841    96
38.7941   100
38.8041    81
38.8141    78
38.8241    78
38.8341    81
38.8441    78
38.8541    81
38.8641    83
38.8741    81
38.8841    85
38.8941    91
38.9041    78
38.9141    88
38.9241    97
38.9341    81
38.9441    91
38.9541    78
38.9641    78
38.9741    76
38.9841    78
38.9941    80
39.0041    61
39.0141    85
39.0241    60
39.0341    80
39.0441    76
39.0541    70
39.0641    83
39.0741    89
39.0841    77
39.0941    84
39.1041    73
39.1141    65
39.1241    79
39.1341    70
39.1441    82
39.1541    86
39.1641    79
39.1741    61
39.1841    52
39.1941    74
39.2041    79
39.2141    75
39.2241    81
39.2341    82
39.2441    70
39.2541    78
39.2641    66
39.2741    75
39.2841    92
39.2941    74
39.3041    65
39.3141    73
39.3241    86
39.3341    66
39.3441    62
39.3541    87
39.3641    71
39.3741    73
39.3841    57
39.3941    66
39.4041    62
39.4141    65
39.4241    78
39.4341    71
39.4441    56
39.4541    54
39.4641    60
39.4741    72
39.4841    62
39.4941    68
39.5041    70
39.5141    56
39.5241    67
39.5341    74
39.5441    56
39.5541    71
39.5641    59
39.5741    73
39.5841    62
39.5941    54
39.6041    68
39.6141    68
39.6241    61
39.6341    81
39.6441    57
39.6541    48
39.6641    46
39.6741    60
39.6841    60
39.6941    50
39.7041    69
39.7141    60
39.7241    72
39.7341    67
39.7441    57
39.7541    61
39.7641    71
39.7741    50
39.7841    60
39.7941    51
39.8041    48
39.8141    62
39.8241    67
39.8341    60
39.8441    60
39.8541    50
39.8641    59
39.8741    54
39.8841    60
39.8941    52
39.9041    60
39.9141    46
39.9241    55
39.9341    57
39.9441    52
39.9541    53
39.9641    49
39.9741    54
39.9841    57
39.9941    56
