Bruker Nano GmbH Berlin, Germany
Esprit 1.9

Date: 4/21/2021 2:34:31 PM
Real time: 19898
Life time: 18625
Pulse density: 95665


Detector type: XFlash 430
Window type: Custom type
Detector thickness: 0.45
Si dead layer:0.029

Calibration, lin.: 10
Calibration, abs.: -955.9
Mn FWHM: 137.05
Fano factor: 0.121
Channels: 4095

Energy Counts
-0.9559     0
-0.9459     0
-0.9359     0
-0.9259     0
-0.9159     0
-0.9059     0
-0.8959     0
-0.8859     0
-0.8759     0
-0.8659     0
-0.8559     0
-0.8459     0
-0.8359     0
-0.8259     0
-0.8159     0
-0.8059     0
-0.7959     0
-0.7859     0
-0.7759     0
-0.7659     0
-0.7559     0
-0.7459     0
-0.7359     0
-0.7259     0
-0.7159     0
-0.7059     0
-0.6959     0
-0.6859     0
-0.6759     0
-0.6659     0
-0.6559     0
-0.6459     0
-0.6359     0
-0.6259     0
-0.6159     0
-0.6059     0
-0.5959     0
-0.5859     0
-0.5759     0
-0.5659     0
-0.5559     0
-0.5459     0
-0.5359     0
-0.5259     0
-0.5159     0
-0.5059     0
-0.4959     0
-0.4859     0
-0.4759     0
-0.4659     0
-0.4559     0
-0.4459     0
-0.4359     0
-0.4259     0
-0.4159     0
-0.4059     0
-0.3959     0
-0.3859     0
-0.3759     0
-0.3659     0
-0.3559     0
-0.3459     0
-0.3359     0
-0.3259     0
-0.3159     0
-0.3059     0
-0.2959     0
-0.2859     0
-0.2759     0
-0.2659     0
-0.2559     0
-0.2459     0
-0.2359     0
-0.2259     0
-0.2159     0
-0.2059     0
-0.1959     0
-0.1859     0
-0.1759     0
-0.1659     0
-0.1559     0
-0.1459     0
-0.1359     0
-0.1259     0
-0.1159     2
-0.1059     7
-0.0959    59
-0.0859   207
-0.0759   748
-0.0659  2089
-0.0559  5505
-0.0459 11937
-0.0359 22370
-0.0259 35434
-0.0159 48474
-0.0059 57176
 0.0041 57516
 0.0141 49437
 0.0241 36352
 0.0341 22849
 0.0441 12450
 0.0541  5873
 0.0641  2290
 0.0741   781
 0.0841   262
 0.0941    99
 0.1041    24
 0.1141    16
 0.1241     7
 0.1341    11
 0.1441     2
 0.1541     5
 0.1641     3
 0.1741     0
 0.1841   162
 0.1941   302
 0.2041   289
 0.2141   281
 0.2241   271
 0.2341   272
 0.2441   265
 0.2541   261
 0.2641   296
 0.2741   286
 0.2841   284
 0.2941   263
 0.3041   283
 0.3141   287
 0.3241   270
 0.3341   269
 0.3441   265
 0.3541   263
 0.3641   257
 0.3741   258
 0.3841   274
 0.3941   252
 0.4041   249
 0.4141   261
 0.4241   255
 0.4341   245
 0.4441   236
 0.4541   246
 0.4641   238
 0.4741   243
 0.4841   230
 0.4941   226
 0.5041   240
 0.5141   243
 0.5241   244
 0.5341   216
 0.5441   227
 0.5541   248
 0.5641   253
 0.5741   244
 0.5841   222
 0.5941   229
 0.6041   238
 0.6141   210
 0.6241   209
 0.6341   222
 0.6441   223
 0.6541   212
 0.6641   213
 0.6741   215
 0.6841   219
 0.6941   214
 0.7041   208
 0.7141   201
 0.7241   197
 0.7341   204
 0.7441   210
 0.7541   212
 0.7641   208
 0.7741   205
 0.7841   202
 0.7941   206
 0.8041   191
 0.8141   192
 0.8241   225
 0.8341   222
 0.8441   210
 0.8541   190
 0.8641   186
 0.8741   206
 0.8841   192
 0.8941   167
 0.9041   185
 0.9141   189
 0.9241   191
 0.9341   216
 0.9441   206
 0.9541   178
 0.9641   194
 0.9741   197
 0.9841   180
 0.9941   169
 1.0041   182
 1.0141   191
 1.0241   182
 1.0341   199
 1.0441   198
 1.0541   203
 1.0641   185
 1.0741   178
 1.0841   185
 1.0941   178
 1.1041   185
 1.1141   192
 1.1241   183
 1.1341   179
 1.1441   176
 1.1541   192
 1.1641   206
 1.1741   179
 1.1841   206
 1.1941   163
 1.2041   177
 1.2141   195
 1.2241   175
 1.2341   174
 1.2441   175
 1.2541   169
 1.2641   182
 1.2741   191
 1.2841   157
 1.2941   186
 1.3041   199
 1.3141   171
 1.3241   169
 1.3341   169
 1.3441   173
 1.3541   173
 1.3641   163
 1.3741   139
 1.3841   173
 1.3941   171
 1.4041   189
 1.4141   189
 1.4241   165
 1.4341   175
 1.4441   159
 1.4541   158
 1.4641   164
 1.4741   169
 1.4841   154
 1.4941   181
 1.5041   183
 1.5141   174
 1.5241   162
 1.5341   175
 1.5441   164
 1.5541   142
 1.5641   161
 1.5741   168
 1.5841   159
 1.5941   154
 1.6041   158
 1.6141   176
 1.6241   166
 1.6341   145
 1.6441   182
 1.6541   183
 1.6641   251
 1.6741   274
 1.6841   372
 1.6941   420
 1.7041   511
 1.7141   662
 1.7241   687
 1.7341   700
 1.7441   713
 1.7541   675
 1.7641   593
 1.7741   538
 1.7841   464
 1.7941   363
 1.8041   320
 1.8141   260
 1.8241   234
 1.8341   240
 1.8441   195
 1.8541   199
 1.8641   178
 1.8741   180
 1.8841   166
 1.8941   172
 1.9041   162
 1.9141   172
 1.9241   163
 1.9341   185
 1.9441   187
 1.9541   178
 1.9641   174
 1.9741   199
 1.9841   193
 1.9941   189
 2.0041   229
 2.0141   202
 2.0241   194
 2.0341   189
 2.0441   174
 2.0541   186
 2.0641   174
 2.0741   168
 2.0841   140
 2.0941   142
 2.1041   167
 2.1141   161
 2.1241   155
 2.1341   153
 2.1441   146
 2.1541   140
 2.1641   156
 2.1741   141
 2.1841   151
 2.1941   150
 2.2041   147
 2.2141   134
 2.2241   167
 2.2341   174
 2.2441   111
 2.2541   125
 2.2641   145
 2.2741   135
 2.2841   143
 2.2941   125
 2.3041   119
 2.3141   137
 2.3241   141
 2.3341   138
 2.3441   125
 2.3541   132
 2.3641   146
 2.3741   152
 2.3841   140
 2.3941   161
 2.4041   134
 2.4141   122
 2.4241   136
 2.4341   136
 2.4441   141
 2.4541   136
 2.4641   133
 2.4741   133
 2.4841   140
 2.4941   123
 2.5041   130
 2.5141   147
 2.5241   129
 2.5341   122
 2.5441   127
 2.5541   148
 2.5641   128
 2.5741   113
 2.5841   119
 2.5941   129
 2.6041   131
 2.6141   137
 2.6241   132
 2.6341   128
 2.6441   110
 2.6541   134
 2.6641   127
 2.6741   123
 2.6841   138
 2.6941   129
 2.7041   130
 2.7141   121
 2.7241   119
 2.7341   126
 2.7441   134
 2.7541   106
 2.7641   113
 2.7741   129
 2.7841   121
 2.7941   128
 2.8041   112
 2.8141   117
 2.8241   137
 2.8341   140
 2.8441   147
 2.8541   127
 2.8641   145
 2.8741   118
 2.8841   130
 2.8941   124
 2.9041   103
 2.9141   132
 2.9241   125
 2.9341   112
 2.9441   102
 2.9541   112
 2.9641   122
 2.9741   116
 2.9841   113
 2.9941   146
 3.0041   114
 3.0141   118
 3.0241   119
 3.0341    89
 3.0441   121
 3.0541   117
 3.0641   120
 3.0741   124
 3.0841   125
 3.0941   110
 3.1041   110
 3.1141    90
 3.1241   102
 3.1341    91
 3.1441   123
 3.1541   101
 3.1641   104
 3.1741   115
 3.1841   113
 3.1941   108
 3.2041    87
 3.2141    86
 3.2241   109
 3.2341   127
 3.2441   118
 3.2541   135
 3.2641   127
 3.2741   137
 3.2841   130
 3.2941   138
 3.3041   138
 3.3141   145
 3.3241   123
 3.3341   133
 3.3441   146
 3.3541   115
 3.3641   119
 3.3741   122
 3.3841   121
 3.3941   117
 3.4041    96
 3.4141   104
 3.4241   102
 3.4341    95
 3.4441   111
 3.4541    95
 3.4641    87
 3.4741    87
 3.4841   110
 3.4941    94
 3.5041    94
 3.5141   117
 3.5241   116
 3.5341    94
 3.5441   102
 3.5541   124
 3.5641   125
 3.5741   177
 3.5841   215
 3.5941   246
 3.6041   300
 3.6141   397
 3.6241   495
 3.6341   584
 3.6441   723
 3.6541   872
 3.6641   963
 3.6741  1064
 3.6841  1083
 3.6941  1063
 3.7041  1019
 3.7141   975
 3.7241   899
 3.7341   751
 3.7441   650
 3.7541   480
 3.7641   422
 3.7741   321
 3.7841   247
 3.7941   194
 3.8041   139
 3.8141   121
 3.8241   111
 3.8341    98
 3.8441    87
 3.8541    87
 3.8641   101
 3.8741   102
 3.8841    96
 3.8941    89
 3.9041    89
 3.9141    93
 3.9241   106
 3.9341   122
 3.9441   144
 3.9541   134
 3.9641   143
 3.9741   183
 3.9841   200
 3.9941   237
 4.0041   215
 4.0141   226
 4.0241   207
 4.0341   195
 4.0441   229
 4.0541   192
 4.0641   165
 4.0741   154
 4.0841   120
 4.0941   118
 4.1041   125
 4.1141   104
 4.1241    89
 4.1341    95
 4.1441    72
 4.1541    80
 4.1641    82
 4.1741    88
 4.1841    68
 4.1941    79
 4.2041    77
 4.2141    79
 4.2241    73
 4.2341    73
 4.2441    68
 4.2541    72
 4.2641    77
 4.2741    69
 4.2841    94
 4.2941    80
 4.3041    75
 4.3141    69
 4.3241    64
 4.3341    82
 4.3441    89
 4.3541    90
 4.3641    76
 4.3741    79
 4.3841    86
 4.3941    96
 4.4041    94
 4.4141   119
 4.4241   114
 4.4341   123
 4.4441   151
 4.4541   172
 4.4641   183
 4.4741   202
 4.4841   212
 4.4941   225
 4.5041   256
 4.5141   236
 4.5241   234
 4.5341   217
 4.5441   210
 4.5541   199
 4.5641   171
 4.5741   147
 4.5841   134
 4.5941   142
 4.6041   133
 4.6141   131
 4.6241   103
 4.6341    85
 4.6441   112
 4.6541   116
 4.6641    96
 4.6741    94
 4.6841    82
 4.6941    81
 4.7041    81
 4.7141    93
 4.7241    84
 4.7341   100
 4.7441    81
 4.7541    65
 4.7641    93
 4.7741    77
 4.7841    89
 4.7941    85
 4.8041    89
 4.8141    96
 4.8241    95
 4.8341    86
 4.8441    93
 4.8541    84
 4.8641    99
 4.8741   101
 4.8841   106
 4.8941   123
 4.9041   131
 4.9141   129
 4.9241   125
 4.9341   122
 4.9441   112
 4.9541   132
 4.9641   122
 4.9741   114
 4.9841   126
 4.9941   117
 5.0041   102
 5.0141    95
 5.0241   105
 5.0341    91
 5.0441   111
 5.0541    91
 5.0641    99
 5.0741    70
 5.0841    96
 5.0941    90
 5.1041    96
 5.1141    83
 5.1241    94
 5.1341    90
 5.1441    85
 5.1541    70
 5.1641    98
 5.1741    91
 5.1841    95
 5.1941    98
 5.2041    87
 5.2141    92
 5.2241    92
 5.2341    98
 5.2441    78
 5.2541   109
 5.2641    94
 5.2741    88
 5.2841   102
 5.2941    94
 5.3041    98
 5.3141   107
 5.3241   101
 5.3341   117
 5.3441   134
 5.3541   145
 5.3641   160
 5.3741   163
 5.3841   157
 5.3941   176
 5.4041   169
 5.4141   158
 5.4241   165
 5.4341   169
 5.4441   147
 5.4541   131
 5.4641   162
 5.4741   114
 5.4841   121
 5.4941   110
 5.5041   122
 5.5141   111
 5.5241   104
 5.5341    89
 5.5441    84
 5.5541   101
 5.5641    93
 5.5741    88
 5.5841   102
 5.5941   102
 5.6041    98
 5.6141    99
 5.6241    93
 5.6341    97
 5.6441   100
 5.6541   102
 5.6641   111
 5.6741   109
 5.6841   105
 5.6941   112
 5.7041   120
 5.7141   113
 5.7241   130
 5.7341   137
 5.7441   145
 5.7541   168
 5.7641   193
 5.7741   270
 5.7841   294
 5.7941   396
 5.8041   409
 5.8141   537
 5.8241   642
 5.8341   745
 5.8441   879
 5.8541   974
 5.8641  1096
 5.8741  1158
 5.8841  1211
 5.8941  1231
 5.9041  1248
 5.9141  1173
 5.9241  1041
 5.9341   982
 5.9441   867
 5.9541   756
 5.9641   709
 5.9741   589
 5.9841   473
 5.9941   392
 6.0041   289
 6.0141   292
 6.0241   200
 6.0341   190
 6.0441   171
 6.0541   169
 6.0641   179
 6.0741   150
 6.0841   134
 6.0941   142
 6.1041   153
 6.1141   142
 6.1241   168
 6.1341   170
 6.1441   181
 6.1541   186
 6.1641   211
 6.1741   206
 6.1841   264
 6.1941   304
 6.2041   379
 6.2141   525
 6.2241   693
 6.2341   885
 6.2441  1270
 6.2541  1797
 6.2641  2572
 6.2741  3426
 6.2841  4682
 6.2941  6137
 6.3041  8023
 6.3141  9988
 6.3241 12450
 6.3341 15180
 6.3441 17600
 6.3541 20141
 6.3641 22310
 6.3741 24546
 6.3841 25948
 6.3941 26534
 6.4041 26482
 6.4141 25778
 6.4241 24193
 6.4341 22421
 6.4441 19900
 6.4541 17565
 6.4641 14753
 6.4741 12098
 6.4841  9793
 6.4941  7807
 6.5041  5950
 6.5141  4359
 6.5241  3191
 6.5341  2310
 6.5441  1645
 6.5541  1127
 6.5641   845
 6.5741   588
 6.5841   464
 6.5941   335
 6.6041   307
 6.6141   235
 6.6241   182
 6.6341   173
 6.6441   172
 6.6541   185
 6.6641   147
 6.6741   153
 6.6841   186
 6.6941   178
 6.7041   179
 6.7141   150
 6.7241   186
 6.7341   172
 6.7441   203
 6.7541   167
 6.7641   193
 6.7741   207
 6.7841   173
 6.7941   224
 6.8041   211
 6.8141   202
 6.8241   259
 6.8341   268
 6.8441   254
 6.8541   317
 6.8641   313
 6.8741   338
 6.8841   387
 6.8941   457
 6.9041   550
 6.9141   680
 6.9241   830
 6.9341  1035
 6.9441  1199
 6.9541  1467
 6.9641  1786
 6.9741  2216
 6.9841  2592
 6.9941  2970
 7.0041  3504
 7.0141  3743
 7.0241  4015
 7.0341  4323
 7.0441  4517
 7.0541  4500
 7.0641  4417
 7.0741  4408
 7.0841  4076
 7.0941  3756
 7.1041  3298
 7.1141  2948
 7.1241  2604
 7.1341  2102
 7.1441  1757
 7.1541  1451
 7.1641  1054
 7.1741   914
 7.1841   696
 7.1941   551
 7.2041   431
 7.2141   388
 7.2241   300
 7.2341   264
 7.2441   239
 7.2541   216
 7.2641   198
 7.2741   222
 7.2841   201
 7.2941   221
 7.3041   213
 7.3141   243
 7.3241   246
 7.3341   261
 7.3441   265
 7.3541   287
 7.3641   272
 7.3741   299
 7.3841   310
 7.3941   324
 7.4041   320
 7.4141   318
 7.4241   330
 7.4341   327
 7.4441   347
 7.4541   332
 7.4641   321
 7.4741   324
 7.4841   313
 7.4941   322
 7.5041   295
 7.5141   305
 7.5241   247
 7.5341   270
 7.5441   248
 7.5541   223
 7.5641   224
 7.5741   224
 7.5841   264
 7.5941   238
 7.6041   218
 7.6141   222
 7.6241   197
 7.6341   193
 7.6441   194
 7.6541   221
 7.6641   216
 7.6741   229
 7.6841   222
 7.6941   243
 7.7041   205
 7.7141   224
 7.7241   216
 7.7341   227
 7.7441   226
 7.7541   232
 7.7641   251
 7.7741   243
 7.7841   245
 7.7941   250
 7.8041   244
 7.8141   276
 7.8241   250
 7.8341   272
 7.8441   259
 7.8541   273
 7.8641   285
 7.8741   296
 7.8841   287
 7.8941   307
 7.9041   341
 7.9141   334
 7.9241   372
 7.9341   347
 7.9441   402
 7.9541   433
 7.9641   440
 7.9741   476
 7.9841   487
 7.9941   565
 8.0041   563
 8.0141   607
 8.0241   646
 8.0341   692
 8.0441   771
 8.0541   801
 8.0641   919
 8.0741   952
 8.0841   965
 8.0941  1031
 8.1041  1074
 8.1141  1148
 8.1241  1180
 8.1341  1261
 8.1441  1254
 8.1541  1303
 8.1641  1261
 8.1741  1366
 8.1841  1432
 8.1941  1425
 8.2041  1394
 8.2141  1416
 8.2241  1383
 8.2341  1489
 8.2441  1479
 8.2541  1501
 8.2641  1553
 8.2741  1677
 8.2841  1775
 8.2941  1872
 8.3041  1979
 8.3141  2118
 8.3241  2231
 8.3341  2414
 8.3441  2604
 8.3541  2688
 8.3641  2859
 8.3741  2884
 8.3841  2896
 8.3941  2913
 8.4041  2871
 8.4141  2684
 8.4241  2659
 8.4341  2333
 8.4441  2202
 8.4541  1987
 8.4641  1775
 8.4741  1555
 8.4841  1440
 8.4941  1184
 8.5041  1048
 8.5141   924
 8.5241   794
 8.5341   706
 8.5441   644
 8.5541   642
 8.5641   615
 8.5741   631
 8.5841   655
 8.5941   634
 8.6041   682
 8.6141   712
 8.6241   634
 8.6341   621
 8.6441   649
 8.6541   621
 8.6641   612
 8.6741   621
 8.6841   600
 8.6941   540
 8.7041   531
 8.7141   477
 8.7241   457
 8.7341   426
 8.7441   380
 8.7541   412
 8.7641   378
 8.7741   367
 8.7841   355
 8.7941   384
 8.8041   380
 8.8141   332
 8.8241   340
 8.8341   344
 8.8441   313
 8.8541   331
 8.8641   308
 8.8741   312
 8.8841   313
 8.8941   327
 8.9041   318
 8.9141   370
 8.9241   361
 8.9341   336
 8.9441   408
 8.9541   363
 8.9641   367
 8.9741   378
 8.9841   356
 8.9941   370
 9.0041   359
 9.0141   419
 9.0241   403
 9.0341   395
 9.0441   421
 9.0541   408
 9.0641   432
 9.0741   428
 9.0841   467
 9.0941   493
 9.1041   509
 9.1141   515
 9.1241   513
 9.1341   544
 9.1441   571
 9.1541   610
 9.1641   623
 9.1741   621
 9.1841   679
 9.1941   677
 9.2041   716
 9.2141   769
 9.2241   796
 9.2341   818
 9.2441   878
 9.2541   892
 9.2641   933
 9.2741  1032
 9.2841  1032
 9.2941  1036
 9.3041  1106
 9.3141  1186
 9.3241  1179
 9.3341  1267
 9.3441  1253
 9.3541  1290
 9.3641  1372
 9.3741  1360
 9.3841  1374
 9.3941  1405
 9.4041  1445
 9.4141  1432
 9.4241  1495
 9.4341  1479
 9.4441  1509
 9.4541  1545
 9.4641  1566
 9.4741  1578
 9.4841  1633
 9.4941  1659
 9.5041  1686
 9.5141  1782
 9.5241  1803
 9.5341  1831
 9.5441  1846
 9.5541  1946
 9.5641  2058
 9.5741  2217
 9.5841  2273
 9.5941  2384
 9.6041  2453
 9.6141  2616
 9.6241  2727
 9.6341  2848
 9.6441  3010
 9.6541  2864
 9.6641  3025
 9.6741  2939
 9.6841  2910
 9.6941  2870
 9.7041  2735
 9.7141  2617
 9.7241  2476
 9.7341  2320
 9.7441  2053
 9.7541  1995
 9.7641  1881
 9.7741  1729
 9.7841  1585
 9.7941  1498
 9.8041  1426
 9.8141  1338
 9.8241  1301
 9.8341  1270
 9.8441  1208
 9.8541  1198
 9.8641  1296
 9.8741  1229
 9.8841  1253
 9.8941  1250
 9.9041  1303
 9.9141  1310
 9.9241  1267
 9.9341  1358
 9.9441  1386
 9.9541  1356
 9.9641  1304
 9.9741  1299
 9.9841  1268
 9.9941  1194
10.0041  1113
10.0141  1061
10.0241   984
10.0341   883
10.0441   815
10.0541   723
10.0641   636
10.0741   578
10.0841   508
10.0941   440
10.1041   400
10.1141   371
10.1241   355
10.1341   363
10.1441   329
10.1541   306
10.1641   288
10.1741   271
10.1841   246
10.1941   243
10.2041   246
10.2141   231
10.2241   230
10.2341   240
10.2441   217
10.2541   226
10.2641   218
10.2741   208
10.2841   201
10.2941   183
10.3041   208
10.3141   204
10.3241   208
10.3341   187
10.3441   184
10.3541   192
10.3641   192
10.3741   197
10.3841   187
10.3941   193
10.4041   175
10.4141   175
10.4241   192
10.4341   204
10.4441   206
10.4541   192
10.4641   201
10.4741   221
10.4841   219
10.4941   192
10.5041   205
10.5141   214
10.5241   220
10.5341   212
10.5441   233
10.5541   239
10.5641   215
10.5741   208
10.5841   210
10.5941   199
10.6041   211
10.6141   212
10.6241   215
10.6341   206
10.6441   220
10.6541   254
10.6641   216
10.6741   201
10.6841   208
10.6941   225
10.7041   221
10.7141   229
10.7241   222
10.7341   229
10.7441   261
10.7541   244
10.7641   254
10.7741   265
10.7841   246
10.7941   250
10.8041   285
10.8141   278
10.8241   260
10.8341   272
10.8441   300
10.8541   274
10.8641   298
10.8741   298
10.8841   306
10.8941   307
10.9041   317
10.9141   324
10.9241   335
10.9341   327
10.9441   323
10.9541   303
10.9641   309
10.9741   324
10.9841   313
10.9941   294
11.0041   310
11.0141   293
11.0241   285
11.0341   292
11.0441   302
11.0541   294
11.0641   308
11.0741   289
11.0841   274
11.0941   266
11.1041   275
11.1141   253
11.1241   267
11.1341   301
11.1441   288
11.1541   272
11.1641   301
11.1741   335
11.1841   339
11.1941   333
11.2041   368
11.2141   377
11.2241   382
11.2341   394
11.2441   424
11.2541   419
11.2641   442
11.2741   467
11.2841   468
11.2941   434
11.3041   409
11.3141   422
11.3241   446
11.3341   374
11.3441   375
11.3541   377
11.3641   373
11.3741   356
11.3841   325
11.3941   302
11.4041   303
11.4141   278
11.4241   247
11.4341   228
11.4441   245
11.4541   233
11.4641   202
11.4741   191
11.4841   208
11.4941   199
11.5041   209
11.5141   206
11.5241   214
11.5341   221
11.5441   191
11.5541   202
11.5641   233
11.5741   234
11.5841   221
11.5941   209
11.6041   230
11.6141   231
11.6241   247
11.6341   240
11.6441   224
11.6541   218
11.6641   227
11.6741   234
11.6841   217
11.6941   231
11.7041   227
11.7141   217
11.7241   205
11.7341   201
11.7441   204
11.7541   199
11.7641   198
11.7741   186
11.7841   175
11.7941   180
11.8041   172
11.8141   165
11.8241   170
11.8341   166
11.8441   184
11.8541   194
11.8641   158
11.8741   159
11.8841   173
11.8941   187
11.9041   179
11.9141   169
11.9241   168
11.9341   172
11.9441   161
11.9541   145
11.9641   169
11.9741   168
11.9841   160
11.9941   188
12.0041   195
12.0141   195
12.0241   185
12.0341   172
12.0441   167
12.0541   159
12.0641   168
12.0741   175
12.0841   179
12.0941   175
12.1041   170
12.1141   168
12.1241   169
12.1341   179
12.1441   191
12.1541   174
12.1641   152
12.1741   158
12.1841   165
12.1941   163
12.2041   167
12.2141   166
12.2241   165
12.2341   165
12.2441   160
12.2541   153
12.2641   158
12.2741   145
12.2841   142
12.2941   153
12.3041   156
12.3141   156
12.3241   145
12.3341   136
12.3441   159
12.3541   170
12.3641   170
12.3741   147
12.3841   142
12.3941   159
12.4041   155
12.4141   152
12.4241   171
12.4341   177
12.4441   163
12.4541   170
12.4641   188
12.4741   164
12.4841   167
12.4941   170
12.5041   168
12.5141   161
12.5241   161
12.5341   172
12.5441   169
12.5541   161
12.5641   173
12.5741   173
12.5841   183
12.5941   174
12.6041   184
12.6141   195
12.6241   174
12.6341   172
12.6441   185
12.6541   183
12.6641   183
12.6741   193
12.6841   193
12.6941   177
12.7041   170
12.7141   176
12.7241   181
12.7341   184
12.7441   187
12.7541   183
12.7641   175
12.7741   176
12.7841   185
12.7941   188
12.8041   185
12.8141   178
12.8241   174
12.8341   174
12.8441   182
12.8541   192
12.8641   191
12.8741   183
12.8841   179
12.8941   175
12.9041   169
12.9141   165
12.9241   166
12.9341   173
12.9441   182
12.9541   185
12.9641   181
12.9741   181
12.9841   191
12.9941   196
13.0041   189
13.0141   196
13.0241   192
13.0341   186
13.0441   185
13.0541   199
13.0641   189
13.0741   177
13.0841   187
13.0941   198
13.1041   189
13.1141   178
13.1241   180
13.1341   188
13.1441   185
13.1541   185
13.1641   208
13.1741   209
13.1841   188
13.1941   180
13.2041   193
13.2141   196
13.2241   199
13.2341   196
13.2441   194
13.2541   192
13.2641   199
13.2741   213
13.2841   196
13.2941   183
13.3041   194
13.3141   199
13.3241   200
13.3341   209
13.3441   214
13.3541   209
13.3641   205
13.3741   208
13.3841   208
13.3941   203
13.4041   205
13.4141   219
13.4241   228
13.4341   223
13.4441   214
13.4541   217
13.4641   222
13.4741   215
13.4841   204
13.4941   202
13.5041   208
13.5141   215
13.5241   216
13.5341   209
13.5441   203
13.5541   198
13.5641   191
13.5741   196
13.5841   212
13.5941   217
13.6041   211
13.6141   208
13.6241   209
13.6341   217
13.6441   205
13.6541   204
13.6641   220
13.6741   218
13.6841   208
13.6941   221
13.7041   229
13.7141   222
13.7241   215
13.7341   209
13.7441   215
13.7541   209
13.7641   196
13.7741   213
13.7841   223
13.7941   212
13.8041   224
13.8141   222
13.8241   223
13.8341   221
13.8441   210
13.8541   221
13.8641   224
13.8741   209
13.8841   208
13.8941   214
13.9041   203
13.9141   203
13.9241   230
13.9341   222
13.9441   211
13.9541   215
13.9641   227
13.9741   230
13.9841   218
13.9941   229
14.0041   242
14.0141   248
14.0241   233
14.0341   220
14.0441   238
14.0541   250
14.0641   250
14.0741   246
14.0841   231
14.0941   239
14.1041   252
14.1141   257
14.1241   256
14.1341   256
14.1441   252
14.1541   241
14.1641   246
14.1741   254
14.1841   249
14.1941   251
14.2041   242
14.2141   241
14.2241   255
14.2341   233
14.2441   226
14.2541   237
14.2641   239
14.2741   245
14.2841   241
14.2941   238
14.3041   247
14.3141   244
14.3241   237
14.3341   251
14.3441   244
14.3541   227
14.3641   239
14.3741   257
14.3841   252
14.3941   264
14.4041   273
14.4141   251
14.4241   248
14.4341   237
14.4441   233
14.4541   246
14.4641   238
14.4741   241
14.4841   241
14.4941   244
14.5041   259
14.5141   246
14.5241   243
14.5341   251
14.5441   248
14.5541   255
14.5641   255
14.5741   265
14.5841   268
14.5941   252
14.6041   242
14.6141   256
14.6241   245
14.6341   255
14.6441   271
14.6541   244
14.6641   247
14.6741   250
14.6841   243
14.6941   250
14.7041   265
14.7141   269
14.7241   253
14.7341   261
14.7441   277
14.7541   271
14.7641   267
14.7741   273
14.7841   266
14.7941   260
14.8041   269
14.8141   273
14.8241   294
14.8341   291
14.8441   279
14.8541   271
14.8641   267
14.8741   279
14.8841   275
14.8941   289
14.9041   288
14.9141   294
14.9241   301
14.9341   297
14.9441   289
14.9541   274
14.9641   270
14.9741   287
14.9841   286
14.9941   283
15.0041   290
15.0141   276
15.0241   257
15.0341   257
15.0441   288
15.0541   312
15.0641   283
15.0741   272
15.0841   274
15.0941   257
15.1041   276
15.1141   300
15.1241   298
15.1341   285
15.1441   271
15.1541   284
15.1641   289
15.1741   281
15.1841   263
15.1941   302
15.2041   300
15.2141   271
15.2241   264
15.2341   277
15.2441   282
15.2541   285
15.2641   282
15.2741   285
15.2841   286
15.2941   259
15.3041   255
15.3141   266
15.3241   277
15.3341   278
15.3441   271
15.3541   279
15.3641   279
15.3741   281
15.3841   299
15.3941   291
15.4041   276
15.4141   287
15.4241   299
15.4341   287
15.4441   282
15.4541   287
15.4641   272
15.4741   276
15.4841   309
15.4941   304
15.5041   289
15.5141   295
15.5241   294
15.5341   291
15.5441   307
15.5541   289
15.5641   290
15.5741   325
15.5841   333
15.5941   314
15.6041   312
15.6141   328
15.6241   350
15.6341   352
15.6441   340
15.6541   343
15.6641   361
15.6741   394
15.6841   415
15.6941   409
15.7041   382
15.7141   349
15.7241   383
15.7341   402
15.7441   398
15.7541   412
15.7641   416
15.7741   416
15.7841   394
15.7941   369
15.8041   402
15.8141   390
15.8241   395
15.8341   372
15.8441   341
15.8541   330
15.8641   330
15.8741   336
15.8841   354
15.8941   334
15.9041   332
15.9141   331
15.9241   334
15.9341   329
15.9441   332
15.9541   329
15.9641   325
15.9741   339
15.9841   326
15.9941   294
16.0041   308
16.0141   319
16.0241   304
16.0341   310
16.0441   312
16.0541   317
16.0641   329
16.0741   311
16.0841   292
16.0941   313
16.1041   322
16.1141   338
16.1241   337
16.1341   318
16.1441   315
16.1541   323
16.1641   327
16.1741   330
16.1841   322
16.1941   323
16.2041   337
16.2141   334
16.2241   338
16.2341   327
16.2441   300
16.2541   318
16.2641   357
16.2741   340
16.2841   325
16.2941   300
16.3041   321
16.3141   332
16.3241   314
16.3341   330
16.3441   360
16.3541   347
16.3641   338
16.3741   335
16.3841   360
16.3941   338
16.4041   317
16.4141   332
16.4241   334
16.4341   350
16.4441   349
16.4541   337
16.4641   333
16.4741   316
16.4841   336
16.4941   339
16.5041   351
16.5141   380
16.5241   377
16.5341   362
16.5441   350
16.5541   366
16.5641   360
16.5741   361
16.5841   314
16.5941   314
16.6041   338
16.6141   345
16.6241   335
16.6341   332
16.6441   353
16.6541   357
16.6641   361
16.6741   321
16.6841   368
16.6941   375
16.7041   363
16.7141   364
16.7241   362
16.7341   341
16.7441   379
16.7541   371
16.7641   376
16.7741   397
16.7841   372
16.7941   336
16.8041   352
16.8141   384
16.8241   368
16.8341   336
16.8441   356
16.8541   357
16.8641   360
16.8741   371
16.8841   370
16.8941   372
16.9041   372
16.9141   363
16.9241   347
16.9341   351
16.9441   337
16.9541   349
16.9641   357
16.9741   355
16.9841   355
16.9941   365
17.0041   362
17.0141   377
17.0241   379
17.0341   362
17.0441   340
17.0541   384
17.0641   379
17.0741   359
17.0841   378
17.0941   383
17.1041   383
17.1141   384
17.1241   388
17.1341   375
17.1441   357
17.1541   347
17.1641   349
17.1741   388
17.1841   370
17.1941   367
17.2041   364
17.2141   368
17.2241   366
17.2341   354
17.2441   375
17.2541   379
17.2641   384
17.2741   403
17.2841   375
17.2941   387
17.3041   384
17.3141   372
17.3241   367
17.3341   392
17.3441   384
17.3541   372
17.3641   375
17.3741   390
17.3841   380
17.3941   397
17.4041   390
17.4141   392
17.4241   428
17.4341   408
17.4441   386
17.4541   387
17.4641   410
17.4741   416
17.4841   414
17.4941   374
17.5041   400
17.5141   393
17.5241   394
17.5341   407
17.5441   398
17.5541   417
17.5641   412
17.5741   405
17.5841   397
17.5941   401
17.6041   384
17.6141   393
17.6241   404
17.6341   401
17.6441   401
17.6541   415
17.6641   412
17.6741   400
17.6841   412
17.6941   412
17.7041   443
17.7141   405
17.7241   426
17.7341   421
17.7441   401
17.7541   396
17.7641   388
17.7741   408
17.7841   395
17.7941   381
17.8041   378
17.8141   404
17.8241   422
17.8341   406
17.8441   422
17.8541   388
17.8641   407
17.8741   419
17.8841   423
17.8941   421
17.9041   420
17.9141   401
17.9241   430
17.9341   430
17.9441   418
17.9541   422
17.9641   425
17.9741   414
17.9841   408
17.9941   431
18.0041   420
18.0141   407
18.0241   424
18.0341   433
18.0441   459
18.0541   413
18.0641   408
18.0741   443
18.0841   454
18.0941   410
18.1041   405
18.1141   414
18.1241   448
18.1341   456
18.1441   434
18.1541   426
18.1641   421
18.1741   432
18.1841   433
18.1941   445
18.2041   453
18.2141   407
18.2241   424
18.2341   429
18.2441   463
18.2541   444
18.2641   422
18.2741   443
18.2841   455
18.2941   446
18.3041   442
18.3141   449
18.3241   456
18.3341   417
18.3441   439
18.3541   431
18.3641   453
18.3741   447
18.3841   437
18.3941   476
18.4041   452
18.4141   442
18.4241   439
18.4341   451
18.4441   434
18.4541   433
18.4641   454
18.4741   441
18.4841   443
18.4941   426
18.5041   445
18.5141   448
18.5241   467
18.5341   462
18.5441   451
18.5541   461
18.5641   471
18.5741   468
18.5841   423
18.5941   464
18.6041   433
18.6141   419
18.6241   428
18.6341   437
18.6441   433
18.6541   433
18.6641   485
18.6741   489
18.6841   446
18.6941   442
18.7041   444
18.7141   446
18.7241   474
18.7341   467
18.7441   436
18.7541   453
18.7641   430
18.7741   428
18.7841   483
18.7941   451
18.8041   441
18.8141   471
18.8241   463
18.8341   489
18.8441   452
18.8541   455
18.8641   457
18.8741   438
18.8841   453
18.8941   474
18.9041   467
18.9141   486
18.9241   479
18.9341   468
18.9441   482
18.9541   448
18.9641   454
18.9741   434
18.9841   485
18.9941   449
19.0041   459
19.0141   495
19.0241   472
19.0341   466
19.0441   468
19.0541   470
19.0641   498
19.0741   477
19.0841   462
19.0941   468
19.1041   456
19.1141   459
19.1241   492
19.1341   484
19.1441   482
19.1541   493
19.1641   486
19.1741   465
19.1841   464
19.1941   482
19.2041   462
19.2141   466
19.2241   451
19.2341   457
19.2441   476
19.2541   483
19.2641   464
19.2741   460
19.2841   437
19.2941   463
19.3041   468
19.3141   479
19.3241   486
19.3341   470
19.3441   499
19.3541   471
19.3641   483
19.3741   485
19.3841   477
19.3941   457
19.4041   472
19.4141   471
19.4241   484
19.4341   470
19.4441   474
19.4541   466
19.4641   457
19.4741   495
19.4841   534
19.4941   475
19.5041   475
19.5141   530
19.5241   503
19.5341   484
19.5441   508
19.5541   462
19.5641   485
19.5741   476
19.5841   474
19.5941   530
19.6041   472
19.6141   488
19.6241   489
19.6341   494
19.6441   528
19.6541   504
19.6641   554
19.6741   486
19.6841   491
19.6941   504
19.7041   539
19.7141   494
19.7241   503
19.7341   461
19.7441   493
19.7541   499
19.7641   513
19.7741   485
19.7841   509
19.7941   498
19.8041   482
19.8141   469
19.8241   490
19.8341   527
19.8441   461
19.8541   502
19.8641   528
19.8741   493
19.8841   489
19.8941   470
19.9041   492
19.9141   487
19.9241   508
19.9341   521
19.9441   509
19.9541   470
19.9641   442
19.9741   498
19.9841   485
19.9941   501
20.0041   509
20.0141   521
20.0241   483
20.0341   507
20.0441   517
20.0541   480
20.0641   503
20.0741   473
20.0841   516
20.0941   508
20.1041   512
20.1141   504
20.1241   500
20.1341   509
20.1441   540
20.1541   489
20.1641   467
20.1741   502
20.1841   555
20.1941   475
20.2041   537
20.2141   515
20.2241   494
20.2341   495
20.2441   516
20.2541   500
20.2641   530
20.2741   510
20.2841   545
20.2941   498
20.3041   512
20.3141   485
20.3241   532
20.3341   500
20.3441   506
20.3541   503
20.3641   503
20.3741   536
20.3841   500
20.3941   526
20.4041   496
20.4141   514
20.4241   493
20.4341   518
20.4441   490
20.4541   509
20.4641   476
20.4741   540
20.4841   513
20.4941   502
20.5041   516
20.5141   507
20.5241   524
20.5341   501
20.5441   514
20.5541   497
20.5641   531
20.5741   495
20.5841   498
20.5941   527
20.6041   497
20.6141   499
20.6241   475
20.6341   488
20.6441   466
20.6541   515
20.6641   543
20.6741   537
20.6841   485
20.6941   492
20.7041   548
20.7141   500
20.7241   518
20.7341   508
20.7441   512
20.7541   497
20.7641   515
20.7741   502
20.7841   557
20.7941   539
20.8041   527
20.8141   538
20.8241   544
20.8341   586
20.8441   566
20.8541   553
20.8641   553
20.8741   583
20.8841   594
20.8941   602
20.9041   569
20.9141   609
20.9241   603
20.9341   628
20.9441   655
20.9541   629
20.9641   649
20.9741   652
20.9841   651
20.9941   645
21.0041   666
21.0141   704
21.0241   747
21.0341   721
21.0441   798
21.0541   715
21.0641   735
21.0741   745
21.0841   767
21.0941   756
21.1041   776
21.1141   798
21.1241   821
21.1341   808
21.1441   790
21.1541   790
21.1641   754
21.1741   751
21.1841   806
21.1941   742
21.2041   746
21.2141   717
21.2241   730
21.2341   713
21.2441   686
21.2541   701
21.2641   723
21.2741   636
21.2841   685
21.2941   621
21.3041   624
21.3141   621
21.3241   562
21.3341   622
21.3441   564
21.3541   578
21.3641   529
21.3741   546
21.3841   554
21.3941   537
21.4041   527
21.4141   514
21.4241   535
21.4341   510
21.4441   513
21.4541   519
21.4641   496
21.4741   519
21.4841   561
21.4941   520
21.5041   522
21.5141   489
21.5241   576
21.5341   520
21.5441   539
21.5541   517
21.5641   515
21.5741   525
21.5841   533
21.5941   529
21.6041   533
21.6141   508
21.6241   518
21.6341   511
21.6441   507
21.6541   490
21.6641   513
21.6741   558
21.6841   495
21.6941   515
21.7041   496
21.7141   515
21.7241   531
21.7341   493
21.7441   504
21.7541   549
21.7641   539
21.7741   529
21.7841   518
21.7941   532
21.8041   538
21.8141   487
21.8241   547
21.8341   514
21.8441   522
21.8541   561
21.8641   535
21.8741   507
21.8841   497
21.8941   525
21.9041   515
21.9141   528
21.9241   536
21.9341   514
21.9441   540
21.9541   521
21.9641   522
21.9741   521
21.9841   523
21.9941   534
22.0041   525
22.0141   504
22.0241   493
22.0341   521
22.0441   499
22.0541   543
22.0641   540
22.0741   522
22.0841   523
22.0941   529
22.1041   488
22.1141   559
22.1241   548
22.1341   526
22.1441   524
22.1541   507
22.1641   535
22.1741   463
22.1841   512
22.1941   490
22.2041   510
22.2141   516
22.2241   484
22.2341   525
22.2441   524
22.2541   500
22.2641   493
22.2741   532
22.2841   518
22.2941   575
22.3041   512
22.3141   520
22.3241   510
22.3341   497
22.3441   527
22.3541   500
22.3641   525
22.3741   517
22.3841   519
22.3941   520
22.4041   522
22.4141   546
22.4241   504
22.4341   515
22.4441   543
22.4541   551
22.4641   502
22.4741   530
22.4841   509
22.4941   534
22.5041   530
22.5141   501
22.5241   484
22.5341   516
22.5441   502
22.5541   478
22.5641   503
22.5741   521
22.5841   516
22.5941   503
22.6041   547
22.6141   578
22.6241   511
22.6341   510
22.6441   505
22.6541   528
22.6641   535
22.6741   510
22.6841   500
22.6941   495
22.7041   559
22.7141   523
22.7241   520
22.7341   526
22.7441   531
22.7541   530
22.7641   527
22.7741   539
22.7841   534
22.7941   538
22.8041   490
22.8141   507
22.8241   489
22.8341   547
22.8441   523
22.8541   519
22.8641   519
22.8741   491
22.8841   507
22.8941   536
22.9041   484
22.9141   491
22.9241   519
22.9341   537
22.9441   524
22.9541   527
22.9641   502
22.9741   477
22.9841   490
22.9941   520
23.0041   508
23.0141   528
23.0241   496
23.0341   487
23.0441   521
23.0541   498
23.0641   496
23.0741   534
23.0841   473
23.0941   512
23.1041   517
23.1141   479
23.1241   527
23.1341   536
23.1441   461
23.1541   512
23.1641   545
23.1741   515
23.1841   524
23.1941   502
23.2041   507
23.2141   545
23.2241   552
23.2341   521
23.2441   528
23.2541   544
23.2641   517
23.2741   474
23.2841   493
23.2941   518
23.3041   462
23.3141   492
23.3241   483
23.3341   529
23.3441   481
23.3541   489
23.3641   531
23.3741   456
23.3841   489
23.3941   521
23.4041   511
23.4141   512
23.4241   520
23.4341   509
23.4441   509
23.4541   475
23.4641   494
23.4741   502
23.4841   493
23.4941   483
23.5041   465
23.5141   543
23.5241   529
23.5341   518
23.5441   497
23.5541   505
23.5641   534
23.5741   520
23.5841   519
23.5941   504
23.6041   477
23.6141   504
23.6241   493
23.6341   534
23.6441   470
23.6541   527
23.6641   525
23.6741   545
23.6841   534
23.6941   540
23.7041   515
23.7141   556
23.7241   532
23.7341   568
23.7441   515
23.7541   507
23.7641   552
23.7741   551
23.7841   543
23.7941   546
23.8041   571
23.8141   587
23.8241   523
23.8341   555
23.8441   566
23.8541   559
23.8641   489
23.8741   511
23.8841   518
23.8941   558
23.9041   493
23.9141   558
23.9241   516
23.9341   463
23.9441   501
23.9541   530
23.9641   504
23.9741   530
23.9841   492
23.9941   483
24.0041   484
24.0141   505
24.0241   481
24.0341   496
24.0441   503
24.0541   518
24.0641   497
24.0741   476
24.0841   505
24.0941   465
24.1041   453
24.1141   463
24.1241   479
24.1341   496
24.1441   496
24.1541   493
24.1641   470
24.1741   464
24.1841   477
24.1941   521
24.2041   503
24.2141   465
24.2241   525
24.2341   482
24.2441   519
24.2541   496
24.2641   508
24.2741   514
24.2841   466
24.2941   462
24.3041   487
24.3141   489
24.3241   515
24.3341   494
24.3441   524
24.3541   437
24.3641   515
24.3741   491
24.3841   479
24.3941   464
24.4041   507
24.4141   466
24.4241   483
24.4341   476
24.4441   477
24.4541   468
24.4641   505
24.4741   454
24.4841   492
24.4941   517
24.5041   453
24.5141   494
24.5241   477
24.5341   469
24.5441   448
24.5541   480
24.5641   451
24.5741   458
24.5841   453
24.5941   480
24.6041   489
24.6141   511
24.6241   451
24.6341   458
24.6441   471
24.6541   476
24.6641   462
24.6741   475
24.6841   472
24.6941   473
24.7041   468
24.7141   458
24.7241   506
24.7341   474
24.7441   434
24.7541   478
24.7641   484
24.7741   504
24.7841   500
24.7941   502
24.8041   455
24.8141   459
24.8241   467
24.8341   451
24.8441   400
24.8541   474
24.8641   471
24.8741   500
24.8841   445
24.8941   462
24.9041   475
24.9141   489
24.9241   448
24.9341   477
24.9441   484
24.9541   468
24.9641   477
24.9741   474
24.9841   472
24.9941   437
25.0041   485
25.0141   507
25.0241   504
25.0341   478
25.0441   517
25.0541   512
25.0641   474
25.0741   483
25.0841   504
25.0941   452
25.1041   458
25.1141   465
25.1241   417
25.1341   453
25.1441   502
25.1541   484
25.1641   507
25.1741   485
25.1841   460
25.1941   461
25.2041   461
25.2141   418
25.2241   462
25.2341   437
25.2441   461
25.2541   468
25.2641   464
25.2741   483
25.2841   482
25.2941   519
25.3041   491
25.3141   474
25.3241   461
25.3341   453
25.3441   463
25.3541   461
25.3641   487
25.3741   436
25.3841   471
25.3941   481
25.4041   448
25.4141   442
25.4241   440
25.4341   475
25.4441   461
25.4541   452
25.4641   435
25.4741   436
25.4841   457
25.4941   460
25.5041   447
25.5141   449
25.5241   443
25.5341   441
25.5441   452
25.5541   465
25.5641   428
25.5741   442
25.5841   440
25.5941   456
25.6041   445
25.6141   481
25.6241   457
25.6341   494
25.6441   468
25.6541   454
25.6641   452
25.6741   440
25.6841   482
25.6941   448
25.7041   449
25.7141   462
25.7241   416
25.7341   424
25.7441   457
25.7541   404
25.7641   446
25.7741   422
25.7841   435
25.7941   472
25.8041   455
25.8141   422
25.8241   439
25.8341   413
25.8441   458
25.8541   463
25.8641   432
25.8741   420
25.8841   393
25.8941   415
25.9041   435
25.9141   438
25.9241   445
25.9341   444
25.9441   444
25.9541   453
25.9641   417
25.9741   427
25.9841   437
25.9941   465
26.0041   410
26.0141   429
26.0241   444
26.0341   400
26.0441   405
26.0541   404
26.0641   401
26.0741   455
26.0841   438
26.0941   417
26.1041   413
26.1141   441
26.1241   433
26.1341   410
26.1441   418
26.1541   419
26.1641   418
26.1741   441
26.1841   446
26.1941   404
26.2041   416
26.2141   421
26.2241   430
26.2341   414
26.2441   411
26.2541   397
26.2641   394
26.2741   415
26.2841   397
26.2941   432
26.3041   398
26.3141   393
26.3241   407
26.3341   415
26.3441   451
26.3541   406
26.3641   450
26.3741   423
26.3841   415
26.3941   428
26.4041   428
26.4141   428
26.4241   419
26.4341   414
26.4441   400
26.4541   395
26.4641   420
26.4741   428
26.4841   400
26.4941   389
26.5041   394
26.5141   397
26.5241   382
26.5341   395
26.5441   405
26.5541   420
26.5641   379
26.5741   419
26.5841   397
26.5941   419
26.6041   435
26.6141   409
26.6241   380
26.6341   406
26.6441   406
26.6541   431
26.6641   457
26.6741   388
26.6841   390
26.6941   389
26.7041   400
26.7141   387
26.7241   420
26.7341   391
26.7441   412
26.7541   413
26.7641   389
26.7741   390
26.7841   398
26.7941   416
26.8041   409
26.8141   414
26.8241   402
26.8341   388
26.8441   393
26.8541   394
26.8641   400
26.8741   416
26.8841   404
26.8941   400
26.9041   385
26.9141   399
26.9241   407
26.9341   366
26.9441   388
26.9541   406
26.9641   383
26.9741   366
26.9841   408
26.9941   400
27.0041   401
27.0141   377
27.0241   402
27.0341   399
27.0441   403
27.0541   414
27.0641   369
27.0741   390
27.0841   403
27.0941   387
27.1041   401
27.1141   365
27.1241   394
27.1341   400
27.1441   404
27.1541   404
27.1641   354
27.1741   376
27.1841   375
27.1941   369
27.2041   354
27.2141   398
27.2241   363
27.2341   334
27.2441   373
27.2541   359
27.2641   379
27.2741   373
27.2841   374
27.2941   357
27.3041   393
27.3141   370
27.3241   382
27.3341   338
27.3441   394
27.3541   386
27.3641   412
27.3741   387
27.3841   392
27.3941   389
27.4041   385
27.4141   370
27.4241   387
27.4341   367
27.4441   377
27.4541   394
27.4641   364
27.4741   406
27.4841   372
27.4941   366
27.5041   404
27.5141   394
27.5241   364
27.5341   370
27.5441   364
27.5541   342
27.5641   364
27.5741   338
27.5841   404
27.5941   362
27.6041   388
27.6141   372
27.6241   353
27.6341   352
27.6441   394
27.6541   380
27.6641   356
27.6741   362
27.6841   336
27.6941   378
27.7041   362
27.7141   376
27.7241   408
27.7341   358
27.7441   346
27.7541   357
27.7641   390
27.7741   337
27.7841   340
27.7941   351
27.8041   356
27.8141   359
27.8241   333
27.8341   333
27.8441   373
27.8541   340
27.8641   360
27.8741   349
27.8841   388
27.8941   325
27.9041   364
27.9141   361
27.9241   362
27.9341   359
27.9441   339
27.9541   380
27.9641   342
27.9741   381
27.9841   359
27.9941   363
28.0041   348
28.0141   361
28.0241   367
28.0341   341
28.0441   350
28.0541   338
28.0641   345
28.0741   367
28.0841   379
28.0941   362
28.1041   354
28.1141   326
28.1241   338
28.1341   364
28.1441   346
28.1541   360
28.1641   326
28.1741   353
28.1841   362
28.1941   324
28.2041   332
28.2141   340
28.2241   340
28.2341   349
28.2441   327
28.2541   338
28.2641   338
28.2741   366
28.2841   338
28.2941   334
28.3041   330
28.3141   355
28.3241   330
28.3341   332
28.3441   326
28.3541   318
28.3641   305
28.3741   320
28.3841   324
28.3941   367
28.4041   358
28.4141   315
28.4241   317
28.4341   359
28.4441   331
28.4541   317
28.4641   303
28.4741   335
28.4841   348
28.4941   343
28.5041   331
28.5141   327
28.5241   362
28.5341   347
28.5441   329
28.5541   316
28.5641   344
28.5741   338
28.5841   349
28.5941   330
28.6041   334
28.6141   332
28.6241   351
28.6341   329
28.6441   352
28.6541   316
28.6641   315
28.6741   325
28.6841   329
28.6941   339
28.7041   326
28.7141   317
28.7241   298
28.7341   332
28.7441   301
28.7541   321
28.7641   313
28.7741   319
28.7841   314
28.7941   353
28.8041   315
28.8141   321
28.8241   306
28.8341   310
28.8441   309
28.8541   330
28.8641   329
28.8741   320
28.8841   300
28.8941   295
28.9041   300
28.9141   323
28.9241   319
28.9341   301
28.9441   305
28.9541   307
28.9641   305
28.9741   299
28.9841   319
28.9941   344
29.0041   296
29.0141   295
29.0241   313
29.0341   287
29.0441   284
29.0541   279
29.0641   304
29.0741   311
29.0841   284
29.0941   299
29.1041   323
29.1141   310
29.1241   302
29.1341   336
29.1441   294
29.1541   295
29.1641   284
29.1741   289
29.1841   301
29.1941   291
29.2041   309
29.2141   283
29.2241   306
29.2341   297
29.2441   328
29.2541   313
29.2641   284
29.2741   305
29.2841   306
29.2941   277
29.3041   289
29.3141   295
29.3241   282
29.3341   314
29.3441   294
29.3541   283
29.3641   295
29.3741   299
29.3841   297
29.3941   286
29.4041   275
29.4141   273
29.4241   322
29.4341   300
29.4441   282
29.4541   312
29.4641   305
29.4741   256
29.4841   293
29.4941   295
29.5041   268
29.5141   289
29.5241   284
29.5341   270
29.5441   283
29.5541   283
29.5641   296
29.5741   277
29.5841   279
29.5941   301
29.6041   285
29.6141   285
29.6241   264
29.6341   305
29.6441   293
29.6541   286
29.6641   288
29.6741   280
29.6841   288
29.6941   281
29.7041   284
29.7141   261
29.7241   276
29.7341   279
29.7441   273
29.7541   284
29.7641   280
29.7741   272
29.7841   290
29.7941   271
29.8041   240
29.8141   274
29.8241   254
29.8341   283
29.8441   280
29.8541   310
29.8641   287
29.8741   256
29.8841   273
29.8941   265
29.9041   232
29.9141   262
29.9241   313
29.9341   285
29.9441   275
29.9541   270
29.9641   295
29.9741   281
29.9841   279
29.9941   261
30.0041   276
30.0141   296
30.0241   282
30.0341   269
30.0441   252
30.0541   232
30.0641   269
30.0741   262
30.0841   270
30.0941   276
30.1041   282
30.1141   255
30.1241   227
30.1341   245
30.1441   278
30.1541   263
30.1641   277
30.1741   271
30.1841   236
30.1941   279
30.2041   287
30.2141   261
30.2241   284
30.2341   259
30.2441   285
30.2541   287
30.2641   254
30.2741   258
30.2841   272
30.2941   254
30.3041   260
30.3141   254
30.3241   242
30.3341   257
30.3441   274
30.3541   275
30.3641   243
30.3741   257
30.3841   236
30.3941   266
30.4041   279
30.4141   253
30.4241   227
30.4341   257
30.4441   261
30.4541   250
30.4641   215
30.4741   251
30.4841   265
30.4941   256
30.5041   259
30.5141   252
30.5241   242
30.5341   259
30.5441   266
30.5541   236
30.5641   238
30.5741   226
30.5841   229
30.5941   234
30.6041   217
30.6141   255
30.6241   222
30.6341   249
30.6441   237
30.6541   251
30.6641   253
30.6741   272
30.6841   231
30.6941   233
30.7041   248
30.7141   246
30.7241   235
30.7341   234
30.7441   250
30.7541   236
30.7641   222
30.7741   242
30.7841   253
30.7941   237
30.8041   273
30.8141   231
30.8241   240
30.8341   229
30.8441   255
30.8541   270
30.8641   245
30.8741   242
30.8841   256
30.8941   235
30.9041   231
30.9141   244
30.9241   241
30.9341   225
30.9441   229
30.9541   264
30.9641   244
30.9741   257
30.9841   271
30.9941   243
31.0041   225
31.0141   244
31.0241   252
31.0341   236
31.0441   241
31.0541   216
31.0641   243
31.0741   235
31.0841   218
31.0941   241
31.1041   244
31.1141   227
31.1241   236
31.1341   218
31.1441   209
31.1541   210
31.1641   215
31.1741   256
31.1841   221
31.1941   225
31.2041   234
31.2141   220
31.2241   187
31.2341   209
31.2441   225
31.2541   216
31.2641   216
31.2741   224
31.2841   190
31.2941   210
31.3041   234
31.3141   205
31.3241   220
31.3341   235
31.3441   237
31.3541   231
31.3641   238
31.3741   214
31.3841   237
31.3941   220
31.4041   214
31.4141   226
31.4241   217
31.4341   209
31.4441   227
31.4541   222
31.4641   236
31.4741   227
31.4841   218
31.4941   232
31.5041   197
31.5141   212
31.5241   221
31.5341   214
31.5441   233
31.5541   230
31.5641   224
31.5741   208
31.5841   202
31.5941   226
31.6041   201
31.6141   214
31.6241   221
31.6341   205
31.6441   203
31.6541   208
31.6641   203
31.6741   221
31.6841   219
31.6941   218
31.7041   223
31.7141   195
31.7241   224
31.7341   200
31.7441   198
31.7541   216
31.7641   198
31.7741   207
31.7841   217
31.7941   221
31.8041   208
31.8141   222
31.8241   218
31.8341   210
31.8441   195
31.8541   205
31.8641   223
31.8741   227
31.8841   209
31.8941   208
31.9041   217
31.9141   204
31.9241   206
31.9341   196
31.9441   223
31.9541   201
31.9641   193
31.9741   198
31.9841   210
31.9941   181
32.0041   172
32.0141   184
32.0241   185
32.0341   219
32.0441   209
32.0541   209
32.0641   209
32.0741   182
32.0841   204
32.0941   224
32.1041   194
32.1141   187
32.1241   199
32.1341   219
32.1441   184
32.1541   202
32.1641   189
32.1741   205
32.1841   212
32.1941   204
32.2041   185
32.2141   193
32.2241   184
32.2341   185
32.2441   192
32.2541   185
32.2641   228
32.2741   184
32.2841   207
32.2941   196
32.3041   188
32.3141   205
32.3241   179
32.3341   184
32.3441   215
32.3541   174
32.3641   186
32.3741   176
32.3841   192
32.3941   168
32.4041   180
32.4141   188
32.4241   189
32.4341   186
32.4441   196
32.4541   191
32.4641   187
32.4741   181
32.4841   209
32.4941   186
32.5041   189
32.5141   178
32.5241   193
32.5341   184
32.5441   177
32.5541   185
32.5641   194
32.5741   173
32.5841   165
32.5941   200
32.6041   199
32.6141   189
32.6241   190
32.6341   177
32.6441   208
32.6541   187
32.6641   167
32.6741   190
32.6841   176
32.6941   171
32.7041   176
32.7141   170
32.7241   168
32.7341   177
32.7441   166
32.7541   181
32.7641   166
32.7741   161
32.7841   169
32.7941   173
32.8041   149
32.8141   168
32.8241   171
32.8341   162
32.8441   159
32.8541   199
32.8641   185
32.8741   175
32.8841   164
32.8941   176
32.9041   188
32.9141   186
32.9241   175
32.9341   178
32.9441   155
32.9541   174
32.9641   158
32.9741   181
32.9841   173
32.9941   187
33.0041   184
33.0141   183
33.0241   182
33.0341   180
33.0441   161
33.0541   172
33.0641   166
33.0741   169
33.0841   149
33.0941   168
33.1041   167
33.1141   153
33.1241   170
33.1341   150
33.1441   179
33.1541   152
33.1641   160
33.1741   172
33.1841   172
33.1941   168
33.2041   164
33.2141   155
33.2241   156
33.2341   149
33.2441   161
33.2541   170
33.2641   154
33.2741   170
33.2841   172
33.2941   153
33.3041   140
33.3141   162
33.3241   154
33.3341   157
33.3441   159
33.3541   147
33.3641   162
33.3741   154
33.3841   148
33.3941   162
33.4041   174
33.4141   142
33.4241   152
33.4341   169
33.4441   154
33.4541   151
33.4641   173
33.4741   162
33.4841   161
33.4941   166
33.5041   168
33.5141   170
33.5241   158
33.5341   141
33.5441   170
33.5541   168
33.5641   153
33.5741   160
33.5841   153
33.5941   148
33.6041   153
33.6141   143
33.6241   146
33.6341   157
33.6441   149
33.6541   158
33.6641   134
33.6741   129
33.6841   170
33.6941   157
33.7041   152
33.7141   175
33.7241   157
33.7341   150
33.7441   149
33.7541   149
33.7641   160
33.7741   149
33.7841   154
33.7941   149
33.8041   159
33.8141   153
33.8241   143
33.8341   151
33.8441   155
33.8541   150
33.8641   147
33.8741   169
33.8841   151
33.8941   156
33.9041   153
33.9141   163
33.9241   138
33.9341   119
33.9441   141
33.9541   147
33.9641   144
33.9741   133
33.9841   130
33.9941   136
34.0041   132
34.0141   150
34.0241   132
34.0341   159
34.0441   137
34.0541   139
34.0641   126
34.0741   143
34.0841   140
34.0941   131
34.1041   155
34.1141   151
34.1241   150
34.1341   146
34.1441   121
34.1541   147
34.1641   142
34.1741   145
34.1841   148
34.1941   148
34.2041   139
34.2141   145
34.2241   112
34.2341   131
34.2441   128
34.2541   114
34.2641   128
34.2741   130
34.2841   146
34.2941   136
34.3041   137
34.3141   139
34.3241   135
34.3341   132
34.3441   150
34.3541   129
34.3641   137
34.3741   144
34.3841   139
34.3941   131
34.4041   135
34.4141   132
34.4241   107
34.4341   126
34.4441   148
34.4541   123
34.4641   117
34.4741   121
34.4841   119
34.4941   128
34.5041   113
34.5141   119
34.5241   126
34.5341   111
34.5441   130
34.5541   122
34.5641   149
34.5741   127
34.5841   144
34.5941   121
34.6041   123
34.6141   126
34.6241   108
34.6341   126
34.6441   146
34.6541   124
34.6641   119
34.6741   113
34.6841   127
34.6941   125
34.7041   125
34.7141   131
34.7241   121
34.7341   123
34.7441   122
34.7541   121
34.7641   112
34.7741   124
34.7841   118
34.7941   149
34.8041   141
34.8141   134
34.8241   127
34.8341   111
34.8441   132
34.8541    96
34.8641   121
34.8741   114
34.8841   121
34.8941   136
34.9041   137
34.9141   124
34.9241   116
34.9341   128
34.9441   125
34.9541   111
34.9641   130
34.9741   107
34.9841   107
34.9941   131
35.0041   111
35.0141   115
35.0241   106
35.0341   102
35.0441   113
35.0541   131
35.0641   118
35.0741   128
35.0841    92
35.0941   119
35.1041    97
35.1141    93
35.1241   124
35.1341   125
35.1441   109
35.1541   107
35.1641   120
35.1741   110
35.1841   108
35.1941   107
35.2041   120
35.2141   117
35.2241    98
35.2341   129
35.2441   125
35.2541   117
35.2641   115
35.2741   117
35.2841    99
35.2941    85
35.3041   114
35.3141   104
35.3241   109
35.3341   133
35.3441   108
35.3541   104
35.3641   118
35.3741   116
35.3841   110
35.3941   111
35.4041   109
35.4141   106
35.4241   112
35.4341   109
35.4441   102
35.4541   112
35.4641   119
35.4741   121
35.4841   113
35.4941    91
35.5041   103
35.5141   102
35.5241   104
35.5341    88
35.5441   108
35.5541   118
35.5641   112
35.5741   107
35.5841    83
35.5941   100
35.6041    87
35.6141    85
35.6241   110
35.6341   123
35.6441    78
35.6541   102
35.6641   112
35.6741   102
35.6841    97
35.6941    78
35.7041    91
35.7141    99
35.7241    81
35.7341   109
35.7441   135
35.7541   101
35.7641    90
35.7741   109
35.7841   112
35.7941    96
35.8041   104
35.8141   105
35.8241   114
35.8341    91
35.8441   100
35.8541    83
35.8641    98
35.8741    98
35.8841   109
35.8941    99
35.9041   109
35.9141    86
35.9241    93
35.9341   102
35.9441    98
35.9541   109
35.9641   111
35.9741   127
35.9841    94
35.9941    88
36.0041   109
36.0141    91
36.0241   100
36.0341    86
36.0441    99
36.0541    80
36.0641    94
36.0741    96
36.0841    90
36.0941    99
36.1041    93
36.1141    85
36.1241    89
36.1341    89
36.1441   102
36.1541   102
36.1641    98
36.1741    94
36.1841   101
36.1941    87
36.2041    76
36.2141    98
36.2241    88
36.2341   103
36.2441    85
36.2541    83
36.2641    94
36.2741    84
36.2841   100
36.2941    88
36.3041    93
36.3141    87
36.3241    83
36.3341    76
36.3441    94
36.3541    86
36.3641    95
36.3741    73
36.3841    71
36.3941   106
36.4041    96
36.4141    94
36.4241    75
36.4341    95
36.4441   105
36.4541    80
36.4641   106
36.4741    72
36.4841    72
36.4941    71
36.5041    92
36.5141    71
36.5241    77
36.5341    83
36.5441    91
36.5541    80
36.5641    79
36.5741    78
36.5841    77
36.5941    75
36.6041    81
36.6141    85
36.6241    84
36.6341    70
36.6441    80
36.6541    74
36.6641    89
36.6741    72
36.6841    70
36.6941    81
36.7041    71
36.7141    84
36.7241    75
36.7341    73
36.7441    76
36.7541    97
36.7641    75
36.7741    74
36.7841    73
36.7941    80
36.8041    73
36.8141    98
36.8241    72
36.8341    65
36.8441    72
36.8541    80
36.8641    65
36.8741    76
36.8841    70
36.8941    93
36.9041    75
36.9141    85
36.9241    78
36.9341    75
36.9441    74
36.9541    74
36.9641    72
36.9741    76
36.9841    72
36.9941    79
37.0041    76
37.0141    79
37.0241    71
37.0341    70
37.0441    65
37.0541    69
37.0641    72
37.0741    73
37.0841    78
37.0941    79
37.1041    72
37.1141    70
37.1241    78
37.1341    66
37.1441    80
37.1541    68
37.1641    71
37.1741    71
37.1841    81
37.1941    68
37.2041    58
37.2141    69
37.2241    94
37.2341    71
37.2441    69
37.2541    83
37.2641    86
37.2741    71
37.2841    69
37.2941    77
37.3041    93
37.3141    83
37.3241    82
37.3341    64
37.3441    66
37.3541    81
37.3641    53
37.3741    60
37.3841    71
37.3941    70
37.4041    76
37.4141    48
37.4241    64
37.4341    61
37.4441    68
37.4541    65
37.4641    80
37.4741    60
37.4841    76
37.4941    66
37.5041    75
37.5141    72
37.5241    69
37.5341    62
37.5441    75
37.5541    65
37.5641    70
37.5741    65
37.5841    64
37.5941    68
37.6041    63
37.6141    76
37.6241    69
37.6341    72
37.6441    63
37.6541    45
37.6641    62
37.6741    55
37.6841    61
37.6941    64
37.7041    55
37.7141    57
37.7241    73
37.7341    74
37.7441    75
37.7541    52
37.7641    55
37.7741    59
37.7841    62
37.7941    62
37.8041    72
37.8141    48
37.8241    71
37.8341    59
37.8441    55
37.8541    55
37.8641    70
37.8741    53
37.8841    52
37.8941    54
37.9041    76
37.9141    61
37.9241    56
37.9341    48
37.9441    58
37.9541    59
37.9641    66
37.9741    68
37.9841    53
37.9941    43
38.0041    58
38.0141    57
38.0241    49
38.0341    58
38.0441    71
38.0541    64
38.0641    49
38.0741    57
38.0841    61
38.0941    67
38.1041    59
38.1141    54
38.1241    59
38.1341    56
38.1441    60
38.1541    45
38.1641    55
38.1741    52
38.1841    56
38.1941    56
38.2041    60
38.2141    63
38.2241    68
38.2341    55
38.2441    56
38.2541    54
38.2641    53
38.2741    57
38.2841    51
38.2941    54
38.3041    66
38.3141    52
38.3241    66
38.3341    57
38.3441    50
38.3541    58
38.3641    55
38.3741    51
38.3841    51
38.3941    53
38.4041    52
38.4141    46
38.4241    61
38.4341    50
38.4441    54
38.4541    53
38.4641    58
38.4741    55
38.4841    38
38.4941    59
38.5041    60
38.5141    48
38.5241    52
38.5341    53
38.5441    43
38.5541    49
38.5641    57
38.5741    55
38.5841    49
38.5941    38
38.6041    51
38.6141    44
38.6241    56
38.6341    43
38.6441    52
38.6541    53
38.6641    55
38.6741    45
38.6841    52
38.6941    53
38.7041    48
38.7141    53
38.7241    48
38.7341    45
38.7441    48
38.7541    45
38.7641    46
38.7741    47
38.7841    38
38.7941    38
38.8041    40
38.8141    49
38.8241    57
38.8341    51
38.8441    44
38.8541    43
38.8641    46
38.8741    53
38.8841    46
38.8941    47
38.9041    47
38.9141    49
38.9241    36
38.9341    44
38.9441    46
38.9541    51
38.9641    49
38.9741    51
38.9841    38
38.9941    51
39.0041    46
39.0141    37
39.0241    34
39.0341    45
39.0441    45
39.0541    49
39.0641    33
39.0741    38
39.0841    36
39.0941    45
39.1041    49
39.1141    46
39.1241    45
39.1341    45
39.1441    39
39.1541    47
39.1641    47
39.1741    53
39.1841    32
39.1941    41
39.2041    41
39.2141    32
39.2241    55
39.2341    40
39.2441    30
39.2541    35
39.2641    44
39.2741    35
39.2841    42
39.2941    41
39.3041    38
39.3141    30
39.3241    33
39.3341    35
39.3441    41
39.3541    30
39.3641    37
39.3741    44
39.3841    41
39.3941    40
39.4041    27
39.4141    32
39.4241    35
39.4341    42
39.4441    26
39.4541    42
39.4641    39
39.4741    42
39.4841    39
39.4941    43
39.5041    24
39.5141    34
39.5241    33
39.5341    28
39.5441    35
39.5541    43
39.5641    30
39.5741    32
39.5841    28
39.5941    33
39.6041    28
39.6141    45
39.6241    35
39.6341    33
39.6441    36
39.6541    37
39.6641    33
39.6741    31
39.6841    32
39.6941    25
39.7041    30
39.7141    27
39.7241    36
39.7341    27
39.7441    43
39.7541    29
39.7641    35
39.7741    31
39.7841    35
39.7941    35
39.8041    34
39.8141    41
39.8241    30
39.8341    29
39.8441    33
39.8541    38
39.8641    33
39.8741    28
39.8841    27
39.8941    39
39.9041    33
39.9141    44
39.9241    30
39.9341    28
39.9441    28
39.9541    35
39.9641    35
39.9741    30
39.9841    32
