Bruker Nano GmbH Berlin, Germany
Esprit 1.9

Date: 5/14/2021 3:49:31 PM
Real time: 19498
Life time: 18242
Pulse density: 92418


Detector type: XFlash 430
Window type: Custom type
Detector thickness: 0.45
Si dead layer:0.029

Calibration, lin.: 10
Calibration, abs.: -955.9
Mn FWHM: 137.05
Fano factor: 0.121
Channels: 4096

Energy Counts
-0.9559     0
-0.9459     0
-0.9359     0
-0.9259     0
-0.9159     0
-0.9059     0
-0.8959     0
-0.8859     0
-0.8759     0
-0.8659     0
-0.8559     0
-0.8459     0
-0.8359     0
-0.8259     0
-0.8159     0
-0.8059     0
-0.7959     0
-0.7859     0
-0.7759     0
-0.7659     0
-0.7559     0
-0.7459     0
-0.7359     0
-0.7259     0
-0.7159     0
-0.7059     0
-0.6959     0
-0.6859     0
-0.6759     0
-0.6659     0
-0.6559     0
-0.6459     0
-0.6359     0
-0.6259     0
-0.6159     0
-0.6059     0
-0.5959     0
-0.5859     0
-0.5759     0
-0.5659     0
-0.5559     0
-0.5459     0
-0.5359     0
-0.5259     0
-0.5159     0
-0.5059     0
-0.4959     0
-0.4859     0
-0.4759     0
-0.4659     0
-0.4559     0
-0.4459     0
-0.4359     0
-0.4259     0
-0.4159     0
-0.4059     0
-0.3959     0
-0.3859     0
-0.3759     0
-0.3659     0
-0.3559     0
-0.3459     0
-0.3359     0
-0.3259     0
-0.3159     0
-0.3059     0
-0.2959     0
-0.2859     0
-0.2759     0
-0.2659     0
-0.2559     0
-0.2459     0
-0.2359     0
-0.2259     0
-0.2159     0
-0.2059     0
-0.1959     0
-0.1859     0
-0.1759     0
-0.1659     0
-0.1559     0
-0.1459     0
-0.1359     0
-0.1259     0
-0.1159     2
-0.1059    11
-0.0959    53
-0.0859   197
-0.0759   759
-0.0659  2065
-0.0559  5299
-0.0459 11651
-0.0359 21626
-0.0259 34852
-0.0159 47486
-0.0059 56172
 0.0041 55859
 0.0141 48118
 0.0241 35975
 0.0341 22665
 0.0441 12331
 0.0541  5787
 0.0641  2286
 0.0741   760
 0.0841   263
 0.0941    62
 0.1041    22
 0.1141     8
 0.1241     9
 0.1341    13
 0.1441    10
 0.1541     5
 0.1641     3
 0.1741    26
 0.1841   210
 0.1941   380
 0.2041   332
 0.2141   336
 0.2241   338
 0.2341   326
 0.2441   307
 0.2541   325
 0.2641   307
 0.2741   304
 0.2841   330
 0.2941   318
 0.3041   314
 0.3141   306
 0.3241   299
 0.3341   328
 0.3441   330
 0.3541   292
 0.3641   304
 0.3741   296
 0.3841   305
 0.3941   326
 0.4041   284
 0.4141   278
 0.4241   280
 0.4341   286
 0.4441   290
 0.4541   285
 0.4641   267
 0.4741   269
 0.4841   268
 0.4941   296
 0.5041   282
 0.5141   269
 0.5241   280
 0.5341   289
 0.5441   284
 0.5541   274
 0.5641   267
 0.5741   253
 0.5841   261
 0.5941   247
 0.6041   256
 0.6141   290
 0.6241   285
 0.6341   275
 0.6441   261
 0.6541   266
 0.6641   260
 0.6741   253
 0.6841   266
 0.6941   269
 0.7041   241
 0.7141   237
 0.7241   239
 0.7341   234
 0.7441   233
 0.7541   218
 0.7641   223
 0.7741   236
 0.7841   261
 0.7941   241
 0.8041   217
 0.8141   231
 0.8241   239
 0.8341   235
 0.8441   207
 0.8541   213
 0.8641   236
 0.8741   258
 0.8841   232
 0.8941   223
 0.9041   229
 0.9141   226
 0.9241   225
 0.9341   228
 0.9441   226
 0.9541   232
 0.9641   231
 0.9741   220
 0.9841   224
 0.9941   220
 1.0041   207
 1.0141   225
 1.0241   211
 1.0341   228
 1.0441   216
 1.0541   219
 1.0641   224
 1.0741   196
 1.0841   215
 1.0941   238
 1.1041   211
 1.1141   178
 1.1241   199
 1.1341   207
 1.1441   205
 1.1541   195
 1.1641   210
 1.1741   193
 1.1841   212
 1.1941   217
 1.2041   213
 1.2141   197
 1.2241   203
 1.2341   234
 1.2441   230
 1.2541   198
 1.2641   201
 1.2741   177
 1.2841   194
 1.2941   202
 1.3041   178
 1.3141   176
 1.3241   180
 1.3341   184
 1.3441   178
 1.3541   190
 1.3641   192
 1.3741   204
 1.3841   186
 1.3941   178
 1.4041   200
 1.4141   202
 1.4241   210
 1.4341   199
 1.4441   186
 1.4541   181
 1.4641   186
 1.4741   196
 1.4841   177
 1.4941   191
 1.5041   209
 1.5141   169
 1.5241   206
 1.5341   192
 1.5441   164
 1.5541   169
 1.5641   178
 1.5741   179
 1.5841   175
 1.5941   185
 1.6041   210
 1.6141   177
 1.6241   182
 1.6341   195
 1.6441   204
 1.6541   235
 1.6641   291
 1.6741   317
 1.6841   383
 1.6941   497
 1.7041   554
 1.7141   638
 1.7241   722
 1.7341   759
 1.7441   741
 1.7541   723
 1.7641   615
 1.7741   522
 1.7841   482
 1.7941   394
 1.8041   306
 1.8141   277
 1.8241   227
 1.8341   247
 1.8441   257
 1.8541   235
 1.8641   217
 1.8741   205
 1.8841   194
 1.8941   196
 1.9041   203
 1.9141   173
 1.9241   213
 1.9341   194
 1.9441   199
 1.9541   207
 1.9641   209
 1.9741   210
 1.9841   211
 1.9941   248
 2.0041   227
 2.0141   223
 2.0241   217
 2.0341   219
 2.0441   186
 2.0541   213
 2.0641   207
 2.0741   191
 2.0841   192
 2.0941   198
 2.1041   194
 2.1141   178
 2.1241   159
 2.1341   166
 2.1441   182
 2.1541   168
 2.1641   165
 2.1741   184
 2.1841   160
 2.1941   163
 2.2041   180
 2.2141   191
 2.2241   155
 2.2341   144
 2.2441   169
 2.2541   167
 2.2641   172
 2.2741   155
 2.2841   161
 2.2941   158
 2.3041   138
 2.3141   145
 2.3241   171
 2.3341   171
 2.3441   170
 2.3541   185
 2.3641   148
 2.3741   144
 2.3841   134
 2.3941   157
 2.4041   145
 2.4141   151
 2.4241   150
 2.4341   133
 2.4441   150
 2.4541   138
 2.4641   134
 2.4741   157
 2.4841   142
 2.4941   164
 2.5041   138
 2.5141   169
 2.5241   136
 2.5341   126
 2.5441   165
 2.5541   148
 2.5641   137
 2.5741   132
 2.5841   149
 2.5941   151
 2.6041   144
 2.6141   148
 2.6241   152
 2.6341   142
 2.6441   147
 2.6541   149
 2.6641   135
 2.6741   138
 2.6841   128
 2.6941   138
 2.7041   138
 2.7141   140
 2.7241   137
 2.7341   133
 2.7441   149
 2.7541   144
 2.7641   137
 2.7741   133
 2.7841   127
 2.7941   130
 2.8041   153
 2.8141   135
 2.8241   171
 2.8341   142
 2.8441   146
 2.8541   134
 2.8641   140
 2.8741   107
 2.8841   152
 2.8941   130
 2.9041   127
 2.9141   124
 2.9241   108
 2.9341   126
 2.9441   142
 2.9541   130
 2.9641   144
 2.9741   137
 2.9841   144
 2.9941   132
 3.0041   120
 3.0141   135
 3.0241   127
 3.0341   119
 3.0441   135
 3.0541   125
 3.0641   120
 3.0741   120
 3.0841   117
 3.0941   126
 3.1041   112
 3.1141   126
 3.1241   111
 3.1341   114
 3.1441   118
 3.1541    99
 3.1641   113
 3.1741   117
 3.1841   124
 3.1941   103
 3.2041   151
 3.2141   125
 3.2241   129
 3.2341   140
 3.2441   132
 3.2541   143
 3.2641   155
 3.2741   169
 3.2841   185
 3.2941   169
 3.3041   192
 3.3141   170
 3.3241   182
 3.3341   187
 3.3441   169
 3.3541   153
 3.3641   159
 3.3741   130
 3.3841   125
 3.3941   123
 3.4041   106
 3.4141   121
 3.4241    89
 3.4341   103
 3.4441   112
 3.4541    97
 3.4641   118
 3.4741   118
 3.4841   113
 3.4941   120
 3.5041   118
 3.5141   110
 3.5241   102
 3.5341   143
 3.5441   115
 3.5541   149
 3.5641   131
 3.5741   170
 3.5841   210
 3.5941   226
 3.6041   297
 3.6141   367
 3.6241   466
 3.6341   523
 3.6441   667
 3.6541   785
 3.6641   929
 3.6741   940
 3.6841   960
 3.6941   981
 3.7041   908
 3.7141   864
 3.7241   765
 3.7341   678
 3.7441   559
 3.7541   455
 3.7641   355
 3.7741   285
 3.7841   224
 3.7941   177
 3.8041   153
 3.8141   130
 3.8241   103
 3.8341   102
 3.8441    96
 3.8541   102
 3.8641   105
 3.8741   109
 3.8841   112
 3.8941    99
 3.9041   108
 3.9141   105
 3.9241   112
 3.9341   126
 3.9441   115
 3.9541   138
 3.9641   155
 3.9741   158
 3.9841   170
 3.9941   160
 4.0041   191
 4.0141   193
 4.0241   181
 4.0341   192
 4.0441   177
 4.0541   188
 4.0641   183
 4.0741   157
 4.0841   115
 4.0941   117
 4.1041    82
 4.1141    98
 4.1241    97
 4.1341    82
 4.1441    84
 4.1541    80
 4.1641    90
 4.1741    79
 4.1841    79
 4.1941    77
 4.2041    86
 4.2141    77
 4.2241    76
 4.2341    68
 4.2441    64
 4.2541    75
 4.2641    69
 4.2741    61
 4.2841    63
 4.2941    80
 4.3041    87
 4.3141    82
 4.3241    86
 4.3341    82
 4.3441    79
 4.3541    91
 4.3641    78
 4.3741    89
 4.3841    78
 4.3941   106
 4.4041   104
 4.4141   144
 4.4241   159
 4.4341   183
 4.4441   229
 4.4541   257
 4.4641   322
 4.4741   353
 4.4841   360
 4.4941   380
 4.5041   412
 4.5141   368
 4.5241   378
 4.5341   356
 4.5441   335
 4.5541   296
 4.5641   235
 4.5741   223
 4.5841   175
 4.5941   154
 4.6041   145
 4.6141   110
 4.6241   102
 4.6341    92
 4.6441   107
 4.6541   113
 4.6641   117
 4.6741    72
 4.6841    90
 4.6941    66
 4.7041    96
 4.7141    67
 4.7241    93
 4.7341    93
 4.7441    69
 4.7541    71
 4.7641    90
 4.7741    92
 4.7841    76
 4.7941    75
 4.8041    83
 4.8141   100
 4.8241    81
 4.8341    99
 4.8441    98
 4.8541    81
 4.8641   119
 4.8741   132
 4.8841   121
 4.8941   135
 4.9041   133
 4.9141   149
 4.9241   140
 4.9341   142
 4.9441   141
 4.9541   133
 4.9641   138
 4.9741   135
 4.9841   110
 4.9941   123
 5.0041   110
 5.0141   112
 5.0241   101
 5.0341   106
 5.0441    85
 5.0541    87
 5.0641   101
 5.0741   105
 5.0841    99
 5.0941    91
 5.1041    86
 5.1141    87
 5.1241    90
 5.1341    89
 5.1441    98
 5.1541    87
 5.1641    87
 5.1741    86
 5.1841    91
 5.1941    91
 5.2041    91
 5.2141    91
 5.2241   102
 5.2341    76
 5.2441    85
 5.2541    86
 5.2641    85
 5.2741   100
 5.2841    88
 5.2941    94
 5.3041    93
 5.3141   105
 5.3241    85
 5.3341    98
 5.3441   115
 5.3541   120
 5.3641   130
 5.3741   103
 5.3841   107
 5.3941   103
 5.4041   120
 5.4141   121
 5.4241   127
 5.4341   131
 5.4441   110
 5.4541   102
 5.4641   132
 5.4741   104
 5.4841   113
 5.4941    87
 5.5041    94
 5.5141   100
 5.5241   107
 5.5341   110
 5.5441    93
 5.5541    84
 5.5641    90
 5.5741    83
 5.5841    86
 5.5941    89
 5.6041    88
 5.6141    83
 5.6241   100
 5.6341   100
 5.6441    90
 5.6541    92
 5.6641   105
 5.6741    94
 5.6841   109
 5.6941   104
 5.7041   101
 5.7141   110
 5.7241   103
 5.7341   104
 5.7441    98
 5.7541   105
 5.7641   121
 5.7741   113
 5.7841   113
 5.7941   145
 5.8041   158
 5.8141   184
 5.8241   212
 5.8341   199
 5.8441   232
 5.8541   246
 5.8641   260
 5.8741   275
 5.8841   292
 5.8941   279
 5.9041   281
 5.9141   290
 5.9241   300
 5.9341   272
 5.9441   246
 5.9541   228
 5.9641   189
 5.9741   179
 5.9841   163
 5.9941   158
 6.0041   125
 6.0141   132
 6.0241   134
 6.0341   122
 6.0441   115
 6.0541    95
 6.0641   127
 6.0741   109
 6.0841   120
 6.0941   105
 6.1041   129
 6.1141   144
 6.1241   142
 6.1341   131
 6.1441   144
 6.1541   125
 6.1641   143
 6.1741   164
 6.1841   164
 6.1941   167
 6.2041   227
 6.2141   251
 6.2241   327
 6.2341   416
 6.2441   547
 6.2541   748
 6.2641  1072
 6.2741  1488
 6.2841  1939
 6.2941  2496
 6.3041  3309
 6.3141  4188
 6.3241  5045
 6.3341  6176
 6.3441  7121
 6.3541  8057
 6.3641  9274
 6.3741  9637
 6.3841 10309
 6.3941 10573
 6.4041 10254
 6.4141 10133
 6.4241  9877
 6.4341  8958
 6.4441  7991
 6.4541  6944
 6.4641  5782
 6.4741  4780
 6.4841  3883
 6.4941  3088
 6.5041  2358
 6.5141  1771
 6.5241  1284
 6.5341   980
 6.5441   721
 6.5541   512
 6.5641   382
 6.5741   328
 6.5841   255
 6.5941   206
 6.6041   181
 6.6141   179
 6.6241   147
 6.6341   138
 6.6441   139
 6.6541   152
 6.6641   141
 6.6741   147
 6.6841   153
 6.6941   135
 6.7041   125
 6.7141   148
 6.7241   151
 6.7341   126
 6.7441   138
 6.7541   178
 6.7641   139
 6.7741   148
 6.7841   170
 6.7941   144
 6.8041   177
 6.8141   159
 6.8241   161
 6.8341   189
 6.8441   182
 6.8541   217
 6.8641   198
 6.8741   212
 6.8841   204
 6.8941   280
 6.9041   279
 6.9141   316
 6.9241   369
 6.9341   453
 6.9441   540
 6.9541   646
 6.9641   818
 6.9741   913
 6.9841  1147
 6.9941  1260
 7.0041  1412
 7.0141  1552
 7.0241  1632
 7.0341  1720
 7.0441  1752
 7.0541  1865
 7.0641  1737
 7.0741  1738
 7.0841  1667
 7.0941  1457
 7.1041  1358
 7.1141  1246
 7.1241  1094
 7.1341   933
 7.1441   820
 7.1541   640
 7.1641   533
 7.1741   477
 7.1841   386
 7.1941   336
 7.2041   263
 7.2141   238
 7.2241   250
 7.2341   238
 7.2441   200
 7.2541   202
 7.2641   198
 7.2741   253
 7.2841   216
 7.2941   220
 7.3041   215
 7.3141   213
 7.3241   229
 7.3341   242
 7.3441   272
 7.3541   288
 7.3641   267
 7.3741   277
 7.3841   276
 7.3941   278
 7.4041   307
 7.4141   297
 7.4241   283
 7.4341   280
 7.4441   277
 7.4541   272
 7.4641   273
 7.4741   249
 7.4841   260
 7.4941   259
 7.5041   259
 7.5141   247
 7.5241   241
 7.5341   212
 7.5441   198
 7.5541   208
 7.5641   206
 7.5741   193
 7.5841   193
 7.5941   206
 7.6041   211
 7.6141   204
 7.6241   191
 7.6341   210
 7.6441   225
 7.6541   214
 7.6641   200
 7.6741   240
 7.6841   223
 7.6941   227
 7.7041   228
 7.7141   232
 7.7241   228
 7.7341   240
 7.7441   247
 7.7541   258
 7.7641   257
 7.7741   261
 7.7841   246
 7.7941   271
 7.8041   281
 7.8141   271
 7.8241   258
 7.8341   299
 7.8441   338
 7.8541   311
 7.8641   335
 7.8741   332
 7.8841   353
 7.8941   356
 7.9041   394
 7.9141   337
 7.9241   378
 7.9341   422
 7.9441   468
 7.9541   444
 7.9641   472
 7.9741   510
 7.9841   538
 7.9941   631
 8.0041   645
 8.0141   664
 8.0241   717
 8.0341   792
 8.0441   851
 8.0541   862
 8.0641   957
 8.0741  1036
 8.0841  1057
 8.0941  1183
 8.1041  1218
 8.1141  1203
 8.1241  1219
 8.1341  1364
 8.1441  1362
 8.1541  1397
 8.1641  1436
 8.1741  1416
 8.1841  1545
 8.1941  1526
 8.2041  1456
 8.2141  1463
 8.2241  1522
 8.2341  1524
 8.2441  1544
 8.2541  1646
 8.2641  1781
 8.2741  1809
 8.2841  1925
 8.2941  2164
 8.3041  2330
 8.3141  2494
 8.3241  2659
 8.3341  2878
 8.3441  3105
 8.3541  3301
 8.3641  3412
 8.3741  3489
 8.3841  3640
 8.3941  3668
 8.4041  3504
 8.4141  3413
 8.4241  3173
 8.4341  2982
 8.4441  2770
 8.4541  2470
 8.4641  2190
 8.4741  1872
 8.4841  1643
 8.4941  1413
 8.5041  1179
 8.5141  1008
 8.5241   826
 8.5341   670
 8.5441   594
 8.5541   528
 8.5641   456
 8.5741   417
 8.5841   394
 8.5941   377
 8.6041   374
 8.6141   363
 8.6241   379
 8.6341   366
 8.6441   380
 8.6541   350
 8.6641   336
 8.6741   365
 8.6841   365
 8.6941   359
 8.7041   348
 8.7141   359
 8.7241   355
 8.7341   351
 8.7441   365
 8.7541   364
 8.7641   360
 8.7741   366
 8.7841   363
 8.7941   336
 8.8041   364
 8.8141   346
 8.8241   374
 8.8341   334
 8.8441   347
 8.8541   327
 8.8641   356
 8.8741   351
 8.8841   362
 8.8941   332
 8.9041   364
 8.9141   354
 8.9241   377
 8.9341   371
 8.9441   371
 8.9541   344
 8.9641   347
 8.9741   380
 8.9841   379
 8.9941   399
 9.0041   435
 9.0141   427
 9.0241   435
 9.0341   426
 9.0441   455
 9.0541   419
 9.0641   460
 9.0741   465
 9.0841   498
 9.0941   505
 9.1041   499
 9.1141   562
 9.1241   583
 9.1341   584
 9.1441   582
 9.1541   609
 9.1641   653
 9.1741   717
 9.1841   720
 9.1941   741
 9.2041   793
 9.2141   861
 9.2241   829
 9.2341   906
 9.2441   933
 9.2541   956
 9.2641  1039
 9.2741  1084
 9.2841  1110
 9.2941  1106
 9.3041  1184
 9.3141  1287
 9.3241  1278
 9.3341  1337
 9.3441  1438
 9.3541  1378
 9.3641  1383
 9.3741  1420
 9.3841  1450
 9.3941  1447
 9.4041  1553
 9.4141  1500
 9.4241  1529
 9.4341  1537
 9.4441  1603
 9.4541  1590
 9.4641  1603
 9.4741  1655
 9.4841  1670
 9.4941  1697
 9.5041  1758
 9.5141  1825
 9.5241  1922
 9.5341  1987
 9.5441  1993
 9.5541  2065
 9.5641  2242
 9.5741  2262
 9.5841  2438
 9.5941  2661
 9.6041  2708
 9.6141  2898
 9.6241  3033
 9.6341  3083
 9.6441  3283
 9.6541  3300
 9.6641  3301
 9.6741  3318
 9.6841  3251
 9.6941  3175
 9.7041  3085
 9.7141  2992
 9.7241  2684
 9.7341  2537
 9.7441  2488
 9.7541  2267
 9.7641  2135
 9.7741  1924
 9.7841  1793
 9.7941  1650
 9.8041  1550
 9.8141  1455
 9.8241  1376
 9.8341  1357
 9.8441  1371
 9.8541  1387
 9.8641  1392
 9.8741  1400
 9.8841  1398
 9.8941  1365
 9.9041  1418
 9.9141  1419
 9.9241  1487
 9.9341  1510
 9.9441  1516
 9.9541  1503
 9.9641  1483
 9.9741  1421
 9.9841  1360
 9.9941  1303
10.0041  1210
10.0141  1143
10.0241  1064
10.0341   983
10.0441   889
10.0541   782
10.0641   736
10.0741   650
10.0841   595
10.0941   522
10.1041   453
10.1141   400
10.1241   393
10.1341   378
10.1441   370
10.1541   357
10.1641   314
10.1741   287
10.1841   304
10.1941   280
10.2041   260
10.2141   249
10.2241   218
10.2341   230
10.2441   244
10.2541   257
10.2641   218
10.2741   204
10.2841   202
10.2941   190
10.3041   214
10.3141   185
10.3241   185
10.3341   199
10.3441   197
10.3541   190
10.3641   187
10.3741   190
10.3841   178
10.3941   185
10.4041   181
10.4141   189
10.4241   194
10.4341   189
10.4441   201
10.4541   211
10.4641   204
10.4741   205
10.4841   205
10.4941   201
10.5041   216
10.5141   225
10.5241   239
10.5341   220
10.5441   221
10.5541   220
10.5641   217
10.5741   224
10.5841   231
10.5941   230
10.6041   233
10.6141   233
10.6241   245
10.6341   236
10.6441   206
10.6541   220
10.6641   240
10.6741   241
10.6841   223
10.6941   231
10.7041   234
10.7141   243
10.7241   250
10.7341   258
10.7441   267
10.7541   264
10.7641   283
10.7741   263
10.7841   303
10.7941   306
10.8041   325
10.8141   305
10.8241   283
10.8341   315
10.8441   329
10.8541   316
10.8641   352
10.8741   340
10.8841   349
10.8941   335
10.9041   295
10.9141   321
10.9241   342
10.9341   351
10.9441   327
10.9541   345
10.9641   362
10.9741   331
10.9841   324
10.9941   325
11.0041   317
11.0141   290
11.0241   311
11.0341   313
11.0441   314
11.0541   297
11.0641   287
11.0741   293
11.0841   280
11.0941   287
11.1041   298
11.1141   285
11.1241   306
11.1341   304
11.1441   319
11.1541   321
11.1641   342
11.1741   345
11.1841   329
11.1941   345
11.2041   378
11.2141   399
11.2241   397
11.2341   451
11.2441   443
11.2541   441
11.2641   466
11.2741   448
11.2841   454
11.2941   468
11.3041   485
11.3141   448
11.3241   428
11.3341   432
11.3441   396
11.3541   356
11.3641   334
11.3741   343
11.3841   336
11.3941   282
11.4041   285
11.4141   281
11.4241   262
11.4341   245
11.4441   236
11.4541   239
11.4641   230
11.4741   226
11.4841   247
11.4941   251
11.5041   254
11.5141   232
11.5241   221
11.5341   221
11.5441   245
11.5541   244
11.5641   252
11.5741   245
11.5841   248
11.5941   241
11.6041   254
11.6141   245
11.6241   247
11.6341   254
11.6441   233
11.6541   220
11.6641   236
11.6741   260
11.6841   241
11.6941   228
11.7041   225
11.7141   233
11.7241   227
11.7341   224
11.7441   211
11.7541   209
11.7641   191
11.7741   194
11.7841   207
11.7941   192
11.8041   191
11.8141   181
11.8241   179
11.8341   171
11.8441   171
11.8541   171
11.8641   180
11.8741   188
11.8841   195
11.8941   180
11.9041   164
11.9141   171
11.9241   166
11.9341   161
11.9441   166
11.9541   167
11.9641   169
11.9741   159
11.9841   170
11.9941   161
12.0041   170
12.0141   170
12.0241   188
12.0341   191
12.0441   199
12.0541   190
12.0641   185
12.0741   185
12.0841   184
12.0941   189
12.1041   184
12.1141   186
12.1241   177
12.1341   179
12.1441   173
12.1541   163
12.1641   175
12.1741   179
12.1841   176
12.1941   170
12.2041   166
12.2141   168
12.2241   172
12.2341   172
12.2441   163
12.2541   169
12.2641   171
12.2741   181
12.2841   172
12.2941   173
12.3041   176
12.3141   164
12.3241   154
12.3341   163
12.3441   163
12.3541   162
12.3641   150
12.3741   145
12.3841   166
12.3941   187
12.4041   189
12.4141   174
12.4241   169
12.4341   180
12.4441   176
12.4541   167
12.4641   174
12.4741   183
12.4841   180
12.4941   169
12.5041   166
12.5141   162
12.5241   183
12.5341   193
12.5441   196
12.5541   200
12.5641   190
12.5741   185
12.5841   186
12.5941   196
12.6041   192
12.6141   181
12.6241   182
12.6341   185
12.6441   201
12.6541   204
12.6641   191
12.6741   177
12.6841   182
12.6941   194
12.7041   172
12.7141   174
12.7241   199
12.7341   205
12.7441   186
12.7541   174
12.7641   194
12.7741   209
12.7841   197
12.7941   195
12.8041   205
12.8141   195
12.8241   186
12.8341   198
12.8441   209
12.8541   207
12.8641   215
12.8741   223
12.8841   201
12.8941   204
12.9041   204
12.9141   200
12.9241   215
12.9341   212
12.9441   200
12.9541   197
12.9641   201
12.9741   196
12.9841   200
12.9941   215
13.0041   208
13.0141   189
13.0241   196
13.0341   194
13.0441   184
13.0541   200
13.0641   199
13.0741   192
13.0841   195
13.0941   196
13.1041   216
13.1141   216
13.1241   210
13.1341   222
13.1441   231
13.1541   217
13.1641   212
13.1741   205
13.1841   210
13.1941   223
13.2041   234
13.2141   241
13.2241   228
13.2341   231
13.2441   240
13.2541   227
13.2641   224
13.2741   242
13.2841   237
13.2941   231
13.3041   255
13.3141   249
13.3241   245
13.3341   270
13.3441   266
13.3541   258
13.3641   271
13.3741   287
13.3841   284
13.3941   289
13.4041   275
13.4141   258
13.4241   255
13.4341   252
13.4441   261
13.4541   264
13.4641   261
13.4741   251
13.4841   249
13.4941   246
13.5041   233
13.5141   240
13.5241   246
13.5341   261
13.5441   275
13.5541   241
13.5641   230
13.5741   239
13.5841   236
13.5941   237
13.6041   245
13.6141   231
13.6241   227
13.6341   242
13.6441   251
13.6541   247
13.6641   246
13.6741   263
13.6841   244
13.6941   235
13.7041   263
13.7141   268
13.7241   255
13.7341   243
13.7441   236
13.7541   234
13.7641   243
13.7741   256
13.7841   251
13.7941   252
13.8041   253
13.8141   257
13.8241   263
13.8341   269
13.8441   270
13.8541   252
13.8641   247
13.8741   258
13.8841   262
13.8941   256
13.9041   271
13.9141   273
13.9241   261
13.9341   263
13.9441   269
13.9541   271
13.9641   274
13.9741   289
13.9841   293
13.9941   290
14.0041   289
14.0141   302
14.0241   296
14.0341   295
14.0441   306
14.0541   301
14.0641   296
14.0741   302
14.0841   322
14.0941   327
14.1041   331
14.1141   319
14.1241   305
14.1341   312
14.1441   323
14.1541   324
14.1641   306
14.1741   313
14.1841   321
14.1941   306
14.2041   323
14.2141   338
14.2241   324
14.2341   322
14.2441   308
14.2541   289
14.2641   301
14.2741   304
14.2841   297
14.2941   290
14.3041   276
14.3141   269
14.3241   278
14.3341   294
14.3441   299
14.3541   288
14.3641   264
14.3741   270
14.3841   289
14.3941   306
14.4041   310
14.4141   300
14.4241   279
14.4341   278
14.4441   289
14.4541   295
14.4641   304
14.4741   301
14.4841   293
14.4941   284
14.5041   291
14.5141   289
14.5241   289
14.5341   310
14.5441   307
14.5541   299
14.5641   296
14.5741   287
14.5841   291
14.5941   302
14.6041   296
14.6141   300
14.6241   313
14.6341   297
14.6441   301
14.6541   311
14.6641   309
14.6741   319
14.6841   321
14.6941   303
14.7041   300
14.7141   317
14.7241   312
14.7341   305
14.7441   319
14.7541   309
14.7641   313
14.7741   326
14.7841   325
14.7941   334
14.8041   325
14.8141   323
14.8241   323
14.8341   322
14.8441   335
14.8541   323
14.8641   330
14.8741   336
14.8841   347
14.8941   348
14.9041   327
14.9141   332
14.9241   348
14.9341   350
14.9441   363
14.9541   360
14.9641   335
14.9741   315
14.9841   321
14.9941   336
15.0041   343
15.0141   355
15.0241   334
15.0341   320
15.0441   341
15.0541   339
15.0641   320
15.0741   328
15.0841   343
15.0941   334
15.1041   327
15.1141   335
15.1241   336
15.1341   340
15.1441   341
15.1541   333
15.1641   313
15.1741   317
15.1841   336
15.1941   368
15.2041   373
15.2141   341
15.2241   327
15.2341   349
15.2441   346
15.2541   325
15.2641   336
15.2741   314
15.2841   337
15.2941   362
15.3041   334
15.3141   328
15.3241   322
15.3341   336
15.3441   342
15.3541   353
15.3641   364
15.3741   325
15.3841   320
15.3941   353
15.4041   355
15.4141   356
15.4241   361
15.4341   354
15.4441   351
15.4541   356
15.4641   360
15.4741   357
15.4841   365
15.4941   366
15.5041   378
15.5141   396
15.5241   427
15.5341   412
15.5441   446
15.5541   474
15.5641   485
15.5741   487
15.5841   510
15.5941   542
15.6041   578
15.6141   569
15.6241   599
15.6341   651
15.6441   705
15.6541   757
15.6641   778
15.6741   805
15.6841   854
15.6941   825
15.7041   850
15.7141   877
15.7241   910
15.7341   919
15.7441   929
15.7541   936
15.7641   965
15.7741   968
15.7841   935
15.7941   924
15.8041   873
15.8141   828
15.8241   814
15.8341   773
15.8441   718
15.8541   742
15.8641   727
15.8741   658
15.8841   621
15.8941   598
15.9041   569
15.9141   552
15.9241   541
15.9341   487
15.9441   454
15.9541   443
15.9641   417
15.9741   432
15.9841   473
15.9941   410
16.0041   392
16.0141   401
16.0241   410
16.0341   405
16.0441   396
16.0541   379
16.0641   405
16.0741   389
16.0841   379
16.0941   383
16.1041   413
16.1141   401
16.1241   405
16.1341   431
16.1441   416
16.1541   395
16.1641   390
16.1741   404
16.1841   436
16.1941   414
16.2041   401
16.2141   396
16.2241   413
16.2341   418
16.2441   420
16.2541   415
16.2641   411
16.2741   423
16.2841   409
16.2941   413
16.3041   425
16.3141   390
16.3241   403
16.3341   425
16.3441   425
16.3541   402
16.3641   383
16.3741   393
16.3841   417
16.3941   413
16.4041   407
16.4141   397
16.4241   390
16.4341   422
16.4441   403
16.4541   425
16.4641   468
16.4741   425
16.4841   419
16.4941   441
16.5041   456
16.5141   432
16.5241   418
16.5341   426
16.5441   441
16.5541   442
16.5641   447
16.5741   447
16.5841   442
16.5941   445
16.6041   468
16.6141   457
16.6241   450
16.6341   459
16.6441   467
16.6541   448
16.6641   444
16.6741   456
16.6841   469
16.6941   439
16.7041   429
16.7141   448
16.7241   445
16.7341   465
16.7441   465
16.7541   437
16.7641   446
16.7741   438
16.7841   446
16.7941   457
16.8041   441
16.8141   423
16.8241   432
16.8341   458
16.8441   453
16.8541   433
16.8641   447
16.8741   467
16.8841   446
16.8941   439
16.9041   470
16.9141   479
16.9241   455
16.9341   447
16.9441   444
16.9541   439
16.9641   464
16.9741   463
16.9841   443
16.9941   482
17.0041   466
17.0141   460
17.0241   439
17.0341   448
17.0441   459
17.0541   462
17.0641   483
17.0741   479
17.0841   470
17.0941   451
17.1041   453
17.1141   457
17.1241   466
17.1341   440
17.1441   452
17.1541   463
17.1641   483
17.1741   490
17.1841   481
17.1941   467
17.2041   474
17.2141   500
17.2241   519
17.2341   492
17.2441   493
17.2541   476
17.2641   456
17.2741   490
17.2841   492
17.2941   479
17.3041   515
17.3141   490
17.3241   487
17.3341   482
17.3441   481
17.3541   479
17.3641   464
17.3741   462
17.3841   469
17.3941   499
17.4041   496
17.4141   499
17.4241   459
17.4341   483
17.4441   493
17.4541   513
17.4641   511
17.4741   507
17.4841   518
17.4941   529
17.5041   514
17.5141   528
17.5241   589
17.5341   567
17.5441   553
17.5541   544
17.5641   536
17.5741   574
17.5841   591
17.5941   595
17.6041   587
17.6141   576
17.6241   586
17.6341   562
17.6441   593
17.6541   578
17.6641   607
17.6741   623
17.6841   586
17.6941   586
17.7041   581
17.7141   601
17.7241   595
17.7341   587
17.7441   589
17.7541   577
17.7641   539
17.7741   559
17.7841   557
17.7941   573
17.8041   585
17.8141   562
17.8241   560
17.8341   578
17.8441   581
17.8541   562
17.8641   521
17.8741   515
17.8841   508
17.8941   511
17.9041   520
17.9141   536
17.9241   532
17.9341   561
17.9441   567
17.9541   548
17.9641   561
17.9741   527
17.9841   562
17.9941   564
18.0041   575
18.0141   529
18.0241   564
18.0341   542
18.0441   527
18.0541   538
18.0641   515
18.0741   549
18.0841   536
18.0941   529
18.1041   535
18.1141   522
18.1241   548
18.1341   555
18.1441   562
18.1541   545
18.1641   526
18.1741   498
18.1841   520
18.1941   506
18.2041   523
18.2141   548
18.2241   527
18.2341   550
18.2441   526
18.2541   511
18.2641   542
18.2741   559
18.2841   555
18.2941   540
18.3041   553
18.3141   545
18.3241   528
18.3341   556
18.3441   587
18.3541   560
18.3641   564
18.3741   564
18.3841   583
18.3941   586
18.4041   566
18.4141   571
18.4241   539
18.4341   534
18.4441   530
18.4541   557
18.4641   536
18.4741   547
18.4841   539
18.4941   554
18.5041   543
18.5141   560
18.5241   556
18.5341   567
18.5441   595
18.5541   525
18.5641   576
18.5741   561
18.5841   597
18.5941   597
18.6041   567
18.6141   589
18.6241   550
18.6341   575
18.6441   585
18.6541   534
18.6641   566
18.6741   542
18.6841   588
18.6941   614
18.7041   588
18.7141   588
18.7241   574
18.7341   588
18.7441   540
18.7541   587
18.7641   630
18.7741   563
18.7841   592
18.7941   592
18.8041   588
18.8141   593
18.8241   580
18.8341   564
18.8441   588
18.8541   584
18.8641   577
18.8741   567
18.8841   567
18.8941   559
18.9041   571
18.9141   580
18.9241   605
18.9341   608
18.9441   566
18.9541   609
18.9641   598
18.9741   598
18.9841   568
18.9941   562
19.0041   580
19.0141   559
19.0241   564
19.0341   594
19.0441   614
19.0541   591
19.0641   581
19.0741   542
19.0841   573
19.0941   581
19.1041   589
19.1141   597
19.1241   588
19.1341   587
19.1441   591
19.1541   587
19.1641   607
19.1741   608
19.1841   588
19.1941   605
19.2041   614
19.2141   576
19.2241   594
19.2341   624
19.2441   625
19.2541   594
19.2641   606
19.2741   631
19.2841   585
19.2941   590
19.3041   562
19.3141   584
19.3241   573
19.3341   597
19.3441   620
19.3541   583
19.3641   602
19.3741   587
19.3841   579
19.3941   608
19.4041   622
19.4141   609
19.4241   587
19.4341   586
19.4441   637
19.4541   588
19.4641   605
19.4741   603
19.4841   596
19.4941   568
19.5041   592
19.5141   613
19.5241   585
19.5341   606
19.5441   608
19.5541   607
19.5641   635
19.5741   627
19.5841   610
19.5941   614
19.6041   611
19.6141   597
19.6241   577
19.6341   620
19.6441   564
19.6541   556
19.6641   643
19.6741   603
19.6841   619
19.6941   621
19.7041   617
19.7141   615
19.7241   581
19.7341   619
19.7441   616
19.7541   631
19.7641   595
19.7741   596
19.7841   626
19.7941   632
19.8041   617
19.8141   628
19.8241   653
19.8341   594
19.8441   624
19.8541   600
19.8641   584
19.8741   597
19.8841   636
19.8941   592
19.9041   590
19.9141   616
19.9241   591
19.9341   576
19.9441   605
19.9541   619
19.9641   606
19.9741   644
19.9841   599
19.9941   583
20.0041   619
20.0141   623
20.0241   599
20.0341   618
20.0441   583
20.0541   645
20.0641   599
20.0741   609
20.0841   632
20.0941   626
20.1041   608
20.1141   600
20.1241   631
20.1341   660
20.1441   576
20.1541   600
20.1641   578
20.1741   646
20.1841   650
20.1941   621
20.2041   627
20.2141   619
20.2241   649
20.2341   627
20.2441   593
20.2541   603
20.2641   626
20.2741   647
20.2841   658
20.2941   631
20.3041   655
20.3141   607
20.3241   598
20.3341   575
20.3441   625
20.3541   619
20.3641   607
20.3741   649
20.3841   632
20.3941   626
20.4041   620
20.4141   598
20.4241   646
20.4341   647
20.4441   629
20.4541   662
20.4641   597
20.4741   625
20.4841   626
20.4941   592
20.5041   618
20.5141   623
20.5241   638
20.5341   621
20.5441   648
20.5541   665
20.5641   611
20.5741   593
20.5841   611
20.5941   656
20.6041   655
20.6141   611
20.6241   585
20.6341   608
20.6441   613
20.6541   650
20.6641   618
20.6741   663
20.6841   640
20.6941   624
20.7041   644
20.7141   647
20.7241   622
20.7341   604
20.7441   637
20.7541   650
20.7641   624
20.7741   673
20.7841   670
20.7941   633
20.8041   644
20.8141   644
20.8241   667
20.8341   652
20.8441   687
20.8541   696
20.8641   704
20.8741   673
20.8841   649
20.8941   783
20.9041   728
20.9141   725
20.9241   721
20.9341   729
20.9441   759
20.9541   780
20.9641   772
20.9741   803
20.9841   878
20.9941   832
21.0041   812
21.0141   848
21.0241   848
21.0341   870
21.0441   871
21.0541   896
21.0641   930
21.0741   890
21.0841   832
21.0941   977
21.1041   930
21.1141   902
21.1241   928
21.1341   927
21.1441   961
21.1541   991
21.1641   980
21.1741   950
21.1841   959
21.1941   886
21.2041   894
21.2141   898
21.2241   916
21.2341   917
21.2441   874
21.2541   859
21.2641   810
21.2741   800
21.2841   776
21.2941   758
21.3041   814
21.3141   745
21.3241   804
21.3341   737
21.3441   659
21.3541   708
21.3641   714
21.3741   701
21.3841   667
21.3941   690
21.4041   647
21.4141   641
21.4241   680
21.4341   614
21.4441   609
21.4541   665
21.4641   733
21.4741   658
21.4841   655
21.4941   657
21.5041   626
21.5141   678
21.5241   700
21.5341   675
21.5441   636
21.5541   642
21.5641   637
21.5741   591
21.5841   614
21.5941   641
21.6041   613
21.6141   639
21.6241   652
21.6341   707
21.6441   631
21.6541   643
21.6641   645
21.6741   651
21.6841   600
21.6941   607
21.7041   658
21.7141   618
21.7241   614
21.7341   619
21.7441   651
21.7541   616
21.7641   662
21.7741   649
21.7841   648
21.7941   605
21.8041   645
21.8141   605
21.8241   674
21.8341   619
21.8441   607
21.8541   639
21.8641   646
21.8741   624
21.8841   603
21.8941   645
21.9041   639
21.9141   635
21.9241   609
21.9341   649
21.9441   658
21.9541   655
21.9641   602
21.9741   626
21.9841   659
21.9941   634
22.0041   632
22.0141   638
22.0241   644
22.0341   625
22.0441   623
22.0541   623
22.0641   620
22.0741   625
22.0841   652
22.0941   670
22.1041   616
22.1141   637
22.1241   619
22.1341   654
22.1441   648
22.1541   624
22.1641   615
22.1741   658
22.1841   645
22.1941   661
22.2041   675
22.2141   609
22.2241   622
22.2341   602
22.2441   653
22.2541   618
22.2641   662
22.2741   661
22.2841   628
22.2941   676
22.3041   617
22.3141   630
22.3241   627
22.3341   644
22.3441   640
22.3541   632
22.3641   655
22.3741   635
22.3841   655
22.3941   629
22.4041   653
22.4141   621
22.4241   594
22.4341   653
22.4441   650
22.4541   649
22.4641   642
22.4741   616
22.4841   636
22.4941   677
22.5041   611
22.5141   573
22.5241   596
22.5341   592
22.5441   661
22.5541   629
22.5641   654
22.5741   640
22.5841   614
22.5941   585
22.6041   624
22.6141   596
22.6241   602
22.6341   602
22.6441   620
22.6541   630
22.6641   619
22.6741   658
22.6841   625
22.6941   630
22.7041   603
22.7141   632
22.7241   659
22.7341   583
22.7441   663
22.7541   655
22.7641   593
22.7741   631
22.7841   625
22.7941   611
22.8041   580
22.8141   588
22.8241   650
22.8341   600
22.8441   605
22.8541   636
22.8641   604
22.8741   585
22.8841   624
22.8941   619
22.9041   600
22.9141   628
22.9241   596
22.9341   645
22.9441   619
22.9541   626
22.9641   633
22.9741   609
22.9841   606
22.9941   629
23.0041   585
23.0141   651
23.0241   660
23.0341   655
23.0441   591
23.0541   602
23.0641   603
23.0741   586
23.0841   671
23.0941   590
23.1041   595
23.1141   627
23.1241   601
23.1341   611
23.1441   585
23.1541   584
23.1641   642
23.1741   597
23.1841   597
23.1941   616
23.2041   631
23.2141   599
23.2241   643
23.2341   583
23.2441   633
23.2541   632
23.2641   598
23.2741   607
23.2841   619
23.2941   633
23.3041   601
23.3141   604
23.3241   591
23.3341   585
23.3441   624
23.3541   635
23.3641   623
23.3741   604
23.3841   591
23.3941   605
23.4041   608
23.4141   570
23.4241   580
23.4341   618
23.4441   624
23.4541   616
23.4641   649
23.4741   614
23.4841   628
23.4941   603
23.5041   595
23.5141   608
23.5241   581
23.5341   627
23.5441   578
23.5541   649
23.5641   586
23.5741   620
23.5841   616
23.5941   629
23.6041   643
23.6141   576
23.6241   587
23.6341   597
23.6441   601
23.6541   594
23.6641   623
23.6741   634
23.6841   604
23.6941   616
23.7041   635
23.7141   619
23.7241   613
23.7341   666
23.7441   690
23.7541   615
23.7641   617
23.7741   683
23.7841   666
23.7941   640
23.8041   648
23.8141   666
23.8241   624
23.8341   645
23.8441   646
23.8541   661
23.8641   663
23.8741   651
23.8841   621
23.8941   623
23.9041   640
23.9141   610
23.9241   618
23.9341   632
23.9441   597
23.9541   623
23.9641   614
23.9741   665
23.9841   609
23.9941   588
24.0041   613
24.0141   565
24.0241   597
24.0341   607
24.0441   584
24.0541   642
24.0641   555
24.0741   584
24.0841   588
24.0941   571
24.1041   588
24.1141   575
24.1241   593
24.1341   589
24.1441   603
24.1541   607
24.1641   592
24.1741   577
24.1841   554
24.1941   625
24.2041   595
24.2141   599
24.2241   582
24.2341   597
24.2441   557
24.2541   606
24.2641   613
24.2741   575
24.2841   605
24.2941   577
24.3041   561
24.3141   562
24.3241   610
24.3341   594
24.3441   617
24.3541   545
24.3641   550
24.3741   565
24.3841   617
24.3941   636
24.4041   563
24.4141   573
24.4241   565
24.4341   596
24.4441   546
24.4541   537
24.4641   564
24.4741   614
24.4841   568
24.4941   549
24.5041   561
24.5141   598
24.5241   564
24.5341   558
24.5441   556
24.5541   560
24.5641   556
24.5741   585
24.5841   566
24.5941   550
24.6041   549
24.6141   539
24.6241   595
24.6341   534
24.6441   578
24.6541   570
24.6641   553
24.6741   565
24.6841   544
24.6941   551
24.7041   556
24.7141   517
24.7241   540
24.7341   540
24.7441   540
24.7541   588
24.7641   534
24.7741   543
24.7841   546
24.7941   545
24.8041   523
24.8141   563
24.8241   541
24.8341   563
24.8441   546
24.8541   571
24.8641   523
24.8741   509
24.8841   552
24.8941   586
24.9041   551
24.9141   542
24.9241   574
24.9341   553
24.9441   563
24.9541   558
24.9641   536
24.9741   535
24.9841   584
24.9941   558
25.0041   569
25.0141   564
25.0241   562
25.0341   536
25.0441   608
25.0541   568
25.0641   597
25.0741   560
25.0841   552
25.0941   561
25.1041   541
25.1141   542
25.1241   538
25.1341   550
25.1441   546
25.1541   559
25.1641   550
25.1741   527
25.1841   589
25.1941   578
25.2041   554
25.2141   550
25.2241   542
25.2341   552
25.2441   527
25.2541   594
25.2641   571
25.2741   529
25.2841   574
25.2941   558
25.3041   522
25.3141   553
25.3241   515
25.3341   497
25.3441   564
25.3541   555
25.3641   593
25.3741   576
25.3841   509
25.3941   535
25.4041   501
25.4141   541
25.4241   598
25.4341   544
25.4441   517
25.4541   541
25.4641   529
25.4741   515
25.4841   535
25.4941   548
25.5041   554
25.5141   567
25.5241   556
25.5341   535
25.5441   543
25.5541   517
25.5641   525
25.5741   504
25.5841   524
25.5941   531
25.6041   534
25.6141   509
25.6241   521
25.6341   491
25.6441   505
25.6541   492
25.6641   539
25.6741   485
25.6841   511
25.6941   520
25.7041   556
25.7141   540
25.7241   525
25.7341   518
25.7441   525
25.7541   525
25.7641   522
25.7741   503
25.7841   513
25.7941   520
25.8041   520
25.8141   516
25.8241   537
25.8341   512
25.8441   537
25.8541   512
25.8641   499
25.8741   480
25.8841   502
25.8941   529
25.9041   499
25.9141   518
25.9241   490
25.9341   466
25.9441   455
25.9541   490
25.9641   537
25.9741   487
25.9841   499
25.9941   534
26.0041   493
26.0141   502
26.0241   477
26.0341   503
26.0441   519
26.0541   497
26.0641   486
26.0741   505
26.0841   514
26.0941   503
26.1041   473
26.1141   511
26.1241   508
26.1341   476
26.1441   495
26.1541   492
26.1641   469
26.1741   492
26.1841   474
26.1941   473
26.2041   504
26.2141   514
26.2241   504
26.2341   538
26.2441   512
26.2541   477
26.2641   531
26.2741   505
26.2841   515
26.2941   480
26.3041   524
26.3141   505
26.3241   499
26.3341   500
26.3441   516
26.3541   499
26.3641   488
26.3741   496
26.3841   491
26.3941   516
26.4041   505
26.4141   474
26.4241   516
26.4341   469
26.4441   467
26.4541   491
26.4641   487
26.4741   480
26.4841   500
26.4941   486
26.5041   474
26.5141   517
26.5241   509
26.5341   476
26.5441   466
26.5541   467
26.5641   453
26.5741   463
26.5841   472
26.5941   504
26.6041   457
26.6141   481
26.6241   478
26.6341   467
26.6441   475
26.6541   453
26.6641   473
26.6741   490
26.6841   477
26.6941   479
26.7041   445
26.7141   443
26.7241   467
26.7341   477
26.7441   486
26.7541   442
26.7641   457
26.7741   462
26.7841   476
26.7941   454
26.8041   459
26.8141   443
26.8241   431
26.8341   453
26.8441   490
26.8541   462
26.8641   455
26.8741   469
26.8841   438
26.8941   481
26.9041   455
26.9141   491
26.9241   483
26.9341   463
26.9441   433
26.9541   433
26.9641   449
26.9741   446
26.9841   435
26.9941   497
27.0041   467
27.0141   428
27.0241   425
27.0341   494
27.0441   442
27.0541   425
27.0641   463
27.0741   440
27.0841   444
27.0941   463
27.1041   414
27.1141   442
27.1241   441
27.1341   475
27.1441   433
27.1541   422
27.1641   437
27.1741   440
27.1841   466
27.1941   454
27.2041   478
27.2141   453
27.2241   445
27.2341   431
27.2441   474
27.2541   447
27.2641   500
27.2741   463
27.2841   448
27.2941   493
27.3041   445
27.3141   432
27.3241   452
27.3341   433
27.3441   458
27.3541   458
27.3641   434
27.3741   434
27.3841   469
27.3941   445
27.4041   397
27.4141   448
27.4241   410
27.4341   469
27.4441   478
27.4541   453
27.4641   429
27.4741   437
27.4841   470
27.4941   433
27.5041   457
27.5141   436
27.5241   485
27.5341   427
27.5441   448
27.5541   434
27.5641   412
27.5741   420
27.5841   424
27.5941   451
27.6041   406
27.6141   427
27.6241   448
27.6341   453
27.6441   425
27.6541   396
27.6641   420
27.6741   404
27.6841   420
27.6941   421
27.7041   419
27.7141   440
27.7241   410
27.7341   427
27.7441   384
27.7541   416
27.7641   405
27.7741   448
27.7841   406
27.7941   427
27.8041   434
27.8141   420
27.8241   385
27.8341   391
27.8441   411
27.8541   407
27.8641   410
27.8741   438
27.8841   423
27.8941   423
27.9041   377
27.9141   401
27.9241   422
27.9341   407
27.9441   419
27.9541   413
27.9641   428
27.9741   435
27.9841   408
27.9941   396
28.0041   398
28.0141   377
28.0241   383
28.0341   401
28.0441   415
28.0541   415
28.0641   402
28.0741   394
28.0841   381
28.0941   406
28.1041   394
28.1141   389
28.1241   423
28.1341   383
28.1441   376
28.1541   391
28.1641   388
28.1741   395
28.1841   389
28.1941   411
28.2041   393
28.2141   398
28.2241   426
28.2341   401
28.2441   385
28.2541   372
28.2641   388
28.2741   375
28.2841   409
28.2941   396
28.3041   392
28.3141   402
28.3241   404
28.3341   395
28.3441   394
28.3541   422
28.3641   420
28.3741   400
28.3841   379
28.3941   373
28.4041   369
28.4141   404
28.4241   389
28.4341   383
28.4441   388
28.4541   386
28.4641   377
28.4741   372
28.4841   398
28.4941   399
28.5041   415
28.5141   417
28.5241   362
28.5341   366
28.5441   383
28.5541   396
28.5641   398
28.5741   379
28.5841   394
28.5941   380
28.6041   378
28.6141   396
28.6241   407
28.6341   380
28.6441   390
28.6541   410
28.6641   367
28.6741   329
28.6841   381
28.6941   334
28.7041   390
28.7141   374
28.7241   364
28.7341   347
28.7441   387
28.7541   346
28.7641   381
28.7741   348
28.7841   365
28.7941   358
28.8041   356
28.8141   376
28.8241   383
28.8341   379
28.8441   394
28.8541   359
28.8641   362
28.8741   350
28.8841   405
28.8941   379
28.9041   355
28.9141   347
28.9241   352
28.9341   365
28.9441   353
28.9541   380
28.9641   329
28.9741   338
28.9841   355
28.9941   385
29.0041   374
29.0141   370
29.0241   384
29.0341   394
29.0441   380
29.0541   342
29.0641   356
29.0741   383
29.0841   340
29.0941   369
29.1041   367
29.1141   379
29.1241   344
29.1341   346
29.1441   335
29.1541   340
29.1641   358
29.1741   318
29.1841   336
29.1941   366
29.2041   342
29.2141   342
29.2241   353
29.2341   385
29.2441   356
29.2541   364
29.2641   367
29.2741   359
29.2841   328
29.2941   354
29.3041   333
29.3141   327
29.3241   345
29.3341   322
29.3441   349
29.3541   339
29.3641   353
29.3741   329
29.3841   348
29.3941   335
29.4041   311
29.4141   314
29.4241   322
29.4341   334
29.4441   321
29.4541   322
29.4641   320
29.4741   332
29.4841   348
29.4941   357
29.5041   333
29.5141   338
29.5241   338
29.5341   352
29.5441   364
29.5541   342
29.5641   313
29.5741   338
29.5841   338
29.5941   323
29.6041   312
29.6141   309
29.6241   328
29.6341   342
29.6441   329
29.6541   304
29.6641   321
29.6741   317
29.6841   365
29.6941   339
29.7041   329
29.7141   312
29.7241   328
29.7341   335
29.7441   340
29.7541   302
29.7641   306
29.7741   338
29.7841   361
29.7941   300
29.8041   329
29.8141   346
29.8241   327
29.8341   342
29.8441   346
29.8541   325
29.8641   318
29.8741   286
29.8841   290
29.8941   321
29.9041   316
29.9141   337
29.9241   342
29.9341   295
29.9441   333
29.9541   280
29.9641   328
29.9741   326
29.9841   303
29.9941   327
30.0041   325
30.0141   291
30.0241   333
30.0341   319
30.0441   321
30.0541   300
30.0641   292
30.0741   306
30.0841   314
30.0941   341
30.1041   319
30.1141   307
30.1241   302
30.1341   285
30.1441   304
30.1541   337
30.1641   315
30.1741   291
30.1841   291
30.1941   321
30.2041   298
30.2141   277
30.2241   306
30.2341   321
30.2441   314
30.2541   294
30.2641   293
30.2741   299
30.2841   315
30.2941   342
30.3041   320
30.3141   325
30.3241   323
30.3341   309
30.3441   288
30.3541   301
30.3641   286
30.3741   295
30.3841   319
30.3941   270
30.4041   309
30.4141   308
30.4241   324
30.4341   312
30.4441   291
30.4541   281
30.4641   271
30.4741   286
30.4841   271
30.4941   312
30.5041   286
30.5141   309
30.5241   259
30.5341   305
30.5441   274
30.5541   290
30.5641   273
30.5741   276
30.5841   271
30.5941   293
30.6041   295
30.6141   306
30.6241   301
30.6341   273
30.6441   290
30.6541   278
30.6641   310
30.6741   285
30.6841   314
30.6941   300
30.7041   290
30.7141   282
30.7241   274
30.7341   281
30.7441   261
30.7541   260
30.7641   245
30.7741   278
30.7841   282
30.7941   249
30.8041   287
30.8141   274
30.8241   270
30.8341   277
30.8441   264
30.8541   347
30.8641   273
30.8741   273
30.8841   262
30.8941   298
30.9041   262
30.9141   266
30.9241   257
30.9341   260
30.9441   257
30.9541   287
30.9641   277
30.9741   247
30.9841   285
30.9941   271
31.0041   316
31.0141   292
31.0241   242
31.0341   242
31.0441   257
31.0541   276
31.0641   261
31.0741   278
31.0841   284
31.0941   262
31.1041   261
31.1141   275
31.1241   264
31.1341   256
31.1441   256
31.1541   283
31.1641   274
31.1741   267
31.1841   278
31.1941   266
31.2041   255
31.2141   259
31.2241   250
31.2341   274
31.2441   280
31.2541   260
31.2641   234
31.2741   271
31.2841   270
31.2941   246
31.3041   275
31.3141   260
31.3241   265
31.3341   240
31.3441   266
31.3541   250
31.3641   260
31.3741   244
31.3841   230
31.3941   254
31.4041   265
31.4141   270
31.4241   244
31.4341   238
31.4441   250
31.4541   263
31.4641   255
31.4741   249
31.4841   243
31.4941   245
31.5041   252
31.5141   252
31.5241   277
31.5341   254
31.5441   262
31.5541   274
31.5641   264
31.5741   234
31.5841   251
31.5941   266
31.6041   246
31.6141   259
31.6241   256
31.6341   238
31.6441   234
31.6541   254
31.6641   228
31.6741   260
31.6841   241
31.6941   229
31.7041   275
31.7141   241
31.7241   247
31.7341   230
31.7441   246
31.7541   246
31.7641   254
31.7741   273
31.7841   241
31.7941   243
31.8041   274
31.8141   244
31.8241   235
31.8341   248
31.8441   238
31.8541   219
31.8641   243
31.8741   240
31.8841   257
31.8941   266
31.9041   214
31.9141   245
31.9241   258
31.9341   255
31.9441   242
31.9541   232
31.9641   235
31.9741   208
31.9841   211
31.9941   229
32.0041   234
32.0141   230
32.0241   200
32.0341   256
32.0441   245
32.0541   277
32.0641   224
32.0741   237
32.0841   233
32.0941   232
32.1041   233
32.1141   232
32.1241   257
32.1341   229
32.1441   223
32.1541   209
32.1641   239
32.1741   245
32.1841   214
32.1941   238
32.2041   246
32.2141   237
32.2241   240
32.2341   202
32.2441   246
32.2541   216
32.2641   193
32.2741   221
32.2841   222
32.2941   243
32.3041   221
32.3141   215
32.3241   230
32.3341   218
32.3441   249
32.3541   233
32.3641   227
32.3741   234
32.3841   212
32.3941   220
32.4041   223
32.4141   204
32.4241   183
32.4341   218
32.4441   220
32.4541   213
32.4641   229
32.4741   216
32.4841   217
32.4941   210
32.5041   229
32.5141   213
32.5241   201
32.5341   212
32.5441   211
32.5541   217
32.5641   201
32.5741   206
32.5841   224
32.5941   215
32.6041   211
32.6141   217
32.6241   191
32.6341   217
32.6441   222
32.6541   205
32.6641   207
32.6741   211
32.6841   211
32.6941   201
32.7041   232
32.7141   216
32.7241   219
32.7341   202
32.7441   206
32.7541   207
32.7641   198
32.7741   195
32.7841   203
32.7941   203
32.8041   221
32.8141   197
32.8241   196
32.8341   178
32.8441   224
32.8541   201
32.8641   180
32.8741   204
32.8841   201
32.8941   182
32.9041   239
32.9141   208
32.9241   196
32.9341   216
32.9441   186
32.9541   193
32.9641   186
32.9741   187
32.9841   220
32.9941   193
33.0041   213
33.0141   205
33.0241   205
33.0341   166
33.0441   208
33.0541   195
33.0641   167
33.0741   179
33.0841   205
33.0941   203
33.1041   196
33.1141   177
33.1241   193
33.1341   196
33.1441   190
33.1541   195
33.1641   192
33.1741   187
33.1841   181
33.1941   167
33.2041   205
33.2141   179
33.2241   168
33.2341   189
33.2441   200
33.2541   196
33.2641   176
33.2741   191
33.2841   187
33.2941   209
33.3041   184
33.3141   167
33.3241   201
33.3341   174
33.3441   175
33.3541   183
33.3641   171
33.3741   173
33.3841   174
33.3941   171
33.4041   189
33.4141   188
33.4241   176
33.4341   177
33.4441   193
33.4541   199
33.4641   202
33.4741   173
33.4841   189
33.4941   171
33.5041   172
33.5141   181
33.5241   186
33.5341   186
33.5441   182
33.5541   187
33.5641   178
33.5741   199
33.5841   188
33.5941   181
33.6041   192
33.6141   178
33.6241   158
33.6341   184
33.6441   194
33.6541   177
33.6641   160
33.6741   172
33.6841   181
33.6941   189
33.7041   199
33.7141   191
33.7241   170
33.7341   163
33.7441   144
33.7541   150
33.7641   165
33.7741   158
33.7841   172
33.7941   166
33.8041   212
33.8141   195
33.8241   166
33.8341   172
33.8441   145
33.8541   174
33.8641   173
33.8741   195
33.8841   176
33.8941   159
33.9041   179
33.9141   164
33.9241   161
33.9341   180
33.9441   166
33.9541   175
33.9641   151
33.9741   166
33.9841   152
33.9941   174
34.0041   180
34.0141   179
34.0241   157
34.0341   157
34.0441   157
34.0541   170
34.0641   165
34.0741   147
34.0841   168
34.0941   167
34.1041   152
34.1141   137
34.1241   174
34.1341   155
34.1441   163
34.1541   173
34.1641   144
34.1741   139
34.1841   157
34.1941   181
34.2041   148
34.2141   156
34.2241   170
34.2341   148
34.2441   140
34.2541   161
34.2641   166
34.2741   153
34.2841   161
34.2941   147
34.3041   151
34.3141   158
34.3241   155
34.3341   164
34.3441   167
34.3541   121
34.3641   157
34.3741   150
34.3841   125
34.3941   157
34.4041   155
34.4141   145
34.4241   155
34.4341   163
34.4441   162
34.4541   132
34.4641   161
34.4741   152
34.4841   159
34.4941   166
34.5041   146
34.5141   172
34.5241   142
34.5341   147
34.5441   156
34.5541   147
34.5641   144
34.5741   167
34.5841   166
34.5941   146
34.6041   132
34.6141   138
34.6241   135
34.6341   155
34.6441   146
34.6541   134
34.6641   143
34.6741   161
34.6841   121
34.6941   128
34.7041   140
34.7141   148
34.7241   156
34.7341   144
34.7441   148
34.7541   132
34.7641   124
34.7741   144
34.7841   132
34.7941   140
34.8041   152
34.8141   147
34.8241   139
34.8341   144
34.8441   134
34.8541   122
34.8641   129
34.8741   138
34.8841   133
34.8941   157
34.9041   166
34.9141   129
34.9241   140
34.9341   131
34.9441   122
34.9541   130
34.9641   143
34.9741   142
34.9841   146
34.9941   119
35.0041   140
35.0141   139
35.0241   142
35.0341   111
35.0441   159
35.0541   144
35.0641   128
35.0741   129
35.0841   117
35.0941   133
35.1041   134
35.1141   130
35.1241   139
35.1341   133
35.1441   158
35.1541   119
35.1641   137
35.1741   136
35.1841   116
35.1941   143
35.2041   118
35.2141   127
35.2241   124
35.2341   122
35.2441   118
35.2541   127
35.2641   121
35.2741   140
35.2841   134
35.2941   131
35.3041   151
35.3141   113
35.3241   136
35.3341   136
35.3441   113
35.3541   114
35.3641   135
35.3741   124
35.3841   131
35.3941   128
35.4041   123
35.4141   122
35.4241   119
35.4341   121
35.4441   133
35.4541   127
35.4641   103
35.4741   122
35.4841   105
35.4941   115
35.5041   119
35.5141   140
35.5241   116
35.5341   123
35.5441   133
35.5541   104
35.5641   130
35.5741   120
35.5841   131
35.5941    92
35.6041   115
35.6141   122
35.6241   137
35.6341   114
35.6441   108
35.6541   105
35.6641   117
35.6741   113
35.6841   109
35.6941   139
35.7041   103
35.7141   109
35.7241   112
35.7341   110
35.7441   119
35.7541   136
35.7641   117
35.7741   117
35.7841   126
35.7941   137
35.8041   114
35.8141   126
35.8241   106
35.8341   114
35.8441   118
35.8541   121
35.8641    94
35.8741   133
35.8841   127
35.8941   113
35.9041    90
35.9141   121
35.9241   112
35.9341    93
35.9441   114
35.9541   105
35.9641    97
35.9741   102
35.9841   116
35.9941    95
36.0041   105
36.0141    98
36.0241   112
36.0341   105
36.0441   102
36.0541   108
36.0641   109
36.0741   101
36.0841    72
36.0941   111
36.1041    99
36.1141   118
36.1241   116
36.1341   107
36.1441   120
36.1541    95
36.1641   111
36.1741    96
36.1841   120
36.1941    99
36.2041   110
36.2141   100
36.2241   107
36.2341   100
36.2441   111
36.2541    93
36.2641   109
36.2741    96
36.2841    84
36.2941   108
36.3041   100
36.3141   117
36.3241   101
36.3341   108
36.3441   124
36.3541    91
36.3641   105
36.3741    92
36.3841    94
36.3941   103
36.4041    89
36.4141   109
36.4241   104
36.4341    97
36.4441   108
36.4541   102
36.4641   109
36.4741   101
36.4841   102
36.4941    83
36.5041   110
36.5141    93
36.5241    97
36.5341    85
36.5441    78
36.5541   100
36.5641    76
36.5741   100
36.5841   102
36.5941    94
36.6041    96
36.6141    88
36.6241   105
36.6341    80
36.6441    97
36.6541    93
36.6641    78
36.6741    89
36.6841    98
36.6941    85
36.7041    87
36.7141   100
36.7241   105
36.7341    87
36.7441    92
36.7541    91
36.7641   101
36.7741    78
36.7841    87
36.7941    92
36.8041    92
36.8141    89
36.8241    81
36.8341   105
36.8441    97
36.8541   100
36.8641    98
36.8741    98
36.8841    90
36.8941    94
36.9041    97
36.9141    97
36.9241    86
36.9341    92
36.9441    77
36.9541    97
36.9641   111
36.9741    72
36.9841    79
36.9941   107
37.0041    73
37.0141    82
37.0241    86
37.0341    75
37.0441    80
37.0541    93
37.0641   102
37.0741    88
37.0841    84
37.0941    81
37.1041    95
37.1141    77
37.1241    85
37.1341    90
37.1441    80
37.1541    82
37.1641    78
37.1741    79
37.1841    85
37.1941    71
37.2041    80
37.2141    80
37.2241    80
37.2341    90
37.2441    96
37.2541    90
37.2641    75
37.2741    70
37.2841    77
37.2941    95
37.3041    83
37.3141    79
37.3241    76
37.3341    76
37.3441    70
37.3541    68
37.3641    91
37.3741    84
37.3841    80
37.3941    97
37.4041    69
37.4141    75
37.4241    85
37.4341    89
37.4441    79
37.4541    73
37.4641    66
37.4741    86
37.4841    78
37.4941    79
37.5041    63
37.5141    66
37.5241    80
37.5341    72
37.5441    72
37.5541    65
37.5641    56
37.5741    81
37.5841    72
37.5941    81
37.6041    73
37.6141    65
37.6241    62
37.6341    91
37.6441    88
37.6541    75
37.6641    67
37.6741    74
37.6841    74
37.6941    81
37.7041    69
37.7141    75
37.7241    76
37.7341    78
37.7441    78
37.7541    75
37.7641    77
37.7741    78
37.7841    71
37.7941    73
37.8041    64
37.8141    72
37.8241    64
37.8341    77
37.8441    70
37.8541    85
37.8641    67
37.8741    69
37.8841    60
37.8941    64
37.9041    69
37.9141    66
37.9241    70
37.9341    57
37.9441    68
37.9541    67
37.9641    76
37.9741    54
37.9841    65
37.9941    57
38.0041    58
38.0141    72
38.0241    61
38.0341    74
38.0441    72
38.0541    72
38.0641    62
38.0741    56
38.0841    77
38.0941    63
38.1041    65
38.1141    53
38.1241    63
38.1341    71
38.1441    69
38.1541    60
38.1641    57
38.1741    57
38.1841    67
38.1941    75
38.2041    57
38.2141    66
38.2241    52
38.2341    69
38.2441    61
38.2541    58
38.2641    54
38.2741    66
38.2841    64
38.2941    71
38.3041    54
38.3141    60
38.3241    48
38.3341    60
38.3441    64
38.3541    69
38.3641    55
38.3741    61
38.3841    51
38.3941    62
38.4041    50
38.4141    65
38.4241    54
38.4341    44
38.4441    58
38.4541    50
38.4641    52
38.4741    65
38.4841    73
38.4941    55
38.5041    58
38.5141    42
38.5241    58
38.5341    57
38.5441    53
38.5541    52
38.5641    71
38.5741    67
38.5841    55
38.5941    43
38.6041    53
38.6141    47
38.6241    40
38.6341    57
38.6441    54
38.6541    57
38.6641    53
38.6741    49
38.6841    54
38.6941    60
38.7041    47
38.7141    48
38.7241    61
38.7341    62
38.7441    48
38.7541    52
38.7641    58
38.7741    65
38.7841    68
38.7941    59
38.8041    44
38.8141    40
38.8241    57
38.8341    55
38.8441    44
38.8541    63
38.8641    66
38.8741    51
38.8841    49
38.8941    54
38.9041    49
38.9141    48
38.9241    47
38.9341    55
38.9441    50
38.9541    51
38.9641    41
38.9741    47
38.9841    53
38.9941    40
39.0041    39
39.0141    47
39.0241    58
39.0341    47
39.0441    52
39.0541    52
39.0641    43
39.0741    52
39.0841    45
39.0941    43
39.1041    49
39.1141    54
39.1241    45
39.1341    46
39.1441    39
39.1541    42
39.1641    45
39.1741    46
39.1841    36
39.1941    54
39.2041    42
39.2141    44
39.2241    53
39.2341    44
39.2441    42
39.2541    37
39.2641    40
39.2741    44
39.2841    41
39.2941    57
39.3041    42
39.3141    49
39.3241    47
39.3341    48
39.3441    55
39.3541    53
39.3641    53
39.3741    41
39.3841    34
39.3941    50
39.4041    54
39.4141    48
39.4241    54
39.4341    44
39.4441    38
39.4541    48
39.4641    41
39.4741    49
39.4841    53
39.4941    31
39.5041    41
39.5141    48
39.5241    37
39.5341    44
39.5441    42
39.5541    47
39.5641    35
39.5741    27
39.5841    40
39.5941    42
39.6041    46
39.6141    41
39.6241    42
39.6341    34
39.6441    33
39.6541    39
39.6641    38
39.6741    47
39.6841    46
39.6941    34
39.7041    34
39.7141    50
39.7241    37
39.7341    41
39.7441    35
39.7541    41
39.7641    44
39.7741    36
39.7841    40
39.7941    43
39.8041    39
39.8141    41
39.8241    34
39.8341    41
39.8441    41
39.8541    30
39.8641    38
39.8741    51
39.8841    35
39.8941    35
39.9041    25
39.9141    32
39.9241    27
39.9341    26
39.9441    38
39.9541    44
39.9641    39
39.9741    40
39.9841    32
39.9941    35
