Bruker Nano GmbH Berlin, Germany
Esprit 1.9

Date: 4/21/2021 1:47:24 PM
Real time: 16035
Life time: 14904
Pulse density: 108654


Detector type: XFlash 430
Window type: Custom type
Detector thickness: 0.45
Si dead layer:0.029

Calibration, lin.: 10
Calibration, abs.: -955.9
Mn FWHM: 137.05
Fano factor: 0.121
Channels: 4095

Energy Counts
-0.9559     0
-0.9459     0
-0.9359     0
-0.9259     0
-0.9159     0
-0.9059     0
-0.8959     0
-0.8859     0
-0.8759     0
-0.8659     0
-0.8559     0
-0.8459     0
-0.8359     0
-0.8259     0
-0.8159     0
-0.8059     0
-0.7959     0
-0.7859     0
-0.7759     0
-0.7659     0
-0.7559     0
-0.7459     0
-0.7359     0
-0.7259     0
-0.7159     0
-0.7059     0
-0.6959     0
-0.6859     0
-0.6759     0
-0.6659     0
-0.6559     0
-0.6459     0
-0.6359     0
-0.6259     0
-0.6159     0
-0.6059     0
-0.5959     0
-0.5859     0
-0.5759     0
-0.5659     0
-0.5559     0
-0.5459     0
-0.5359     0
-0.5259     0
-0.5159     0
-0.5059     0
-0.4959     0
-0.4859     0
-0.4759     0
-0.4659     0
-0.4559     0
-0.4459     0
-0.4359     0
-0.4259     0
-0.4159     0
-0.4059     0
-0.3959     0
-0.3859     0
-0.3759     0
-0.3659     0
-0.3559     0
-0.3459     0
-0.3359     0
-0.3259     0
-0.3159     0
-0.3059     0
-0.2959     0
-0.2859     0
-0.2759     0
-0.2659     0
-0.2559     0
-0.2459     0
-0.2359     0
-0.2259     0
-0.2159     0
-0.2059     0
-0.1959     0
-0.1859     0
-0.1759     0
-0.1659     0
-0.1559     0
-0.1459     0
-0.1359     0
-0.1259     0
-0.1159     1
-0.1059     9
-0.0959    53
-0.0859   176
-0.0759   621
-0.0659  1714
-0.0559  4329
-0.0459  9283
-0.0359 17776
-0.0259 28128
-0.0159 38831
-0.0059 45630
 0.0041 46234
 0.0141 39683
 0.0241 29206
 0.0341 18443
 0.0441 10089
 0.0541  4676
 0.0641  1791
 0.0741   648
 0.0841   184
 0.0941    54
 0.1041    13
 0.1141    11
 0.1241     6
 0.1341     8
 0.1441     5
 0.1541     4
 0.1641     4
 0.1741     1
 0.1841   128
 0.1941   236
 0.2041   210
 0.2141   219
 0.2241   217
 0.2341   210
 0.2441   227
 0.2541   224
 0.2641   202
 0.2741   202
 0.2841   244
 0.2941   215
 0.3041   193
 0.3141   215
 0.3241   227
 0.3341   223
 0.3441   208
 0.3541   195
 0.3641   212
 0.3741   209
 0.3841   205
 0.3941   224
 0.4041   199
 0.4141   198
 0.4241   184
 0.4341   189
 0.4441   226
 0.4541   196
 0.4641   207
 0.4741   206
 0.4841   183
 0.4941   177
 0.5041   175
 0.5141   192
 0.5241   192
 0.5341   169
 0.5441   161
 0.5541   162
 0.5641   170
 0.5741   184
 0.5841   182
 0.5941   178
 0.6041   193
 0.6141   190
 0.6241   187
 0.6341   179
 0.6441   172
 0.6541   158
 0.6641   160
 0.6741   162
 0.6841   154
 0.6941   170
 0.7041   173
 0.7141   164
 0.7241   159
 0.7341   153
 0.7441   162
 0.7541   160
 0.7641   141
 0.7741   146
 0.7841   154
 0.7941   158
 0.8041   161
 0.8141   141
 0.8241   138
 0.8341   147
 0.8441   151
 0.8541   152
 0.8641   152
 0.8741   144
 0.8841   142
 0.8941   158
 0.9041   159
 0.9141   136
 0.9241   145
 0.9341   152
 0.9441   151
 0.9541   138
 0.9641   133
 0.9741   139
 0.9841   140
 0.9941   157
 1.0041   127
 1.0141   142
 1.0241   144
 1.0341   151
 1.0441   145
 1.0541   121
 1.0641   138
 1.0741   142
 1.0841   155
 1.0941   124
 1.1041   142
 1.1141   137
 1.1241   145
 1.1341   137
 1.1441   130
 1.1541   127
 1.1641   123
 1.1741   134
 1.1841   133
 1.1941   132
 1.2041   123
 1.2141   122
 1.2241   140
 1.2341   123
 1.2441   133
 1.2541   132
 1.2641   136
 1.2741   121
 1.2841   117
 1.2941   122
 1.3041   119
 1.3141   137
 1.3241   125
 1.3341   124
 1.3441   113
 1.3541   121
 1.3641   117
 1.3741   121
 1.3841   130
 1.3941   139
 1.4041   123
 1.4141   124
 1.4241   138
 1.4341   146
 1.4441   138
 1.4541   112
 1.4641   121
 1.4741   126
 1.4841   140
 1.4941   152
 1.5041   144
 1.5141   113
 1.5241   107
 1.5341   134
 1.5441   115
 1.5541   135
 1.5641   121
 1.5741   125
 1.5841   131
 1.5941   111
 1.6041   122
 1.6141   115
 1.6241   114
 1.6341   136
 1.6441   155
 1.6541   144
 1.6641   175
 1.6741   241
 1.6841   267
 1.6941   384
 1.7041   441
 1.7141   504
 1.7241   579
 1.7341   567
 1.7441   602
 1.7541   566
 1.7641   497
 1.7741   427
 1.7841   352
 1.7941   292
 1.8041   243
 1.8141   218
 1.8241   187
 1.8341   182
 1.8441   171
 1.8541   151
 1.8641   158
 1.8741   148
 1.8841   129
 1.8941   140
 1.9041   132
 1.9141   130
 1.9241   137
 1.9341   144
 1.9441   123
 1.9541   133
 1.9641   122
 1.9741   158
 1.9841   152
 1.9941   167
 2.0041   182
 2.0141   163
 2.0241   159
 2.0341   169
 2.0441   168
 2.0541   147
 2.0641   142
 2.0741   128
 2.0841   117
 2.0941   106
 2.1041   105
 2.1141   122
 2.1241   119
 2.1341   130
 2.1441   111
 2.1541   123
 2.1641   117
 2.1741   108
 2.1841   114
 2.1941   128
 2.2041   119
 2.2141   119
 2.2241   115
 2.2341   132
 2.2441    96
 2.2541    96
 2.2641    96
 2.2741   108
 2.2841   115
 2.2941   123
 2.3041    92
 2.3141   113
 2.3241   100
 2.3341   114
 2.3441   109
 2.3541   114
 2.3641   101
 2.3741    97
 2.3841    99
 2.3941    98
 2.4041   102
 2.4141   114
 2.4241   103
 2.4341    93
 2.4441    95
 2.4541   108
 2.4641   104
 2.4741   103
 2.4841   102
 2.4941    97
 2.5041    97
 2.5141   110
 2.5241    94
 2.5341    84
 2.5441    95
 2.5541   109
 2.5641    84
 2.5741    83
 2.5841    81
 2.5941   100
 2.6041   117
 2.6141   119
 2.6241   103
 2.6341   107
 2.6441    95
 2.6541    88
 2.6641    86
 2.6741   108
 2.6841    87
 2.6941   101
 2.7041    85
 2.7141   101
 2.7241    99
 2.7341   101
 2.7441    98
 2.7541    94
 2.7641   106
 2.7741    91
 2.7841    90
 2.7941    99
 2.8041    96
 2.8141   105
 2.8241    98
 2.8341   105
 2.8441   106
 2.8541   103
 2.8641   111
 2.8741    97
 2.8841    93
 2.8941    93
 2.9041    95
 2.9141    99
 2.9241    97
 2.9341   106
 2.9441    72
 2.9541    93
 2.9641    78
 2.9741    88
 2.9841    96
 2.9941    95
 3.0041    82
 3.0141    85
 3.0241    97
 3.0341    84
 3.0441    84
 3.0541   101
 3.0641    77
 3.0741    75
 3.0841    98
 3.0941    83
 3.1041    73
 3.1141    83
 3.1241    90
 3.1341    72
 3.1441    87
 3.1541    81
 3.1641    81
 3.1741    80
 3.1841    94
 3.1941    84
 3.2041    88
 3.2141    76
 3.2241    93
 3.2341   108
 3.2441   120
 3.2541   137
 3.2641   151
 3.2741   158
 3.2841   160
 3.2941   195
 3.3041   183
 3.3141   194
 3.3241   220
 3.3341   182
 3.3441   162
 3.3541   143
 3.3641   134
 3.3741   127
 3.3841   129
 3.3941    97
 3.4041    88
 3.4141   107
 3.4241    78
 3.4341    75
 3.4441    65
 3.4541    69
 3.4641    82
 3.4741    73
 3.4841    74
 3.4941    82
 3.5041    79
 3.5141    88
 3.5241    97
 3.5341    81
 3.5441   103
 3.5541   116
 3.5641   134
 3.5741   165
 3.5841   186
 3.5941   191
 3.6041   262
 3.6141   350
 3.6241   398
 3.6341   485
 3.6441   601
 3.6541   720
 3.6641   824
 3.6741   800
 3.6841   832
 3.6941   880
 3.7041   818
 3.7141   795
 3.7241   673
 3.7341   582
 3.7441   518
 3.7541   416
 3.7641   304
 3.7741   231
 3.7841   185
 3.7941   146
 3.8041   123
 3.8141    88
 3.8241    85
 3.8341    76
 3.8441    65
 3.8541    73
 3.8641    70
 3.8741    69
 3.8841    83
 3.8941    63
 3.9041    81
 3.9141    80
 3.9241    92
 3.9341   102
 3.9441    88
 3.9541   106
 3.9641   123
 3.9741   154
 3.9841   162
 3.9941   184
 4.0041   179
 4.0141   164
 4.0241   171
 4.0341   175
 4.0441   138
 4.0541   138
 4.0641   120
 4.0741   111
 4.0841   109
 4.0941    92
 4.1041    88
 4.1141    67
 4.1241    67
 4.1341    70
 4.1441    66
 4.1541    62
 4.1641    62
 4.1741    59
 4.1841    64
 4.1941    59
 4.2041    52
 4.2141    74
 4.2241    69
 4.2341    55
 4.2441    53
 4.2541    61
 4.2641    54
 4.2741    50
 4.2841    54
 4.2941    55
 4.3041    62
 4.3141    63
 4.3241    68
 4.3341    50
 4.3441    52
 4.3541    78
 4.3641    83
 4.3741    96
 4.3841   108
 4.3941   114
 4.4041   154
 4.4141   169
 4.4241   213
 4.4341   233
 4.4441   311
 4.4541   336
 4.4641   378
 4.4741   417
 4.4841   441
 4.4941   495
 4.5041   502
 4.5141   471
 4.5241   458
 4.5341   444
 4.5441   397
 4.5541   350
 4.5641   316
 4.5741   279
 4.5841   200
 4.5941   175
 4.6041   145
 4.6141   135
 4.6241   113
 4.6341    97
 4.6441    87
 4.6541    66
 4.6641    89
 4.6741    69
 4.6841    99
 4.6941    76
 4.7041    63
 4.7141    74
 4.7241    73
 4.7341    73
 4.7441    63
 4.7541    90
 4.7641    81
 4.7741    93
 4.7841    95
 4.7941    96
 4.8041    97
 4.8141   124
 4.8241   123
 4.8341   105
 4.8441   122
 4.8541   134
 4.8641   121
 4.8741   124
 4.8841   136
 4.8941   135
 4.9041   146
 4.9141   155
 4.9241   155
 4.9341   181
 4.9441   174
 4.9541   174
 4.9641   158
 4.9741   140
 4.9841   142
 4.9941   133
 5.0041   121
 5.0141   106
 5.0241    85
 5.0341   101
 5.0441    82
 5.0541    97
 5.0641    87
 5.0741    87
 5.0841    72
 5.0941    84
 5.1041    88
 5.1141    81
 5.1241    82
 5.1341    76
 5.1441    64
 5.1541    58
 5.1641    64
 5.1741    75
 5.1841    73
 5.1941    91
 5.2041    87
 5.2141    75
 5.2241    67
 5.2341    76
 5.2441    78
 5.2541    86
 5.2641    84
 5.2741    89
 5.2841    79
 5.2941    90
 5.3041    90
 5.3141   101
 5.3241    81
 5.3341    97
 5.3441   112
 5.3541   103
 5.3641   112
 5.3741   103
 5.3841   119
 5.3941   131
 5.4041   127
 5.4141   112
 5.4241   134
 5.4341   124
 5.4441   138
 5.4541   136
 5.4641   110
 5.4741    97
 5.4841   105
 5.4941   101
 5.5041   101
 5.5141    92
 5.5241    72
 5.5341    96
 5.5441    83
 5.5541    90
 5.5641    76
 5.5741    70
 5.5841    92
 5.5941    67
 5.6041    92
 5.6141    80
 5.6241    83
 5.6341    74
 5.6441    77
 5.6541    75
 5.6641    74
 5.6741    84
 5.6841    85
 5.6941    97
 5.7041    88
 5.7141    78
 5.7241    84
 5.7341    95
 5.7441   107
 5.7541    93
 5.7641   132
 5.7741   140
 5.7841   173
 5.7941   172
 5.8041   221
 5.8141   281
 5.8241   321
 5.8341   370
 5.8441   373
 5.8541   441
 5.8641   538
 5.8741   494
 5.8841   510
 5.8941   540
 5.9041   539
 5.9141   530
 5.9241   552
 5.9341   467
 5.9441   396
 5.9541   376
 5.9641   297
 5.9741   273
 5.9841   222
 5.9941   231
 6.0041   180
 6.0141   159
 6.0241   152
 6.0341   133
 6.0441   111
 6.0541   131
 6.0641   105
 6.0741   122
 6.0841   135
 6.0941   157
 6.1041   139
 6.1141   145
 6.1241   152
 6.1341   178
 6.1441   171
 6.1541   174
 6.1641   204
 6.1741   259
 6.1841   289
 6.1941   311
 6.2041   418
 6.2141   652
 6.2241   804
 6.2341  1180
 6.2441  1562
 6.2541  2255
 6.2641  3076
 6.2741  4234
 6.2841  5675
 6.2941  7537
 6.3041  9777
 6.3141 12335
 6.3241 15571
 6.3341 18864
 6.3441 21915
 6.3541 25053
 6.3641 27970
 6.3741 30217
 6.3841 31904
 6.3941 32527
 6.4041 32922
 6.4141 31415
 6.4241 29958
 6.4341 27310
 6.4441 24207
 6.4541 21270
 6.4641 18121
 6.4741 14823
 6.4841 12173
 6.4941  9325
 6.5041  6822
 6.5141  5218
 6.5241  3844
 6.5341  2633
 6.5441  1991
 6.5541  1292
 6.5641   887
 6.5741   667
 6.5841   509
 6.5941   346
 6.6041   253
 6.6141   235
 6.6241   183
 6.6341   187
 6.6441   152
 6.6541   160
 6.6641   152
 6.6741   171
 6.6841   157
 6.6941   156
 6.7041   165
 6.7141   146
 6.7241   145
 6.7341   147
 6.7441   192
 6.7541   203
 6.7641   183
 6.7741   206
 6.7841   194
 6.7941   195
 6.8041   191
 6.8141   183
 6.8241   249
 6.8341   252
 6.8441   300
 6.8541   300
 6.8641   323
 6.8741   387
 6.8841   426
 6.8941   520
 6.9041   660
 6.9141   807
 6.9241   947
 6.9341  1190
 6.9441  1554
 6.9541  1865
 6.9641  2230
 6.9741  2711
 6.9841  3202
 6.9941  3782
 7.0041  4119
 7.0141  4736
 7.0241  5059
 7.0341  5438
 7.0441  5619
 7.0541  5565
 7.0641  5607
 7.0741  5427
 7.0841  4998
 7.0941  4609
 7.1041  4178
 7.1141  3626
 7.1241  3146
 7.1341  2648
 7.1441  2161
 7.1541  1721
 7.1641  1312
 7.1741  1084
 7.1841   805
 7.1941   638
 7.2041   475
 7.2141   379
 7.2241   334
 7.2341   270
 7.2441   211
 7.2541   194
 7.2641   192
 7.2741   163
 7.2841   167
 7.2941   180
 7.3041   164
 7.3141   185
 7.3241   187
 7.3341   218
 7.3441   195
 7.3541   215
 7.3641   223
 7.3741   226
 7.3841   232
 7.3941   207
 7.4041   206
 7.4141   224
 7.4241   226
 7.4341   265
 7.4441   250
 7.4541   248
 7.4641   247
 7.4741   241
 7.4841   215
 7.4941   223
 7.5041   204
 7.5141   196
 7.5241   210
 7.5341   195
 7.5441   175
 7.5541   182
 7.5641   173
 7.5741   150
 7.5841   173
 7.5941   160
 7.6041   162
 7.6141   151
 7.6241   123
 7.6341   148
 7.6441   167
 7.6541   152
 7.6641   165
 7.6741   171
 7.6841   161
 7.6941   147
 7.7041   176
 7.7141   150
 7.7241   174
 7.7341   184
 7.7441   156
 7.7541   178
 7.7641   179
 7.7741   183
 7.7841   203
 7.7941   188
 7.8041   222
 7.8141   213
 7.8241   219
 7.8341   225
 7.8441   213
 7.8541   237
 7.8641   232
 7.8741   228
 7.8841   247
 7.8941   255
 7.9041   256
 7.9141   258
 7.9241   276
 7.9341   310
 7.9441   316
 7.9541   370
 7.9641   366
 7.9741   423
 7.9841   386
 7.9941   470
 8.0041   465
 8.0141   540
 8.0241   575
 8.0341   587
 8.0441   659
 8.0541   685
 8.0641   662
 8.0741   782
 8.0841   842
 8.0941   861
 8.1041   892
 8.1141   930
 8.1241   929
 8.1341   994
 8.1441  1025
 8.1541  1124
 8.1641  1041
 8.1741  1073
 8.1841  1080
 8.1941  1038
 8.2041  1070
 8.2141  1132
 8.2241  1088
 8.2341  1087
 8.2441  1162
 8.2541  1139
 8.2641  1292
 8.2741  1360
 8.2841  1410
 8.2941  1465
 8.3041  1564
 8.3141  1750
 8.3241  1848
 8.3341  1972
 8.3441  2181
 8.3541  2314
 8.3641  2400
 8.3741  2412
 8.3841  2518
 8.3941  2472
 8.4041  2337
 8.4141  2354
 8.4241  2268
 8.4341  2070
 8.4441  1834
 8.4541  1676
 8.4641  1465
 8.4741  1295
 8.4841  1215
 8.4941  1042
 8.5041   817
 8.5141   707
 8.5241   656
 8.5341   515
 8.5441   445
 8.5541   412
 8.5641   403
 8.5741   371
 8.5841   345
 8.5941   345
 8.6041   341
 8.6141   344
 8.6241   341
 8.6341   359
 8.6441   339
 8.6541   360
 8.6641   324
 8.6741   325
 8.6841   334
 8.6941   295
 8.7041   309
 8.7141   302
 8.7241   297
 8.7341   272
 8.7441   268
 8.7541   272
 8.7641   281
 8.7741   264
 8.7841   256
 8.7941   244
 8.8041   235
 8.8141   239
 8.8241   222
 8.8341   237
 8.8441   239
 8.8541   239
 8.8641   240
 8.8741   234
 8.8841   258
 8.8941   229
 8.9041   251
 8.9141   264
 8.9241   231
 8.9341   274
 8.9441   256
 8.9541   248
 8.9641   268
 8.9741   284
 8.9841   266
 8.9941   286
 9.0041   304
 9.0141   279
 9.0241   271
 9.0341   279
 9.0441   313
 9.0541   327
 9.0641   309
 9.0741   325
 9.0841   348
 9.0941   355
 9.1041   379
 9.1141   379
 9.1241   377
 9.1341   411
 9.1441   436
 9.1541   456
 9.1641   484
 9.1741   490
 9.1841   513
 9.1941   511
 9.2041   554
 9.2141   573
 9.2241   619
 9.2341   659
 9.2441   698
 9.2541   737
 9.2641   746
 9.2741   767
 9.2841   798
 9.2941   833
 9.3041   859
 9.3141   861
 9.3241   876
 9.3341   930
 9.3441   980
 9.3541   957
 9.3641   965
 9.3741  1039
 9.3841  1028
 9.3941  1080
 9.4041  1057
 9.4141  1031
 9.4241  1042
 9.4341  1080
 9.4441  1093
 9.4541  1095
 9.4641  1100
 9.4741  1152
 9.4841  1203
 9.4941  1150
 9.5041  1251
 9.5141  1280
 9.5241  1269
 9.5341  1334
 9.5441  1348
 9.5541  1411
 9.5641  1470
 9.5741  1557
 9.5841  1646
 9.5941  1782
 9.6041  1900
 9.6141  1935
 9.6241  2056
 9.6341  2128
 9.6441  2221
 9.6541  2264
 9.6641  2246
 9.6741  2196
 9.6841  2212
 9.6941  2161
 9.7041  2054
 9.7141  1965
 9.7241  1865
 9.7341  1723
 9.7441  1606
 9.7541  1468
 9.7641  1354
 9.7741  1225
 9.7841  1139
 9.7941  1108
 9.8041  1040
 9.8141   920
 9.8241   922
 9.8341   948
 9.8441   964
 9.8541   903
 9.8641   895
 9.8741   926
 9.8841   913
 9.8941   941
 9.9041   936
 9.9141  1007
 9.9241  1065
 9.9341  1064
 9.9441  1004
 9.9541   985
 9.9641  1023
 9.9741   942
 9.9841   925
 9.9941   868
10.0041   813
10.0141   770
10.0241   737
10.0341   658
10.0441   594
10.0541   533
10.0641   471
10.0741   423
10.0841   381
10.0941   350
10.1041   293
10.1141   282
10.1241   249
10.1341   230
10.1441   208
10.1541   202
10.1641   217
10.1741   216
10.1841   203
10.1941   167
10.2041   172
10.2141   182
10.2241   183
10.2341   160
10.2441   157
10.2541   156
10.2641   144
10.2741   138
10.2841   142
10.2941   152
10.3041   144
10.3141   131
10.3241   139
10.3341   137
10.3441   124
10.3541   111
10.3641   117
10.3741   124
10.3841   123
10.3941   132
10.4041   145
10.4141   134
10.4241   132
10.4341   150
10.4441   144
10.4541   146
10.4641   149
10.4741   156
10.4841   144
10.4941   161
10.5041   146
10.5141   146
10.5241   158
10.5341   158
10.5441   167
10.5541   166
10.5641   156
10.5741   156
10.5841   152
10.5941   155
10.6041   159
10.6141   161
10.6241   161
10.6341   141
10.6441   149
10.6541   157
10.6641   162
10.6741   168
10.6841   162
10.6941   161
10.7041   166
10.7141   165
10.7241   169
10.7341   168
10.7441   177
10.7541   178
10.7641   185
10.7741   178
10.7841   180
10.7941   190
10.8041   202
10.8141   195
10.8241   204
10.8341   195
10.8441   187
10.8541   220
10.8641   207
10.8741   209
10.8841   222
10.8941   216
10.9041   220
10.9141   219
10.9241   211
10.9341   231
10.9441   231
10.9541   241
10.9641   225
10.9741   219
10.9841   227
10.9941   212
11.0041   228
11.0141   222
11.0241   209
11.0341   193
11.0441   217
11.0541   211
11.0641   180
11.0741   183
11.0841   193
11.0941   212
11.1041   198
11.1141   210
11.1241   201
11.1341   207
11.1441   209
11.1541   212
11.1641   241
11.1741   224
11.1841   237
11.1941   262
11.2041   256
11.2141   262
11.2241   284
11.2341   317
11.2441   290
11.2541   318
11.2641   307
11.2741   324
11.2841   315
11.2941   306
11.3041   308
11.3141   306
11.3241   317
11.3341   282
11.3441   286
11.3541   265
11.3641   246
11.3741   246
11.3841   232
11.3941   208
11.4041   202
11.4141   184
11.4241   183
11.4341   184
11.4441   168
11.4541   151
11.4641   172
11.4741   162
11.4841   149
11.4941   168
11.5041   162
11.5141   157
11.5241   161
11.5341   170
11.5441   162
11.5541   176
11.5641   176
11.5741   147
11.5841   147
11.5941   161
11.6041   165
11.6141   164
11.6241   185
11.6341   176
11.6441   183
11.6541   171
11.6641   161
11.6741   175
11.6841   168
11.6941   147
11.7041   148
11.7141   156
11.7241   144
11.7341   129
11.7441   145
11.7541   134
11.7641   115
11.7741   125
11.7841   147
11.7941   128
11.8041   124
11.8141   125
11.8241   124
11.8341   117
11.8441   130
11.8541   122
11.8641   117
11.8741   117
11.8841   120
11.8941   125
11.9041   131
11.9141   119
11.9241   119
11.9341   126
11.9441   124
11.9541   133
11.9641   135
11.9741   126
11.9841   113
11.9941   112
12.0041   135
12.0141   132
12.0241   128
12.0341   129
12.0441   124
12.0541   117
12.0641   113
12.0741   124
12.0841   132
12.0941   121
12.1041   124
12.1141   138
12.1241   122
12.1341   109
12.1441   117
12.1541   117
12.1641   118
12.1741   114
12.1841   112
12.1941   107
12.2041   109
12.2141   124
12.2241   120
12.2341   109
12.2441   116
12.2541   116
12.2641   115
12.2741   122
12.2841   139
12.2941   129
12.3041   115
12.3141   110
12.3241   109
12.3341   108
12.3441   103
12.3541   110
12.3641   106
12.3741   108
12.3841   131
12.3941   135
12.4041   118
12.4141   122
12.4241   134
12.4341   122
12.4441   122
12.4541   123
12.4641   116
12.4741   123
12.4841   128
12.4941   128
12.5041   128
12.5141   132
12.5241   143
12.5341   125
12.5441   135
12.5541   128
12.5641   134
12.5741   139
12.5841   141
12.5941   136
12.6041   125
12.6141   125
12.6241   136
12.6341   140
12.6441   141
12.6541   141
12.6641   139
12.6741   141
12.6841   145
12.6941   142
12.7041   137
12.7141   136
12.7241   136
12.7341   134
12.7441   131
12.7541   132
12.7641   140
12.7741   146
12.7841   144
12.7941   139
12.8041   138
12.8141   139
12.8241   142
12.8341   151
12.8441   152
12.8541   136
12.8641   128
12.8741   141
12.8841   149
12.8941   146
12.9041   140
12.9141   132
12.9241   133
12.9341   141
12.9441   142
12.9541   139
12.9641   140
12.9741   146
12.9841   150
12.9941   148
13.0041   150
13.0141   153
13.0241   154
13.0341   151
13.0441   147
13.0541   138
13.0641   132
13.0741   141
13.0841   140
13.0941   133
13.1041   152
13.1141   151
13.1241   155
13.1341   149
13.1441   145
13.1541   147
13.1641   137
13.1741   132
13.1841   147
13.1941   160
13.2041   156
13.2141   153
13.2241   160
13.2341   165
13.2441   181
13.2541   186
13.2641   183
13.2741   198
13.2841   206
13.2941   200
13.3041   206
13.3141   211
13.3241   216
13.3341   222
13.3441   217
13.3541   212
13.3641   219
13.3741   221
13.3841   210
13.3941   203
13.4041   207
13.4141   214
13.4241   213
13.4341   203
13.4441   196
13.4541   202
13.4641   203
13.4741   195
13.4841   196
13.4941   200
13.5041   198
13.5141   192
13.5241   182
13.5341   173
13.5441   172
13.5541   174
13.5641   175
13.5741   177
13.5841   181
13.5941   180
13.6041   171
13.6141   165
13.6241   166
13.6341   166
13.6441   167
13.6541   164
13.6641   156
13.6741   154
13.6841   158
13.6941   162
13.7041   170
13.7141   176
13.7241   178
13.7341   175
13.7441   168
13.7541   163
13.7641   166
13.7741   173
13.7841   178
13.7941   180
13.8041   180
13.8141   179
13.8241   185
13.8341   196
13.8441   198
13.8541   189
13.8641   187
13.8741   191
13.8841   192
13.8941   192
13.9041   193
13.9141   196
13.9241   198
13.9341   199
13.9441   207
13.9541   221
13.9641   229
13.9741   231
13.9841   237
13.9941   250
14.0041   263
14.0141   275
14.0241   299
14.0341   329
14.0441   353
14.0541   377
14.0641   395
14.0741   409
14.0841   426
14.0941   436
14.1041   446
14.1141   466
14.1241   483
14.1341   493
14.1441   496
14.1541   497
14.1641   496
14.1741   484
14.1841   463
14.1941   447
14.2041   431
14.2141   411
14.2241   396
14.2341   385
14.2441   367
14.2541   346
14.2641   318
14.2741   294
14.2841   282
14.2941   265
14.3041   240
14.3141   227
14.3241   221
14.3341   213
14.3441   221
14.3541   234
14.3641   216
14.3741   200
14.3841   196
14.3941   184
14.4041   174
14.4141   178
14.4241   192
14.4341   193
14.4441   184
14.4541   176
14.4641   192
14.4741   206
14.4841   205
14.4941   203
14.5041   196
14.5141   189
14.5241   189
14.5341   207
14.5441   222
14.5541   210
14.5641   189
14.5741   197
14.5841   192
14.5941   174
14.6041   206
14.6141   214
14.6241   200
14.6341   192
14.6441   187
14.6541   204
14.6641   205
14.6741   207
14.6841   205
14.6941   203
14.7041   204
14.7141   207
14.7241   197
14.7341   185
14.7441   207
14.7541   227
14.7641   212
14.7741   213
14.7841   231
14.7941   232
14.8041   227
14.8141   228
14.8241   212
14.8341   210
14.8441   222
14.8541   239
14.8641   250
14.8741   243
14.8841   254
14.8941   267
14.9041   254
14.9141   259
14.9241   257
14.9341   244
14.9441   251
14.9541   257
14.9641   251
14.9741   258
14.9841   260
14.9941   255
15.0041   243
15.0141   246
15.0241   259
15.0341   249
15.0441   227
15.0541   229
15.0641   220
15.0741   232
15.0841   230
15.0941   235
15.1041   238
15.1141   247
15.1241   242
15.1341   222
15.1441   230
15.1541   235
15.1641   220
15.1741   230
15.1841   223
15.1941   210
15.2041   227
15.2141   234
15.2241   228
15.2341   238
15.2441   227
15.2541   234
15.2641   244
15.2741   229
15.2841   236
15.2941   241
15.3041   237
15.3141   236
15.3241   238
15.3341   226
15.3441   212
15.3541   230
15.3641   250
15.3741   249
15.3841   243
15.3941   241
15.4041   232
15.4141   245
15.4241   253
15.4341   252
15.4441   250
15.4541   238
15.4641   241
15.4741   249
15.4841   256
15.4941   244
15.5041   236
15.5141   245
15.5241   255
15.5341   248
15.5441   268
15.5541   268
15.5641   251
15.5741   256
15.5841   263
15.5941   302
15.6041   294
15.6141   301
15.6241   311
15.6341   323
15.6441   332
15.6541   341
15.6641   351
15.6741   335
15.6841   344
15.6941   384
15.7041   381
15.7141   386
15.7241   391
15.7341   386
15.7441   397
15.7541   426
15.7641   428
15.7741   430
15.7841   432
15.7941   434
15.8041   428
15.8141   416
15.8241   401
15.8341   395
15.8441   409
15.8541   412
15.8641   401
15.8741   357
15.8841   332
15.8941   324
15.9041   322
15.9141   318
15.9241   312
15.9341   293
15.9441   305
15.9541   298
15.9641   287
15.9741   304
15.9841   297
15.9941   288
16.0041   291
16.0141   283
16.0241   261
16.0341   267
16.0441   302
16.0541   298
16.0641   286
16.0741   271
16.0841   277
16.0941   290
16.1041   290
16.1141   294
16.1241   272
16.1341   281
16.1441   273
16.1541   277
16.1641   253
16.1741   272
16.1841   295
16.1941   263
16.2041   256
16.2141   270
16.2241   265
16.2341   293
16.2441   301
16.2541   294
16.2641   292
16.2741   290
16.2841   285
16.2941   299
16.3041   300
16.3141   280
16.3241   285
16.3341   281
16.3441   272
16.3541   287
16.3641   289
16.3741   288
16.3841   318
16.3941   306
16.4041   288
16.4141   299
16.4241   298
16.4341   295
16.4441   289
16.4541   310
16.4641   300
16.4741   289
16.4841   284
16.4941   299
16.5041   291
16.5141   296
16.5241   291
16.5341   292
16.5441   297
16.5541   313
16.5641   305
16.5741   305
16.5841   299
16.5941   293
16.6041   311
16.6141   295
16.6241   312
16.6341   307
16.6441   294
16.6541   286
16.6641   286
16.6741   320
16.6841   323
16.6941   313
16.7041   309
16.7141   306
16.7241   293
16.7341   321
16.7441   320
16.7541   326
16.7641   314
16.7741   311
16.7841   307
16.7941   305
16.8041   308
16.8141   307
16.8241   316
16.8341   311
16.8441   287
16.8541   307
16.8641   308
16.8741   317
16.8841   327
16.8941   297
16.9041   307
16.9141   291
16.9241   305
16.9341   308
16.9441   318
16.9541   332
16.9641   313
16.9741   312
16.9841   308
16.9941   313
17.0041   329
17.0141   333
17.0241   319
17.0341   303
17.0441   319
17.0541   315
17.0641   309
17.0741   313
17.0841   334
17.0941   318
17.1041   318
17.1141   331
17.1241   336
17.1341   315
17.1441   305
17.1541   324
17.1641   336
17.1741   323
17.1841   322
17.1941   307
17.2041   310
17.2141   332
17.2241   333
17.2341   324
17.2441   327
17.2541   324
17.2641   328
17.2741   345
17.2841   320
17.2941   317
17.3041   337
17.3141   346
17.3241   331
17.3341   333
17.3441   308
17.3541   341
17.3641   346
17.3741   322
17.3841   311
17.3941   322
17.4041   320
17.4141   323
17.4241   337
17.4341   344
17.4441   322
17.4541   314
17.4641   320
17.4741   359
17.4841   355
17.4941   343
17.5041   353
17.5141   352
17.5241   341
17.5341   380
17.5441   374
17.5541   365
17.5641   357
17.5741   359
17.5841   349
17.5941   370
17.6041   377
17.6141   371
17.6241   349
17.6341   349
17.6441   347
17.6541   367
17.6641   395
17.6741   380
17.6841   382
17.6941   394
17.7041   386
17.7141   354
17.7241   381
17.7341   391
17.7441   396
17.7541   363
17.7641   349
17.7741   329
17.7841   371
17.7941   389
17.8041   360
17.8141   363
17.8241   354
17.8341   370
17.8441   372
17.8541   370
17.8641   351
17.8741   342
17.8841   379
17.8941   392
17.9041   358
17.9141   362
17.9241   376
17.9341   384
17.9441   358
17.9541   357
17.9641   371
17.9741   370
17.9841   382
17.9941   380
18.0041   352
18.0141   343
18.0241   372
18.0341   394
18.0441   387
18.0541   356
18.0641   367
18.0741   378
18.0841   356
18.0941   358
18.1041   367
18.1141   406
18.1241   390
18.1341   354
18.1441   392
18.1541   391
18.1641   349
18.1741   361
18.1841   348
18.1941   351
18.2041   398
18.2141   384
18.2241   347
18.2341   344
18.2441   364
18.2541   352
18.2641   334
18.2741   364
18.2841   360
18.2941   361
18.3041   383
18.3141   387
18.3241   371
18.3341   351
18.3441   377
18.3541   355
18.3641   335
18.3741   348
18.3841   380
18.3941   368
18.4041   376
18.4141   356
18.4241   364
18.4341   410
18.4441   410
18.4541   391
18.4641   376
18.4741   399
18.4841   386
18.4941   380
18.5041   387
18.5141   371
18.5241   376
18.5341   346
18.5441   383
18.5541   377
18.5641   370
18.5741   359
18.5841   361
18.5941   382
18.6041   418
18.6141   411
18.6241   386
18.6341   385
18.6441   378
18.6541   397
18.6641   409
18.6741   386
18.6841   390
18.6941   398
18.7041   406
18.7141   367
18.7241   380
18.7341   389
18.7441   401
18.7541   395
18.7641   392
18.7741   391
18.7841   393
18.7941   369
18.8041   385
18.8141   391
18.8241   404
18.8341   394
18.8441   387
18.8541   405
18.8641   426
18.8741   422
18.8841   417
18.8941   396
18.9041   389
18.9141   387
18.9241   390
18.9341   403
18.9441   404
18.9541   408
18.9641   398
18.9741   372
18.9841   379
18.9941   393
19.0041   397
19.0141   409
19.0241   407
19.0341   399
19.0441   401
19.0541   412
19.0641   399
19.0741   416
19.0841   425
19.0941   401
19.1041   406
19.1141   414
19.1241   376
19.1341   385
19.1441   413
19.1541   395
19.1641   402
19.1741   425
19.1841   387
19.1941   383
19.2041   405
19.2141   379
19.2241   375
19.2341   388
19.2441   415
19.2541   402
19.2641   391
19.2741   430
19.2841   370
19.2941   373
19.3041   386
19.3141   393
19.3241   379
19.3341   391
19.3441   363
19.3541   379
19.3641   424
19.3741   424
19.3841   391
19.3941   430
19.4041   430
19.4141   386
19.4241   418
19.4341   419
19.4441   404
19.4541   399
19.4641   428
19.4741   410
19.4841   405
19.4941   412
19.5041   421
19.5141   419
19.5241   415
19.5341   424
19.5441   439
19.5541   416
19.5641   388
19.5741   402
19.5841   389
19.5941   368
19.6041   410
19.6141   402
19.6241   407
19.6341   395
19.6441   404
19.6541   407
19.6641   426
19.6741   409
19.6841   398
19.6941   382
19.7041   397
19.7141   408
19.7241   421
19.7341   386
19.7441   412
19.7541   382
19.7641   464
19.7741   437
19.7841   397
19.7941   413
19.8041   428
19.8141   405
19.8241   419
19.8341   416
19.8441   412
19.8541   392
19.8641   394
19.8741   374
19.8841   400
19.8941   427
19.9041   438
19.9141   441
19.9241   434
19.9341   422
19.9441   415
19.9541   414
19.9641   404
19.9741   401
19.9841   387
19.9941   417
20.0041   434
20.0141   458
20.0241   454
20.0341   412
20.0441   417
20.0541   440
20.0641   402
20.0741   438
20.0841   407
20.0941   419
20.1041   409
20.1141   443
20.1241   414
20.1341   410
20.1441   414
20.1541   392
20.1641   429
20.1741   436
20.1841   430
20.1941   390
20.2041   434
20.2141   427
20.2241   395
20.2341   435
20.2441   395
20.2541   414
20.2641   423
20.2741   424
20.2841   452
20.2941   410
20.3041   443
20.3141   458
20.3241   427
20.3341   420
20.3441   414
20.3541   428
20.3641   439
20.3741   439
20.3841   414
20.3941   401
20.4041   413
20.4141   418
20.4241   424
20.4341   457
20.4441   422
20.4541   420
20.4641   422
20.4741   428
20.4841   407
20.4941   426
20.5041   420
20.5141   427
20.5241   405
20.5341   390
20.5441   440
20.5541   425
20.5641   421
20.5741   428
20.5841   423
20.5941   458
20.6041   398
20.6141   446
20.6241   422
20.6341   432
20.6441   459
20.6541   428
20.6641   438
20.6741   446
20.6841   432
20.6941   422
20.7041   446
20.7141   420
20.7241   417
20.7341   424
20.7441   423
20.7541   389
20.7641   408
20.7741   444
20.7841   399
20.7941   439
20.8041   433
20.8141   464
20.8241   471
20.8341   426
20.8441   427
20.8541   445
20.8641   449
20.8741   442
20.8841   477
20.8941   466
20.9041   451
20.9141   458
20.9241   514
20.9341   511
20.9441   510
20.9541   524
20.9641   517
20.9741   524
20.9841   515
20.9941   524
21.0041   541
21.0141   563
21.0241   578
21.0341   577
21.0441   587
21.0541   618
21.0641   583
21.0741   603
21.0841   583
21.0941   618
21.1041   634
21.1141   622
21.1241   593
21.1341   607
21.1441   600
21.1541   601
21.1641   661
21.1741   621
21.1841   619
21.1941   616
21.2041   599
21.2141   581
21.2241   594
21.2341   561
21.2441   516
21.2541   537
21.2641   553
21.2741   520
21.2841   503
21.2941   522
21.3041   495
21.3141   469
21.3241   472
21.3341   486
21.3441   491
21.3541   456
21.3641   460
21.3741   451
21.3841   449
21.3941   440
21.4041   456
21.4141   427
21.4241   410
21.4341   445
21.4441   430
21.4541   437
21.4641   415
21.4741   428
21.4841   428
21.4941   445
21.5041   411
21.5141   429
21.5241   434
21.5341   420
21.5441   403
21.5541   380
21.5641   435
21.5741   425
21.5841   418
21.5941   429
21.6041   436
21.6141   413
21.6241   453
21.6341   416
21.6441   410
21.6541   424
21.6641   451
21.6741   409
21.6841   427
21.6941   411
21.7041   436
21.7141   444
21.7241   418
21.7341   432
21.7441   401
21.7541   416
21.7641   417
21.7741   450
21.7841   438
21.7941   418
21.8041   402
21.8141   413
21.8241   398
21.8341   429
21.8441   429
21.8541   432
21.8641   393
21.8741   407
21.8841   405
21.8941   437
21.9041   418
21.9141   402
21.9241   409
21.9341   437
21.9441   428
21.9541   441
21.9641   427
21.9741   425
21.9841   448
21.9941   429
22.0041   425
22.0141   413
22.0241   444
22.0341   427
22.0441   426
22.0541   418
22.0641   422
22.0741   421
22.0841   430
22.0941   421
22.1041   449
22.1141   426
22.1241   460
22.1341   426
22.1441   400
22.1541   422
22.1641   457
22.1741   411
22.1841   411
22.1941   412
22.2041   410
22.2141   438
22.2241   403
22.2341   434
22.2441   436
22.2541   412
22.2641   446
22.2741   422
22.2841   418
22.2941   422
22.3041   420
22.3141   452
22.3241   436
22.3341   384
22.3441   405
22.3541   451
22.3641   391
22.3741   418
22.3841   423
22.3941   456
22.4041   422
22.4141   408
22.4241   419
22.4341   424
22.4441   445
22.4541   432
22.4641   415
22.4741   410
22.4841   425
22.4941   412
22.5041   399
22.5141   441
22.5241   402
22.5341   429
22.5441   400
22.5541   444
22.5641   398
22.5741   446
22.5841   405
22.5941   395
22.6041   418
22.6141   436
22.6241   420
22.6341   381
22.6441   428
22.6541   447
22.6641   446
22.6741   407
22.6841   386
22.6941   384
22.7041   403
22.7141   406
22.7241   397
22.7341   397
22.7441   408
22.7541   430
22.7641   423
22.7741   391
22.7841   417
22.7941   409
22.8041   453
22.8141   383
22.8241   408
22.8341   409
22.8441   406
22.8541   411
22.8641   395
22.8741   421
22.8841   435
22.8941   390
22.9041   403
22.9141   396
22.9241   411
22.9341   393
22.9441   391
22.9541   388
22.9641   421
22.9741   388
22.9841   397
22.9941   396
23.0041   395
23.0141   431
23.0241   415
23.0341   418
23.0441   389
23.0541   425
23.0641   439
23.0741   447
23.0841   405
23.0941   415
23.1041   408
23.1141   438
23.1241   382
23.1341   428
23.1441   406
23.1541   408
23.1641   423
23.1741   427
23.1841   380
23.1941   397
23.2041   371
23.2141   403
23.2241   381
23.2341   379
23.2441   401
23.2541   423
23.2641   430
23.2741   447
23.2841   363
23.2941   407
23.3041   385
23.3141   384
23.3241   403
23.3341   408
23.3441   415
23.3541   408
23.3641   376
23.3741   386
23.3841   388
23.3941   390
23.4041   403
23.4141   388
23.4241   412
23.4341   401
23.4441   437
23.4541   392
23.4641   407
23.4741   395
23.4841   403
23.4941   403
23.5041   422
23.5141   405
23.5241   397
23.5341   424
23.5441   370
23.5541   398
23.5641   392
23.5741   422
23.5841   363
23.5941   373
23.6041   395
23.6141   383
23.6241   403
23.6341   427
23.6441   440
23.6541   408
23.6641   415
23.6741   448
23.6841   421
23.6941   408
23.7041   410
23.7141   401
23.7241   424
23.7341   423
23.7441   397
23.7541   403
23.7641   453
23.7741   431
23.7841   449
23.7941   400
23.8041   422
23.8141   411
23.8241   391
23.8341   412
23.8441   412
23.8541   426
23.8641   421
23.8741   390
23.8841   385
23.8941   424
23.9041   388
23.9141   393
23.9241   413
23.9341   398
23.9441   417
23.9541   400
23.9641   407
23.9741   387
23.9841   392
23.9941   379
24.0041   382
24.0141   391
24.0241   398
24.0341   403
24.0441   368
24.0541   389
24.0641   358
24.0741   384
24.0841   417
24.0941   414
24.1041   393
24.1141   355
24.1241   363
24.1341   334
24.1441   354
24.1541   392
24.1641   387
24.1741   377
24.1841   368
24.1941   361
24.2041   370
24.2141   365
24.2241   383
24.2341   410
24.2441   374
24.2541   372
24.2641   382
24.2741   369
24.2841   379
24.2941   349
24.3041   392
24.3141   375
24.3241   371
24.3341   408
24.3441   388
24.3541   396
24.3641   390
24.3741   394
24.3841   388
24.3941   354
24.4041   370
24.4141   374
24.4241   358
24.4341   382
24.4441   384
24.4541   342
24.4641   359
24.4741   381
24.4841   344
24.4941   371
24.5041   345
24.5141   373
24.5241   371
24.5341   346
24.5441   399
24.5541   351
24.5641   384
24.5741   379
24.5841   337
24.5941   385
24.6041   356
24.6141   376
24.6241   364
24.6341   343
24.6441   359
24.6541   369
24.6641   385
24.6741   371
24.6841   363
24.6941   344
24.7041   368
24.7141   349
24.7241   362
24.7341   360
24.7441   349
24.7541   378
24.7641   336
24.7741   376
24.7841   356
24.7941   386
24.8041   334
24.8141   379
24.8241   389
24.8341   382
24.8441   382
24.8541   364
24.8641   370
24.8741   391
24.8841   361
24.8941   359
24.9041   365
24.9141   373
24.9241   366
24.9341   355
24.9441   397
24.9541   402
24.9641   351
24.9741   364
24.9841   325
24.9941   355
25.0041   370
25.0141   365
25.0241   381
25.0341   367
25.0441   381
25.0541   357
25.0641   362
25.0741   367
25.0841   350
25.0941   380
25.1041   355
25.1141   371
25.1241   349
25.1341   378
25.1441   346
25.1541   367
25.1641   347
25.1741   355
25.1841   357
25.1941   383
25.2041   363
25.2141   360
25.2241   346
25.2341   351
25.2441   364
25.2541   353
25.2641   355
25.2741   352
25.2841   373
25.2941   348
25.3041   353
25.3141   350
25.3241   335
25.3341   374
25.3441   347
25.3541   345
25.3641   393
25.3741   333
25.3841   324
25.3941   369
25.4041   361
25.4141   330
25.4241   327
25.4341   315
25.4441   335
25.4541   331
25.4641   335
25.4741   318
25.4841   331
25.4941   362
25.5041   342
25.5141   340
25.5241   347
25.5341   354
25.5441   344
25.5541   353
25.5641   346
25.5741   321
25.5841   326
25.5941   341
25.6041   348
25.6141   347
25.6241   337
25.6341   335
25.6441   349
25.6541   336
25.6641   321
25.6741   332
25.6841   356
25.6941   347
25.7041   333
25.7141   321
25.7241   335
25.7341   377
25.7441   364
25.7541   349
25.7641   326
25.7741   341
25.7841   334
25.7941   339
25.8041   327
25.8141   334
25.8241   321
25.8341   342
25.8441   307
25.8541   305
25.8641   299
25.8741   345
25.8841   325
25.8941   328
25.9041   343
25.9141   324
25.9241   353
25.9341   341
25.9441   316
25.9541   313
25.9641   320
25.9741   326
25.9841   357
25.9941   314
26.0041   328
26.0141   336
26.0241   307
26.0341   356
26.0441   328
26.0541   319
26.0641   346
26.0741   309
26.0841   311
26.0941   306
26.1041   290
26.1141   310
26.1241   339
26.1341   323
26.1441   321
26.1541   316
26.1641   326
26.1741   282
26.1841   317
26.1941   316
26.2041   321
26.2141   325
26.2241   289
26.2341   304
26.2441   326
26.2541   315
26.2641   321
26.2741   349
26.2841   326
26.2941   328
26.3041   291
26.3141   279
26.3241   297
26.3341   307
26.3441   324
26.3541   302
26.3641   319
26.3741   301
26.3841   313
26.3941   328
26.4041   290
26.4141   316
26.4241   313
26.4341   326
26.4441   286
26.4541   307
26.4641   326
26.4741   291
26.4841   301
26.4941   327
26.5041   305
26.5141   307
26.5241   323
26.5341   306
26.5441   327
26.5541   309
26.5641   322
26.5741   334
26.5841   330
26.5941   297
26.6041   288
26.6141   297
26.6241   287
26.6341   315
26.6441   311
26.6541   295
26.6641   289
26.6741   305
26.6841   291
26.6941   293
26.7041   285
26.7141   315
26.7241   261
26.7341   287
26.7441   310
26.7541   281
26.7641   281
26.7741   323
26.7841   292
26.7941   303
26.8041   291
26.8141   321
26.8241   313
26.8341   287
26.8441   299
26.8541   319
26.8641   324
26.8741   271
26.8841   300
26.8941   282
26.9041   285
26.9141   294
26.9241   285
26.9341   301
26.9441   276
26.9541   279
26.9641   288
26.9741   271
26.9841   275
26.9941   284
27.0041   281
27.0141   307
27.0241   285
27.0341   285
27.0441   287
27.0541   291
27.0641   303
27.0741   308
27.0841   276
27.0941   266
27.1041   298
27.1141   299
27.1241   277
27.1341   273
27.1441   261
27.1541   284
27.1641   301
27.1741   297
27.1841   276
27.1941   277
27.2041   297
27.2141   303
27.2241   292
27.2341   279
27.2441   300
27.2541   315
27.2641   289
27.2741   297
27.2841   286
27.2941   270
27.3041   270
27.3141   281
27.3241   293
27.3341   275
27.3441   302
27.3541   272
27.3641   233
27.3741   251
27.3841   273
27.3941   291
27.4041   277
27.4141   276
27.4241   275
27.4341   298
27.4441   282
27.4541   267
27.4641   280
27.4741   242
27.4841   255
27.4941   287
27.5041   278
27.5141   265
27.5241   257
27.5341   252
27.5441   275
27.5541   298
27.5641   259
27.5741   284
27.5841   257
27.5941   275
27.6041   288
27.6141   280
27.6241   287
27.6341   289
27.6441   259
27.6541   255
27.6641   272
27.6741   252
27.6841   291
27.6941   266
27.7041   268
27.7141   262
27.7241   256
27.7341   299
27.7441   293
27.7541   248
27.7641   247
27.7741   264
27.7841   253
27.7941   267
27.8041   268
27.8141   281
27.8241   291
27.8341   234
27.8441   266
27.8541   249
27.8641   256
27.8741   259
27.8841   247
27.8941   257
27.9041   254
27.9141   247
27.9241   246
27.9341   258
27.9441   261
27.9541   267
27.9641   276
27.9741   246
27.9841   223
27.9941   250
28.0041   264
28.0141   247
28.0241   258
28.0341   270
28.0441   264
28.0541   236
28.0641   241
28.0741   240
28.0841   250
28.0941   260
28.1041   252
28.1141   272
28.1241   240
28.1341   250
28.1441   237
28.1541   275
28.1641   245
28.1741   266
28.1841   249
28.1941   252
28.2041   247
28.2141   244
28.2241   261
28.2341   230
28.2441   252
28.2541   240
28.2641   241
28.2741   264
28.2841   268
28.2941   273
28.3041   279
28.3141   254
28.3241   247
28.3341   268
28.3441   274
28.3541   238
28.3641   259
28.3741   240
28.3841   251
28.3941   241
28.4041   240
28.4141   236
28.4241   242
28.4341   262
28.4441   253
28.4541   225
28.4641   239
28.4741   255
28.4841   275
28.4941   233
28.5041   242
28.5141   253
28.5241   235
28.5341   257
28.5441   261
28.5541   232
28.5641   233
28.5741   247
28.5841   248
28.5941   248
28.6041   229
28.6141   238
28.6241   218
28.6341   229
28.6441   248
28.6541   264
28.6641   265
28.6741   248
28.6841   261
28.6941   223
28.7041   230
28.7141   257
28.7241   227
28.7341   234
28.7441   215
28.7541   223
28.7641   229
28.7741   238
28.7841   232
28.7941   230
28.8041   245
28.8141   220
28.8241   221
28.8341   210
28.8441   229
28.8541   231
28.8641   244
28.8741   219
28.8841   239
28.8941   234
28.9041   237
28.9141   231
28.9241   224
28.9341   224
28.9441   217
28.9541   235
28.9641   237
28.9741   233
28.9841   223
28.9941   227
29.0041   242
29.0141   246
29.0241   252
29.0341   219
29.0441   214
29.0541   221
29.0641   225
29.0741   215
29.0841   219
29.0941   255
29.1041   221
29.1141   217
29.1241   223
29.1341   228
29.1441   248
29.1541   247
29.1641   234
29.1741   224
29.1841   244
29.1941   221
29.2041   215
29.2141   235
29.2241   239
29.2341   224
29.2441   238
29.2541   230
29.2641   218
29.2741   226
29.2841   240
29.2941   219
29.3041   219
29.3141   232
29.3241   226
29.3341   208
29.3441   203
29.3541   226
29.3641   222
29.3741   214
29.3841   186
29.3941   217
29.4041   240
29.4141   223
29.4241   221
29.4341   201
29.4441   206
29.4541   211
29.4641   226
29.4741   206
29.4841   231
29.4941   204
29.5041   228
29.5141   199
29.5241   221
29.5341   191
29.5441   188
29.5541   210
29.5641   202
29.5741   214
29.5841   200
29.5941   189
29.6041   205
29.6141   223
29.6241   212
29.6341   206
29.6441   221
29.6541   194
29.6641   199
29.6741   213
29.6841   229
29.6941   224
29.7041   199
29.7141   211
29.7241   197
29.7341   197
29.7441   209
29.7541   186
29.7641   234
29.7741   198
29.7841   177
29.7941   196
29.8041   208
29.8141   210
29.8241   211
29.8341   211
29.8441   213
29.8541   224
29.8641   217
29.8741   194
29.8841   203
29.8941   209
29.9041   192
29.9141   202
29.9241   207
29.9341   173
29.9441   206
29.9541   214
29.9641   199
29.9741   191
29.9841   223
29.9941   192
30.0041   204
30.0141   210
30.0241   191
30.0341   182
30.0441   175
30.0541   188
30.0641   179
30.0741   204
30.0841   184
30.0941   165
30.1041   210
30.1141   183
30.1241   200
30.1341   188
30.1441   212
30.1541   183
30.1641   190
30.1741   190
30.1841   172
30.1941   217
30.2041   202
30.2141   190
30.2241   200
30.2341   220
30.2441   174
30.2541   212
30.2641   186
30.2741   186
30.2841   182
30.2941   191
30.3041   184
30.3141   190
30.3241   206
30.3341   177
30.3441   193
30.3541   191
30.3641   185
30.3741   198
30.3841   175
30.3941   172
30.4041   188
30.4141   187
30.4241   207
30.4341   190
30.4441   207
30.4541   176
30.4641   166
30.4741   189
30.4841   203
30.4941   199
30.5041   169
30.5141   181
30.5241   154
30.5341   169
30.5441   179
30.5541   183
30.5641   173
30.5741   164
30.5841   166
30.5941   171
30.6041   179
30.6141   182
30.6241   180
30.6341   178
30.6441   183
30.6541   178
30.6641   160
30.6741   163
30.6841   180
30.6941   172
30.7041   187
30.7141   171
30.7241   161
30.7341   166
30.7441   179
30.7541   187
30.7641   173
30.7741   180
30.7841   176
30.7941   157
30.8041   160
30.8141   171
30.8241   184
30.8341   167
30.8441   198
30.8541   183
30.8641   179
30.8741   181
30.8841   153
30.8941   161
30.9041   169
30.9141   171
30.9241   156
30.9341   169
30.9441   162
30.9541   169
30.9641   201
30.9741   174
30.9841   161
30.9941   182
31.0041   192
31.0141   187
31.0241   180
31.0341   153
31.0441   169
31.0541   145
31.0641   186
31.0741   156
31.0841   169
31.0941   176
31.1041   178
31.1141   176
31.1241   165
31.1341   170
31.1441   164
31.1541   151
31.1641   166
31.1741   153
31.1841   181
31.1941   170
31.2041   157
31.2141   151
31.2241   141
31.2341   170
31.2441   153
31.2541   172
31.2641   177
31.2741   151
31.2841   165
31.2941   175
31.3041   143
31.3141   170
31.3241   162
31.3341   142
31.3441   171
31.3541   168
31.3641   135
31.3741   163
31.3841   159
31.3941   164
31.4041   171
31.4141   149
31.4241   176
31.4341   160
31.4441   184
31.4541   169
31.4641   158
31.4741   166
31.4841   156
31.4941   150
31.5041   145
31.5141   139
31.5241   150
31.5341   149
31.5441   145
31.5541   163
31.5641   144
31.5741   167
31.5841   160
31.5941   152
31.6041   162
31.6141   159
31.6241   152
31.6341   159
31.6441   150
31.6541   151
31.6641   168
31.6741   169
31.6841   149
31.6941   162
31.7041   170
31.7141   169
31.7241   176
31.7341   158
31.7441   140
31.7541   170
31.7641   156
31.7741   165
31.7841   157
31.7941   154
31.8041   146
31.8141   162
31.8241   182
31.8341   153
31.8441   137
31.8541   172
31.8641   160
31.8741   165
31.8841   168
31.8941   164
31.9041   134
31.9141   160
31.9241   159
31.9341   141
31.9441   121
31.9541   137
31.9641   157
31.9741   141
31.9841   145
31.9941   134
32.0041   170
32.0141   157
32.0241   152
32.0341   170
32.0441   142
32.0541   137
32.0641   134
32.0741   167
32.0841   144
32.0941   151
32.1041   146
32.1141   147
32.1241   156
32.1341   148
32.1441   147
32.1541   154
32.1641   159
32.1741   179
32.1841   163
32.1941   167
32.2041   160
32.2141   154
32.2241   187
32.2341   170
32.2441   162
32.2541   156
32.2641   161
32.2741   158
32.2841   150
32.2941   143
32.3041   167
32.3141   138
32.3241   151
32.3341   128
32.3441   131
32.3541   149
32.3641   147
32.3741   156
32.3841   145
32.3941   164
32.4041   136
32.4141   148
32.4241   139
32.4341   140
32.4441   138
32.4541   139
32.4641   140
32.4741   136
32.4841   131
32.4941   116
32.5041   147
32.5141   146
32.5241   136
32.5341   113
32.5441   112
32.5541   134
32.5641   122
32.5741   129
32.5841   140
32.5941   144
32.6041   148
32.6141   127
32.6241   128
32.6341   143
32.6441   119
32.6541   114
32.6641   120
32.6741   135
32.6841   142
32.6941   117
32.7041   134
32.7141   128
32.7241   134
32.7341   110
32.7441   147
32.7541   125
32.7641   115
32.7741   117
32.7841   125
32.7941   122
32.8041   115
32.8141   123
32.8241   133
32.8341   130
32.8441   107
32.8541   110
32.8641   135
32.8741   117
32.8841   111
32.8941   111
32.9041   127
32.9141   112
32.9241   129
32.9341   117
32.9441   140
32.9541   116
32.9641   104
32.9741   108
32.9841   129
32.9941   118
33.0041   141
33.0141   126
33.0241   115
33.0341   117
33.0441   129
33.0541   136
33.0641    94
33.0741   132
33.0841   112
33.0941   126
33.1041   127
33.1141   128
33.1241   121
33.1341   124
33.1441   114
33.1541   115
33.1641   103
33.1741   127
33.1841   118
33.1941   106
33.2041   119
33.2141   114
33.2241   118
33.2341   120
33.2441   124
33.2541   105
33.2641   126
33.2741   127
33.2841   103
33.2941   119
33.3041   119
33.3141   102
33.3241   121
33.3341   105
33.3441   105
33.3541   102
33.3641   111
33.3741   118
33.3841    92
33.3941   109
33.4041   130
33.4141   102
33.4241   110
33.4341   134
33.4441   101
33.4541    95
33.4641   100
33.4741   104
33.4841   105
33.4941   125
33.5041   103
33.5141   114
33.5241   128
33.5341   117
33.5441   115
33.5541   116
33.5641   108
33.5741   102
33.5841   118
33.5941   116
33.6041   115
33.6141    97
33.6241   109
33.6341   100
33.6441    93
33.6541   111
33.6641   119
33.6741   104
33.6841   101
33.6941   100
33.7041   105
33.7141   110
33.7241   112
33.7341   111
33.7441   114
33.7541   116
33.7641   105
33.7741   117
33.7841   108
33.7941   114
33.8041   100
33.8141    96
33.8241   113
33.8341   108
33.8441   120
33.8541    95
33.8641   105
33.8741   105
33.8841    95
33.8941    83
33.9041   109
33.9141   105
33.9241   102
33.9341   109
33.9441   106
33.9541   108
33.9641   106
33.9741   103
33.9841   112
33.9941   102
34.0041   108
34.0141   106
34.0241   123
34.0341   103
34.0441    96
34.0541    99
34.0641   113
34.0741   118
34.0841    91
34.0941   123
34.1041   119
34.1141   115
34.1241    99
34.1341    96
34.1441    95
34.1541    98
34.1641    93
34.1741    91
34.1841   101
34.1941   105
34.2041   105
34.2141   118
34.2241    98
34.2341    92
34.2441    93
34.2541   105
34.2641    98
34.2741    77
34.2841   104
34.2941   100
34.3041    96
34.3141    84
34.3241   108
34.3341    79
34.3441   103
34.3541   100
34.3641    98
34.3741    82
34.3841    85
34.3941    90
34.4041    96
34.4141   104
34.4241    89
34.4341    92
34.4441    96
34.4541   102
34.4641    94
34.4741    96
34.4841    84
34.4941    89
34.5041   102
34.5141   103
34.5241    97
34.5341    92
34.5441    82
34.5541    92
34.5641   106
34.5741    76
34.5841    97
34.5941   100
34.6041    87
34.6141    95
34.6241    90
34.6341    93
34.6441   101
34.6541    79
34.6641    87
34.6741    92
34.6841    97
34.6941    93
34.7041    85
34.7141   107
34.7241   100
34.7341    80
34.7441    83
34.7541    87
34.7641    93
34.7741    94
34.7841    93
34.7941    90
34.8041    95
34.8141    82
34.8241    76
34.8341    97
34.8441    85
34.8541    83
34.8641    85
34.8741    93
34.8841    96
34.8941    93
34.9041    85
34.9141    79
34.9241    73
34.9341    89
34.9441    74
34.9541    87
34.9641    86
34.9741    61
34.9841    83
34.9941    77
35.0041    73
35.0141    71
35.0241    91
35.0341    72
35.0441    81
35.0541    71
35.0641    93
35.0741    87
35.0841    69
35.0941    74
35.1041    75
35.1141    90
35.1241    91
35.1341    97
35.1441    78
35.1541    70
35.1641    85
35.1741    90
35.1841    92
35.1941    74
35.2041    72
35.2141    65
35.2241    91
35.2341    94
35.2441    88
35.2541    69
35.2641    95
35.2741    89
35.2841    85
35.2941    84
35.3041    69
35.3141    80
35.3241    84
35.3341    69
35.3441    90
35.3541    83
35.3641    87
35.3741    69
35.3841    85
35.3941    68
35.4041    66
35.4141    68
35.4241    69
35.4341    69
35.4441    67
35.4541    82
35.4641    89
35.4741    79
35.4841    70
35.4941    56
35.5041    91
35.5141    72
35.5241    70
35.5341    78
35.5441    73
35.5541    61
35.5641    72
35.5741    72
35.5841    82
35.5941    68
35.6041    48
35.6141    69
35.6241    74
35.6341    69
35.6441    72
35.6541    76
35.6641    72
35.6741    76
35.6841    62
35.6941    65
35.7041    69
35.7141    69
35.7241    60
35.7341    74
35.7441    86
35.7541    70
35.7641    69
35.7741    61
35.7841    74
35.7941    75
35.8041    84
35.8141    58
35.8241    72
35.8341    64
35.8441    63
35.8541    72
35.8641    77
35.8741    77
35.8841    64
35.8941    65
35.9041    67
35.9141    71
35.9241    71
35.9341    56
35.9441    71
35.9541    62
35.9641    65
35.9741    61
35.9841    76
35.9941    67
36.0041    68
36.0141    52
36.0241    52
36.0341    73
36.0441    71
36.0541    78
36.0641    57
36.0741    63
36.0841    73
36.0941    58
36.1041    69
36.1141    65
36.1241    60
36.1341    52
36.1441    55
36.1541    88
36.1641    69
36.1741    74
36.1841    76
36.1941    48
36.2041    61
36.2141    75
36.2241    72
36.2341    62
36.2441    74
36.2541    55
36.2641    64
36.2741    64
36.2841    65
36.2941    80
36.3041    64
36.3141    74
36.3241    66
36.3341    69
36.3441    63
36.3541    71
36.3641    49
36.3741    58
36.3841    56
36.3941    76
36.4041    60
36.4141    48
36.4241    70
36.4341    54
36.4441    75
36.4541    75
36.4641    58
36.4741    72
36.4841    59
36.4941    58
36.5041    60
36.5141    61
36.5241    71
36.5341    63
36.5441    79
36.5541    47
36.5641    57
36.5741    68
36.5841    56
36.5941    68
36.6041    63
36.6141    54
36.6241    56
36.6341    75
36.6441    55
36.6541    48
36.6641    72
36.6741    59
36.6841    61
36.6941    58
36.7041    59
36.7141    55
36.7241    50
36.7341    54
36.7441    57
36.7541    49
36.7641    56
36.7741    59
36.7841    45
36.7941    58
36.8041    60
36.8141    62
36.8241    66
36.8341    58
36.8441    56
36.8541    61
36.8641    56
36.8741    50
36.8841    53
36.8941    50
36.9041    53
36.9141    53
36.9241    49
36.9341    60
36.9441    64
36.9541    54
36.9641    53
36.9741    55
36.9841    58
36.9941    46
37.0041    65
37.0141    60
37.0241    65
37.0341    49
37.0441    59
37.0541    60
37.0641    57
37.0741    69
37.0841    42
37.0941    45
37.1041    58
37.1141    53
37.1241    56
37.1341    56
37.1441    43
37.1541    59
37.1641    52
37.1741    55
37.1841    59
37.1941    53
37.2041    53
37.2141    38
37.2241    44
37.2341    47
37.2441    41
37.2541    53
37.2641    62
37.2741    44
37.2841    39
37.2941    61
37.3041    51
37.3141    55
37.3241    53
37.3341    54
37.3441    45
37.3541    37
37.3641    35
37.3741    58
37.3841    51
37.3941    49
37.4041    58
37.4141    50
37.4241    51
37.4341    44
37.4441    54
37.4541    59
37.4641    54
37.4741    47
37.4841    46
37.4941    54
37.5041    46
37.5141    49
37.5241    46
37.5341    47
37.5441    51
37.5541    47
37.5641    46
37.5741    40
37.5841    44
37.5941    47
37.6041    48
37.6141    50
37.6241    49
37.6341    31
37.6441    54
37.6541    44
37.6641    44
37.6741    58
37.6841    54
37.6941    42
37.7041    49
37.7141    48
37.7241    31
37.7341    45
37.7441    56
37.7541    42
37.7641    39
37.7741    44
37.7841    42
37.7941    44
37.8041    42
37.8141    36
37.8241    49
37.8341    42
37.8441    33
37.8541    38
37.8641    45
37.8741    51
37.8841    46
37.8941    46
37.9041    55
37.9141    41
37.9241    30
37.9341    35
37.9441    39
37.9541    45
37.9641    46
37.9741    64
37.9841    30
37.9941    38
38.0041    29
38.0141    41
38.0241    40
38.0341    35
38.0441    33
38.0541    41
38.0641    42
38.0741    33
38.0841    43
38.0941    35
38.1041    35
38.1141    37
38.1241    36
38.1341    45
38.1441    41
38.1541    41
38.1641    48
38.1741    41
38.1841    49
38.1941    42
38.2041    31
38.2141    40
38.2241    41
38.2341    29
38.2441    44
38.2541    33
38.2641    37
38.2741    40
38.2841    34
38.2941    33
38.3041    38
38.3141    44
38.3241    36
38.3341    35
38.3441    29
38.3541    49
38.3641    43
38.3741    46
38.3841    28
38.3941    33
38.4041    33
38.4141    31
38.4241    30
38.4341    36
38.4441    27
38.4541    29
38.4641    41
38.4741    43
38.4841    39
38.4941    35
38.5041    32
38.5141    38
38.5241    24
38.5341    33
38.5441    40
38.5541    47
38.5641    36
38.5741    41
38.5841    34
38.5941    39
38.6041    40
38.6141    28
38.6241    41
38.6341    31
38.6441    32
38.6541    25
38.6641    30
38.6741    44
38.6841    32
38.6941    32
38.7041    43
38.7141    30
38.7241    35
38.7341    44
38.7441    33
38.7541    32
38.7641    34
38.7741    36
38.7841    34
38.7941    34
38.8041    32
38.8141    37
38.8241    26
38.8341    33
38.8441    24
38.8541    37
38.8641    32
38.8741    33
38.8841    19
38.8941    32
38.9041    35
38.9141    30
38.9241    22
38.9341    34
38.9441    38
38.9541    33
38.9641    31
38.9741    23
38.9841    30
38.9941    20
39.0041    41
39.0141    30
39.0241    28
39.0341    30
39.0441    38
39.0541    26
39.0641    35
39.0741    31
39.0841    29
39.0941    34
39.1041    33
39.1141    21
39.1241    27
39.1341    38
39.1441    23
39.1541    29
39.1641    24
39.1741    32
39.1841    32
39.1941    29
39.2041    29
39.2141    28
39.2241    37
39.2341    37
39.2441    24
39.2541    24
39.2641    27
39.2741    32
39.2841    24
39.2941    15
39.3041    24
39.3141    22
39.3241    41
39.3341    25
39.3441    28
39.3541    29
39.3641    17
39.3741    25
39.3841    38
39.3941    26
39.4041    21
39.4141    22
39.4241    29
39.4341    31
39.4441    21
39.4541    30
39.4641    20
39.4741    16
39.4841    32
39.4941    28
39.5041    28
39.5141    26
39.5241    36
39.5341    23
39.5441    18
39.5541    15
39.5641    28
39.5741    23
39.5841    24
39.5941    13
39.6041    22
39.6141    24
39.6241    30
39.6341    31
39.6441    27
39.6541    26
39.6641    14
39.6741    29
39.6841    28
39.6941    27
39.7041    24
39.7141    27
39.7241    24
39.7341    26
39.7441    30
39.7541    27
39.7641    25
39.7741    19
39.7841    22
39.7941    21
39.8041    21
39.8141    27
39.8241    23
39.8341    27
39.8441    17
39.8541    30
39.8641    20
39.8741    14
39.8841    26
39.8941    36
39.9041    26
39.9141    19
39.9241    23
39.9341    13
39.9441    21
39.9541    21
39.9641    23
39.9741    23
39.9841    18
