Bruker Nano GmbH Berlin, Germany
Esprit 1.9

Date: 4/1/2021 4:14:28 PM
Real time: 24704
Life time: 23206
Pulse density: 88639


Detector type: XFlash 430
Window type: Custom type
Detector thickness: 0.45
Si dead layer:0.029

Calibration, lin.: 10
Calibration, abs.: -955.9
Mn FWHM: 137.05
Fano factor: 0.121
Channels: 4095

Energy Counts
-0.9559     0
-0.9459     0
-0.9359     0
-0.9259     0
-0.9159     0
-0.9059     0
-0.8959     0
-0.8859     0
-0.8759     0
-0.8659     0
-0.8559     0
-0.8459     0
-0.8359     0
-0.8259     0
-0.8159     0
-0.8059     0
-0.7959     0
-0.7859     0
-0.7759     0
-0.7659     0
-0.7559     0
-0.7459     0
-0.7359     0
-0.7259     0
-0.7159     0
-0.7059     0
-0.6959     0
-0.6859     0
-0.6759     0
-0.6659     0
-0.6559     0
-0.6459     0
-0.6359     0
-0.6259     0
-0.6159     0
-0.6059     0
-0.5959     0
-0.5859     0
-0.5759     0
-0.5659     0
-0.5559     0
-0.5459     0
-0.5359     0
-0.5259     0
-0.5159     0
-0.5059     0
-0.4959     0
-0.4859     0
-0.4759     0
-0.4659     0
-0.4559     0
-0.4459     0
-0.4359     0
-0.4259     0
-0.4159     0
-0.4059     0
-0.3959     0
-0.3859     0
-0.3759     0
-0.3659     0
-0.3559     0
-0.3459     0
-0.3359     0
-0.3259     0
-0.3159     0
-0.3059     0
-0.2959     0
-0.2859     0
-0.2759     0
-0.2659     0
-0.2559     0
-0.2459     0
-0.2359     0
-0.2259     0
-0.2159     0
-0.2059     0
-0.1959     0
-0.1859     0
-0.1759     0
-0.1659     0
-0.1559     0
-0.1459     0
-0.1359     0
-0.1259     0
-0.1159     2
-0.1059    22
-0.0959    57
-0.0859   255
-0.0759   906
-0.0659  2603
-0.0559  6822
-0.0459 14671
-0.0359 27870
-0.0259 44187
-0.0159 60366
-0.0059 71042
 0.0041 71417
 0.0141 62023
 0.0241 45234
 0.0341 28809
 0.0441 15460
 0.0541  7386
 0.0641  2882
 0.0741   999
 0.0841   288
 0.0941    95
 0.1041    25
 0.1141    10
 0.1241     9
 0.1341     6
 0.1441     4
 0.1541     2
 0.1641     2
 0.1741     0
 0.1841   211
 0.1941   422
 0.2041   384
 0.2141   369
 0.2241   368
 0.2341   351
 0.2441   350
 0.2541   366
 0.2641   365
 0.2741   360
 0.2841   338
 0.2941   335
 0.3041   366
 0.3141   347
 0.3241   351
 0.3341   352
 0.3441   353
 0.3541   342
 0.3641   340
 0.3741   332
 0.3841   314
 0.3941   324
 0.4041   333
 0.4141   317
 0.4241   304
 0.4341   309
 0.4441   316
 0.4541   324
 0.4641   321
 0.4741   310
 0.4841   315
 0.4941   326
 0.5041   329
 0.5141   338
 0.5241   325
 0.5341   308
 0.5441   312
 0.5541   308
 0.5641   267
 0.5741   276
 0.5841   290
 0.5941   284
 0.6041   267
 0.6141   268
 0.6241   304
 0.6341   296
 0.6441   262
 0.6541   268
 0.6641   277
 0.6741   286
 0.6841   278
 0.6941   266
 0.7041   275
 0.7141   279
 0.7241   275
 0.7341   278
 0.7441   272
 0.7541   265
 0.7641   262
 0.7741   261
 0.7841   272
 0.7941   271
 0.8041   252
 0.8141   256
 0.8241   261
 0.8341   246
 0.8441   251
 0.8541   268
 0.8641   255
 0.8741   254
 0.8841   265
 0.8941   254
 0.9041   228
 0.9141   231
 0.9241   255
 0.9341   246
 0.9441   250
 0.9541   260
 0.9641   234
 0.9741   226
 0.9841   253
 0.9941   245
 1.0041   226
 1.0141   242
 1.0241   248
 1.0341   228
 1.0441   216
 1.0541   238
 1.0641   238
 1.0741   238
 1.0841   227
 1.0941   225
 1.1041   235
 1.1141   215
 1.1241   240
 1.1341   229
 1.1441   243
 1.1541   225
 1.1641   203
 1.1741   202
 1.1841   223
 1.1941   225
 1.2041   221
 1.2141   224
 1.2241   209
 1.2341   225
 1.2441   218
 1.2541   194
 1.2641   211
 1.2741   232
 1.2841   211
 1.2941   216
 1.3041   201
 1.3141   219
 1.3241   211
 1.3341   213
 1.3441   202
 1.3541   197
 1.3641   192
 1.3741   222
 1.3841   221
 1.3941   229
 1.4041   219
 1.4141   228
 1.4241   208
 1.4341   208
 1.4441   214
 1.4541   221
 1.4641   252
 1.4741   221
 1.4841   187
 1.4941   207
 1.5041   209
 1.5141   212
 1.5241   203
 1.5341   218
 1.5441   213
 1.5541   213
 1.5641   189
 1.5741   222
 1.5841   221
 1.5941   205
 1.6041   203
 1.6141   193
 1.6241   211
 1.6341   202
 1.6441   215
 1.6541   252
 1.6641   276
 1.6741   348
 1.6841   415
 1.6941   564
 1.7041   635
 1.7141   725
 1.7241   819
 1.7341   839
 1.7441   898
 1.7541   802
 1.7641   721
 1.7741   625
 1.7841   490
 1.7941   453
 1.8041   366
 1.8141   316
 1.8241   282
 1.8341   259
 1.8441   247
 1.8541   257
 1.8641   235
 1.8741   206
 1.8841   220
 1.8941   222
 1.9041   207
 1.9141   205
 1.9241   204
 1.9341   207
 1.9441   186
 1.9541   221
 1.9641   233
 1.9741   240
 1.9841   248
 1.9941   265
 2.0041   246
 2.0141   257
 2.0241   282
 2.0341   269
 2.0441   224
 2.0541   219
 2.0641   206
 2.0741   186
 2.0841   195
 2.0941   213
 2.1041   187
 2.1141   196
 2.1241   203
 2.1341   185
 2.1441   202
 2.1541   184
 2.1641   175
 2.1741   198
 2.1841   166
 2.1941   176
 2.2041   179
 2.2141   169
 2.2241   177
 2.2341   179
 2.2441   182
 2.2541   183
 2.2641   183
 2.2741   183
 2.2841   162
 2.2941   169
 2.3041   203
 2.3141   181
 2.3241   170
 2.3341   173
 2.3441   185
 2.3541   177
 2.3641   180
 2.3741   148
 2.3841   141
 2.3941   163
 2.4041   155
 2.4141   181
 2.4241   165
 2.4341   170
 2.4441   164
 2.4541   164
 2.4641   172
 2.4741   163
 2.4841   176
 2.4941   170
 2.5041   159
 2.5141   168
 2.5241   154
 2.5341   154
 2.5441   180
 2.5541   181
 2.5641   164
 2.5741   158
 2.5841   162
 2.5941   182
 2.6041   157
 2.6141   144
 2.6241   177
 2.6341   170
 2.6441   163
 2.6541   160
 2.6641   163
 2.6741   164
 2.6841   164
 2.6941   146
 2.7041   155
 2.7141   153
 2.7241   165
 2.7341   153
 2.7441   134
 2.7541   143
 2.7641   152
 2.7741   151
 2.7841   185
 2.7941   155
 2.8041   163
 2.8141   147
 2.8241   179
 2.8341   153
 2.8441   153
 2.8541   171
 2.8641   152
 2.8741   167
 2.8841   135
 2.8941   152
 2.9041   149
 2.9141   152
 2.9241   141
 2.9341   140
 2.9441   127
 2.9541   155
 2.9641   139
 2.9741   129
 2.9841   156
 2.9941   151
 3.0041   163
 3.0141   142
 3.0241   139
 3.0341   139
 3.0441   134
 3.0541   131
 3.0641   140
 3.0741   126
 3.0841   128
 3.0941   134
 3.1041   132
 3.1141   110
 3.1241   105
 3.1341   128
 3.1441   130
 3.1541   148
 3.1641   133
 3.1741   134
 3.1841   122
 3.1941   139
 3.2041   149
 3.2141   137
 3.2241   163
 3.2341   182
 3.2441   210
 3.2541   248
 3.2641   267
 3.2741   311
 3.2841   300
 3.2941   333
 3.3041   373
 3.3141   390
 3.3241   351
 3.3341   330
 3.3441   341
 3.3541   269
 3.3641   236
 3.3741   246
 3.3841   183
 3.3941   145
 3.4041   138
 3.4141   144
 3.4241   133
 3.4341   119
 3.4441   109
 3.4541   118
 3.4641   109
 3.4741   124
 3.4841   125
 3.4941   127
 3.5041   133
 3.5141   134
 3.5241   146
 3.5341   147
 3.5441   155
 3.5541   166
 3.5641   183
 3.5741   235
 3.5841   301
 3.5941   314
 3.6041   405
 3.6141   492
 3.6241   626
 3.6341   736
 3.6441   884
 3.6541  1006
 3.6641  1142
 3.6741  1187
 3.6841  1223
 3.6941  1309
 3.7041  1258
 3.7141  1130
 3.7241   952
 3.7341   843
 3.7441   707
 3.7541   573
 3.7641   470
 3.7741   372
 3.7841   261
 3.7941   229
 3.8041   160
 3.8141   147
 3.8241   119
 3.8341   123
 3.8441   121
 3.8541   101
 3.8641   108
 3.8741    98
 3.8841   108
 3.8941   124
 3.9041   101
 3.9141   137
 3.9241   143
 3.9341   157
 3.9441   152
 3.9541   188
 3.9641   219
 3.9741   205
 3.9841   222
 3.9941   224
 4.0041   246
 4.0141   261
 4.0241   258
 4.0341   262
 4.0441   205
 4.0541   207
 4.0641   189
 4.0741   141
 4.0841   131
 4.0941   137
 4.1041   105
 4.1141   115
 4.1241   106
 4.1341    81
 4.1441    88
 4.1541    86
 4.1641    97
 4.1741   100
 4.1841    90
 4.1941    71
 4.2041    90
 4.2141    79
 4.2241    80
 4.2341    88
 4.2441    97
 4.2541    82
 4.2641    73
 4.2741    88
 4.2841    86
 4.2941    96
 4.3041    88
 4.3141    96
 4.3241    89
 4.3341   111
 4.3441    90
 4.3541    98
 4.3641    87
 4.3741   102
 4.3841   139
 4.3941   158
 4.4041   176
 4.4141   224
 4.4241   258
 4.4341   269
 4.4441   370
 4.4541   481
 4.4641   504
 4.4741   568
 4.4841   598
 4.4941   645
 4.5041   666
 4.5141   603
 4.5241   624
 4.5341   568
 4.5441   537
 4.5541   461
 4.5641   393
 4.5741   309
 4.5841   258
 4.5941   218
 4.6041   188
 4.6141   187
 4.6241   162
 4.6341   147
 4.6441   125
 4.6541   119
 4.6641   106
 4.6741   108
 4.6841    98
 4.6941   101
 4.7041    88
 4.7141   116
 4.7241   113
 4.7341   101
 4.7441   135
 4.7541   109
 4.7641   121
 4.7741   104
 4.7841   113
 4.7941   139
 4.8041   129
 4.8141   111
 4.8241   130
 4.8341   153
 4.8441   144
 4.8541   165
 4.8641   148
 4.8741   169
 4.8841   215
 4.8941   194
 4.9041   200
 4.9141   217
 4.9241   206
 4.9341   235
 4.9441   189
 4.9541   181
 4.9641   183
 4.9741   162
 4.9841   177
 4.9941   187
 5.0041   165
 5.0141   138
 5.0241   128
 5.0341   120
 5.0441   115
 5.0541   110
 5.0641   100
 5.0741    99
 5.0841   103
 5.0941   104
 5.1041   111
 5.1141   108
 5.1241   114
 5.1341   123
 5.1441   122
 5.1541   103
 5.1641   128
 5.1741   119
 5.1841   113
 5.1941   119
 5.2041   124
 5.2141   121
 5.2241   115
 5.2341   116
 5.2441   110
 5.2541   114
 5.2641   107
 5.2741   118
 5.2841   105
 5.2941   101
 5.3041   123
 5.3141   128
 5.3241   111
 5.3341   139
 5.3441   122
 5.3541   115
 5.3641   138
 5.3741   128
 5.3841   131
 5.3941   161
 5.4041   146
 5.4141   170
 5.4241   164
 5.4341   141
 5.4441   152
 5.4541   126
 5.4641   146
 5.4741   128
 5.4841   123
 5.4941   136
 5.5041   114
 5.5141   146
 5.5241   130
 5.5341   109
 5.5441    97
 5.5541   122
 5.5641   115
 5.5741   134
 5.5841   116
 5.5941   111
 5.6041   115
 5.6141   111
 5.6241   119
 5.6341   126
 5.6441   117
 5.6541   113
 5.6641   112
 5.6741   121
 5.6841   139
 5.6941   125
 5.7041   124
 5.7141   135
 5.7241   144
 5.7341   153
 5.7441   152
 5.7541   161
 5.7641   148
 5.7741   192
 5.7841   225
 5.7941   255
 5.8041   299
 5.8141   332
 5.8241   403
 5.8341   461
 5.8441   500
 5.8541   582
 5.8641   568
 5.8741   613
 5.8841   681
 5.8941   694
 5.9041   689
 5.9141   609
 5.9241   628
 5.9341   599
 5.9441   504
 5.9541   434
 5.9641   405
 5.9741   329
 5.9841   282
 5.9941   260
 6.0041   214
 6.0141   189
 6.0241   188
 6.0341   163
 6.0441   159
 6.0541   176
 6.0641   191
 6.0741   174
 6.0841   157
 6.0941   145
 6.1041   177
 6.1141   162
 6.1241   159
 6.1341   169
 6.1441   189
 6.1541   198
 6.1641   209
 6.1741   215
 6.1841   248
 6.1941   271
 6.2041   327
 6.2141   427
 6.2241   530
 6.2341   768
 6.2441   999
 6.2541  1407
 6.2641  1899
 6.2741  2577
 6.2841  3469
 6.2941  4689
 6.3041  6096
 6.3141  7644
 6.3241  9395
 6.3341 11378
 6.3441 13307
 6.3541 15169
 6.3641 16803
 6.3741 18136
 6.3841 18956
 6.3941 19741
 6.4041 19673
 6.4141 18553
 6.4241 17616
 6.4341 16145
 6.4441 14357
 6.4541 12602
 6.4641 10625
 6.4741  8724
 6.4841  7029
 6.4941  5498
 6.5041  4180
 6.5141  3189
 6.5241  2284
 6.5341  1640
 6.5441  1146
 6.5541   861
 6.5641   619
 6.5741   477
 6.5841   338
 6.5941   305
 6.6041   226
 6.6141   183
 6.6241   214
 6.6341   205
 6.6441   175
 6.6541   166
 6.6641   183
 6.6741   166
 6.6841   169
 6.6941   170
 6.7041   182
 6.7141   207
 6.7241   178
 6.7341   185
 6.7441   205
 6.7541   194
 6.7641   200
 6.7741   154
 6.7841   193
 6.7941   202
 6.8041   207
 6.8141   211
 6.8241   212
 6.8341   216
 6.8441   251
 6.8541   253
 6.8641   268
 6.8741   320
 6.8841   324
 6.8941   425
 6.9041   458
 6.9141   557
 6.9241   676
 6.9341   765
 6.9441   972
 6.9541  1124
 6.9641  1354
 6.9741  1647
 6.9841  1907
 6.9941  2191
 7.0041  2508
 7.0141  2758
 7.0241  2938
 7.0341  3122
 7.0441  3113
 7.0541  3256
 7.0641  3245
 7.0741  2999
 7.0841  2846
 7.0941  2633
 7.1041  2410
 7.1141  2091
 7.1241  1797
 7.1341  1497
 7.1441  1353
 7.1541  1073
 7.1641   908
 7.1741   703
 7.1841   602
 7.1941   465
 7.2041   389
 7.2141   350
 7.2241   320
 7.2341   259
 7.2441   284
 7.2541   243
 7.2641   232
 7.2741   242
 7.2841   289
 7.2941   250
 7.3041   271
 7.3141   245
 7.3241   279
 7.3341   270
 7.3441   337
 7.3541   317
 7.3641   315
 7.3741   317
 7.3841   325
 7.3941   339
 7.4041   335
 7.4141   356
 7.4241   361
 7.4341   309
 7.4441   318
 7.4541   291
 7.4641   311
 7.4741   317
 7.4841   305
 7.4941   299
 7.5041   265
 7.5141   261
 7.5241   274
 7.5341   261
 7.5441   269
 7.5541   243
 7.5641   257
 7.5741   217
 7.5841   253
 7.5941   276
 7.6041   253
 7.6141   240
 7.6241   230
 7.6341   257
 7.6441   242
 7.6541   232
 7.6641   253
 7.6741   239
 7.6841   259
 7.6941   281
 7.7041   265
 7.7141   258
 7.7241   278
 7.7341   273
 7.7441   280
 7.7541   300
 7.7641   304
 7.7741   281
 7.7841   275
 7.7941   300
 7.8041   284
 7.8141   316
 7.8241   316
 7.8341   359
 7.8441   348
 7.8541   367
 7.8641   366
 7.8741   343
 7.8841   388
 7.8941   411
 7.9041   409
 7.9141   459
 7.9241   458
 7.9341   465
 7.9441   505
 7.9541   509
 7.9641   569
 7.9741   571
 7.9841   622
 7.9941   691
 8.0041   744
 8.0141   796
 8.0241   849
 8.0341   961
 8.0441  1008
 8.0541  1055
 8.0641  1109
 8.0741  1235
 8.0841  1220
 8.0941  1285
 8.1041  1409
 8.1141  1450
 8.1241  1443
 8.1341  1532
 8.1441  1534
 8.1541  1552
 8.1641  1659
 8.1741  1701
 8.1841  1639
 8.1941  1762
 8.2041  1704
 8.2141  1820
 8.2241  1775
 8.2341  1851
 8.2441  1855
 8.2541  1873
 8.2641  1993
 8.2741  2070
 8.2841  2246
 8.2941  2368
 8.3041  2420
 8.3141  2711
 8.3241  2883
 8.3341  3086
 8.3441  3290
 8.3541  3420
 8.3641  3539
 8.3741  3597
 8.3841  3680
 8.3941  3670
 8.4041  3615
 8.4141  3459
 8.4241  3257
 8.4341  2988
 8.4441  2781
 8.4541  2562
 8.4641  2145
 8.4741  1922
 8.4841  1639
 8.4941  1431
 8.5041  1254
 8.5141  1027
 8.5241   861
 8.5341   739
 8.5441   670
 8.5541   575
 8.5641   545
 8.5741   538
 8.5841   495
 8.5941   470
 8.6041   481
 8.6141   450
 8.6241   479
 8.6341   493
 8.6441   454
 8.6541   457
 8.6641   468
 8.6741   464
 8.6841   464
 8.6941   467
 8.7041   467
 8.7141   457
 8.7241   435
 8.7341   459
 8.7441   468
 8.7541   483
 8.7641   466
 8.7741   423
 8.7841   430
 8.7941   433
 8.8041   428
 8.8141   424
 8.8241   408
 8.8341   413
 8.8441   393
 8.8541   416
 8.8641   410
 8.8741   401
 8.8841   399
 8.8941   406
 8.9041   396
 8.9141   406
 8.9241   392
 8.9341   437
 8.9441   469
 8.9541   421
 8.9641   427
 8.9741   427
 8.9841   439
 8.9941   456
 9.0041   455
 9.0141   486
 9.0241   479
 9.0341   484
 9.0441   494
 9.0541   499
 9.0641   510
 9.0741   520
 9.0841   579
 9.0941   568
 9.1041   611
 9.1141   610
 9.1241   635
 9.1341   641
 9.1441   609
 9.1541   704
 9.1641   714
 9.1741   784
 9.1841   837
 9.1941   870
 9.2041   905
 9.2141   932
 9.2241  1014
 9.2341   990
 9.2441  1122
 9.2541  1106
 9.2641  1171
 9.2741  1275
 9.2841  1308
 9.2941  1377
 9.3041  1440
 9.3141  1462
 9.3241  1484
 9.3341  1573
 9.3441  1635
 9.3541  1603
 9.3641  1682
 9.3741  1662
 9.3841  1632
 9.3941  1743
 9.4041  1865
 9.4141  1842
 9.4241  1812
 9.4341  1783
 9.4441  1819
 9.4541  1891
 9.4641  1930
 9.4741  1963
 9.4841  2042
 9.4941  2027
 9.5041  2066
 9.5141  2133
 9.5241  2141
 9.5341  2212
 9.5441  2351
 9.5541  2540
 9.5641  2651
 9.5741  2688
 9.5841  2879
 9.5941  3001
 9.6041  3244
 9.6141  3338
 9.6241  3541
 9.6341  3706
 9.6441  3808
 9.6541  3844
 9.6641  3847
 9.6741  3862
 9.6841  3744
 9.6941  3670
 9.7041  3529
 9.7141  3358
 9.7241  3237
 9.7341  2975
 9.7441  2818
 9.7541  2586
 9.7641  2367
 9.7741  2168
 9.7841  2116
 9.7941  1982
 9.8041  1913
 9.8141  1865
 9.8241  1751
 9.8341  1730
 9.8441  1733
 9.8541  1609
 9.8641  1616
 9.8741  1690
 9.8841  1676
 9.8941  1736
 9.9041  1722
 9.9141  1804
 9.9241  1813
 9.9341  1771
 9.9441  1818
 9.9541  1804
 9.9641  1697
 9.9741  1709
 9.9841  1663
 9.9941  1550
10.0041  1456
10.0141  1339
10.0241  1228
10.0341  1119
10.0441  1057
10.0541   954
10.0641   852
10.0741   720
10.0841   649
10.0941   601
10.1041   581
10.1141   503
10.1241   459
10.1341   454
10.1441   411
10.1541   377
10.1641   365
10.1741   362
10.1841   341
10.1941   352
10.2041   334
10.2141   311
10.2241   310
10.2341   298
10.2441   308
10.2541   278
10.2641   271
10.2741   284
10.2841   278
10.2941   256
10.3041   235
10.3141   223
10.3241   212
10.3341   224
10.3441   234
10.3541   219
10.3641   233
10.3741   223
10.3841   224
10.3941   237
10.4041   225
10.4141   214
10.4241   233
10.4341   236
10.4441   210
10.4541   226
10.4641   237
10.4741   259
10.4841   229
10.4941   242
10.5041   260
10.5141   255
10.5241   243
10.5341   246
10.5441   260
10.5541   259
10.5641   267
10.5741   269
10.5841   278
10.5941   253
10.6041   246
10.6141   266
10.6241   274
10.6341   263
10.6441   239
10.6541   245
10.6641   265
10.6741   276
10.6841   274
10.6941   263
10.7041   276
10.7141   290
10.7241   308
10.7341   313
10.7441   312
10.7541   293
10.7641   315
10.7741   347
10.7841   333
10.7941   354
10.8041   354
10.8141   374
10.8241   379
10.8341   347
10.8441   363
10.8541   396
10.8641   412
10.8741   399
10.8841   402
10.8941   411
10.9041   402
10.9141   389
10.9241   373
10.9341   375
10.9441   377
10.9541   376
10.9641   423
10.9741   408
10.9841   403
10.9941   394
11.0041   377
11.0141   355
11.0241   362
11.0341   380
11.0441   373
11.0541   357
11.0641   365
11.0741   340
11.0841   327
11.0941   351
11.1041   356
11.1141   341
11.1241   336
11.1341   356
11.1441   351
11.1541   367
11.1641   386
11.1741   413
11.1841   426
11.1941   453
11.2041   462
11.2141   456
11.2241   512
11.2341   536
11.2441   532
11.2541   554
11.2641   576
11.2741   561
11.2841   553
11.2941   552
11.3041   523
11.3141   510
11.3241   522
11.3341   498
11.3441   498
11.3541   479
11.3641   444
11.3741   407
11.3841   413
11.3941   374
11.4041   356
11.4141   322
11.4241   307
11.4341   297
11.4441   280
11.4541   292
11.4641   287
11.4741   271
11.4841   283
11.4941   283
11.5041   267
11.5141   259
11.5241   252
11.5341   264
11.5441   269
11.5541   288
11.5641   285
11.5741   294
11.5841   279
11.5941   268
11.6041   281
11.6141   308
11.6241   322
11.6341   297
11.6441   287
11.6541   293
11.6641   292
11.6741   291
11.6841   290
11.6941   264
11.7041   287
11.7141   281
11.7241   263
11.7341   254
11.7441   260
11.7541   270
11.7641   256
11.7741   245
11.7841   221
11.7941   230
11.8041   215
11.8141   228
11.8241   240
11.8341   215
11.8441   211
11.8541   212
11.8641   209
11.8741   192
11.8841   182
11.8941   181
11.9041   202
11.9141   213
11.9241   197
11.9341   211
11.9441   227
11.9541   221
11.9641   219
11.9741   218
11.9841   213
11.9941   226
12.0041   228
12.0141   230
12.0241   230
12.0341   215
12.0441   214
12.0541   216
12.0641   227
12.0741   220
12.0841   217
12.0941   215
12.1041   223
12.1141   222
12.1241   231
12.1341   211
12.1441   206
12.1541   215
12.1641   213
12.1741   194
12.1841   194
12.1941   221
12.2041   207
12.2141   202
12.2241   206
12.2341   207
12.2441   194
12.2541   204
12.2641   217
12.2741   216
12.2841   211
12.2941   218
12.3041   196
12.3141   203
12.3241   208
12.3341   199
12.3441   207
12.3541   200
12.3641   215
12.3741   204
12.3841   198
12.3941   204
12.4041   203
12.4141   206
12.4241   200
12.4341   219
12.4441   236
12.4541   216
12.4641   213
12.4741   227
12.4841   227
12.4941   210
12.5041   238
12.5141   253
12.5241   232
12.5341   230
12.5441   221
12.5541   205
12.5641   214
12.5741   232
12.5841   240
12.5941   235
12.6041   222
12.6141   214
12.6241   208
12.6341   223
12.6441   234
12.6541   244
12.6641   221
12.6741   212
12.6841   226
12.6941   221
12.7041   226
12.7141   234
12.7241   219
12.7341   218
12.7441   231
12.7541   232
12.7641   224
12.7741   222
12.7841   228
12.7941   236
12.8041   235
12.8141   226
12.8241   226
12.8341   235
12.8441   238
12.8541   241
12.8641   241
12.8741   233
12.8841   222
12.8941   223
12.9041   235
12.9141   242
12.9241   239
12.9341   235
12.9441   231
12.9541   231
12.9641   235
12.9741   231
12.9841   223
12.9941   231
13.0041   261
13.0141   256
13.0241   240
13.0341   226
13.0441   236
13.0541   238
13.0641   243
13.0741   239
13.0841   237
13.0941   263
13.1041   272
13.1141   272
13.1241   265
13.1341   260
13.1441   255
13.1541   250
13.1641   246
13.1741   246
13.1841   255
13.1941   263
13.2041   250
13.2141   272
13.2241   299
13.2341   304
13.2441   300
13.2541   296
13.2641   321
13.2741   344
13.2841   368
13.2941   373
13.3041   369
13.3141   392
13.3241   422
13.3341   430
13.3441   418
13.3541   406
13.3641   418
13.3741   416
13.3841   414
13.3941   410
13.4041   404
13.4141   430
13.4241   440
13.4341   420
13.4441   396
13.4541   376
13.4641   369
13.4741   349
13.4841   336
13.4941   320
13.5041   303
13.5141   307
13.5241   318
13.5341   299
13.5441   297
13.5541   303
13.5641   305
13.5741   305
13.5841   320
13.5941   317
13.6041   295
13.6141   291
13.6241   285
13.6341   290
13.6441   305
13.6541   306
13.6641   299
13.6741   294
13.6841   291
13.6941   294
13.7041   308
13.7141   310
13.7241   314
13.7341   307
13.7441   297
13.7541   292
13.7641   288
13.7741   275
13.7841   277
13.7941   301
13.8041   290
13.8141   282
13.8241   295
13.8341   293
13.8441   304
13.8541   306
13.8641   289
13.8741   276
13.8841   301
13.8941   329
13.9041   318
13.9141   323
13.9241   315
13.9341   303
13.9441   303
13.9541   326
13.9641   351
13.9741   343
13.9841   340
13.9941   348
14.0041   362
14.0141   362
14.0241   368
14.0341   372
14.0441   366
14.0541   359
14.0641   368
14.0741   387
14.0841   410
14.0941   428
14.1041   417
14.1141   451
14.1241   463
14.1341   432
14.1441   417
14.1541   426
14.1641   463
14.1741   457
14.1841   446
14.1941   464
14.2041   461
14.2141   427
14.2241   397
14.2341   391
14.2441   385
14.2541   380
14.2641   372
14.2741   389
14.2841   400
14.2941   378
14.3041   370
14.3141   368
14.3241   378
14.3341   382
14.3441   365
14.3541   349
14.3641   325
14.3741   311
14.3841   309
14.3941   315
14.4041   346
14.4141   355
14.4241   334
14.4341   338
14.4441   354
14.4541   343
14.4641   340
14.4741   352
14.4841   351
14.4941   363
14.5041   356
14.5141   339
14.5241   337
14.5341   331
14.5441   333
14.5541   351
14.5641   372
14.5741   355
14.5841   351
14.5941   365
14.6041   360
14.6141   353
14.6241   354
14.6341   359
14.6441   374
14.6541   380
14.6641   372
14.6741   351
14.6841   341
14.6941   348
14.7041   334
14.7141   363
14.7241   356
14.7341   342
14.7441   357
14.7541   349
14.7641   354
14.7741   376
14.7841   380
14.7941   388
14.8041   398
14.8141   390
14.8241   382
14.8341   381
14.8441   409
14.8541   404
14.8641   397
14.8741   397
14.8841   394
14.8941   394
14.9041   406
14.9141   428
14.9241   422
14.9341   436
14.9441   475
14.9541   454
14.9641   412
14.9741   416
14.9841   419
14.9941   428
15.0041   442
15.0141   425
15.0241   383
15.0341   387
15.0441   403
15.0541   407
15.0641   400
15.0741   396
15.0841   388
15.0941   391
15.1041   401
15.1141   383
15.1241   368
15.1341   403
15.1441   418
15.1541   398
15.1641   408
15.1741   407
15.1841   396
15.1941   394
15.2041   394
15.2141   407
15.2241   395
15.2341   375
15.2441   400
15.2541   407
15.2641   402
15.2741   399
15.2841   399
15.2941   398
15.3041   382
15.3141   395
15.3241   414
15.3341   401
15.3441   402
15.3541   404
15.3641   415
15.3741   421
15.3841   396
15.3941   387
15.4041   404
15.4141   409
15.4241   392
15.4341   388
15.4441   406
15.4541   423
15.4641   431
15.4741   425
15.4841   417
15.4941   443
15.5041   467
15.5141   475
15.5241   447
15.5341   472
15.5441   507
15.5541   493
15.5641   492
15.5741   505
15.5841   516
15.5941   549
15.6041   578
15.6141   607
15.6241   637
15.6341   685
15.6441   732
15.6541   715
15.6641   772
15.6741   814
15.6841   835
15.6941   854
15.7041   872
15.7141   922
15.7241   938
15.7341   926
15.7441   936
15.7541   956
15.7641   930
15.7741   943
15.7841   955
15.7941   929
15.8041   853
15.8141   849
15.8241   849
15.8341   749
15.8441   748
15.8541   742
15.8641   708
15.8741   659
15.8841   650
15.8941   662
15.9041   664
15.9141   601
15.9241   551
15.9341   550
15.9441   545
15.9541   507
15.9641   487
15.9741   495
15.9841   467
15.9941   440
16.0041   471
16.0141   491
16.0241   472
16.0341   471
16.0441   480
16.0541   470
16.0641   471
16.0741   468
16.0841   488
16.0941   498
16.1041   468
16.1141   473
16.1241   476
16.1341   445
16.1441   469
16.1541   468
16.1641   484
16.1741   499
16.1841   498
16.1941   516
16.2041   488
16.2141   489
16.2241   477
16.2341   484
16.2441   482
16.2541   472
16.2641   462
16.2741   462
16.2841   468
16.2941   483
16.3041   475
16.3141   456
16.3241   476
16.3341   472
16.3441   464
16.3541   479
16.3641   479
16.3741   484
16.3841   520
16.3941   499
16.4041   493
16.4141   477
16.4241   477
16.4341   504
16.4441   517
16.4541   485
16.4641   476
16.4741   476
16.4841   503
16.4941   510
16.5041   515
16.5141   520
16.5241   504
16.5341   503
16.5441   492
16.5541   494
16.5641   497
16.5741   506
16.5841   506
16.5941   514
16.6041   514
16.6141   487
16.6241   524
16.6341   543
16.6441   538
16.6541   501
16.6641   482
16.6741   518
16.6841   531
16.6941   507
16.7041   546
16.7141   543
16.7241   524
16.7341   538
16.7441   579
16.7541   538
16.7641   509
16.7741   531
16.7841   531
16.7941   503
16.8041   520
16.8141   529
16.8241   515
16.8341   544
16.8441   544
16.8541   500
16.8641   528
16.8741   560
16.8841   541
16.8941   521
16.9041   521
16.9141   512
16.9241   511
16.9341   546
16.9441   546
16.9541   530
16.9641   551
16.9741   540
16.9841   551
16.9941   542
17.0041   527
17.0141   564
17.0241   565
17.0341   537
17.0441   544
17.0541   556
17.0641   575
17.0741   552
17.0841   524
17.0941   519
17.1041   569
17.1141   586
17.1241   579
17.1341   562
17.1441   551
17.1541   546
17.1641   587
17.1741   589
17.1841   511
17.1941   559
17.2041   593
17.2141   529
17.2241   545
17.2341   540
17.2441   528
17.2541   560
17.2641   594
17.2741   561
17.2841   562
17.2941   582
17.3041   561
17.3141   589
17.3241   630
17.3341   588
17.3441   576
17.3541   557
17.3641   570
17.3741   560
17.3841   566
17.3941   577
17.4041   590
17.4141   587
17.4241   558
17.4341   611
17.4441   582
17.4541   596
17.4641   592
17.4741   589
17.4841   571
17.4941   612
17.5041   639
17.5141   636
17.5241   633
17.5341   591
17.5441   604
17.5541   681
17.5641   620
17.5741   617
17.5841   618
17.5941   641
17.6041   640
17.6141   659
17.6241   657
17.6341   672
17.6441   670
17.6541   675
17.6641   698
17.6741   695
17.6841   684
17.6941   700
17.7041   691
17.7141   661
17.7241   683
17.7341   662
17.7441   669
17.7541   655
17.7641   633
17.7741   621
17.7841   634
17.7941   668
17.8041   645
17.8141   598
17.8241   649
17.8341   625
17.8441   604
17.8541   626
17.8641   631
17.8741   606
17.8841   622
17.8941   614
17.9041   643
17.9141   626
17.9241   595
17.9341   598
17.9441   602
17.9541   633
17.9641   628
17.9741   600
17.9841   638
17.9941   626
18.0041   635
18.0141   636
18.0241   628
18.0341   615
18.0441   645
18.0541   621
18.0641   613
18.0741   616
18.0841   606
18.0941   644
18.1041   649
18.1141   648
18.1241   626
18.1341   643
18.1441   654
18.1541   673
18.1641   642
18.1741   661
18.1841   630
18.1941   649
18.2041   631
18.2141   661
18.2241   644
18.2341   612
18.2441   600
18.2541   625
18.2641   632
18.2741   631
18.2841   642
18.2941   656
18.3041   630
18.3141   659
18.3241   644
18.3341   651
18.3441   633
18.3541   634
18.3641   625
18.3741   637
18.3841   631
18.3941   642
18.4041   664
18.4141   653
18.4241   645
18.4341   656
18.4441   619
18.4541   639
18.4641   672
18.4741   662
18.4841   686
18.4941   688
18.5041   690
18.5141   651
18.5241   640
18.5341   646
18.5441   674
18.5541   676
18.5641   648
18.5741   627
18.5841   647
18.5941   662
18.6041   670
18.6141   655
18.6241   675
18.6341   655
18.6441   641
18.6541   652
18.6641   688
18.6741   646
18.6841   682
18.6941   629
18.7041   654
18.7141   678
18.7241   645
18.7341   652
18.7441   639
18.7541   609
18.7641   631
18.7741   629
18.7841   668
18.7941   664
18.8041   645
18.8141   680
18.8241   685
18.8341   640
18.8441   684
18.8541   676
18.8641   653
18.8741   701
18.8841   686
18.8941   708
18.9041   650
18.9141   634
18.9241   690
18.9341   722
18.9441   655
18.9541   675
18.9641   679
18.9741   681
18.9841   715
18.9941   685
19.0041   653
19.0141   683
19.0241   708
19.0341   640
19.0441   667
19.0541   641
19.0641   655
19.0741   714
19.0841   686
19.0941   680
19.1041   707
19.1141   703
19.1241   709
19.1341   723
19.1441   685
19.1541   662
19.1641   666
19.1741   692
19.1841   708
19.1941   687
19.2041   676
19.2141   704
19.2241   679
19.2341   681
19.2441   667
19.2541   685
19.2641   690
19.2741   662
19.2841   685
19.2941   704
19.3041   670
19.3141   670
19.3241   686
19.3341   698
19.3441   682
19.3541   657
19.3641   723
19.3741   695
19.3841   670
19.3941   697
19.4041   689
19.4141   724
19.4241   693
19.4341   692
19.4441   647
19.4541   641
19.4641   654
19.4741   690
19.4841   671
19.4941   662
19.5041   734
19.5141   647
19.5241   705
19.5341   690
19.5441   700
19.5541   689
19.5641   700
19.5741   701
19.5841   703
19.5941   699
19.6041   688
19.6141   707
19.6241   711
19.6341   689
19.6441   691
19.6541   685
19.6641   702
19.6741   723
19.6841   672
19.6941   694
19.7041   715
19.7141   670
19.7241   700
19.7341   711
19.7441   715
19.7541   764
19.7641   725
19.7741   697
19.7841   717
19.7941   704
19.8041   672
19.8141   673
19.8241   728
19.8341   701
19.8441   723
19.8541   676
19.8641   667
19.8741   673
19.8841   714
19.8941   719
19.9041   684
19.9141   659
19.9241   678
19.9341   715
19.9441   741
19.9541   706
19.9641   707
19.9741   691
19.9841   734
19.9941   691
20.0041   719
20.0141   717
20.0241   723
20.0341   704
20.0441   717
20.0541   737
20.0641   733
20.0741   720
20.0841   714
20.0941   730
20.1041   716
20.1141   680
20.1241   697
20.1341   714
20.1441   720
20.1541   724
20.1641   735
20.1741   680
20.1841   684
20.1941   698
20.2041   745
20.2141   734
20.2241   720
20.2341   732
20.2441   703
20.2541   685
20.2641   738
20.2741   717
20.2841   736
20.2941   691
20.3041   727
20.3141   724
20.3241   733
20.3341   730
20.3441   735
20.3541   739
20.3641   711
20.3741   739
20.3841   705
20.3941   736
20.4041   723
20.4141   709
20.4241   715
20.4341   734
20.4441   739
20.4541   730
20.4641   771
20.4741   725
20.4841   747
20.4941   717
20.5041   747
20.5141   757
20.5241   759
20.5341   719
20.5441   736
20.5541   715
20.5641   716
20.5741   709
20.5841   735
20.5941   740
20.6041   724
20.6141   762
20.6241   736
20.6341   744
20.6441   702
20.6541   696
20.6641   735
20.6741   749
20.6841   730
20.6941   676
20.7041   721
20.7141   693
20.7241   701
20.7341   720
20.7441   702
20.7541   749
20.7641   744
20.7741   752
20.7841   742
20.7941   753
20.8041   750
20.8141   746
20.8241   753
20.8341   703
20.8441   754
20.8541   794
20.8641   762
20.8741   764
20.8841   829
20.8941   760
20.9041   845
20.9141   771
20.9241   874
20.9341   817
20.9441   839
20.9541   856
20.9641   872
20.9741   879
20.9841   945
20.9941   960
21.0041   996
21.0141   959
21.0241   938
21.0341   961
21.0441   970
21.0541  1015
21.0641  1025
21.0741   980
21.0841  1045
21.0941  1062
21.1041  1003
21.1141  1010
21.1241  1075
21.1341  1031
21.1441  1005
21.1541  1082
21.1641  1060
21.1741  1014
21.1841  1050
21.1941  1047
21.2041  1029
21.2141   950
21.2241   970
21.2341   983
21.2441   922
21.2541   916
21.2641   936
21.2741   882
21.2841   909
21.2941   854
21.3041   843
21.3141   815
21.3241   835
21.3341   791
21.3441   802
21.3541   768
21.3641   735
21.3741   803
21.3841   715
21.3941   762
21.4041   756
21.4141   738
21.4241   738
21.4341   749
21.4441   773
21.4541   712
21.4641   704
21.4741   717
21.4841   792
21.4941   740
21.5041   720
21.5141   713
21.5241   737
21.5341   741
21.5441   719
21.5541   711
21.5641   717
21.5741   733
21.5841   733
21.5941   690
21.6041   768
21.6141   754
21.6241   700
21.6341   720
21.6441   695
21.6541   748
21.6641   762
21.6741   697
21.6841   744
21.6941   721
21.7041   711
21.7141   708
21.7241   714
21.7341   702
21.7441   739
21.7541   701
21.7641   727
21.7741   752
21.7841   757
21.7941   729
21.8041   684
21.8141   712
21.8241   722
21.8341   725
21.8441   708
21.8541   708
21.8641   726
21.8741   706
21.8841   696
21.8941   687
21.9041   738
21.9141   692
21.9241   758
21.9341   683
21.9441   690
21.9541   693
21.9641   723
21.9741   745
21.9841   703
21.9941   758
22.0041   763
22.0141   696
22.0241   724
22.0341   743
22.0441   752
22.0541   669
22.0641   700
22.0741   712
22.0841   720
22.0941   733
22.1041   688
22.1141   722
22.1241   731
22.1341   727
22.1441   668
22.1541   718
22.1641   677
22.1741   733
22.1841   672
22.1941   689
22.2041   736
22.2141   684
22.2241   760
22.2341   690
22.2441   734
22.2541   705
22.2641   715
22.2741   723
22.2841   716
22.2941   738
22.3041   723
22.3141   749
22.3241   730
22.3341   675
22.3441   647
22.3541   704
22.3641   736
22.3741   734
22.3841   738
22.3941   720
22.4041   726
22.4141   700
22.4241   719
22.4341   676
22.4441   741
22.4541   741
22.4641   709
22.4741   735
22.4841   683
22.4941   717
22.5041   738
22.5141   717
22.5241   689
22.5341   693
22.5441   747
22.5541   674
22.5641   656
22.5741   721
22.5841   729
22.5941   695
22.6041   706
22.6141   707
22.6241   705
22.6341   676
22.6441   685
22.6541   724
22.6641   702
22.6741   705
22.6841   687
22.6941   683
22.7041   653
22.7141   670
22.7241   678
22.7341   763
22.7441   744
22.7541   731
22.7641   705
22.7741   655
22.7841   705
22.7941   722
22.8041   718
22.8141   731
22.8241   700
22.8341   720
22.8441   691
22.8541   715
22.8641   719
22.8741   644
22.8841   711
22.8941   729
22.9041   680
22.9141   660
22.9241   664
22.9341   761
22.9441   652
22.9541   702
22.9641   673
22.9741   689
22.9841   666
22.9941   697
23.0041   614
23.0141   701
23.0241   692
23.0341   659
23.0441   738
23.0541   682
23.0641   691
23.0741   727
23.0841   699
23.0941   672
23.1041   677
23.1141   693
23.1241   725
23.1341   738
23.1441   752
23.1541   668
23.1641   645
23.1741   689
23.1841   630
23.1941   681
23.2041   652
23.2141   652
23.2241   661
23.2341   682
23.2441   713
23.2541   669
23.2641   708
23.2741   730
23.2841   670
23.2941   680
23.3041   683
23.3141   683
23.3241   711
23.3341   680
23.3441   685
23.3541   679
23.3641   648
23.3741   668
23.3841   648
23.3941   695
23.4041   665
23.4141   688
23.4241   604
23.4341   689
23.4441   679
23.4541   658
23.4641   702
23.4741   732
23.4841   687
23.4941   684
23.5041   685
23.5141   674
23.5241   650
23.5341   698
23.5441   724
23.5541   694
23.5641   673
23.5741   675
23.5841   707
23.5941   692
23.6041   710
23.6141   696
23.6241   700
23.6341   669
23.6441   712
23.6541   673
23.6641   721
23.6741   723
23.6841   690
23.6941   686
23.7041   750
23.7141   717
23.7241   714
23.7341   726
23.7441   731
23.7541   731
23.7641   695
23.7741   680
23.7841   719
23.7941   691
23.8041   754
23.8141   703
23.8241   780
23.8341   800
23.8441   739
23.8541   743
23.8641   688
23.8741   725
23.8841   703
23.8941   704
23.9041   667
23.9141   698
23.9241   705
23.9341   672
23.9441   695
23.9541   689
23.9641   674
23.9741   687
23.9841   701
23.9941   679
24.0041   650
24.0141   650
24.0241   652
24.0341   698
24.0441   680
24.0541   632
24.0641   625
24.0741   630
24.0841   602
24.0941   651
24.1041   651
24.1141   659
24.1241   656
24.1341   656
24.1441   673
24.1541   666
24.1641   641
24.1741   645
24.1841   675
24.1941   650
24.2041   660
24.2141   633
24.2241   696
24.2341   633
24.2441   639
24.2541   640
24.2641   672
24.2741   661
24.2841   648
24.2941   613
24.3041   651
24.3141   651
24.3241   647
24.3341   666
24.3441   651
24.3541   641
24.3641   664
24.3741   637
24.3841   634
24.3941   674
24.4041   654
24.4141   614
24.4241   620
24.4341   596
24.4441   604
24.4541   648
24.4641   620
24.4741   610
24.4841   663
24.4941   603
24.5041   641
24.5141   641
24.5241   638
24.5341   612
24.5441   655
24.5541   642
24.5641   647
24.5741   596
24.5841   632
24.5941   603
24.6041   645
24.6141   596
24.6241   578
24.6341   631
24.6441   606
24.6541   626
24.6641   635
24.6741   629
24.6841   594
24.6941   590
24.7041   660
24.7141   605
24.7241   616
24.7341   603
24.7441   646
24.7541   611
24.7641   643
24.7741   624
24.7841   589
24.7941   604
24.8041   626
24.8141   613
24.8241   637
24.8341   616
24.8441   691
24.8541   634
24.8641   595
24.8741   663
24.8841   650
24.8941   640
24.9041   658
24.9141   626
24.9241   691
24.9341   623
24.9441   590
24.9541   631
24.9641   617
24.9741   588
24.9841   618
24.9941   644
25.0041   625
25.0141   609
25.0241   605
25.0341   609
25.0441   623
25.0541   631
25.0641   590
25.0741   658
25.0841   610
25.0941   622
25.1041   631
25.1141   596
25.1241   607
25.1341   631
25.1441   626
25.1541   625
25.1641   597
25.1741   622
25.1841   643
25.1941   626
25.2041   615
25.2141   593
25.2241   614
25.2341   629
25.2441   599
25.2541   596
25.2641   579
25.2741   613
25.2841   610
25.2941   587
25.3041   587
25.3141   595
25.3241   632
25.3341   608
25.3441   591
25.3541   591
25.3641   583
25.3741   578
25.3841   619
25.3941   604
25.4041   588
25.4141   592
25.4241   597
25.4341   589
25.4441   544
25.4541   552
25.4641   606
25.4741   594
25.4841   603
25.4941   598
25.5041   600
25.5141   605
25.5241   611
25.5341   591
25.5441   576
25.5541   560
25.5641   604
25.5741   559
25.5841   571
25.5941   550
25.6041   551
25.6141   557
25.6241   566
25.6341   584
25.6441   560
25.6541   595
25.6641   558
25.6741   569
25.6841   573
25.6941   506
25.7041   559
25.7141   578
25.7241   541
25.7341   588
25.7441   580
25.7541   584
25.7641   597
25.7741   555
25.7841   568
25.7941   560
25.8041   573
25.8141   551
25.8241   544
25.8341   566
25.8441   530
25.8541   540
25.8641   568
25.8741   577
25.8841   614
25.8941   562
25.9041   578
25.9141   575
25.9241   538
25.9341   537
25.9441   552
25.9541   571
25.9641   588
25.9741   562
25.9841   560
25.9941   551
26.0041   548
26.0141   540
26.0241   526
26.0341   542
26.0441   617
26.0541   551
26.0641   528
26.0741   533
26.0841   540
26.0941   564
26.1041   525
26.1141   536
26.1241   566
26.1341   555
26.1441   557
26.1541   535
26.1641   574
26.1741   518
26.1841   523
26.1941   525
26.2041   557
26.2141   522
26.2241   513
26.2341   514
26.2441   543
26.2541   562
26.2641   530
26.2741   529
26.2841   546
26.2941   525
26.3041   561
26.3141   537
26.3241   521
26.3341   566
26.3441   582
26.3541   583
26.3641   586
26.3741   535
26.3841   526
26.3941   543
26.4041   485
26.4141   557
26.4241   568
26.4341   527
26.4441   493
26.4541   532
26.4641   524
26.4741   538
26.4841   533
26.4941   527
26.5041   530
26.5141   505
26.5241   536
26.5341   501
26.5441   500
26.5541   508
26.5641   486
26.5741   497
26.5841   495
26.5941   498
26.6041   562
26.6141   533
26.6241   502
26.6341   486
26.6441   485
26.6541   550
26.6641   518
26.6741   515
26.6841   511
26.6941   515
26.7041   529
26.7141   509
26.7241   518
26.7341   499
26.7441   515
26.7541   487
26.7641   502
26.7741   528
26.7841   496
26.7941   518
26.8041   519
26.8141   527
26.8241   509
26.8341   479
26.8441   518
26.8541   473
26.8641   530
26.8741   469
26.8841   535
26.8941   494
26.9041   460
26.9141   515
26.9241   506
26.9341   476
26.9441   476
26.9541   507
26.9641   515
26.9741   515
26.9841   500
26.9941   475
27.0041   510
27.0141   531
27.0241   464
27.0341   484
27.0441   490
27.0541   496
27.0641   521
27.0741   466
27.0841   457
27.0941   516
27.1041   490
27.1141   525
27.1241   502
27.1341   485
27.1441   510
27.1541   509
27.1641   484
27.1741   475
27.1841   487
27.1941   497
27.2041   494
27.2141   477
27.2241   491
27.2341   503
27.2441   464
27.2541   446
27.2641   511
27.2741   495
27.2841   487
27.2941   468
27.3041   504
27.3141   508
27.3241   460
27.3341   502
27.3441   509
27.3541   485
27.3641   464
27.3741   468
27.3841   473
27.3941   503
27.4041   452
27.4141   489
27.4241   473
27.4341   448
27.4441   471
27.4541   503
27.4641   483
27.4741   460
27.4841   487
27.4941   495
27.5041   486
27.5141   490
27.5241   463
27.5341   447
27.5441   454
27.5541   497
27.5641   497
27.5741   478
27.5841   484
27.5941   488
27.6041   471
27.6141   440
27.6241   447
27.6341   439
27.6441   423
27.6541   473
27.6641   443
27.6741   463
27.6841   508
27.6941   437
27.7041   444
27.7141   449
27.7241   459
27.7341   454
27.7441   462
27.7541   483
27.7641   449
27.7741   438
27.7841   450
27.7941   436
27.8041   472
27.8141   446
27.8241   455
27.8341   460
27.8441   477
27.8541   447
27.8641   431
27.8741   453
27.8841   446
27.8941   439
27.9041   415
27.9141   451
27.9241   456
27.9341   405
27.9441   485
27.9541   443
27.9641   446
27.9741   426
27.9841   443
27.9941   427
28.0041   437
28.0141   402
28.0241   435
28.0341   411
28.0441   416
28.0541   436
28.0641   397
28.0741   421
28.0841   444
28.0941   449
28.1041   398
28.1141   427
28.1241   428
28.1341   406
28.1441   416
28.1541   427
28.1641   418
28.1741   400
28.1841   452
28.1941   422
28.2041   435
28.2141   425
28.2241   421
28.2341   444
28.2441   443
28.2541   440
28.2641   411
28.2741   435
28.2841   449
28.2941   406
28.3041   433
28.3141   418
28.3241   452
28.3341   407
28.3441   405
28.3541   416
28.3641   420
28.3741   424
28.3841   429
28.3941   395
28.4041   420
28.4141   440
28.4241   382
28.4341   434
28.4441   448
28.4541   415
28.4641   459
28.4741   402
28.4841   429
28.4941   382
28.5041   435
28.5141   448
28.5241   438
28.5341   420
28.5441   414
28.5541   400
28.5641   405
28.5741   436
28.5841   428
28.5941   436
28.6041   428
28.6141   436
28.6241   419
28.6341   414
28.6441   406
28.6541   391
28.6641   409
28.6741   421
28.6841   390
28.6941   415
28.7041   385
28.7141   363
28.7241   367
28.7341   378
28.7441   364
28.7541   376
28.7641   402
28.7741   376
28.7841   394
28.7941   358
28.8041   393
28.8141   395
28.8241   417
28.8341   397
28.8441   411
28.8541   398
28.8641   446
28.8741   418
28.8841   377
28.8941   399
28.9041   427
28.9141   396
28.9241   385
28.9341   365
28.9441   372
28.9541   408
28.9641   397
28.9741   358
28.9841   351
28.9941   369
29.0041   390
29.0141   402
29.0241   368
29.0341   422
29.0441   375
29.0541   376
29.0641   365
29.0741   387
29.0841   346
29.0941   399
29.1041   386
29.1141   385
29.1241   375
29.1341   366
29.1441   380
29.1541   381
29.1641   409
29.1741   420
29.1841   381
29.1941   384
29.2041   386
29.2141   403
29.2241   374
29.2341   392
29.2441   350
29.2541   347
29.2641   371
29.2741   363
29.2841   371
29.2941   368
29.3041   337
29.3141   393
29.3241   323
29.3341   358
29.3441   377
29.3541   373
29.3641   361
29.3741   368
29.3841   378
29.3941   362
29.4041   356
29.4141   380
29.4241   350
29.4341   358
29.4441   346
29.4541   339
29.4641   358
29.4741   349
29.4841   383
29.4941   388
29.5041   365
29.5141   359
29.5241   370
29.5341   335
29.5441   315
29.5541   316
29.5641   318
29.5741   343
29.5841   352
29.5941   339
29.6041   340
29.6141   335
29.6241   354
29.6341   353
29.6441   348
29.6541   376
29.6641   342
29.6741   344
29.6841   352
29.6941   344
29.7041   347
29.7141   341
29.7241   336
29.7341   349
29.7441   340
29.7541   375
29.7641   350
29.7741   351
29.7841   330
29.7941   353
29.8041   318
29.8141   343
29.8241   345
29.8341   321
29.8441   352
29.8541   315
29.8641   346
29.8741   319
29.8841   349
29.8941   372
29.9041   346
29.9141   332
29.9241   342
29.9341   328
29.9441   331
29.9541   324
29.9641   338
29.9741   314
29.9841   337
29.9941   324
30.0041   344
30.0141   340
30.0241   317
30.0341   344
30.0441   324
30.0541   347
30.0641   326
30.0741   335
30.0841   331
30.0941   317
30.1041   340
30.1141   328
30.1241   293
30.1341   314
30.1441   324
30.1541   362
30.1641   355
30.1741   311
30.1841   336
30.1941   306
30.2041   304
30.2141   311
30.2241   312
30.2341   320
30.2441   296
30.2541   333
30.2641   323
30.2741   318
30.2841   288
30.2941   305
30.3041   307
30.3141   304
30.3241   300
30.3341   319
30.3441   349
30.3541   341
30.3641   298
30.3741   297
30.3841   313
30.3941   299
30.4041   319
30.4141   322
30.4241   304
30.4341   309
30.4441   302
30.4541   318
30.4641   332
30.4741   302
30.4841   325
30.4941   318
30.5041   305
30.5141   327
30.5241   315
30.5341   333
30.5441   296
30.5541   332
30.5641   309
30.5741   323
30.5841   308
30.5941   342
30.6041   336
30.6141   333
30.6241   298
30.6341   282
30.6441   317
30.6541   296
30.6641   327
30.6741   300
30.6841   321
30.6941   304
30.7041   301
30.7141   288
30.7241   297
30.7341   301
30.7441   288
30.7541   292
30.7641   302
30.7741   306
30.7841   329
30.7941   309
30.8041   291
30.8141   321
30.8241   269
30.8341   319
30.8441   279
30.8541   289
30.8641   299
30.8741   295
30.8841   293
30.8941   306
30.9041   276
30.9141   289
30.9241   285
30.9341   306
30.9441   265
30.9541   267
30.9641   279
30.9741   316
30.9841   294
30.9941   272
31.0041   273
31.0141   263
31.0241   283
31.0341   307
31.0441   304
31.0541   307
31.0641   274
31.0741   278
31.0841   298
31.0941   293
31.1041   303
31.1141   267
31.1241   261
31.1341   275
31.1441   288
31.1541   274
31.1641   284
31.1741   306
31.1841   269
31.1941   270
31.2041   278
31.2141   273
31.2241   285
31.2341   282
31.2441   282
31.2541   267
31.2641   305
31.2741   287
31.2841   287
31.2941   286
31.3041   274
31.3141   277
31.3241   277
31.3341   267
31.3441   299
31.3541   269
31.3641   281
31.3741   277
31.3841   281
31.3941   257
31.4041   255
31.4141   249
31.4241   276
31.4341   296
31.4441   265
31.4541   263
31.4641   259
31.4741   233
31.4841   260
31.4941   284
31.5041   270
31.5141   274
31.5241   246
31.5341   261
31.5441   260
31.5541   280
31.5641   267
31.5741   264
31.5841   263
31.5941   276
31.6041   250
31.6141   268
31.6241   258
31.6341   270
31.6441   240
31.6541   232
31.6641   237
31.6741   258
31.6841   262
31.6941   296
31.7041   270
31.7141   260
31.7241   269
31.7341   257
31.7441   242
31.7541   276
31.7641   264
31.7741   294
31.7841   269
31.7941   285
31.8041   266
31.8141   275
31.8241   290
31.8341   292
31.8441   268
31.8541   246
31.8641   272
31.8741   277
31.8841   280
31.8941   271
31.9041   264
31.9141   256
31.9241   247
31.9341   269
31.9441   250
31.9541   254
31.9641   239
31.9741   251
31.9841   244
31.9941   245
32.0041   244
32.0141   248
32.0241   239
32.0341   253
32.0441   250
32.0541   239
32.0641   254
32.0741   273
32.0841   267
32.0941   272
32.1041   233
32.1141   242
32.1241   263
32.1341   251
32.1441   254
32.1541   253
32.1641   251
32.1741   250
32.1841   253
32.1941   260
32.2041   250
32.2141   228
32.2241   239
32.2341   253
32.2441   241
32.2541   263
32.2641   258
32.2741   238
32.2841   268
32.2941   246
32.3041   250
32.3141   248
32.3241   248
32.3341   242
32.3441   236
32.3541   225
32.3641   222
32.3741   253
32.3841   215
32.3941   232
32.4041   216
32.4141   232
32.4241   228
32.4341   235
32.4441   235
32.4541   250
32.4641   222
32.4741   238
32.4841   215
32.4941   227
32.5041   230
32.5141   232
32.5241   236
32.5341   228
32.5441   231
32.5541   253
32.5641   228
32.5741   232
32.5841   209
32.5941   238
32.6041   207
32.6141   204
32.6241   200
32.6341   212
32.6441   210
32.6541   221
32.6641   208
32.6741   205
32.6841   200
32.6941   215
32.7041   207
32.7141   207
32.7241   221
32.7341   206
32.7441   224
32.7541   227
32.7641   202
32.7741   211
32.7841   201
32.7941   210
32.8041   221
32.8141   199
32.8241   218
32.8341   231
32.8441   212
32.8541   239
32.8641   230
32.8741   230
32.8841   214
32.8941   210
32.9041   222
32.9141   197
32.9241   193
32.9341   214
32.9441   199
32.9541   210
32.9641   197
32.9741   212
32.9841   194
32.9941   220
33.0041   207
33.0141   204
33.0241   193
33.0341   192
33.0441   222
33.0541   210
33.0641   208
33.0741   196
33.0841   190
33.0941   196
33.1041   215
33.1141   224
33.1241   222
33.1341   199
33.1441   218
33.1541   187
33.1641   206
33.1741   181
33.1841   209
33.1941   202
33.2041   189
33.2141   191
33.2241   202
33.2341   202
33.2441   175
33.2541   190
33.2641   181
33.2741   164
33.2841   180
33.2941   206
33.3041   179
33.3141   192
33.3241   198
33.3341   186
33.3441   179
33.3541   178
33.3641   205
33.3741   189
33.3841   198
33.3941   212
33.4041   182
33.4141   193
33.4241   190
33.4341   195
33.4441   207
33.4541   186
33.4641   201
33.4741   195
33.4841   179
33.4941   178
33.5041   173
33.5141   172
33.5241   189
33.5341   194
33.5441   194
33.5541   201
33.5641   204
33.5741   197
33.5841   202
33.5941   174
33.6041   212
33.6141   207
33.6241   191
33.6341   163
33.6441   184
33.6541   187
33.6641   175
33.6741   206
33.6841   185
33.6941   168
33.7041   167
33.7141   178
33.7241   168
33.7341   152
33.7441   171
33.7541   197
33.7641   176
33.7741   188
33.7841   168
33.7941   187
33.8041   175
33.8141   177
33.8241   205
33.8341   161
33.8441   172
33.8541   177
33.8641   159
33.8741   190
33.8841   185
33.8941   166
33.9041   190
33.9141   183
33.9241   169
33.9341   170
33.9441   180
33.9541   171
33.9641   176
33.9741   184
33.9841   169
33.9941   178
34.0041   166
34.0141   179
34.0241   162
34.0341   172
34.0441   181
34.0541   158
34.0641   175
34.0741   172
34.0841   184
34.0941   170
34.1041   147
34.1141   150
34.1241   147
34.1341   173
34.1441   163
34.1541   153
34.1641   171
34.1741   159
34.1841   167
34.1941   181
34.2041   165
34.2141   168
34.2241   167
34.2341   161
34.2441   138
34.2541   171
34.2641   169
34.2741   160
34.2841   172
34.2941   135
34.3041   165
34.3141   154
34.3241   142
34.3341   163
34.3441   155
34.3541   146
34.3641   169
34.3741   166
34.3841   174
34.3941   155
34.4041   161
34.4141   167
34.4241   162
34.4341   146
34.4441   150
34.4541   162
34.4641   152
34.4741   150
34.4841   136
34.4941   158
34.5041   169
34.5141   152
34.5241   133
34.5341   156
34.5441   161
34.5541   155
34.5641   159
34.5741   180
34.5841   157
34.5941   158
34.6041   152
34.6141   137
34.6241   149
34.6341   176
34.6441   155
34.6541   148
34.6641   153
34.6741   142
34.6841   149
34.6941   141
34.7041   133
34.7141   131
34.7241   145
34.7341   143
34.7441   121
34.7541   164
34.7641   153
34.7741   156
34.7841   141
34.7941   154
34.8041   151
34.8141   133
34.8241   151
34.8341   123
34.8441   137
34.8541   157
34.8641   134
34.8741   137
34.8841   158
34.8941   162
34.9041   153
34.9141   169
34.9241   149
34.9341   162
34.9441   153
34.9541   136
34.9641   124
34.9741   120
34.9841   121
34.9941   135
35.0041   138
35.0141   148
35.0241   131
35.0341   152
35.0441   124
35.0541   103
35.0641   143
35.0741   123
35.0841   122
35.0941   137
35.1041   131
35.1141   155
35.1241   154
35.1341   158
35.1441   132
35.1541   140
35.1641   145
35.1741   144
35.1841   126
35.1941   130
35.2041   134
35.2141   154
35.2241   135
35.2341   125
35.2441   151
35.2541   119
35.2641   137
35.2741   124
35.2841   150
35.2941   133
35.3041   126
35.3141   130
35.3241   134
35.3341   133
35.3441   148
35.3541   146
35.3641   148
35.3741   128
35.3841   153
35.3941   143
35.4041   133
35.4141   125
35.4241   143
35.4341   145
35.4441   133
35.4541   140
35.4641   125
35.4741   120
35.4841   126
35.4941   139
35.5041   131
35.5141   125
35.5241   134
35.5341   118
35.5441   126
35.5541   144
35.5641   147
35.5741   125
35.5841   103
35.5941   122
35.6041    90
35.6141   115
35.6241   129
35.6341   100
35.6441   121
35.6541   127
35.6641   119
35.6741   104
35.6841   121
35.6941   115
35.7041   101
35.7141   117
35.7241   130
35.7341   122
35.7441   123
35.7541   135
35.7641    99
35.7741   126
35.7841   125
35.7941   126
35.8041   125
35.8141   120
35.8241   135
35.8341   115
35.8441   111
35.8541   134
35.8641   111
35.8741   111
35.8841   128
35.8941   118
35.9041   120
35.9141   126
35.9241    99
35.9341   109
35.9441   117
35.9541   101
35.9641   108
35.9741   130
35.9841   105
35.9941   102
36.0041   137
36.0141   118
36.0241    95
36.0341    96
36.0441   105
36.0541   120
36.0641   123
36.0741   102
36.0841   112
36.0941   115
36.1041   118
36.1141   112
36.1241    99
36.1341   110
36.1441   139
36.1541   111
36.1641   118
36.1741   120
36.1841   117
36.1941    97
36.2041    99
36.2141   100
36.2241   117
36.2341    94
36.2441   107
36.2541   101
36.2641   125
36.2741    82
36.2841   109
36.2941   123
36.3041   105
36.3141   105
36.3241    99
36.3341   100
36.3441    94
36.3541    95
36.3641   101
36.3741   106
36.3841   128
36.3941   105
36.4041   101
36.4141    92
36.4241   103
36.4341   109
36.4441    99
36.4541    97
36.4641   109
36.4741    95
36.4841   129
36.4941    97
36.5041    90
36.5141   102
36.5241   102
36.5341    81
36.5441    86
36.5541    92
36.5641   115
36.5741    97
36.5841   104
36.5941   110
36.6041   109
36.6141    94
36.6241    95
36.6341    90
36.6441   103
36.6541   104
36.6641   101
36.6741   102
36.6841    86
36.6941    97
36.7041   100
36.7141    96
36.7241    77
36.7341    92
36.7441    88
36.7541   102
36.7641    81
36.7741   107
36.7841    86
36.7941    98
36.8041    93
36.8141    92
36.8241    84
36.8341    84
36.8441   102
36.8541    97
36.8641    90
36.8741    85
36.8841    92
36.8941    95
36.9041    93
36.9141    90
36.9241    84
36.9341    87
36.9441    73
36.9541    98
36.9641    90
36.9741    99
36.9841    96
36.9941   102
37.0041    71
37.0141    94
37.0241   101
37.0341    80
37.0441    81
37.0541    82
37.0641    98
37.0741    96
37.0841    87
37.0941    84
37.1041    97
37.1141    92
37.1241    93
37.1341    79
37.1441   101
37.1541    88
37.1641    86
37.1741    85
37.1841    91
37.1941    88
37.2041    86
37.2141    75
37.2241    95
37.2341    78
37.2441    78
37.2541    80
37.2641    73
37.2741    91
37.2841    82
37.2941    86
37.3041    73
37.3141    87
37.3241    94
37.3341    78
37.3441    77
37.3541    69
37.3641    73
37.3741    71
37.3841    66
37.3941    92
37.4041    85
37.4141    60
37.4241    75
37.4341    74
37.4441    85
37.4541    97
37.4641    70
37.4741    74
37.4841    78
37.4941    73
37.5041    93
37.5141    81
37.5241    77
37.5341    75
37.5441    97
37.5541    79
37.5641    72
37.5741    77
37.5841    61
37.5941    76
37.6041    82
37.6141    82
37.6241    78
37.6341    90
37.6441    68
37.6541    88
37.6641    67
37.6741    64
37.6841    81
37.6941    80
37.7041    76
37.7141    79
37.7241    72
37.7341    70
37.7441    78
37.7541    88
37.7641    75
37.7741    72
37.7841    80
37.7941    66
37.8041    63
37.8141    76
37.8241    62
37.8341    72
37.8441    67
37.8541    69
37.8641    70
37.8741    60
37.8841    85
37.8941    63
37.9041    61
37.9141    68
37.9241    66
37.9341    59
37.9441    56
37.9541    78
37.9641    72
37.9741    89
37.9841    74
37.9941    58
38.0041    68
38.0141    86
38.0241    64
38.0341    56
38.0441    63
38.0541    66
38.0641    64
38.0741    70
38.0841    68
38.0941    81
38.1041    56
38.1141    68
38.1241    67
38.1341    59
38.1441    57
38.1541    64
38.1641    71
38.1741    63
38.1841    68
38.1941    74
38.2041    69
38.2141    66
38.2241    83
38.2341    81
38.2441    60
38.2541    58
38.2641    62
38.2741    59
38.2841    56
38.2941    51
38.3041    67
38.3141    52
38.3241    75
38.3341    57
38.3441    59
38.3541    63
38.3641    49
38.3741    59
38.3841    58
38.3941    51
38.4041    59
38.4141    63
38.4241    59
38.4341    56
38.4441    67
38.4541    57
38.4641    60
38.4741    67
38.4841    61
38.4941    54
38.5041    61
38.5141    60
38.5241    57
38.5341    73
38.5441    63
38.5541    66
38.5641    53
38.5741    62
38.5841    64
38.5941    59
38.6041    62
38.6141    54
38.6241    54
38.6341    54
38.6441    70
38.6541    60
38.6641    71
38.6741    66
38.6841    72
38.6941    63
38.7041    52
38.7141    59
38.7241    67
38.7341    49
38.7441    59
38.7541    59
38.7641    55
38.7741    50
38.7841    47
38.7941    42
38.8041    52
38.8141    60
38.8241    56
38.8341    46
38.8441    59
38.8541    54
38.8641    49
38.8741    56
38.8841    55
38.8941    47
38.9041    53
38.9141    53
38.9241    60
38.9341    53
38.9441    49
38.9541    53
38.9641    63
38.9741    53
38.9841    44
38.9941    43
39.0041    45
39.0141    47
39.0241    48
39.0341    56
39.0441    58
39.0541    42
39.0641    49
39.0741    51
39.0841    46
39.0941    46
39.1041    39
39.1141    46
39.1241    54
39.1341    58
39.1441    50
39.1541    52
39.1641    51
39.1741    41
39.1841    44
39.1941    42
39.2041    59
39.2141    49
39.2241    49
39.2341    52
39.2441    42
39.2541    55
39.2641    56
39.2741    54
39.2841    37
39.2941    45
39.3041    39
39.3141    47
39.3241    53
39.3341    58
39.3441    50
39.3541    43
39.3641    41
39.3741    43
39.3841    39
39.3941    51
39.4041    32
39.4141    40
39.4241    40
39.4341    51
39.4441    51
39.4541    46
39.4641    46
39.4741    48
39.4841    40
39.4941    40
39.5041    41
39.5141    37
39.5241    45
39.5341    45
39.5441    40
39.5541    35
39.5641    35
39.5741    47
39.5841    54
39.5941    56
39.6041    45
39.6141    43
39.6241    39
39.6341    46
39.6441    48
39.6541    47
39.6641    40
39.6741    59
39.6841    38
39.6941    35
39.7041    52
39.7141    48
39.7241    40
39.7341    41
39.7441    45
39.7541    39
39.7641    49
39.7741    41
39.7841    35
39.7941    33
39.8041    37
39.8141    37
39.8241    46
39.8341    44
39.8441    49
39.8541    37
39.8641    38
39.8741    30
39.8841    42
39.8941    36
39.9041    38
39.9141    40
39.9241    51
39.9341    40
39.9441    44
39.9541    35
39.9641    36
39.9741    41
39.9841    31
