Bruker Nano GmbH Berlin, Germany
Esprit 1.9

Date: 5/14/2021 1:40:03 PM
Real time: 15808
Life time: 14749
Pulse density: 99321


Detector type: XFlash 430
Window type: Custom type
Detector thickness: 0.45
Si dead layer:0.029

Calibration, lin.: 10
Calibration, abs.: -955.9
Mn FWHM: 137.05
Fano factor: 0.121
Channels: 4095

Energy Counts
-0.9559     0
-0.9459     0
-0.9359     0
-0.9259     0
-0.9159     0
-0.9059     0
-0.8959     0
-0.8859     0
-0.8759     0
-0.8659     0
-0.8559     0
-0.8459     0
-0.8359     0
-0.8259     0
-0.8159     0
-0.8059     0
-0.7959     0
-0.7859     0
-0.7759     0
-0.7659     0
-0.7559     0
-0.7459     0
-0.7359     0
-0.7259     0
-0.7159     0
-0.7059     0
-0.6959     0
-0.6859     0
-0.6759     0
-0.6659     0
-0.6559     0
-0.6459     0
-0.6359     0
-0.6259     0
-0.6159     0
-0.6059     0
-0.5959     0
-0.5859     0
-0.5759     0
-0.5659     0
-0.5559     0
-0.5459     0
-0.5359     0
-0.5259     0
-0.5159     0
-0.5059     0
-0.4959     0
-0.4859     0
-0.4759     0
-0.4659     0
-0.4559     0
-0.4459     0
-0.4359     0
-0.4259     0
-0.4159     0
-0.4059     0
-0.3959     0
-0.3859     0
-0.3759     0
-0.3659     0
-0.3559     0
-0.3459     0
-0.3359     0
-0.3259     0
-0.3159     0
-0.3059     0
-0.2959     0
-0.2859     0
-0.2759     0
-0.2659     0
-0.2559     0
-0.2459     0
-0.2359     0
-0.2259     0
-0.2159     0
-0.2059     0
-0.1959     0
-0.1859     0
-0.1759     0
-0.1659     0
-0.1559     0
-0.1459     0
-0.1359     0
-0.1259     1
-0.1159     5
-0.1059    15
-0.0959    46
-0.0859   136
-0.0759   567
-0.0659  1740
-0.0559  4357
-0.0459  9458
-0.0359 17718
-0.0259 27942
-0.0159 38356
-0.0059 45043
 0.0041 45655
 0.0141 38958
 0.0241 28861
 0.0341 18198
 0.0441 10008
 0.0541  4733
 0.0641  1838
 0.0741   638
 0.0841   199
 0.0941    63
 0.1041    24
 0.1141     7
 0.1241     7
 0.1341     6
 0.1441     6
 0.1541     5
 0.1641     5
 0.1741     2
 0.1841   136
 0.1941   247
 0.2041   227
 0.2141   233
 0.2241   217
 0.2341   220
 0.2441   214
 0.2541   228
 0.2641   221
 0.2741   231
 0.2841   227
 0.2941   220
 0.3041   219
 0.3141   226
 0.3241   230
 0.3341   219
 0.3441   208
 0.3541   194
 0.3641   196
 0.3741   222
 0.3841   220
 0.3941   222
 0.4041   182
 0.4141   183
 0.4241   201
 0.4341   200
 0.4441   185
 0.4541   206
 0.4641   171
 0.4741   190
 0.4841   196
 0.4941   199
 0.5041   202
 0.5141   175
 0.5241   200
 0.5341   205
 0.5441   188
 0.5541   189
 0.5641   193
 0.5741   185
 0.5841   166
 0.5941   173
 0.6041   170
 0.6141   175
 0.6241   179
 0.6341   179
 0.6441   175
 0.6541   174
 0.6641   166
 0.6741   166
 0.6841   164
 0.6941   140
 0.7041   146
 0.7141   154
 0.7241   162
 0.7341   171
 0.7441   153
 0.7541   153
 0.7641   165
 0.7741   161
 0.7841   162
 0.7941   142
 0.8041   146
 0.8141   159
 0.8241   158
 0.8341   154
 0.8441   140
 0.8541   145
 0.8641   155
 0.8741   164
 0.8841   140
 0.8941   150
 0.9041   155
 0.9141   148
 0.9241   172
 0.9341   147
 0.9441   150
 0.9541   131
 0.9641   139
 0.9741   142
 0.9841   140
 0.9941   137
 1.0041   147
 1.0141   144
 1.0241   155
 1.0341   142
 1.0441   153
 1.0541   137
 1.0641   155
 1.0741   146
 1.0841   147
 1.0941   159
 1.1041   159
 1.1141   148
 1.1241   137
 1.1341   145
 1.1441   147
 1.1541   159
 1.1641   135
 1.1741   138
 1.1841   139
 1.1941   136
 1.2041   137
 1.2141   143
 1.2241   133
 1.2341   124
 1.2441   124
 1.2541   118
 1.2641   133
 1.2741   146
 1.2841   125
 1.2941   134
 1.3041   142
 1.3141   125
 1.3241   127
 1.3341   125
 1.3441   133
 1.3541   121
 1.3641   136
 1.3741   140
 1.3841   115
 1.3941   128
 1.4041   113
 1.4141   116
 1.4241   124
 1.4341   133
 1.4441   129
 1.4541   138
 1.4641   112
 1.4741   138
 1.4841   119
 1.4941   128
 1.5041   142
 1.5141   120
 1.5241   109
 1.5341   119
 1.5441   126
 1.5541   123
 1.5641   107
 1.5741   103
 1.5841   121
 1.5941   121
 1.6041   113
 1.6141   101
 1.6241   127
 1.6341   122
 1.6441   141
 1.6541   158
 1.6641   185
 1.6741   233
 1.6841   300
 1.6941   331
 1.7041   403
 1.7141   501
 1.7241   539
 1.7341   609
 1.7441   555
 1.7541   546
 1.7641   526
 1.7741   468
 1.7841   347
 1.7941   273
 1.8041   233
 1.8141   212
 1.8241   187
 1.8341   196
 1.8441   156
 1.8541   146
 1.8641   134
 1.8741   148
 1.8841   133
 1.8941   136
 1.9041   119
 1.9141   114
 1.9241   133
 1.9341   124
 1.9441   120
 1.9541   133
 1.9641   143
 1.9741   141
 1.9841   152
 1.9941   148
 2.0041   154
 2.0141   150
 2.0241   157
 2.0341   142
 2.0441   144
 2.0541   135
 2.0641   136
 2.0741   132
 2.0841   118
 2.0941   121
 2.1041   119
 2.1141   110
 2.1241    94
 2.1341   102
 2.1441   115
 2.1541   106
 2.1641   108
 2.1741   104
 2.1841   113
 2.1941    96
 2.2041   116
 2.2141   109
 2.2241   105
 2.2341    93
 2.2441    94
 2.2541    95
 2.2641   104
 2.2741    86
 2.2841   110
 2.2941   104
 2.3041    95
 2.3141    98
 2.3241    95
 2.3341    87
 2.3441    98
 2.3541    97
 2.3641   105
 2.3741   102
 2.3841   100
 2.3941   100
 2.4041   106
 2.4141    96
 2.4241   107
 2.4341   111
 2.4441   114
 2.4541    93
 2.4641   113
 2.4741    84
 2.4841    88
 2.4941   110
 2.5041   110
 2.5141    97
 2.5241   105
 2.5341    86
 2.5441    72
 2.5541    82
 2.5641    99
 2.5741    78
 2.5841    80
 2.5941    91
 2.6041    88
 2.6141    97
 2.6241    69
 2.6341    91
 2.6441    93
 2.6541    88
 2.6641    74
 2.6741    82
 2.6841    77
 2.6941    96
 2.7041   104
 2.7141    80
 2.7241    83
 2.7341    81
 2.7441    95
 2.7541    85
 2.7641    85
 2.7741    86
 2.7841    87
 2.7941    67
 2.8041   109
 2.8141    80
 2.8241    91
 2.8341   100
 2.8441    99
 2.8541    87
 2.8641    93
 2.8741    89
 2.8841   104
 2.8941    92
 2.9041    80
 2.9141    74
 2.9241    87
 2.9341    86
 2.9441    91
 2.9541    77
 2.9641    81
 2.9741    61
 2.9841    81
 2.9941    69
 3.0041    76
 3.0141    85
 3.0241    74
 3.0341    76
 3.0441    81
 3.0541    73
 3.0641    93
 3.0741    80
 3.0841    69
 3.0941    61
 3.1041    69
 3.1141    83
 3.1241    72
 3.1341    77
 3.1441    77
 3.1541    74
 3.1641    71
 3.1741    60
 3.1841    73
 3.1941    63
 3.2041    81
 3.2141    71
 3.2241    79
 3.2341    66
 3.2441    87
 3.2541    84
 3.2641    84
 3.2741    81
 3.2841    83
 3.2941    94
 3.3041    84
 3.3141    93
 3.3241    91
 3.3341   101
 3.3441    96
 3.3541    73
 3.3641    82
 3.3741    70
 3.3841    74
 3.3941    68
 3.4041    56
 3.4141    75
 3.4241    73
 3.4341    61
 3.4441    64
 3.4541    71
 3.4641    75
 3.4741    81
 3.4841    68
 3.4941    79
 3.5041    72
 3.5141    73
 3.5241    80
 3.5341    77
 3.5441    78
 3.5541    93
 3.5641   102
 3.5741   125
 3.5841   143
 3.5941   192
 3.6041   224
 3.6141   318
 3.6241   371
 3.6341   432
 3.6441   569
 3.6541   643
 3.6641   722
 3.6741   737
 3.6841   836
 3.6941   786
 3.7041   791
 3.7141   716
 3.7241   642
 3.7341   563
 3.7441   471
 3.7541   381
 3.7641   302
 3.7741   223
 3.7841   177
 3.7941   140
 3.8041    95
 3.8141    96
 3.8241    78
 3.8341    63
 3.8441    62
 3.8541    59
 3.8641    61
 3.8741    59
 3.8841    64
 3.8941    75
 3.9041    75
 3.9141    91
 3.9241    89
 3.9341    74
 3.9441    85
 3.9541   112
 3.9641   117
 3.9741   109
 3.9841   134
 3.9941   139
 4.0041   133
 4.0141   159
 4.0241   160
 4.0341   146
 4.0441   143
 4.0541   131
 4.0641   121
 4.0741   115
 4.0841    97
 4.0941    91
 4.1041    77
 4.1141    74
 4.1241    63
 4.1341    66
 4.1441    54
 4.1541    70
 4.1641    44
 4.1741    44
 4.1841    52
 4.1941    45
 4.2041    58
 4.2141    58
 4.2241    48
 4.2341    56
 4.2441    43
 4.2541    47
 4.2641    60
 4.2741    45
 4.2841    54
 4.2941    55
 4.3041    64
 4.3141    42
 4.3241    61
 4.3341    64
 4.3441    73
 4.3541    67
 4.3641    67
 4.3741    91
 4.3841    99
 4.3941   112
 4.4041   151
 4.4141   204
 4.4241   289
 4.4341   371
 4.4441   429
 4.4541   506
 4.4641   607
 4.4741   681
 4.4841   730
 4.4941   762
 4.5041   788
 4.5141   817
 4.5241   753
 4.5341   695
 4.5441   692
 4.5541   593
 4.5641   500
 4.5741   389
 4.5841   314
 4.5941   237
 4.6041   218
 4.6141   144
 4.6241   113
 4.6341    91
 4.6441    94
 4.6541    90
 4.6641    65
 4.6741    67
 4.6841    53
 4.6941    55
 4.7041    61
 4.7141    61
 4.7241    65
 4.7341    67
 4.7441    82
 4.7541    80
 4.7641    65
 4.7741    70
 4.7841    85
 4.7941    81
 4.8041    91
 4.8141   105
 4.8241   106
 4.8341   112
 4.8441   137
 4.8541   124
 4.8641   160
 4.8741   169
 4.8841   165
 4.8941   191
 4.9041   218
 4.9141   244
 4.9241   223
 4.9341   215
 4.9441   239
 4.9541   206
 4.9641   181
 4.9741   150
 4.9841   172
 4.9941   160
 5.0041   124
 5.0141   124
 5.0241   109
 5.0341    97
 5.0441    83
 5.0541    77
 5.0641    86
 5.0741    80
 5.0841    73
 5.0941    73
 5.1041    80
 5.1141    70
 5.1241    66
 5.1341    72
 5.1441    67
 5.1541    76
 5.1641    65
 5.1741    79
 5.1841    71
 5.1941    83
 5.2041    67
 5.2141    82
 5.2241    89
 5.2341    87
 5.2441    68
 5.2541    86
 5.2641    83
 5.2741    76
 5.2841    82
 5.2941    88
 5.3041   112
 5.3141   114
 5.3241   114
 5.3341   145
 5.3441   151
 5.3541   167
 5.3641   183
 5.3741   192
 5.3841   227
 5.3941   221
 5.4041   250
 5.4141   233
 5.4241   227
 5.4341   219
 5.4441   199
 5.4541   200
 5.4641   204
 5.4741   158
 5.4841   131
 5.4941   125
 5.5041   109
 5.5141   111
 5.5241   103
 5.5341    79
 5.5441    71
 5.5541   104
 5.5641    86
 5.5741    80
 5.5841    73
 5.5941    73
 5.6041    80
 5.6141    94
 5.6241    74
 5.6341    87
 5.6441    80
 5.6541    65
 5.6641    83
 5.6741    74
 5.6841    81
 5.6941    80
 5.7041    76
 5.7141    97
 5.7241    90
 5.7341    90
 5.7441    78
 5.7541    90
 5.7641   119
 5.7741   109
 5.7841   136
 5.7941   125
 5.8041   150
 5.8141   174
 5.8241   184
 5.8341   191
 5.8441   213
 5.8541   234
 5.8641   254
 5.8741   244
 5.8841   269
 5.8941   291
 5.9041   303
 5.9141   268
 5.9241   287
 5.9341   265
 5.9441   233
 5.9541   225
 5.9641   199
 5.9741   164
 5.9841   176
 5.9941   156
 6.0041   139
 6.0141   121
 6.0241   134
 6.0341   106
 6.0441   119
 6.0541   104
 6.0641    98
 6.0741   116
 6.0841   129
 6.0941    97
 6.1041    96
 6.1141   127
 6.1241   110
 6.1341   115
 6.1441   147
 6.1541   141
 6.1641   160
 6.1741   159
 6.1841   174
 6.1941   227
 6.2041   244
 6.2141   324
 6.2241   448
 6.2341   626
 6.2441   859
 6.2541  1169
 6.2641  1579
 6.2741  2215
 6.2841  2994
 6.2941  3818
 6.3041  5048
 6.3141  6330
 6.3241  7978
 6.3341  9451
 6.3441 11067
 6.3541 12710
 6.3641 14246
 6.3741 15299
 6.3841 16113
 6.3941 16164
 6.4041 16234
 6.4141 15925
 6.4241 15251
 6.4341 13659
 6.4441 12277
 6.4541 10793
 6.4641  8869
 6.4741  7517
 6.4841  5886
 6.4941  4681
 6.5041  3602
 6.5141  2680
 6.5241  1879
 6.5341  1425
 6.5441  1008
 6.5541   727
 6.5641   527
 6.5741   351
 6.5841   292
 6.5941   213
 6.6041   194
 6.6141   178
 6.6241   171
 6.6341   141
 6.6441   143
 6.6541   113
 6.6641   125
 6.6741   122
 6.6841   156
 6.6941   116
 6.7041   132
 6.7141   116
 6.7241   138
 6.7341   123
 6.7441   124
 6.7541   141
 6.7641   145
 6.7741   145
 6.7841   157
 6.7941   139
 6.8041   175
 6.8141   163
 6.8241   158
 6.8341   180
 6.8441   176
 6.8541   178
 6.8641   217
 6.8741   242
 6.8841   285
 6.8941   307
 6.9041   365
 6.9141   431
 6.9241   554
 6.9341   700
 6.9441   799
 6.9541   995
 6.9641  1196
 6.9741  1370
 6.9841  1694
 6.9941  1846
 7.0041  2151
 7.0141  2373
 7.0241  2565
 7.0341  2732
 7.0441  2808
 7.0541  2778
 7.0641  2839
 7.0741  2660
 7.0841  2518
 7.0941  2316
 7.1041  2119
 7.1141  1924
 7.1241  1595
 7.1341  1313
 7.1441  1136
 7.1541   945
 7.1641   746
 7.1741   522
 7.1841   449
 7.1941   410
 7.2041   345
 7.2141   277
 7.2241   226
 7.2341   191
 7.2441   198
 7.2541   186
 7.2641   170
 7.2741   181
 7.2841   161
 7.2941   193
 7.3041   187
 7.3141   191
 7.3241   213
 7.3341   221
 7.3441   204
 7.3541   276
 7.3641   264
 7.3741   301
 7.3841   311
 7.3941   318
 7.4041   340
 7.4141   369
 7.4241   389
 7.4341   437
 7.4441   453
 7.4541   452
 7.4641   429
 7.4741   451
 7.4841   455
 7.4941   416
 7.5041   436
 7.5141   372
 7.5241   365
 7.5341   313
 7.5441   314
 7.5541   294
 7.5641   256
 7.5741   221
 7.5841   215
 7.5941   200
 7.6041   181
 7.6141   161
 7.6241   211
 7.6341   171
 7.6441   162
 7.6541   157
 7.6641   167
 7.6741   193
 7.6841   182
 7.6941   198
 7.7041   197
 7.7141   184
 7.7241   193
 7.7341   220
 7.7441   203
 7.7541   201
 7.7641   220
 7.7741   209
 7.7841   210
 7.7941   242
 7.8041   231
 7.8141   232
 7.8241   240
 7.8341   238
 7.8441   226
 7.8541   255
 7.8641   319
 7.8741   264
 7.8841   281
 7.8941   273
 7.9041   326
 7.9141   315
 7.9241   312
 7.9341   343
 7.9441   377
 7.9541   422
 7.9641   443
 7.9741   524
 7.9841   515
 7.9941   609
 8.0041   622
 8.0141   644
 8.0241   693
 8.0341   756
 8.0441   786
 8.0541   768
 8.0641   901
 8.0741   978
 8.0841   958
 8.0941  1044
 8.1041  1102
 8.1141  1054
 8.1241  1160
 8.1341  1133
 8.1441  1164
 8.1541  1181
 8.1641  1197
 8.1741  1250
 8.1841  1238
 8.1941  1240
 8.2041  1246
 8.2141  1239
 8.2241  1293
 8.2341  1325
 8.2441  1326
 8.2541  1361
 8.2641  1412
 8.2741  1552
 8.2841  1631
 8.2941  1795
 8.3041  1852
 8.3141  1998
 8.3241  2228
 8.3341  2281
 8.3441  2529
 8.3541  2650
 8.3641  2733
 8.3741  2780
 8.3841  2789
 8.3941  2836
 8.4041  2825
 8.4141  2629
 8.4241  2591
 8.4341  2421
 8.4441  2130
 8.4541  1923
 8.4641  1738
 8.4741  1521
 8.4841  1328
 8.4941  1130
 8.5041  1000
 8.5141   839
 8.5241   739
 8.5341   618
 8.5441   548
 8.5541   536
 8.5641   513
 8.5741   486
 8.5841   509
 8.5941   511
 8.6041   481
 8.6141   479
 8.6241   474
 8.6341   499
 8.6441   523
 8.6541   530
 8.6641   490
 8.6741   472
 8.6841   436
 8.6941   429
 8.7041   405
 8.7141   399
 8.7241   366
 8.7341   328
 8.7441   347
 8.7541   308
 8.7641   323
 8.7741   328
 8.7841   320
 8.7941   300
 8.8041   290
 8.8141   275
 8.8241   283
 8.8341   255
 8.8441   267
 8.8541   286
 8.8641   291
 8.8741   279
 8.8841   293
 8.8941   292
 8.9041   269
 8.9141   283
 8.9241   311
 8.9341   306
 8.9441   296
 8.9541   326
 8.9641   287
 8.9741   293
 8.9841   331
 8.9941   345
 9.0041   330
 9.0141   310
 9.0241   342
 9.0341   358
 9.0441   364
 9.0541   356
 9.0641   396
 9.0741   390
 9.0841   403
 9.0941   391
 9.1041   395
 9.1141   425
 9.1241   461
 9.1341   512
 9.1441   507
 9.1541   530
 9.1641   558
 9.1741   573
 9.1841   627
 9.1941   635
 9.2041   657
 9.2141   705
 9.2241   739
 9.2341   770
 9.2441   822
 9.2541   806
 9.2641   852
 9.2741   927
 9.2841   984
 9.2941  1001
 9.3041  1019
 9.3141  1018
 9.3241  1074
 9.3341  1126
 9.3441  1141
 9.3541  1136
 9.3641  1208
 9.3741  1207
 9.3841  1195
 9.3941  1231
 9.4041  1233
 9.4141  1313
 9.4241  1290
 9.4341  1194
 9.4441  1273
 9.4541  1343
 9.4641  1284
 9.4741  1347
 9.4841  1367
 9.4941  1361
 9.5041  1399
 9.5141  1510
 9.5241  1504
 9.5341  1522
 9.5441  1627
 9.5541  1732
 9.5641  1776
 9.5741  1848
 9.5841  1980
 9.5941  2087
 9.6041  2191
 9.6141  2267
 9.6241  2383
 9.6341  2474
 9.6441  2550
 9.6541  2553
 9.6641  2656
 9.6741  2558
 9.6841  2503
 9.6941  2435
 9.7041  2341
 9.7141  2264
 9.7241  2136
 9.7341  1987
 9.7441  1788
 9.7541  1626
 9.7641  1509
 9.7741  1439
 9.7841  1330
 9.7941  1285
 9.8041  1202
 9.8141  1121
 9.8241  1046
 9.8341  1043
 9.8441  1009
 9.8541  1024
 9.8641   977
 9.8741  1013
 9.8841  1019
 9.8941  1080
 9.9041  1065
 9.9141  1075
 9.9241  1099
 9.9341  1082
 9.9441  1123
 9.9541  1123
 9.9641  1082
 9.9741  1082
 9.9841   991
 9.9941   988
10.0041   955
10.0141   865
10.0241   770
10.0341   724
10.0441   696
10.0541   596
10.0641   538
10.0741   444
10.0841   405
10.0941   402
10.1041   395
10.1141   343
10.1241   291
10.1341   266
10.1441   261
10.1541   261
10.1641   232
10.1741   217
10.1841   204
10.1941   219
10.2041   205
10.2141   189
10.2241   182
10.2341   196
10.2441   170
10.2541   164
10.2641   166
10.2741   161
10.2841   170
10.2941   171
10.3041   165
10.3141   173
10.3241   157
10.3341   146
10.3441   148
10.3541   141
10.3641   143
10.3741   151
10.3841   144
10.3941   141
10.4041   142
10.4141   166
10.4241   158
10.4341   139
10.4441   155
10.4541   155
10.4641   177
10.4741   156
10.4841   165
10.4941   173
10.5041   172
10.5141   186
10.5241   181
10.5341   186
10.5441   206
10.5541   186
10.5641   181
10.5741   206
10.5841   179
10.5941   190
10.6041   185
10.6141   191
10.6241   190
10.6341   180
10.6441   175
10.6541   187
10.6641   193
10.6741   200
10.6841   204
10.6941   200
10.7041   222
10.7141   221
10.7241   220
10.7341   208
10.7441   224
10.7541   218
10.7641   250
10.7741   245
10.7841   240
10.7941   232
10.8041   253
10.8141   249
10.8241   263
10.8341   252
10.8441   277
10.8541   282
10.8641   288
10.8741   315
10.8841   297
10.8941   294
10.9041   312
10.9141   294
10.9241   302
10.9341   298
10.9441   290
10.9541   288
10.9641   289
10.9741   266
10.9841   279
10.9941   281
11.0041   260
11.0141   267
11.0241   261
11.0341   255
11.0441   255
11.0541   252
11.0641   259
11.0741   247
11.0841   229
11.0941   241
11.1041   248
11.1141   250
11.1241   233
11.1341   263
11.1441   268
11.1541   286
11.1641   279
11.1741   281
11.1841   275
11.1941   290
11.2041   311
11.2141   333
11.2241   355
11.2341   337
11.2441   337
11.2541   345
11.2641   387
11.2741   387
11.2841   380
11.2941   382
11.3041   363
11.3141   362
11.3241   358
11.3341   338
11.3441   340
11.3541   316
11.3641   303
11.3741   286
11.3841   255
11.3941   246
11.4041   244
11.4141   241
11.4241   236
11.4341   209
11.4441   200
11.4541   211
11.4641   207
11.4741   204
11.4841   204
11.4941   188
11.5041   200
11.5141   205
11.5241   199
11.5341   205
11.5441   186
11.5541   212
11.5641   213
11.5741   201
11.5841   204
11.5941   212
11.6041   210
11.6141   226
11.6241   217
11.6341   220
11.6441   235
11.6541   209
11.6641   216
11.6741   209
11.6841   209
11.6941   197
11.7041   186
11.7141   184
11.7241   189
11.7341   188
11.7441   176
11.7541   171
11.7641   166
11.7741   165
11.7841   177
11.7941   186
11.8041   167
11.8141   161
11.8241   165
11.8341   181
11.8441   176
11.8541   175
11.8641   161
11.8741   169
11.8841   169
11.8941   178
11.9041   195
11.9141   184
11.9241   162
11.9341   157
11.9441   168
11.9541   180
11.9641   190
11.9741   183
11.9841   166
11.9941   176
12.0041   189
12.0141   181
12.0241   176
12.0341   167
12.0441   161
12.0541   150
12.0641   161
12.0741   155
12.0841   154
12.0941   166
12.1041   170
12.1141   163
12.1241   170
12.1341   162
12.1441   161
12.1541   159
12.1641   158
12.1741   153
12.1841   155
12.1941   145
12.2041   154
12.2141   143
12.2241   145
12.2341   137
12.2441   146
12.2541   146
12.2641   132
12.2741   125
12.2841   128
12.2941   144
12.3041   151
12.3141   140
12.3241   151
12.3341   165
12.3441   156
12.3541   144
12.3641   160
12.3741   164
12.3841   163
12.3941   168
12.4041   155
12.4141   148
12.4241   163
12.4341   152
12.4441   147
12.4541   155
12.4641   153
12.4741   166
12.4841   173
12.4941   170
12.5041   153
12.5141   150
12.5241   154
12.5341   149
12.5441   162
12.5541   180
12.5641   179
12.5741   167
12.5841   166
12.5941   179
12.6041   184
12.6141   173
12.6241   188
12.6341   199
12.6441   169
12.6541   157
12.6641   182
12.6741   180
12.6841   178
12.6941   176
12.7041   173
12.7141   178
12.7241   190
12.7341   179
12.7441   187
12.7541   205
12.7641   202
12.7741   191
12.7841   181
12.7941   181
12.8041   189
12.8141   201
12.8241   214
12.8341   216
12.8441   204
12.8541   190
12.8641   187
12.8741   193
12.8841   197
12.8941   195
12.9041   191
12.9141   189
12.9241   192
12.9341   198
12.9441   203
12.9541   203
12.9641   199
12.9741   190
12.9841   183
12.9941   186
13.0041   193
13.0141   196
13.0241   197
13.0341   193
13.0441   188
13.0541   200
13.0641   206
13.0741   201
13.0841   196
13.0941   191
13.1041   198
13.1141   191
13.1241   194
13.1341   205
13.1441   207
13.1541   232
13.1641   230
13.1741   204
13.1841   199
13.1941   207
13.2041   203
13.2141   219
13.2241   231
13.2341   209
13.2441   215
13.2541   235
13.2641   227
13.2741   234
13.2841   248
13.2941   251
13.3041   258
13.3141   250
13.3241   249
13.3341   250
13.3441   257
13.3541   273
13.3641   274
13.3741   266
13.3841   259
13.3941   262
13.4041   264
13.4141   280
13.4241   273
13.4341   256
13.4441   256
13.4541   276
13.4641   252
13.4741   241
13.4841   249
13.4941   231
13.5041   240
13.5141   243
13.5241   233
13.5341   245
13.5441   245
13.5541   234
13.5641   237
13.5741   247
13.5841   252
13.5941   257
13.6041   239
13.6141   226
13.6241   228
13.6341   241
13.6441   250
13.6541   237
13.6641   249
13.6741   256
13.6841   247
13.6941   237
13.7041   228
13.7141   241
13.7241   251
13.7341   239
13.7441   239
13.7541   242
13.7641   243
13.7741   238
13.7841   237
13.7941   240
13.8041   238
13.8141   235
13.8241   228
13.8341   247
13.8441   258
13.8541   245
13.8641   249
13.8741   255
13.8841   263
13.8941   252
13.9041   247
13.9141   262
13.9241   253
13.9341   230
13.9441   226
13.9541   250
13.9641   254
13.9741   267
13.9841   278
13.9941   268
14.0041   266
14.0141   282
14.0241   302
14.0341   296
14.0441   303
14.0541   320
14.0641   310
14.0741   297
14.0841   296
14.0941   302
14.1041   308
14.1141   309
14.1241   303
14.1341   301
14.1441   304
14.1541   303
14.1641   306
14.1741   292
14.1841   286
14.1941   300
14.2041   299
14.2141   301
14.2241   316
14.2341   322
14.2441   310
14.2541   303
14.2641   304
14.2741   282
14.2841   282
14.2941   293
14.3041   284
14.3141   295
14.3241   295
14.3341   291
14.3441   288
14.3541   306
14.3641   306
14.3741   288
14.3841   279
14.3941   261
14.4041   268
14.4141   284
14.4241   281
14.4341   278
14.4441   279
14.4541   277
14.4641   278
14.4741   301
14.4841   304
14.4941   285
14.5041   297
14.5141   317
14.5241   287
14.5341   267
14.5441   299
14.5541   301
14.5641   272
14.5741   278
14.5841   288
14.5941   291
14.6041   298
14.6141   290
14.6241   297
14.6341   316
14.6441   278
14.6541   268
14.6641   299
14.6741   280
14.6841   282
14.6941   296
14.7041   292
14.7141   303
14.7241   290
14.7341   295
14.7441   310
14.7541   310
14.7641   339
14.7741   342
14.7841   307
14.7941   310
14.8041   334
14.8141   353
14.8241   363
14.8341   353
14.8441   350
14.8541   348
14.8641   364
14.8741   385
14.8841   375
14.8941   361
14.9041   366
14.9141   371
14.9241   375
14.9341   396
14.9441   406
14.9541   391
14.9641   397
14.9741   414
14.9841   407
14.9941   376
15.0041   383
15.0141   379
15.0241   384
15.0341   390
15.0441   376
15.0541   383
15.0641   358
15.0741   358
15.0841   357
15.0941   348
15.1041   352
15.1141   343
15.1241   339
15.1341   333
15.1441   351
15.1541   353
15.1641   357
15.1741   350
15.1841   325
15.1941   325
15.2041   318
15.2141   331
15.2241   329
15.2341   324
15.2441   337
15.2541   333
15.2641   340
15.2741   332
15.2841   335
15.2941   332
15.3041   347
15.3141   359
15.3241   349
15.3341   321
15.3441   328
15.3541   349
15.3641   339
15.3741   360
15.3841   378
15.3941   380
15.4041   351
15.4141   333
15.4241   348
15.4341   344
15.4441   360
15.4541   370
15.4641   344
15.4741   355
15.4841   359
15.4941   359
15.5041   366
15.5141   371
15.5241   373
15.5341   370
15.5441   376
15.5541   383
15.5641   412
15.5741   435
15.5841   456
15.5941   457
15.6041   458
15.6141   491
15.6241   510
15.6341   497
15.6441   561
15.6541   582
15.6641   583
15.6741   576
15.6841   612
15.6941   645
15.7041   666
15.7141   641
15.7241   631
15.7341   664
15.7441   701
15.7541   705
15.7641   713
15.7741   702
15.7841   678
15.7941   664
15.8041   648
15.8141   623
15.8241   607
15.8341   605
15.8441   587
15.8541   551
15.8641   537
15.8741   532
15.8841   529
15.8941   489
15.9041   467
15.9141   480
15.9241   474
15.9341   453
15.9441   449
15.9541   445
15.9641   430
15.9741   413
15.9841   396
15.9941   392
16.0041   404
16.0141   434
16.0241   419
16.0341   412
16.0441   414
16.0541   417
16.0641   406
16.0741   401
16.0841   376
16.0941   382
16.1041   391
16.1141   392
16.1241   382
16.1341   395
16.1441   415
16.1541   416
16.1641   407
16.1741   414
16.1841   430
16.1941   424
16.2041   416
16.2141   388
16.2241   418
16.2341   423
16.2441   426
16.2541   402
16.2641   394
16.2741   404
16.2841   407
16.2941   378
16.3041   393
16.3141   392
16.3241   378
16.3341   426
16.3441   443
16.3541   405
16.3641   392
16.3741   401
16.3841   424
16.3941   409
16.4041   442
16.4141   430
16.4241   427
16.4341   399
16.4441   436
16.4541   443
16.4641   413
16.4741   428
16.4841   432
16.4941   428
16.5041   419
16.5141   447
16.5241   438
16.5341   428
16.5441   426
16.5541   436
16.5641   439
16.5741   455
16.5841   425
16.5941   432
16.6041   439
16.6141   447
16.6241   435
16.6341   456
16.6441   459
16.6541   437
16.6641   451
16.6741   440
16.6841   444
16.6941   432
16.7041   427
16.7141   452
16.7241   455
16.7341   455
16.7441   439
16.7541   450
16.7641   463
16.7741   463
16.7841   469
16.7941   453
16.8041   439
16.8141   447
16.8241   483
16.8341   455
16.8441   422
16.8541   434
16.8641   436
16.8741   438
16.8841   445
16.8941   441
16.9041   434
16.9141   461
16.9241   448
16.9341   416
16.9441   432
16.9541   446
16.9641   443
16.9741   459
16.9841   417
16.9941   442
17.0041   462
17.0141   463
17.0241   437
17.0341   441
17.0441   442
17.0541   446
17.0641   462
17.0741   453
17.0841   454
17.0941   463
17.1041   435
17.1141   437
17.1241   455
17.1341   477
17.1441   464
17.1541   443
17.1641   442
17.1741   456
17.1841   453
17.1941   482
17.2041   447
17.2141   434
17.2241   451
17.2341   440
17.2441   458
17.2541   488
17.2641   498
17.2741   447
17.2841   461
17.2941   470
17.3041   450
17.3141   461
17.3241   512
17.3341   491
17.3441   469
17.3541   458
17.3641   493
17.3741   485
17.3841   457
17.3941   468
17.4041   466
17.4141   465
17.4241   480
17.4341   490
17.4441   459
17.4541   476
17.4641   469
17.4741   481
17.4841   491
17.4941   525
17.5041   524
17.5141   519
17.5241   478
17.5341   474
17.5441   502
17.5541   496
17.5641   501
17.5741   544
17.5841   524
17.5941   500
17.6041   518
17.6141   524
17.6241   511
17.6341   508
17.6441   539
17.6541   524
17.6641   507
17.6741   506
17.6841   535
17.6941   529
17.7041   496
17.7141   510
17.7241   560
17.7341   532
17.7441   523
17.7541   495
17.7641   473
17.7741   496
17.7841   501
17.7941   511
17.8041   488
17.8141   493
17.8241   504
17.8341   497
17.8441   529
17.8541   518
17.8641   501
17.8741   490
17.8841   518
17.8941   534
17.9041   494
17.9141   491
17.9241   516
17.9341   528
17.9441   496
17.9541   519
17.9641   517
17.9741   504
17.9841   486
17.9941   464
18.0041   487
18.0141   474
18.0241   459
18.0341   489
18.0441   482
18.0541   496
18.0641   493
18.0741   458
18.0841   470
18.0941   490
18.1041   476
18.1141   477
18.1241   488
18.1341   513
18.1441   499
18.1541   503
18.1641   498
18.1741   484
18.1841   487
18.1941   515
18.2041   535
18.2141   488
18.2241   490
18.2341   471
18.2441   486
18.2541   485
18.2641   488
18.2741   480
18.2841   483
18.2941   486
18.3041   508
18.3141   501
18.3241   518
18.3341   514
18.3441   512
18.3541   491
18.3641   503
18.3741   498
18.3841   493
18.3941   502
18.4041   496
18.4141   511
18.4241   558
18.4341   491
18.4441   521
18.4541   504
18.4641   522
18.4741   500
18.4841   485
18.4941   525
18.5041   516
18.5141   454
18.5241   487
18.5341   459
18.5441   516
18.5541   486
18.5641   472
18.5741   502
18.5841   496
18.5941   496
18.6041   494
18.6141   534
18.6241   501
18.6341   479
18.6441   502
18.6541   509
18.6641   501
18.6741   475
18.6841   507
18.6941   483
18.7041   497
18.7141   500
18.7241   506
18.7341   489
18.7441   501
18.7541   542
18.7641   514
18.7741   524
18.7841   517
18.7941   497
18.8041   512
18.8141   509
18.8241   496
18.8341   519
18.8441   515
18.8541   521
18.8641   504
18.8741   514
18.8841   541
18.8941   509
18.9041   491
18.9141   516
18.9241   529
18.9341   516
18.9441   523
18.9541   499
18.9641   470
18.9741   488
18.9841   474
18.9941   487
19.0041   488
19.0141   519
19.0241   480
19.0341   496
19.0441   489
19.0541   520
19.0641   515
19.0741   504
19.0841   532
19.0941   524
19.1041   479
19.1141   484
19.1241   498
19.1341   538
19.1441   535
19.1541   492
19.1641   495
19.1741   496
19.1841   512
19.1941   527
19.2041   531
19.2141   533
19.2241   490
19.2341   479
19.2441   510
19.2541   512
19.2641   528
19.2741   533
19.2841   498
19.2941   480
19.3041   541
19.3141   504
19.3241   535
19.3341   511
19.3441   496
19.3541   510
19.3641   501
19.3741   498
19.3841   496
19.3941   502
19.4041   544
19.4141   508
19.4241   509
19.4341   502
19.4441   478
19.4541   459
19.4641   478
19.4741   512
19.4841   512
19.4941   502
19.5041   469
19.5141   512
19.5241   503
19.5341   509
19.5441   486
19.5541   532
19.5641   507
19.5741   509
19.5841   532
19.5941   530
19.6041   477
19.6141   499
19.6241   562
19.6341   491
19.6441   518
19.6541   531
19.6641   513
19.6741   515
19.6841   519
19.6941   518
19.7041   518
19.7141   480
19.7241   498
19.7341   522
19.7441   515
19.7541   507
19.7641   495
19.7741   521
19.7841   483
19.7941   495
19.8041   487
19.8141   514
19.8241   511
19.8341   513
19.8441   480
19.8541   524
19.8641   546
19.8741   535
19.8841   541
19.8941   525
19.9041   515
19.9141   485
19.9241   521
19.9341   528
19.9441   529
19.9541   507
19.9641   504
19.9741   524
19.9841   524
19.9941   499
20.0041   503
20.0141   508
20.0241   516
20.0341   507
20.0441   526
20.0541   513
20.0641   506
20.0741   506
20.0841   520
20.0941   527
20.1041   531
20.1141   494
20.1241   506
20.1341   511
20.1441   508
20.1541   505
20.1641   544
20.1741   531
20.1841   494
20.1941   493
20.2041   494
20.2141   530
20.2241   528
20.2341   519
20.2441   549
20.2541   504
20.2641   486
20.2741   514
20.2841   499
20.2941   507
20.3041   544
20.3141   510
20.3241   499
20.3341   536
20.3441   510
20.3541   491
20.3641   495
20.3741   483
20.3841   536
20.3941   489
20.4041   533
20.4141   506
20.4241   500
20.4341   515
20.4441   529
20.4541   480
20.4641   519
20.4741   456
20.4841   504
20.4941   517
20.5041   504
20.5141   512
20.5241   493
20.5341   500
20.5441   501
20.5541   485
20.5641   487
20.5741   476
20.5841   498
20.5941   537
20.6041   485
20.6141   479
20.6241   482
20.6341   523
20.6441   505
20.6541   513
20.6641   522
20.6741   492
20.6841   525
20.6941   516
20.7041   498
20.7141   475
20.7241   515
20.7341   525
20.7441   504
20.7541   517
20.7641   510
20.7741   504
20.7841   519
20.7941   544
20.8041   509
20.8141   479
20.8241   545
20.8341   540
20.8441   557
20.8541   535
20.8641   543
20.8741   502
20.8841   528
20.8941   517
20.9041   556
20.9141   603
20.9241   574
20.9341   553
20.9441   543
20.9541   600
20.9641   608
20.9741   609
20.9841   588
20.9941   614
21.0041   595
21.0141   639
21.0241   656
21.0341   625
21.0441   645
21.0541   651
21.0641   693
21.0741   676
21.0841   654
21.0941   688
21.1041   686
21.1141   672
21.1241   698
21.1341   646
21.1441   677
21.1541   682
21.1641   665
21.1741   692
21.1841   670
21.1941   642
21.2041   639
21.2141   623
21.2241   659
21.2341   604
21.2441   629
21.2541   612
21.2641   604
21.2741   572
21.2841   584
21.2941   540
21.3041   560
21.3141   568
21.3241   567
21.3341   544
21.3441   527
21.3541   561
21.3641   519
21.3741   515
21.3841   516
21.3941   507
21.4041   513
21.4141   522
21.4241   513
21.4341   551
21.4441   468
21.4541   483
21.4641   466
21.4741   486
21.4841   484
21.4941   504
21.5041   499
21.5141   487
21.5241   484
21.5341   499
21.5441   480
21.5541   509
21.5641   472
21.5741   486
21.5841   476
21.5941   485
21.6041   510
21.6141   516
21.6241   492
21.6341   502
21.6441   493
21.6541   494
21.6641   464
21.6741   500
21.6841   518
21.6941   463
21.7041   475
21.7141   467
21.7241   519
21.7341   494
21.7441   470
21.7541   495
21.7641   468
21.7741   451
21.7841   482
21.7941   474
21.8041   489
21.8141   486
21.8241   468
21.8341   491
21.8441   482
21.8541   466
21.8641   462
21.8741   499
21.8841   465
21.8941   461
21.9041   490
21.9141   481
21.9241   487
21.9341   469
21.9441   472
21.9541   522
21.9641   510
21.9741   481
21.9841   475
21.9941   504
22.0041   467
22.0141   473
22.0241   494
22.0341   505
22.0441   491
22.0541   460
22.0641   491
22.0741   485
22.0841   491
22.0941   451
22.1041   456
22.1141   504
22.1241   483
22.1341   470
22.1441   498
22.1541   462
22.1641   455
22.1741   459
22.1841   501
22.1941   477
22.2041   500
22.2141   497
22.2241   494
22.2341   463
22.2441   468
22.2541   472
22.2641   471
22.2741   471
22.2841   492
22.2941   496
22.3041   459
22.3141   462
22.3241   456
22.3341   517
22.3441   481
22.3541   484
22.3641   429
22.3741   440
22.3841   463
22.3941   477
22.4041   466
22.4141   454
22.4241   468
22.4341   462
22.4441   461
22.4541   453
22.4641   495
22.4741   450
22.4841   449
22.4941   455
22.5041   458
22.5141   493
22.5241   442
22.5341   470
22.5441   479
22.5541   478
22.5641   457
22.5741   502
22.5841   476
22.5941   442
22.6041   416
22.6141   448
22.6241   423
22.6341   476
22.6441   458
22.6541   465
22.6641   465
22.6741   422
22.6841   443
22.6941   447
22.7041   452
22.7141   466
22.7241   453
22.7341   455
22.7441   455
22.7541   426
22.7641   450
22.7741   456
22.7841   481
22.7941   460
22.8041   443
22.8141   498
22.8241   428
22.8341   418
22.8441   477
22.8541   437
22.8641   429
22.8741   471
22.8841   411
22.8941   459
22.9041   468
22.9141   442
22.9241   486
22.9341   449
22.9441   492
22.9541   463
22.9641   450
22.9741   433
22.9841   434
22.9941   465
23.0041   417
23.0141   448
23.0241   495
23.0341   439
23.0441   436
23.0541   435
23.0641   434
23.0741   443
23.0841   471
23.0941   431
23.1041   453
23.1141   424
23.1241   405
23.1341   468
23.1441   470
23.1541   417
23.1641   432
23.1741   395
23.1841   391
23.1941   435
23.2041   453
23.2141   450
23.2241   434
23.2341   438
23.2441   404
23.2541   417
23.2641   432
23.2741   437
23.2841   409
23.2941   456
23.3041   416
23.3141   425
23.3241   406
23.3341   388
23.3441   415
23.3541   436
23.3641   412
23.3741   428
23.3841   445
23.3941   453
23.4041   419
23.4141   424
23.4241   429
23.4341   475
23.4441   410
23.4541   418
23.4641   452
23.4741   443
23.4841   430
23.4941   453
23.5041   450
23.5141   445
23.5241   440
23.5341   437
23.5441   419
23.5541   413
23.5641   422
23.5741   426
23.5841   476
23.5941   444
23.6041   434
23.6141   451
23.6241   403
23.6341   427
23.6441   433
23.6541   424
23.6641   415
23.6741   411
23.6841   424
23.6941   428
23.7041   411
23.7141   445
23.7241   449
23.7341   431
23.7441   464
23.7541   465
23.7641   467
23.7741   472
23.7841   431
23.7941   429
23.8041   453
23.8141   423
23.8241   492
23.8341   455
23.8441   430
23.8541   461
23.8641   409
23.8741   440
23.8841   518
23.8941   412
23.9041   454
23.9141   412
23.9241   434
23.9341   435
23.9441   415
23.9541   434
23.9641   441
23.9741   459
23.9841   409
23.9941   399
24.0041   380
24.0141   398
24.0241   408
24.0341   404
24.0441   401
24.0541   441
24.0641   399
24.0741   439
24.0841   408
24.0941   392
24.1041   411
24.1141   394
24.1241   435
24.1341   456
24.1441   403
24.1541   396
24.1641   401
24.1741   406
24.1841   398
24.1941   436
24.2041   430
24.2141   422
24.2241   407
24.2341   393
24.2441   420
24.2541   403
24.2641   416
24.2741   434
24.2841   416
24.2941   391
24.3041   427
24.3141   401
24.3241   400
24.3341   430
24.3441   393
24.3541   395
24.3641   363
24.3741   407
24.3841   372
24.3941   413
24.4041   395
24.4141   413
24.4241   397
24.4341   371
24.4441   379
24.4541   379
24.4641   379
24.4741   387
24.4841   401
24.4941   390
24.5041   361
24.5141   382
24.5241   427
24.5341   379
24.5441   436
24.5541   360
24.5641   383
24.5741   378
24.5841   379
24.5941   394
24.6041   399
24.6141   403
24.6241   378
24.6341   381
24.6441   368
24.6541   400
24.6641   375
24.6741   367
24.6841   378
24.6941   364
24.7041   370
24.7141   404
24.7241   391
24.7341   386
24.7441   379
24.7541   373
24.7641   370
24.7741   364
24.7841   358
24.7941   394
24.8041   376
24.8141   372
24.8241   359
24.8341   389
24.8441   358
24.8541   365
24.8641   360
24.8741   376
24.8841   402
24.8941   383
24.9041   377
24.9141   374
24.9241   372
24.9341   374
24.9441   374
24.9541   367
24.9641   381
24.9741   362
24.9841   366
24.9941   387
25.0041   351
25.0141   354
25.0241   373
25.0341   395
25.0441   373
25.0541   377
25.0641   379
25.0741   380
25.0841   379
25.0941   382
25.1041   381
25.1141   417
25.1241   387
25.1341   371
25.1441   373
25.1541   335
25.1641   372
25.1741   375
25.1841   376
25.1941   398
25.2041   380
25.2141   360
25.2241   392
25.2341   373
25.2441   382
25.2541   410
25.2641   383
25.2741   400
25.2841   334
25.2941   368
25.3041   353
25.3141   369
25.3241   378
25.3341   392
25.3441   357
25.3541   364
25.3641   351
25.3741   365
25.3841   391
25.3941   373
25.4041   355
25.4141   373
25.4241   394
25.4341   336
25.4441   372
25.4541   342
25.4641   383
25.4741   361
25.4841   407
25.4941   378
25.5041   359
25.5141   363
25.5241   351
25.5341   333
25.5441   356
25.5541   348
25.5641   364
25.5741   337
25.5841   368
25.5941   362
25.6041   349
25.6141   341
25.6241   333
25.6341   356
25.6441   370
25.6541   309
25.6641   362
25.6741   354
25.6841   364
25.6941   353
25.7041   366
25.7141   354
25.7241   350
25.7341   320
25.7441   324
25.7541   336
25.7641   373
25.7741   363
25.7841   335
25.7941   330
25.8041   364
25.8141   330
25.8241   364
25.8341   329
25.8441   336
25.8541   342
25.8641   319
25.8741   346
25.8841   356
25.8941   354
25.9041   301
25.9141   347
25.9241   308
25.9341   325
25.9441   343
25.9541   356
25.9641   337
25.9741   311
25.9841   318
25.9941   300
26.0041   342
26.0141   337
26.0241   337
26.0341   343
26.0441   312
26.0541   330
26.0641   308
26.0741   346
26.0841   318
26.0941   331
26.1041   331
26.1141   333
26.1241   313
26.1341   326
26.1441   324
26.1541   348
26.1641   331
26.1741   321
26.1841   358
26.1941   328
26.2041   342
26.2141   322
26.2241   311
26.2341   341
26.2441   330
26.2541   308
26.2641   321
26.2741   341
26.2841   340
26.2941   325
26.3041   278
26.3141   327
26.3241   333
26.3341   335
26.3441   334
26.3541   353
26.3641   314
26.3741   285
26.3841   310
26.3941   291
26.4041   338
26.4141   322
26.4241   329
26.4341   299
26.4441   335
26.4541   305
26.4641   270
26.4741   320
26.4841   327
26.4941   309
26.5041   304
26.5141   309
26.5241   327
26.5341   318
26.5441   314
26.5541   309
26.5641   327
26.5741   301
26.5841   343
26.5941   322
26.6041   307
26.6141   308
26.6241   305
26.6341   302
26.6441   289
26.6541   291
26.6641   292
26.6741   309
26.6841   298
26.6941   331
26.7041   321
26.7141   279
26.7241   300
26.7341   295
26.7441   315
26.7541   294
26.7641   308
26.7741   327
26.7841   298
26.7941   289
26.8041   277
26.8141   308
26.8241   282
26.8341   284
26.8441   267
26.8541   280
26.8641   315
26.8741   299
26.8841   284
26.8941   264
26.9041   309
26.9141   302
26.9241   314
26.9341   290
26.9441   294
26.9541   321
26.9641   307
26.9741   263
26.9841   283
26.9941   302
27.0041   289
27.0141   282
27.0241   320
27.0341   321
27.0441   318
27.0541   278
27.0641   319
27.0741   288
27.0841   273
27.0941   274
27.1041   305
27.1141   285
27.1241   292
27.1341   304
27.1441   305
27.1541   298
27.1641   278
27.1741   291
27.1841   278
27.1941   287
27.2041   290
27.2141   302
27.2241   287
27.2341   295
27.2441   312
27.2541   285
27.2641   294
27.2741   302
27.2841   266
27.2941   271
27.3041   288
27.3141   281
27.3241   279
27.3341   275
27.3441   288
27.3541   272
27.3641   305
27.3741   264
27.3841   304
27.3941   263
27.4041   262
27.4141   291
27.4241   296
27.4341   325
27.4441   294
27.4541   287
27.4641   297
27.4741   272
27.4841   293
27.4941   269
27.5041   294
27.5141   289
27.5241   277
27.5341   265
27.5441   252
27.5541   265
27.5641   262
27.5741   281
27.5841   267
27.5941   278
27.6041   243
27.6141   264
27.6241   296
27.6341   283
27.6441   278
27.6541   257
27.6641   264
27.6741   271
27.6841   301
27.6941   276
27.7041   265
27.7141   268
27.7241   274
27.7341   261
27.7441   247
27.7541   293
27.7641   235
27.7741   271
27.7841   265
27.7941   249
27.8041   274
27.8141   278
27.8241   270
27.8341   255
27.8441   271
27.8541   252
27.8641   263
27.8741   258
27.8841   227
27.8941   239
27.9041   251
27.9141   259
27.9241   259
27.9341   292
27.9441   246
27.9541   245
27.9641   239
27.9741   285
27.9841   275
27.9941   226
28.0041   229
28.0141   250
28.0241   249
28.0341   235
28.0441   253
28.0541   217
28.0641   242
28.0741   238
28.0841   284
28.0941   270
28.1041   258
28.1141   263
28.1241   259
28.1341   269
28.1441   274
28.1541   244
28.1641   232
28.1741   228
28.1841   231
28.1941   245
28.2041   246
28.2141   259
28.2241   244
28.2341   236
28.2441   251
28.2541   245
28.2641   256
28.2741   233
28.2841   219
28.2941   225
28.3041   240
28.3141   257
28.3241   231
28.3341   257
28.3441   244
28.3541   230
28.3641   241
28.3741   227
28.3841   231
28.3941   244
28.4041   239
28.4141   267
28.4241   260
28.4341   259
28.4441   260
28.4541   255
28.4641   237
28.4741   220
28.4841   246
28.4941   244
28.5041   214
28.5141   257
28.5241   251
28.5341   255
28.5441   248
28.5541   245
28.5641   247
28.5741   225
28.5841   216
28.5941   212
28.6041   240
28.6141   232
28.6241   231
28.6341   237
28.6441   244
28.6541   247
28.6641   226
28.6741   242
28.6841   215
28.6941   232
28.7041   222
28.7141   244
28.7241   203
28.7341   220
28.7441   223
28.7541   219
28.7641   223
28.7741   240
28.7841   245
28.7941   253
28.8041   208
28.8141   245
28.8241   224
28.8341   227
28.8441   248
28.8541   213
28.8641   231
28.8741   212
28.8841   222
28.8941   236
28.9041   233
28.9141   250
28.9241   200
28.9341   234
28.9441   229
28.9541   202
28.9641   239
28.9741   243
28.9841   240
28.9941   224
29.0041   228
29.0141   244
29.0241   230
29.0341   200
29.0441   217
29.0541   207
29.0641   248
29.0741   226
29.0841   212
29.0941   220
29.1041   207
29.1141   231
29.1241   195
29.1341   241
29.1441   240
29.1541   212
29.1641   221
29.1741   218
29.1841   234
29.1941   207
29.2041   228
29.2141   208
29.2241   195
29.2341   190
29.2441   208
29.2541   233
29.2641   208
29.2741   205
29.2841   230
29.2941   206
29.3041   225
29.3141   230
29.3241   204
29.3341   227
29.3441   199
29.3541   211
29.3641   208
29.3741   209
29.3841   199
29.3941   197
29.4041   214
29.4141   204
29.4241   225
29.4341   214
29.4441   194
29.4541   211
29.4641   192
29.4741   208
29.4841   196
29.4941   209
29.5041   214
29.5141   208
29.5241   232
29.5341   199
29.5441   197
29.5541   195
29.5641   196
29.5741   236
29.5841   199
29.5941   199
29.6041   205
29.6141   213
29.6241   189
29.6341   183
29.6441   201
29.6541   195
29.6641   188
29.6741   190
29.6841   200
29.6941   189
29.7041   203
29.7141   223
29.7241   206
29.7341   205
29.7441   195
29.7541   228
29.7641   170
29.7741   185
29.7841   189
29.7941   199
29.8041   186
29.8141   190
29.8241   197
29.8341   200
29.8441   211
29.8541   202
29.8641   207
29.8741   194
29.8841   175
29.8941   207
29.9041   173
29.9141   184
29.9241   193
29.9341   182
29.9441   174
29.9541   176
29.9641   188
29.9741   191
29.9841   174
29.9941   211
30.0041   182
30.0141   190
30.0241   176
30.0341   208
30.0441   210
30.0541   182
30.0641   186
30.0741   186
30.0841   181
30.0941   183
30.1041   185
30.1141   172
30.1241   202
30.1341   185
30.1441   191
30.1541   180
30.1641   187
30.1741   192
30.1841   167
30.1941   179
30.2041   165
30.2141   182
30.2241   200
30.2341   186
30.2441   194
30.2541   203
30.2641   192
30.2741   188
30.2841   182
30.2941   209
30.3041   162
30.3141   195
30.3241   177
30.3341   193
30.3441   177
30.3541   175
30.3641   190
30.3741   171
30.3841   198
30.3941   171
30.4041   186
30.4141   184
30.4241   165
30.4341   148
30.4441   177
30.4541   171
30.4641   159
30.4741   165
30.4841   185
30.4941   159
30.5041   160
30.5141   184
30.5241   186
30.5341   181
30.5441   161
30.5541   162
30.5641   170
30.5741   172
30.5841   147
30.5941   173
30.6041   171
30.6141   180
30.6241   189
30.6341   180
30.6441   180
30.6541   168
30.6641   151
30.6741   172
30.6841   172
30.6941   155
30.7041   158
30.7141   170
30.7241   191
30.7341   178
30.7441   143
30.7541   161
30.7641   165
30.7741   163
30.7841   157
30.7941   141
30.8041   176
30.8141   169
30.8241   156
30.8341   179
30.8441   175
30.8541   175
30.8641   162
30.8741   154
30.8841   183
30.8941   157
30.9041   154
30.9141   164
30.9241   179
30.9341   149
30.9441   174
30.9541   178
30.9641   180
30.9741   150
30.9841   160
30.9941   177
31.0041   172
31.0141   159
31.0241   153
31.0341   155
31.0441   171
31.0541   169
31.0641   163
31.0741   163
31.0841   155
31.0941   133
31.1041   171
31.1141   164
31.1241   164
31.1341   171
31.1441   145
31.1541   171
31.1641   145
31.1741   167
31.1841   154
31.1941   155
31.2041   168
31.2141   167
31.2241   162
31.2341   141
31.2441   171
31.2541   163
31.2641   148
31.2741   152
31.2841   163
31.2941   144
31.3041   173
31.3141   153
31.3241   173
31.3341   153
31.3441   145
31.3541   148
31.3641   129
31.3741   124
31.3841   135
31.3941   167
31.4041   148
31.4141   146
31.4241   147
31.4341   166
31.4441   166
31.4541   154
31.4641   156
31.4741   148
31.4841   158
31.4941   139
31.5041   166
31.5141   133
31.5241   172
31.5341   168
31.5441   145
31.5541   145
31.5641   144
31.5741   150
31.5841   164
31.5941   163
31.6041   163
31.6141   133
31.6241   165
31.6341   135
31.6441   129
31.6541   151
31.6641   145
31.6741   146
31.6841   150
31.6941   156
31.7041   151
31.7141   146
31.7241   139
31.7341   158
31.7441   173
31.7541   141
31.7641   146
31.7741   136
31.7841   147
31.7941   137
31.8041   147
31.8141   156
31.8241   131
31.8341   132
31.8441   129
31.8541   155
31.8641   160
31.8741   144
31.8841   135
31.8941   148
31.9041   179
31.9141   136
31.9241   130
31.9341   138
31.9441   137
31.9541   121
31.9641   147
31.9741   126
31.9841   128
31.9941   116
32.0041   151
32.0141   151
32.0241   131
32.0341   140
32.0441   126
32.0541   148
32.0641   137
32.0741   143
32.0841   130
32.0941   127
32.1041   126
32.1141   123
32.1241   127
32.1341   136
32.1441   131
32.1541   140
32.1641   130
32.1741   147
32.1841   142
32.1941   128
32.2041   167
32.2141   132
32.2241   137
32.2341   130
32.2441    99
32.2541   125
32.2641   115
32.2741   137
32.2841   108
32.2941   134
32.3041   125
32.3141   145
32.3241   132
32.3341   121
32.3441   126
32.3541   119
32.3641   138
32.3741   142
32.3841   114
32.3941   122
32.4041   119
32.4141   129
32.4241   134
32.4341   131
32.4441   146
32.4541   139
32.4641   122
32.4741   114
32.4841   141
32.4941   123
32.5041   106
32.5141   126
32.5241   119
32.5341   112
32.5441   135
32.5541   126
32.5641   124
32.5741   121
32.5841   114
32.5941   114
32.6041   119
32.6141   127
32.6241   113
32.6341   118
32.6441   138
32.6541   136
32.6641   110
32.6741   101
32.6841   125
32.6941   114
32.7041   101
32.7141   139
32.7241   114
32.7341   124
32.7441    99
32.7541   117
32.7641   118
32.7741   138
32.7841   120
32.7941   120
32.8041   114
32.8141   119
32.8241   116
32.8341   109
32.8441   114
32.8541   103
32.8641   114
32.8741   126
32.8841   124
32.8941   121
32.9041   106
32.9141   108
32.9241   108
32.9341   119
32.9441   108
32.9541   120
32.9641   120
32.9741   111
32.9841   114
32.9941   126
33.0041   100
33.0141   125
33.0241   123
33.0341   123
33.0441   116
33.0541   101
33.0641   107
33.0741   124
33.0841   127
33.0941   117
33.1041   124
33.1141   123
33.1241   125
33.1341   116
33.1441   104
33.1541   101
33.1641    89
33.1741   101
33.1841    83
33.1941   111
33.2041   117
33.2141   115
33.2241   113
33.2341   111
33.2441   108
33.2541   141
33.2641   107
33.2741   109
33.2841   137
33.2941    99
33.3041   109
33.3141   103
33.3241   119
33.3341   117
33.3441   102
33.3541    98
33.3641    89
33.3741   104
33.3841   110
33.3941   100
33.4041   107
33.4141   109
33.4241    89
33.4341   110
33.4441   110
33.4541   105
33.4641   126
33.4741   114
33.4841   105
33.4941    97
33.5041    87
33.5141    91
33.5241   104
33.5341    97
33.5441   113
33.5541   102
33.5641   115
33.5741   110
33.5841   117
33.5941    91
33.6041    98
33.6141   115
33.6241   105
33.6341   117
33.6441    99
33.6541    98
33.6641   115
33.6741   102
33.6841    92
33.6941    89
33.7041    94
33.7141   108
33.7241   102
33.7341    75
33.7441    87
33.7541   117
33.7641    97
33.7741   109
33.7841    90
33.7941    97
33.8041    97
33.8141   106
33.8241   102
33.8341    87
33.8441    76
33.8541    93
33.8641    97
33.8741   100
33.8841    89
33.8941   110
33.9041   103
33.9141    87
33.9241    85
33.9341    98
33.9441   108
33.9541   107
33.9641    96
33.9741    98
33.9841   104
33.9941    85
34.0041    93
34.0141    82
34.0241    96
34.0341   110
34.0441   100
34.0541    97
34.0641    82
34.0741    94
34.0841    65
34.0941   101
34.1041    90
34.1141   104
34.1241   102
34.1341    87
34.1441    81
34.1541    87
34.1641    89
34.1741    99
34.1841    90
34.1941    96
34.2041    95
34.2141   104
34.2241    77
34.2341    97
34.2441    92
34.2541    75
34.2641    79
34.2741   103
34.2841   112
34.2941    88
34.3041    73
34.3141    79
34.3241   101
34.3341    95
34.3441    95
34.3541    94
34.3641    91
34.3741    83
34.3841   102
34.3941    97
34.4041    75
34.4141    94
34.4241    85
34.4341    70
34.4441    84
34.4541    93
34.4641    75
34.4741    80
34.4841    87
34.4941    68
34.5041    94
34.5141    80
34.5241    78
34.5341    65
34.5441    81
34.5541    80
34.5641    95
34.5741    78
34.5841    92
34.5941    84
34.6041    76
34.6141    98
34.6241    90
34.6341    64
34.6441    97
34.6541    85
34.6641   100
34.6741    91
34.6841    76
34.6941    73
34.7041    84
34.7141    95
34.7241   100
34.7341    89
34.7441    76
34.7541    80
34.7641    76
34.7741    94
34.7841    85
34.7941    83
34.8041    77
34.8141    78
34.8241    73
34.8341    76
34.8441    76
34.8541    81
34.8641    81
34.8741    78
34.8841    86
34.8941    87
34.9041    55
34.9141    80
34.9241    67
34.9341    83
34.9441    76
34.9541    82
34.9641    84
34.9741    84
34.9841    91
34.9941    71
35.0041    79
35.0141    68
35.0241    80
35.0341    65
35.0441    73
35.0541    80
35.0641    75
35.0741    80
35.0841    77
35.0941    72
35.1041    81
35.1141    84
35.1241    67
35.1341    66
35.1441    83
35.1541    78
35.1641    71
35.1741    69
35.1841    64
35.1941    72
35.2041    68
35.2141    75
35.2241    70
35.2341    72
35.2441    85
35.2541    90
35.2641    71
35.2741    78
35.2841    85
35.2941    75
35.3041    64
35.3141    84
35.3241    78
35.3341    71
35.3441    65
35.3541    65
35.3641    74
35.3741    71
35.3841    89
35.3941    76
35.4041    72
35.4141    77
35.4241    54
35.4341    58
35.4441    72
35.4541    60
35.4641    80
35.4741    65
35.4841    72
35.4941    70
35.5041    65
35.5141    75
35.5241    80
35.5341    55
35.5441    79
35.5541    67
35.5641    67
35.5741    67
35.5841    70
35.5941    82
35.6041    59
35.6141    59
35.6241    60
35.6341    67
35.6441    63
35.6541    67
35.6641    61
35.6741    68
35.6841    69
35.6941    56
35.7041    61
35.7141    74
35.7241    63
35.7341    60
35.7441    62
35.7541    65
35.7641    74
35.7741    67
35.7841    74
35.7941    62
35.8041    66
35.8141    68
35.8241    51
35.8341    66
35.8441    74
35.8541    65
35.8641    64
35.8741    73
35.8841    71
35.8941    53
35.9041    62
35.9141    60
35.9241    70
35.9341    70
35.9441    67
35.9541    68
35.9641    65
35.9741    63
35.9841    53
35.9941    67
36.0041    66
36.0141    52
36.0241    53
36.0341    65
36.0441    70
36.0541    60
36.0641    45
36.0741    56
36.0841    70
36.0941    60
36.1041    56
36.1141    66
36.1241    74
36.1341    61
36.1441    56
36.1541    62
36.1641    54
36.1741    63
36.1841    71
36.1941    58
36.2041    51
36.2141    57
36.2241    51
36.2341    57
36.2441    64
36.2541    41
36.2641    69
36.2741    48
36.2841    61
36.2941    63
36.3041    71
36.3141    58
36.3241    54
36.3341    62
36.3441    51
36.3541    54
36.3641    48
36.3741    61
36.3841    64
36.3941    62
36.4041    56
36.4141    55
36.4241    69
36.4341    52
36.4441    70
36.4541    45
36.4641    55
36.4741    59
36.4841    73
36.4941    64
36.5041    50
36.5141    60
36.5241    54
36.5341    55
36.5441    56
36.5541    43
36.5641    55
36.5741    41
36.5841    52
36.5941    56
36.6041    55
36.6141    57
36.6241    59
36.6341    47
36.6441    50
36.6541    50
36.6641    52
36.6741    54
36.6841    59
36.6941    50
36.7041    62
36.7141    56
36.7241    55
36.7341    52
36.7441    41
36.7541    50
36.7641    54
36.7741    54
36.7841    55
36.7941    60
36.8041    64
36.8141    55
36.8241    59
36.8341    46
36.8441    47
36.8541    65
36.8641    58
36.8741    63
36.8841    49
36.8941    45
36.9041    47
36.9141    60
36.9241    40
36.9341    58
36.9441    42
36.9541    53
36.9641    55
36.9741    48
36.9841    40
36.9941    57
37.0041    53
37.0141    53
37.0241    56
37.0341    51
37.0441    36
37.0541    48
37.0641    56
37.0741    62
37.0841    43
37.0941    40
37.1041    38
37.1141    40
37.1241    48
37.1341    48
37.1441    53
37.1541    52
37.1641    37
37.1741    50
37.1841    44
37.1941    41
37.2041    47
37.2141    46
37.2241    64
37.2341    43
37.2441    44
37.2541    56
37.2641    50
37.2741    38
37.2841    43
37.2941    51
37.3041    52
37.3141    38
37.3241    53
37.3341    54
37.3441    48
37.3541    49
37.3641    36
37.3741    46
37.3841    40
37.3941    44
37.4041    40
37.4141    45
37.4241    44
37.4341    46
37.4441    39
37.4541    28
37.4641    46
37.4741    37
37.4841    43
37.4941    41
37.5041    35
37.5141    36
37.5241    34
37.5341    37
37.5441    38
37.5541    39
37.5641    45
37.5741    44
37.5841    47
37.5941    46
37.6041    42
37.6141    57
37.6241    46
37.6341    43
37.6441    36
37.6541    43
37.6641    37
37.6741    40
37.6841    45
37.6941    32
37.7041    49
37.7141    43
37.7241    44
37.7341    30
37.7441    36
37.7541    52
37.7641    41
37.7741    24
37.7841    48
37.7941    37
37.8041    36
37.8141    42
37.8241    33
37.8341    40
37.8441    33
37.8541    32
37.8641    39
37.8741    42
37.8841    29
37.8941    32
37.9041    47
37.9141    39
37.9241    44
37.9341    34
37.9441    33
37.9541    46
37.9641    40
37.9741    38
37.9841    33
37.9941    35
38.0041    36
38.0141    42
38.0241    50
38.0341    36
38.0441    43
38.0541    30
38.0641    23
38.0741    39
38.0841    44
38.0941    39
38.1041    40
38.1141    32
38.1241    40
38.1341    37
38.1441    30
38.1541    34
38.1641    37
38.1741    27
38.1841    26
38.1941    45
38.2041    35
38.2141    39
38.2241    25
38.2341    31
38.2441    37
38.2541    33
38.2641    31
38.2741    32
38.2841    30
38.2941    32
38.3041    31
38.3141    34
38.3241    33
38.3341    35
38.3441    40
38.3541    35
38.3641    24
38.3741    34
38.3841    34
38.3941    32
38.4041    43
38.4141    33
38.4241    32
38.4341    16
38.4441    38
38.4541    36
38.4641    41
38.4741    37
38.4841    42
38.4941    37
38.5041    26
38.5141    33
38.5241    29
38.5341    31
38.5441    32
38.5541    25
38.5641    25
38.5741    28
38.5841    31
38.5941    33
38.6041    35
38.6141    39
38.6241    26
38.6341    40
38.6441    23
38.6541    35
38.6641    38
38.6741    38
38.6841    24
38.6941    29
38.7041    24
38.7141    29
38.7241    34
38.7341    28
38.7441    18
38.7541    35
38.7641    33
38.7741    43
38.7841    27
38.7941    22
38.8041    30
38.8141    32
38.8241    24
38.8341    31
38.8441    26
38.8541    30
38.8641    25
38.8741    33
38.8841    36
38.8941    28
38.9041    33
38.9141    24
38.9241    29
38.9341    19
38.9441    22
38.9541    22
38.9641    27
38.9741    34
38.9841    23
38.9941    23
39.0041    26
39.0141    33
39.0241    31
39.0341    27
39.0441    25
39.0541    27
39.0641    29
39.0741    24
39.0841    31
39.0941    24
39.1041    30
39.1141    36
39.1241    31
39.1341    22
39.1441    24
39.1541    27
39.1641    29
39.1741    28
39.1841    28
39.1941    32
39.2041    15
39.2141    28
39.2241    26
39.2341    22
39.2441    23
39.2541    20
39.2641    19
39.2741    25
39.2841    29
39.2941    20
39.3041    24
39.3141    21
39.3241    29
39.3341    23
39.3441    20
39.3541    27
39.3641    23
39.3741    32
39.3841    14
39.3941    28
39.4041    25
39.4141    16
39.4241    26
39.4341    18
39.4441    17
39.4541    25
39.4641    21
39.4741    21
39.4841    26
39.4941    22
39.5041    21
39.5141    19
39.5241    19
39.5341    18
39.5441    25
39.5541    18
39.5641    16
39.5741    22
39.5841    21
39.5941    23
39.6041    12
39.6141    16
39.6241    23
39.6341    27
39.6441    21
39.6541    23
39.6641    26
39.6741    29
39.6841    18
39.6941    21
39.7041    21
39.7141    15
39.7241    21
39.7341    15
39.7441    23
39.7541    24
39.7641    17
39.7741    24
39.7841    28
39.7941    20
39.8041    19
39.8141    19
39.8241    18
39.8341    21
39.8441    18
39.8541    21
39.8641    20
39.8741    10
39.8841    24
39.8941    18
39.9041    19
39.9141    28
39.9241    19
39.9341    20
39.9441    23
39.9541    27
39.9641    22
39.9741    21
39.9841    21
