Bruker Nano GmbH Berlin, Germany
Esprit 1.9

Date: 4/1/2021 4:14:01 PM
Real time: 19166
Life time: 17751
Pulse density: 108125


Detector type: XFlash 430
Window type: Custom type
Detector thickness: 0.45
Si dead layer:0.029

Calibration, lin.: 10
Calibration, abs.: -955.9
Mn FWHM: 137.05
Fano factor: 0.121
Channels: 4095

Energy Counts
-0.9559     0
-0.9459     0
-0.9359     0
-0.9259     0
-0.9159     0
-0.9059     0
-0.8959     0
-0.8859     0
-0.8759     0
-0.8659     0
-0.8559     0
-0.8459     0
-0.8359     0
-0.8259     0
-0.8159     0
-0.8059     0
-0.7959     0
-0.7859     0
-0.7759     0
-0.7659     0
-0.7559     0
-0.7459     0
-0.7359     0
-0.7259     0
-0.7159     0
-0.7059     0
-0.6959     0
-0.6859     0
-0.6759     0
-0.6659     0
-0.6559     0
-0.6459     0
-0.6359     0
-0.6259     0
-0.6159     0
-0.6059     0
-0.5959     0
-0.5859     0
-0.5759     0
-0.5659     0
-0.5559     0
-0.5459     0
-0.5359     0
-0.5259     0
-0.5159     0
-0.5059     0
-0.4959     0
-0.4859     0
-0.4759     0
-0.4659     0
-0.4559     0
-0.4459     0
-0.4359     0
-0.4259     0
-0.4159     0
-0.4059     0
-0.3959     0
-0.3859     0
-0.3759     0
-0.3659     0
-0.3559     0
-0.3459     0
-0.3359     0
-0.3259     0
-0.3159     0
-0.3059     0
-0.2959     0
-0.2859     0
-0.2759     0
-0.2659     0
-0.2559     0
-0.2459     0
-0.2359     0
-0.2259     0
-0.2159     0
-0.2059     0
-0.1959     0
-0.1859     0
-0.1759     0
-0.1659     0
-0.1559     0
-0.1459     1
-0.1359     0
-0.1259     1
-0.1159     3
-0.1059    13
-0.0959    48
-0.0859   201
-0.0759   698
-0.0659  2073
-0.0559  5107
-0.0459 11347
-0.0359 21105
-0.0259 33627
-0.0159 46090
-0.0059 54452
 0.0041 54835
 0.0141 47280
 0.0241 34856
 0.0341 22132
 0.0441 11777
 0.0541  5550
 0.0641  2252
 0.0741   783
 0.0841   258
 0.0941    73
 0.1041    22
 0.1141    10
 0.1241    11
 0.1341     8
 0.1441     4
 0.1541     1
 0.1641     3
 0.1741    18
 0.1841   166
 0.1941   333
 0.2041   293
 0.2141   307
 0.2241   325
 0.2341   326
 0.2441   305
 0.2541   313
 0.2641   315
 0.2741   338
 0.2841   302
 0.2941   300
 0.3041   323
 0.3141   298
 0.3241   293
 0.3341   283
 0.3441   291
 0.3541   302
 0.3641   300
 0.3741   270
 0.3841   263
 0.3941   280
 0.4041   253
 0.4141   296
 0.4241   284
 0.4341   287
 0.4441   269
 0.4541   256
 0.4641   260
 0.4741   281
 0.4841   264
 0.4941   265
 0.5041   276
 0.5141   270
 0.5241   265
 0.5341   260
 0.5441   257
 0.5541   246
 0.5641   242
 0.5741   245
 0.5841   245
 0.5941   240
 0.6041   239
 0.6141   239
 0.6241   238
 0.6341   252
 0.6441   240
 0.6541   235
 0.6641   241
 0.6741   253
 0.6841   256
 0.6941   231
 0.7041   243
 0.7141   235
 0.7241   221
 0.7341   219
 0.7441   221
 0.7541   228
 0.7641   231
 0.7741   232
 0.7841   224
 0.7941   220
 0.8041   213
 0.8141   202
 0.8241   216
 0.8341   226
 0.8441   230
 0.8541   213
 0.8641   208
 0.8741   223
 0.8841   216
 0.8941   207
 0.9041   205
 0.9141   203
 0.9241   224
 0.9341   220
 0.9441   202
 0.9541   222
 0.9641   217
 0.9741   209
 0.9841   228
 0.9941   213
 1.0041   222
 1.0141   222
 1.0241   239
 1.0341   211
 1.0441   221
 1.0541   191
 1.0641   210
 1.0741   213
 1.0841   200
 1.0941   184
 1.1041   212
 1.1141   229
 1.1241   210
 1.1341   207
 1.1441   201
 1.1541   204
 1.1641   200
 1.1741   190
 1.1841   199
 1.1941   212
 1.2041   231
 1.2141   222
 1.2241   201
 1.2341   197
 1.2441   170
 1.2541   194
 1.2641   189
 1.2741   202
 1.2841   187
 1.2941   173
 1.3041   190
 1.3141   193
 1.3241   190
 1.3341   175
 1.3441   167
 1.3541   177
 1.3641   162
 1.3741   174
 1.3841   181
 1.3941   185
 1.4041   183
 1.4141   182
 1.4241   171
 1.4341   181
 1.4441   178
 1.4541   160
 1.4641   181
 1.4741   177
 1.4841   174
 1.4941   176
 1.5041   160
 1.5141   178
 1.5241   167
 1.5341   166
 1.5441   165
 1.5541   176
 1.5641   201
 1.5741   183
 1.5841   174
 1.5941   200
 1.6041   172
 1.6141   196
 1.6241   176
 1.6341   175
 1.6441   183
 1.6541   208
 1.6641   239
 1.6741   306
 1.6841   376
 1.6941   445
 1.7041   556
 1.7141   611
 1.7241   729
 1.7341   736
 1.7441   728
 1.7541   671
 1.7641   587
 1.7741   482
 1.7841   451
 1.7941   378
 1.8041   332
 1.8141   280
 1.8241   255
 1.8341   222
 1.8441   221
 1.8541   219
 1.8641   199
 1.8741   208
 1.8841   185
 1.8941   181
 1.9041   181
 1.9141   188
 1.9241   167
 1.9341   203
 1.9441   186
 1.9541   181
 1.9641   223
 1.9741   201
 1.9841   214
 1.9941   210
 2.0041   229
 2.0141   214
 2.0241   194
 2.0341   214
 2.0441   196
 2.0541   211
 2.0641   212
 2.0741   191
 2.0841   182
 2.0941   169
 2.1041   156
 2.1141   169
 2.1241   157
 2.1341   138
 2.1441   147
 2.1541   148
 2.1641   164
 2.1741   159
 2.1841   170
 2.1941   158
 2.2041   156
 2.2141   145
 2.2241   141
 2.2341   166
 2.2441   139
 2.2541   152
 2.2641   132
 2.2741   154
 2.2841   148
 2.2941   153
 2.3041   143
 2.3141   166
 2.3241   143
 2.3341   138
 2.3441   128
 2.3541   123
 2.3641   131
 2.3741   143
 2.3841   152
 2.3941   150
 2.4041   139
 2.4141   146
 2.4241   161
 2.4341   133
 2.4441   150
 2.4541   138
 2.4641   145
 2.4741   140
 2.4841   143
 2.4941   152
 2.5041   131
 2.5141   128
 2.5241   125
 2.5341   131
 2.5441   144
 2.5541   146
 2.5641   144
 2.5741   126
 2.5841   135
 2.5941   134
 2.6041   154
 2.6141   104
 2.6241   128
 2.6341   144
 2.6441   132
 2.6541   108
 2.6641   130
 2.6741   137
 2.6841   129
 2.6941   119
 2.7041   123
 2.7141   120
 2.7241   106
 2.7341   138
 2.7441   141
 2.7541   126
 2.7641   144
 2.7741   125
 2.7841   128
 2.7941   124
 2.8041   124
 2.8141   153
 2.8241   144
 2.8341   143
 2.8441   146
 2.8541   138
 2.8641   137
 2.8741   116
 2.8841   127
 2.8941   155
 2.9041   126
 2.9141   133
 2.9241   115
 2.9341   105
 2.9441   121
 2.9541   129
 2.9641   119
 2.9741   104
 2.9841   126
 2.9941   120
 3.0041   130
 3.0141   112
 3.0241   113
 3.0341   108
 3.0441   130
 3.0541   107
 3.0641   119
 3.0741   107
 3.0841   118
 3.0941   104
 3.1041    92
 3.1141   113
 3.1241   130
 3.1341   121
 3.1441   108
 3.1541    99
 3.1641   101
 3.1741   115
 3.1841   109
 3.1941   124
 3.2041   135
 3.2141   117
 3.2241   120
 3.2341   140
 3.2441   148
 3.2541   145
 3.2641   187
 3.2741   197
 3.2841   195
 3.2941   201
 3.3041   234
 3.3141   205
 3.3241   211
 3.3341   187
 3.3441   187
 3.3541   180
 3.3641   166
 3.3741   155
 3.3841   127
 3.3941   136
 3.4041   121
 3.4141   119
 3.4241   118
 3.4341    92
 3.4441    84
 3.4541   105
 3.4641    99
 3.4741   108
 3.4841   100
 3.4941   107
 3.5041   104
 3.5141   111
 3.5241   110
 3.5341   129
 3.5441   123
 3.5541   136
 3.5641   157
 3.5741   184
 3.5841   214
 3.5941   284
 3.6041   310
 3.6141   411
 3.6241   510
 3.6341   646
 3.6441   694
 3.6541   884
 3.6641   917
 3.6741  1022
 3.6841  1072
 3.6941  1095
 3.7041  1033
 3.7141   938
 3.7241   841
 3.7341   712
 3.7441   606
 3.7541   458
 3.7641   405
 3.7741   297
 3.7841   227
 3.7941   185
 3.8041   126
 3.8141   122
 3.8241   120
 3.8341    83
 3.8441   100
 3.8541    98
 3.8641    98
 3.8741   102
 3.8841   106
 3.8941    80
 3.9041    90
 3.9141    98
 3.9241   106
 3.9341   129
 3.9441   133
 3.9541   151
 3.9641   171
 3.9741   174
 3.9841   201
 3.9941   204
 4.0041   199
 4.0141   212
 4.0241   214
 4.0341   195
 4.0441   187
 4.0541   175
 4.0641   155
 4.0741   125
 4.0841   124
 4.0941   115
 4.1041   114
 4.1141    85
 4.1241    84
 4.1341    95
 4.1441    77
 4.1541    83
 4.1641    76
 4.1741    85
 4.1841    76
 4.1941    79
 4.2041    90
 4.2141    76
 4.2241    60
 4.2341    66
 4.2441    73
 4.2541    89
 4.2641    75
 4.2741    72
 4.2841    92
 4.2941    72
 4.3041    81
 4.3141    71
 4.3241    91
 4.3341    69
 4.3441    89
 4.3541   100
 4.3641    79
 4.3741   110
 4.3841   103
 4.3941   132
 4.4041   159
 4.4141   180
 4.4241   217
 4.4341   277
 4.4441   336
 4.4541   397
 4.4641   439
 4.4741   469
 4.4841   577
 4.4941   579
 4.5041   601
 4.5141   565
 4.5241   564
 4.5341   559
 4.5441   459
 4.5541   428
 4.5641   380
 4.5741   298
 4.5841   233
 4.5941   239
 4.6041   178
 4.6141   153
 4.6241   118
 4.6341   108
 4.6441    88
 4.6541   105
 4.6641   104
 4.6741    89
 4.6841    98
 4.6941   101
 4.7041    84
 4.7141    65
 4.7241    79
 4.7341    81
 4.7441    81
 4.7541    83
 4.7641    75
 4.7741    77
 4.7841    89
 4.7941   113
 4.8041    90
 4.8141    96
 4.8241    92
 4.8341   123
 4.8441   129
 4.8541   145
 4.8641   133
 4.8741   140
 4.8841   180
 4.8941   184
 4.9041   198
 4.9141   177
 4.9241   192
 4.9341   222
 4.9441   210
 4.9541   187
 4.9641   178
 4.9741   176
 4.9841   140
 4.9941   145
 5.0041   136
 5.0141   116
 5.0241   110
 5.0341   109
 5.0441   102
 5.0541   101
 5.0641    87
 5.0741    94
 5.0841    97
 5.0941    93
 5.1041   104
 5.1141    84
 5.1241    94
 5.1341    86
 5.1441    91
 5.1541    83
 5.1641    85
 5.1741    80
 5.1841   108
 5.1941    92
 5.2041   106
 5.2141   109
 5.2241    92
 5.2341   101
 5.2441    79
 5.2541    99
 5.2641    98
 5.2741   108
 5.2841    99
 5.2941    95
 5.3041   119
 5.3141   121
 5.3241   120
 5.3341   103
 5.3441   118
 5.3541   137
 5.3641   147
 5.3741   174
 5.3841   161
 5.3941   156
 5.4041   169
 5.4141   185
 5.4241   185
 5.4341   170
 5.4441   189
 5.4541   141
 5.4641   154
 5.4741   139
 5.4841   130
 5.4941   125
 5.5041   102
 5.5141   111
 5.5241    98
 5.5341   104
 5.5441    94
 5.5541   103
 5.5641    91
 5.5741    99
 5.5841    99
 5.5941    88
 5.6041    82
 5.6141    97
 5.6241    89
 5.6341    99
 5.6441   108
 5.6541   104
 5.6641    87
 5.6741    98
 5.6841   102
 5.6941    89
 5.7041   114
 5.7141    93
 5.7241   129
 5.7341   109
 5.7441   119
 5.7541   136
 5.7641   158
 5.7741   164
 5.7841   206
 5.7941   233
 5.8041   276
 5.8141   314
 5.8241   345
 5.8341   416
 5.8441   497
 5.8541   502
 5.8641   600
 5.8741   563
 5.8841   629
 5.8941   643
 5.9041   667
 5.9141   629
 5.9241   600
 5.9341   514
 5.9441   473
 5.9541   414
 5.9641   348
 5.9741   345
 5.9841   295
 5.9941   234
 6.0041   207
 6.0141   197
 6.0241   187
 6.0341   156
 6.0441   130
 6.0541   162
 6.0641   151
 6.0741   153
 6.0841   154
 6.0941   138
 6.1041   160
 6.1141   140
 6.1241   163
 6.1341   168
 6.1441   163
 6.1541   194
 6.1641   203
 6.1741   225
 6.1841   239
 6.1941   287
 6.2041   375
 6.2141   518
 6.2241   663
 6.2341   909
 6.2441  1237
 6.2541  1735
 6.2641  2451
 6.2741  3491
 6.2841  4479
 6.2941  6092
 6.3041  7651
 6.3141  9819
 6.3241 12156
 6.3341 14471
 6.3441 17080
 6.3541 19458
 6.3641 21190
 6.3741 23138
 6.3841 24649
 6.3941 24993
 6.4041 24769
 6.4141 24129
 6.4241 22804
 6.4341 20463
 6.4441 18406
 6.4541 16015
 6.4641 13560
 6.4741 11136
 6.4841  8809
 6.4941  6975
 6.5041  5173
 6.5141  3986
 6.5241  2837
 6.5341  2030
 6.5441  1511
 6.5541  1054
 6.5641   735
 6.5741   508
 6.5841   386
 6.5941   307
 6.6041   238
 6.6141   197
 6.6241   194
 6.6341   184
 6.6441   164
 6.6541   178
 6.6641   174
 6.6741   153
 6.6841   168
 6.6941   172
 6.7041   160
 6.7141   172
 6.7241   183
 6.7341   183
 6.7441   164
 6.7541   185
 6.7641   201
 6.7741   176
 6.7841   192
 6.7941   218
 6.8041   214
 6.8141   227
 6.8241   230
 6.8341   258
 6.8441   257
 6.8541   290
 6.8641   319
 6.8741   360
 6.8841   392
 6.8941   493
 6.9041   560
 6.9141   653
 6.9241   791
 6.9341  1008
 6.9441  1316
 6.9541  1501
 6.9641  1875
 6.9741  2166
 6.9841  2482
 6.9941  2973
 7.0041  3218
 7.0141  3610
 7.0241  3939
 7.0341  4153
 7.0441  4165
 7.0541  4223
 7.0641  4269
 7.0741  4079
 7.0841  3870
 7.0941  3416
 7.1041  3145
 7.1141  2660
 7.1241  2371
 7.1341  1982
 7.1441  1685
 7.1541  1297
 7.1641  1099
 7.1741   880
 7.1841   703
 7.1941   500
 7.2041   447
 7.2141   350
 7.2241   296
 7.2341   257
 7.2441   248
 7.2541   218
 7.2641   207
 7.2741   212
 7.2841   219
 7.2941   212
 7.3041   207
 7.3141   225
 7.3241   232
 7.3341   231
 7.3441   259
 7.3541   283
 7.3641   283
 7.3741   299
 7.3841   332
 7.3941   312
 7.4041   333
 7.4141   351
 7.4241   335
 7.4341   352
 7.4441   364
 7.4541   391
 7.4641   343
 7.4741   368
 7.4841   349
 7.4941   353
 7.5041   304
 7.5141   307
 7.5241   290
 7.5341   300
 7.5441   251
 7.5541   233
 7.5641   220
 7.5741   214
 7.5841   215
 7.5941   224
 7.6041   217
 7.6141   196
 7.6241   210
 7.6341   234
 7.6441   203
 7.6541   198
 7.6641   217
 7.6741   199
 7.6841   215
 7.6941   216
 7.7041   223
 7.7141   254
 7.7241   206
 7.7341   232
 7.7441   216
 7.7541   228
 7.7641   246
 7.7741   262
 7.7841   272
 7.7941   269
 7.8041   286
 7.8141   256
 7.8241   298
 7.8341   287
 7.8441   308
 7.8541   282
 7.8641   284
 7.8741   327
 7.8841   312
 7.8941   340
 7.9041   340
 7.9141   369
 7.9241   360
 7.9341   404
 7.9441   410
 7.9541   433
 7.9641   479
 7.9741   523
 7.9841   539
 7.9941   583
 8.0041   618
 8.0141   644
 8.0241   707
 8.0341   751
 8.0441   825
 8.0541   864
 8.0641   909
 8.0741   969
 8.0841  1045
 8.0941  1121
 8.1041  1162
 8.1141  1129
 8.1241  1254
 8.1341  1247
 8.1441  1260
 8.1541  1314
 8.1641  1385
 8.1741  1401
 8.1841  1362
 8.1941  1387
 8.2041  1492
 8.2141  1423
 8.2241  1509
 8.2341  1526
 8.2441  1542
 8.2541  1619
 8.2641  1682
 8.2741  1748
 8.2841  1971
 8.2941  2093
 8.3041  2217
 8.3141  2475
 8.3241  2662
 8.3341  2857
 8.3441  3007
 8.3541  3189
 8.3641  3315
 8.3741  3415
 8.3841  3531
 8.3941  3570
 8.4041  3440
 8.4141  3366
 8.4241  3182
 8.4341  2923
 8.4441  2713
 8.4541  2428
 8.4641  2136
 8.4741  1918
 8.4841  1642
 8.4941  1394
 8.5041  1200
 8.5141  1012
 8.5241   861
 8.5341   800
 8.5441   649
 8.5541   618
 8.5641   587
 8.5741   503
 8.5841   556
 8.5941   488
 8.6041   486
 8.6141   503
 8.6241   500
 8.6341   525
 8.6441   508
 8.6541   456
 8.6641   466
 8.6741   468
 8.6841   461
 8.6941   429
 8.7041   441
 8.7141   396
 8.7241   423
 8.7341   375
 8.7441   354
 8.7541   351
 8.7641   341
 8.7741   382
 8.7841   346
 8.7941   325
 8.8041   330
 8.8141   307
 8.8241   338
 8.8341   324
 8.8441   339
 8.8541   314
 8.8641   310
 8.8741   305
 8.8841   344
 8.8941   318
 8.9041   321
 8.9141   352
 8.9241   345
 8.9341   336
 8.9441   324
 8.9541   369
 8.9641   374
 8.9741   368
 8.9841   370
 8.9941   374
 9.0041   371
 9.0141   362
 9.0241   429
 9.0341   412
 9.0441   420
 9.0541   410
 9.0641   429
 9.0741   411
 9.0841   473
 9.0941   491
 9.1041   534
 9.1141   514
 9.1241   536
 9.1341   531
 9.1441   568
 9.1541   608
 9.1641   590
 9.1741   656
 9.1841   700
 9.1941   718
 9.2041   696
 9.2141   758
 9.2241   819
 9.2341   850
 9.2441   910
 9.2541   894
 9.2641   905
 9.2741   994
 9.2841  1034
 9.2941  1160
 9.3041  1132
 9.3141  1167
 9.3241  1239
 9.3341  1252
 9.3441  1227
 9.3541  1280
 9.3641  1344
 9.3741  1332
 9.3841  1357
 9.3941  1396
 9.4041  1384
 9.4141  1398
 9.4241  1535
 9.4341  1496
 9.4441  1539
 9.4541  1518
 9.4641  1523
 9.4741  1567
 9.4841  1611
 9.4941  1683
 9.5041  1750
 9.5141  1738
 9.5241  1666
 9.5341  1834
 9.5441  1975
 9.5541  2015
 9.5641  2195
 9.5741  2283
 9.5841  2445
 9.5941  2582
 9.6041  2661
 9.6141  2775
 9.6241  2917
 9.6341  3026
 9.6441  3054
 9.6541  3210
 9.6641  3190
 9.6741  3115
 9.6841  3128
 9.6941  3040
 9.7041  2890
 9.7141  2656
 9.7241  2526
 9.7341  2458
 9.7441  2292
 9.7541  2080
 9.7641  1914
 9.7741  1813
 9.7841  1584
 9.7941  1558
 9.8041  1479
 9.8141  1400
 9.8241  1283
 9.8341  1270
 9.8441  1232
 9.8541  1268
 9.8641  1278
 9.8741  1283
 9.8841  1285
 9.8941  1332
 9.9041  1355
 9.9141  1409
 9.9241  1447
 9.9341  1474
 9.9441  1426
 9.9541  1429
 9.9641  1460
 9.9741  1380
 9.9841  1360
 9.9941  1303
10.0041  1167
10.0141  1027
10.0241   989
10.0341   944
10.0441   806
10.0541   738
10.0641   659
10.0741   610
10.0841   549
10.0941   510
10.1041   433
10.1141   400
10.1241   370
10.1341   326
10.1441   297
10.1541   321
10.1641   301
10.1741   240
10.1841   261
10.1941   257
10.2041   241
10.2141   232
10.2241   221
10.2341   205
10.2441   223
10.2541   218
10.2641   220
10.2741   193
10.2841   194
10.2941   193
10.3041   203
10.3141   194
10.3241   183
10.3341   176
10.3441   195
10.3541   194
10.3641   182
10.3741   186
10.3841   190
10.3941   168
10.4041   175
10.4141   174
10.4241   185
10.4341   185
10.4441   184
10.4541   199
10.4641   206
10.4741   207
10.4841   192
10.4941   211
10.5041   222
10.5141   212
10.5241   216
10.5341   207
10.5441   212
10.5541   203
10.5641   225
10.5741   225
10.5841   204
10.5941   208
10.6041   206
10.6141   218
10.6241   210
10.6341   236
10.6441   226
10.6541   202
10.6641   202
10.6741   211
10.6841   233
10.6941   225
10.7041   230
10.7141   265
10.7241   242
10.7341   241
10.7441   262
10.7541   266
10.7641   272
10.7741   270
10.7841   275
10.7941   259
10.8041   293
10.8141   292
10.8241   287
10.8341   279
10.8441   293
10.8541   297
10.8641   310
10.8741   300
10.8841   316
10.8941   321
10.9041   302
10.9141   299
10.9241   321
10.9341   323
10.9441   296
10.9541   317
10.9641   310
10.9741   311
10.9841   298
10.9941   300
11.0041   293
11.0141   297
11.0241   308
11.0341   299
11.0441   277
11.0541   281
11.0641   276
11.0741   270
11.0841   276
11.0941   275
11.1041   248
11.1141   277
11.1241   312
11.1341   301
11.1441   293
11.1541   309
11.1641   311
11.1741   324
11.1841   366
11.1941   351
11.2041   347
11.2141   365
11.2241   390
11.2341   392
11.2441   410
11.2541   430
11.2641   436
11.2741   460
11.2841   450
11.2941   441
11.3041   437
11.3141   432
11.3241   402
11.3341   393
11.3441   377
11.3541   371
11.3641   332
11.3741   309
11.3841   311
11.3941   298
11.4041   275
11.4141   289
11.4241   264
11.4341   228
11.4441   228
11.4541   232
11.4641   224
11.4741   221
11.4841   224
11.4941   221
11.5041   226
11.5141   239
11.5241   253
11.5341   241
11.5441   211
11.5541   233
11.5641   244
11.5741   245
11.5841   242
11.5941   240
11.6041   240
11.6141   258
11.6241   233
11.6341   220
11.6441   223
11.6541   223
11.6641   231
11.6741   220
11.6841   227
11.6941   224
11.7041   217
11.7141   198
11.7241   209
11.7341   198
11.7441   197
11.7541   196
11.7641   203
11.7741   199
11.7841   183
11.7941   169
11.8041   162
11.8141   185
11.8241   191
11.8341   182
11.8441   186
11.8541   175
11.8641   171
11.8741   175
11.8841   179
11.8941   195
11.9041   198
11.9141   183
11.9241   190
11.9341   170
11.9441   163
11.9541   193
11.9641   193
11.9741   178
11.9841   191
11.9941   196
12.0041   182
12.0141   163
12.0241   165
12.0341   180
12.0441   176
12.0541   165
12.0641   173
12.0741   170
12.0841   175
12.0941   172
12.1041   162
12.1141   150
12.1241   160
12.1341   186
12.1441   180
12.1541   181
12.1641   163
12.1741   150
12.1841   139
12.1941   153
12.2041   170
12.2141   159
12.2241   149
12.2341   168
12.2441   176
12.2541   165
12.2641   173
12.2741   176
12.2841   171
12.2941   172
12.3041   164
12.3141   170
12.3241   168
12.3341   170
12.3441   163
12.3541   180
12.3641   186
12.3741   179
12.3841   177
12.3941   162
12.4041   175
12.4141   164
12.4241   170
12.4341   175
12.4441   165
12.4541   161
12.4641   164
12.4741   178
12.4841   195
12.4941   184
12.5041   169
12.5141   173
12.5241   175
12.5341   173
12.5441   174
12.5541   165
12.5641   183
12.5741   188
12.5841   188
12.5941   194
12.6041   184
12.6141   181
12.6241   186
12.6341   174
12.6441   168
12.6541   167
12.6641   166
12.6741   173
12.6841   176
12.6941   168
12.7041   164
12.7141   168
12.7241   178
12.7341   188
12.7441   189
12.7541   180
12.7641   183
12.7741   196
12.7841   197
12.7941   188
12.8041   184
12.8141   186
12.8241   187
12.8341   183
12.8441   183
12.8541   185
12.8641   188
12.8741   195
12.8841   202
12.8941   206
12.9041   211
12.9141   212
12.9241   209
12.9341   206
12.9441   203
12.9541   200
12.9641   202
12.9741   205
12.9841   190
12.9941   196
13.0041   216
13.0141   212
13.0241   199
13.0341   199
13.0441   197
13.0541   185
13.0641   191
13.0741   196
13.0841   207
13.0941   199
13.1041   199
13.1141   209
13.1241   207
13.1341   202
13.1441   192
13.1541   198
13.1641   204
13.1741   211
13.1841   220
13.1941   223
13.2041   230
13.2141   216
13.2241   224
13.2341   233
13.2441   228
13.2541   259
13.2641   270
13.2741   252
13.2841   263
13.2941   276
13.3041   279
13.3141   288
13.3241   294
13.3341   277
13.3441   277
13.3541   291
13.3641   293
13.3741   300
13.3841   308
13.3941   308
13.4041   301
13.4141   293
13.4241   293
13.4341   296
13.4441   295
13.4541   293
13.4641   285
13.4741   276
13.4841   275
13.4941   271
13.5041   265
13.5141   255
13.5241   244
13.5341   239
13.5441   241
13.5541   248
13.5641   253
13.5741   251
13.5841   249
13.5941   241
13.6041   229
13.6141   224
13.6241   227
13.6341   216
13.6441   227
13.6541   253
13.6641   248
13.6741   253
13.6841   259
13.6941   244
13.7041   246
13.7141   255
13.7241   248
13.7341   234
13.7441   242
13.7541   248
13.7641   247
13.7741   250
13.7841   252
13.7941   240
13.8041   234
13.8141   250
13.8241   261
13.8341   256
13.8441   250
13.8541   257
13.8641   266
13.8741   259
13.8841   246
13.8941   246
13.9041   254
13.9141   263
13.9241   265
13.9341   267
13.9441   276
13.9541   281
13.9641   276
13.9741   272
13.9841   275
13.9941   280
14.0041   285
14.0141   294
14.0241   305
14.0341   319
14.0441   325
14.0541   317
14.0641   314
14.0741   321
14.0841   330
14.0941   335
14.1041   334
14.1141   332
14.1241   333
14.1341   338
14.1441   349
14.1541   358
14.1641   358
14.1741   354
14.1841   353
14.1941   346
14.2041   336
14.2141   320
14.2241   323
14.2341   328
14.2441   306
14.2541   295
14.2641   295
14.2741   296
14.2841   303
14.2941   319
14.3041   317
14.3141   304
14.3241   301
14.3341   285
14.3441   275
14.3541   295
14.3641   288
14.3741   259
14.3841   269
14.3941   288
14.4041   282
14.4141   283
14.4241   287
14.4341   283
14.4441   300
14.4541   311
14.4641   305
14.4741   288
14.4841   292
14.4941   297
14.5041   297
14.5141   300
14.5241   300
14.5341   305
14.5441   305
14.5541   299
14.5641   302
14.5741   297
14.5841   289
14.5941   300
14.6041   316
14.6141   311
14.6241   279
14.6341   277
14.6441   293
14.6541   311
14.6641   304
14.6741   284
14.6841   289
14.6941   304
14.7041   305
14.7141   295
14.7241   313
14.7341   311
14.7441   292
14.7541   313
14.7641   335
14.7741   332
14.7841   349
14.7941   341
14.8041   315
14.8141   311
14.8241   330
14.8341   330
14.8441   318
14.8541   338
14.8641   352
14.8741   373
14.8841   363
14.8941   347
14.9041   364
14.9141   365
14.9241   361
14.9341   384
14.9441   395
14.9541   382
14.9641   370
14.9741   357
14.9841   347
14.9941   364
15.0041   367
15.0141   363
15.0241   363
15.0341   368
15.0441   347
15.0541   340
15.0641   329
15.0741   322
15.0841   331
15.0941   344
15.1041   346
15.1141   345
15.1241   331
15.1341   323
15.1441   323
15.1541   320
15.1641   346
15.1741   348
15.1841   323
15.1941   323
15.2041   352
15.2141   355
15.2241   349
15.2341   356
15.2441   348
15.2541   356
15.2641   346
15.2741   322
15.2841   340
15.2941   334
15.3041   335
15.3141   329
15.3241   340
15.3341   349
15.3441   351
15.3541   348
15.3641   344
15.3741   351
15.3841   340
15.3941   355
15.4041   381
15.4141   364
15.4241   360
15.4341   370
15.4441   366
15.4541   340
15.4641   349
15.4741   367
15.4841   383
15.4941   396
15.5041   395
15.5141   416
15.5241   418
15.5341   417
15.5441   427
15.5541   436
15.5641   445
15.5741   479
15.5841   510
15.5941   517
15.6041   572
15.6141   611
15.6241   630
15.6341   645
15.6441   677
15.6541   703
15.6641   728
15.6741   748
15.6841   814
15.6941   848
15.7041   839
15.7141   842
15.7241   891
15.7341   894
15.7441   895
15.7541   882
15.7641   893
15.7741   875
15.7841   876
15.7941   874
15.8041   828
15.8141   786
15.8241   758
15.8341   734
15.8441   713
15.8541   683
15.8641   663
15.8741   655
15.8841   634
15.8941   622
15.9041   575
15.9141   526
15.9241   486
15.9341   458
15.9441   470
15.9541   465
15.9641   448
15.9741   451
15.9841   438
15.9941   431
16.0041   405
16.0141   400
16.0241   416
16.0341   400
16.0441   414
16.0541   419
16.0641   410
16.0741   392
16.0841   388
16.0941   393
16.1041   435
16.1141   434
16.1241   437
16.1341   416
16.1441   396
16.1541   397
16.1641   434
16.1741   434
16.1841   406
16.1941   409
16.2041   408
16.2141   396
16.2241   404
16.2341   411
16.2441   411
16.2541   404
16.2641   416
16.2741   423
16.2841   414
16.2941   433
16.3041   426
16.3141   423
16.3241   403
16.3341   405
16.3441   412
16.3541   438
16.3641   426
16.3741   423
16.3841   430
16.3941   417
16.4041   398
16.4141   420
16.4241   447
16.4341   446
16.4441   425
16.4541   418
16.4641   430
16.4741   425
16.4841   439
16.4941   440
16.5041   438
16.5141   443
16.5241   449
16.5341   438
16.5441   453
16.5541   465
16.5641   463
16.5741   455
16.5841   451
16.5941   471
16.6041   485
16.6141   482
16.6241   477
16.6341   488
16.6441   464
16.6541   467
16.6641   462
16.6741   425
16.6841   440
16.6941   474
16.7041   473
16.7141   496
16.7241   509
16.7341   444
16.7441   444
16.7541   468
16.7641   454
16.7741   450
16.7841   456
16.7941   433
16.8041   464
16.8141   480
16.8241   442
16.8341   423
16.8441   435
16.8541   451
16.8641   444
16.8741   471
16.8841   486
16.8941   478
16.9041   484
16.9141   486
16.9241   473
16.9341   479
16.9441   489
16.9541   487
16.9641   500
16.9741   512
16.9841   528
16.9941   487
17.0041   435
17.0141   450
17.0241   460
17.0341   465
17.0441   454
17.0541   473
17.0641   467
17.0741   468
17.0841   493
17.0941   496
17.1041   485
17.1141   482
17.1241   473
17.1341   481
17.1441   475
17.1541   506
17.1641   500
17.1741   475
17.1841   471
17.1941   481
17.2041   487
17.2141   492
17.2241   471
17.2341   472
17.2441   483
17.2541   468
17.2641   464
17.2741   518
17.2841   533
17.2941   473
17.3041   483
17.3141   505
17.3241   529
17.3341   468
17.3441   471
17.3541   506
17.3641   526
17.3741   478
17.3841   501
17.3941   484
17.4041   513
17.4141   534
17.4241   497
17.4341   496
17.4441   511
17.4541   509
17.4641   515
17.4741   521
17.4841   498
17.4941   552
17.5041   533
17.5141   492
17.5241   517
17.5341   568
17.5441   560
17.5541   578
17.5641   581
17.5741   563
17.5841   554
17.5941   553
17.6041   575
17.6141   576
17.6241   588
17.6341   574
17.6441   573
17.6541   593
17.6641   604
17.6741   579
17.6841   604
17.6941   600
17.7041   606
17.7141   600
17.7241   605
17.7341   572
17.7441   570
17.7541   540
17.7641   558
17.7741   536
17.7841   555
17.7941   545
17.8041   555
17.8141   546
17.8241   564
17.8341   559
17.8441   548
17.8541   522
17.8641   530
17.8741   530
17.8841   543
17.8941   513
17.9041   495
17.9141   526
17.9241   578
17.9341   591
17.9441   564
17.9541   572
17.9641   569
17.9741   536
17.9841   534
17.9941   562
18.0041   550
18.0141   567
18.0241   543
18.0341   557
18.0441   523
18.0541   547
18.0641   582
18.0741   579
18.0841   553
18.0941   532
18.1041   562
18.1141   533
18.1241   558
18.1341   543
18.1441   533
18.1541   563
18.1641   553
18.1741   532
18.1841   531
18.1941   526
18.2041   545
18.2141   529
18.2241   520
18.2341   562
18.2441   545
18.2541   547
18.2641   541
18.2741   529
18.2841   545
18.2941   546
18.3041   588
18.3141   574
18.3241   573
18.3341   601
18.3441   565
18.3541   554
18.3641   547
18.3741   566
18.3841   564
18.3941   573
18.4041   559
18.4141   550
18.4241   583
18.4341   570
18.4441   566
18.4541   555
18.4641   546
18.4741   557
18.4841   551
18.4941   548
18.5041   554
18.5141   545
18.5241   595
18.5341   577
18.5441   574
18.5541   572
18.5641   569
18.5741   575
18.5841   544
18.5941   594
18.6041   594
18.6141   588
18.6241   579
18.6341   573
18.6441   580
18.6541   571
18.6641   548
18.6741   570
18.6841   579
18.6941   578
18.7041   596
18.7141   552
18.7241   566
18.7341   610
18.7441   579
18.7541   577
18.7641   547
18.7741   545
18.7841   609
18.7941   616
18.8041   614
18.8141   566
18.8241   572
18.8341   587
18.8441   630
18.8541   583
18.8641   562
18.8741   573
18.8841   558
18.8941   559
18.9041   600
18.9141   589
18.9241   605
18.9341   634
18.9441   637
18.9541   589
18.9641   600
18.9741   610
18.9841   620
18.9941   585
19.0041   605
19.0141   593
19.0241   598
19.0341   593
19.0441   588
19.0541   571
19.0641   551
19.0741   577
19.0841   590
19.0941   591
19.1041   594
19.1141   608
19.1241   589
19.1341   588
19.1441   576
19.1541   624
19.1641   601
19.1741   598
19.1841   574
19.1941   603
19.2041   635
19.2141   591
19.2241   616
19.2341   606
19.2441   597
19.2541   619
19.2641   583
19.2741   592
19.2841   611
19.2941   600
19.3041   599
19.3141   617
19.3241   563
19.3341   638
19.3441   613
19.3541   599
19.3641   611
19.3741   612
19.3841   596
19.3941   610
19.4041   639
19.4141   615
19.4241   625
19.4341   618
19.4441   611
19.4541   616
19.4641   610
19.4741   651
19.4841   634
19.4941   598
19.5041   593
19.5141   608
19.5241   583
19.5341   616
19.5441   612
19.5541   616
19.5641   625
19.5741   623
19.5841   606
19.5941   602
19.6041   619
19.6141   599
19.6241   623
19.6341   598
19.6441   597
19.6541   611
19.6641   619
19.6741   617
19.6841   599
19.6941   625
19.7041   648
19.7141   646
19.7241   596
19.7341   622
19.7441   638
19.7541   633
19.7641   635
19.7741   629
19.7841   616
19.7941   585
19.8041   609
19.8141   622
19.8241   607
19.8341   604
19.8441   609
19.8541   599
19.8641   637
19.8741   636
19.8841   634
19.8941   648
19.9041   623
19.9141   638
19.9241   616
19.9341   602
19.9441   605
19.9541   601
19.9641   604
19.9741   628
19.9841   633
19.9941   604
20.0041   655
20.0141   648
20.0241   603
20.0341   600
20.0441   583
20.0541   606
20.0641   645
20.0741   643
20.0841   633
20.0941   647
20.1041   629
20.1141   629
20.1241   581
20.1341   653
20.1441   657
20.1541   616
20.1641   612
20.1741   638
20.1841   580
20.1941   547
20.2041   607
20.2141   600
20.2241   618
20.2341   597
20.2441   631
20.2541   640
20.2641   624
20.2741   624
20.2841   619
20.2941   620
20.3041   622
20.3141   644
20.3241   606
20.3341   611
20.3441   655
20.3541   622
20.3641   613
20.3741   609
20.3841   614
20.3941   634
20.4041   613
20.4141   621
20.4241   614
20.4341   586
20.4441   615
20.4541   659
20.4641   644
20.4741   648
20.4841   614
20.4941   585
20.5041   640
20.5141   626
20.5241   606
20.5341   597
20.5441   653
20.5541   652
20.5641   654
20.5741   649
20.5841   636
20.5941   617
20.6041   578
20.6141   656
20.6241   622
20.6341   630
20.6441   616
20.6541   596
20.6641   633
20.6741   646
20.6841   642
20.6941   658
20.7041   630
20.7141   655
20.7241   661
20.7341   622
20.7441   604
20.7541   621
20.7641   662
20.7741   606
20.7841   635
20.7941   661
20.8041   690
20.8141   633
20.8241   656
20.8341   653
20.8441   636
20.8541   692
20.8641   701
20.8741   720
20.8841   682
20.8941   688
20.9041   707
20.9141   678
20.9241   739
20.9341   771
20.9441   760
20.9541   770
20.9641   788
20.9741   817
20.9841   797
20.9941   803
21.0041   831
21.0141   855
21.0241   883
21.0341   812
21.0441   845
21.0541   845
21.0641   868
21.0741   913
21.0841   889
21.0941   890
21.1041   884
21.1141   885
21.1241   957
21.1341   907
21.1441   865
21.1541   947
21.1641   940
21.1741   889
21.1841   927
21.1941   930
21.2041   870
21.2141   896
21.2241   872
21.2341   862
21.2441   787
21.2541   832
21.2641   770
21.2741   715
21.2841   768
21.2941   735
21.3041   743
21.3141   724
21.3241   710
21.3341   695
21.3441   681
21.3541   677
21.3641   719
21.3741   684
21.3841   673
21.3941   657
21.4041   631
21.4141   654
21.4241   627
21.4341   624
21.4441   659
21.4541   624
21.4641   619
21.4741   642
21.4841   658
21.4941   588
21.5041   649
21.5141   588
21.5241   619
21.5341   630
21.5441   599
21.5541   615
21.5641   644
21.5741   599
21.5841   596
21.5941   635
21.6041   650
21.6141   584
21.6241   633
21.6341   650
21.6441   593
21.6541   637
21.6641   638
21.6741   634
21.6841   669
21.6941   654
21.7041   645
21.7141   634
21.7241   596
21.7341   603
21.7441   629
21.7541   656
21.7641   623
21.7741   645
21.7841   642
21.7941   602
21.8041   592
21.8141   647
21.8241   636
21.8341   659
21.8441   634
21.8541   590
21.8641   640
21.8741   601
21.8841   612
21.8941   620
21.9041   630
21.9141   591
21.9241   603
21.9341   645
21.9441   598
21.9541   691
21.9641   615
21.9741   641
21.9841   622
21.9941   590
22.0041   625
22.0141   665
22.0241   664
22.0341   620
22.0441   596
22.0541   609
22.0641   627
22.0741   636
22.0841   664
22.0941   662
22.1041   684
22.1141   594
22.1241   644
22.1341   584
22.1441   595
22.1541   640
22.1641   642
22.1741   591
22.1841   601
22.1941   614
22.2041   563
22.2141   585
22.2241   602
22.2341   633
22.2441   610
22.2541   597
22.2641   600
22.2741   624
22.2841   581
22.2941   626
22.3041   597
22.3141   603
22.3241   637
22.3341   600
22.3441   588
22.3541   569
22.3641   600
22.3741   608
22.3841   632
22.3941   642
22.4041   607
22.4141   553
22.4241   587
22.4341   639
22.4441   649
22.4541   610
22.4641   570
22.4741   634
22.4841   585
22.4941   614
22.5041   628
22.5141   617
22.5241   646
22.5341   628
22.5441   635
22.5541   588
22.5641   637
22.5741   598
22.5841   580
22.5941   615
22.6041   601
22.6141   608
22.6241   614
22.6341   576
22.6441   666
22.6541   623
22.6641   570
22.6741   641
22.6841   643
22.6941   587
22.7041   586
22.7141   639
22.7241   612
22.7341   612
22.7441   606
22.7541   630
22.7641   618
22.7741   618
22.7841   589
22.7941   630
22.8041   624
22.8141   565
22.8241   655
22.8341   569
22.8441   583
22.8541   646
22.8641   600
22.8741   641
22.8841   603
22.8941   596
22.9041   581
22.9141   594
22.9241   633
22.9341   580
22.9441   593
22.9541   611
22.9641   569
22.9741   572
22.9841   601
22.9941   611
23.0041   533
23.0141   599
23.0241   615
23.0341   613
23.0441   579
23.0541   594
23.0641   607
23.0741   579
23.0841   593
23.0941   575
23.1041   588
23.1141   576
23.1241   626
23.1341   591
23.1441   565
23.1541   600
23.1641   609
23.1741   551
23.1841   608
23.1941   576
23.2041   577
23.2141   564
23.2241   603
23.2341   585
23.2441   575
23.2541   562
23.2641   587
23.2741   615
23.2841   599
23.2941   590
23.3041   583
23.3141   598
23.3241   550
23.3341   562
23.3441   586
23.3541   559
23.3641   583
23.3741   561
23.3841   582
23.3941   545
23.4041   589
23.4141   554
23.4241   603
23.4341   603
23.4441   619
23.4541   550
23.4641   563
23.4741   625
23.4841   594
23.4941   587
23.5041   579
23.5141   602
23.5241   590
23.5341   551
23.5441   549
23.5541   598
23.5641   572
23.5741   581
23.5841   562
23.5941   603
23.6041   637
23.6141   610
23.6241   595
23.6341   571
23.6441   584
23.6541   623
23.6641   606
23.6741   596
23.6841   585
23.6941   584
23.7041   606
23.7141   594
23.7241   657
23.7341   619
23.7441   631
23.7541   625
23.7641   607
23.7741   630
23.7841   637
23.7941   646
23.8041   596
23.8141   562
23.8241   642
23.8341   618
23.8441   608
23.8541   610
23.8641   648
23.8741   644
23.8841   636
23.8941   577
23.9041   632
23.9141   622
23.9241   577
23.9341   583
23.9441   609
23.9541   610
23.9641   519
23.9741   546
23.9841   607
23.9941   580
24.0041   537
24.0141   561
24.0241   583
24.0341   605
24.0441   573
24.0541   601
24.0641   561
24.0741   507
24.0841   578
24.0941   540
24.1041   580
24.1141   509
24.1241   574
24.1341   555
24.1441   553
24.1541   548
24.1641   586
24.1741   555
24.1841   561
24.1941   578
24.2041   567
24.2141   524
24.2241   584
24.2341   571
24.2441   560
24.2541   542
24.2641   515
24.2741   531
24.2841   538
24.2941   552
24.3041   575
24.3141   561
24.3241   572
24.3341   593
24.3441   516
24.3541   544
24.3641   558
24.3741   575
24.3841   568
24.3941   523
24.4041   559
24.4141   529
24.4241   561
24.4341   541
24.4441   500
24.4541   569
24.4641   562
24.4741   547
24.4841   528
24.4941   528
24.5041   544
24.5141   543
24.5241   592
24.5341   569
24.5441   563
24.5541   582
24.5641   555
24.5741   550
24.5841   544
24.5941   559
24.6041   495
24.6141   556
24.6241   519
24.6341   517
24.6441   562
24.6541   546
24.6641   508
24.6741   509
24.6841   474
24.6941   501
24.7041   526
24.7141   497
24.7241   522
24.7341   548
24.7441   550
24.7541   495
24.7641   532
24.7741   544
24.7841   554
24.7941   525
24.8041   551
24.8141   544
24.8241   525
24.8341   533
24.8441   518
24.8541   505
24.8641   528
24.8741   556
24.8841   534
24.8941   549
24.9041   547
24.9141   499
24.9241   549
24.9341   567
24.9441   519
24.9541   526
24.9641   527
24.9741   554
24.9841   530
24.9941   487
25.0041   542
25.0141   526
25.0241   552
25.0341   533
25.0441   552
25.0541   561
25.0641   485
25.0741   520
25.0841   554
25.0941   548
25.1041   508
25.1141   532
25.1241   569
25.1341   521
25.1441   543
25.1541   498
25.1641   490
25.1741   530
25.1841   505
25.1941   503
25.2041   475
25.2141   492
25.2241   550
25.2341   550
25.2441   584
25.2541   521
25.2641   535
25.2741   508
25.2841   477
25.2941   484
25.3041   498
25.3141   519
25.3241   507
25.3341   538
25.3441   534
25.3541   569
25.3641   546
25.3741   520
25.3841   508
25.3941   485
25.4041   541
25.4141   535
25.4241   545
25.4341   512
25.4441   535
25.4541   521
25.4641   507
25.4741   499
25.4841   485
25.4941   494
25.5041   517
25.5141   512
25.5241   504
25.5341   531
25.5441   494
25.5541   524
25.5641   517
25.5741   517
25.5841   479
25.5941   528
25.6041   521
25.6141   509
25.6241   523
25.6341   499
25.6441   496
25.6541   505
25.6641   513
25.6741   463
25.6841   526
25.6941   507
25.7041   473
25.7141   482
25.7241   436
25.7341   449
25.7441   494
25.7541   481
25.7641   507
25.7741   478
25.7841   476
25.7941   461
25.8041   513
25.8141   510
25.8241   497
25.8341   457
25.8441   490
25.8541   474
25.8641   501
25.8741   482
25.8841   471
25.8941   482
25.9041   487
25.9141   521
25.9241   494
25.9341   527
25.9441   488
25.9541   455
25.9641   479
25.9741   455
25.9841   472
25.9941   492
26.0041   466
26.0141   453
26.0241   466
26.0341   466
26.0441   471
26.0541   477
26.0641   455
26.0741   490
26.0841   475
26.0941   459
26.1041   471
26.1141   471
26.1241   490
26.1341   492
26.1441   528
26.1541   462
26.1641   442
26.1741   464
26.1841   471
26.1941   477
26.2041   478
26.2141   468
26.2241   488
26.2341   438
26.2441   441
26.2541   504
26.2641   506
26.2741   484
26.2841   456
26.2941   496
26.3041   427
26.3141   467
26.3241   455
26.3341   456
26.3441   461
26.3541   500
26.3641   486
26.3741   525
26.3841   456
26.3941   449
26.4041   455
26.4141   466
26.4241   443
26.4341   424
26.4441   444
26.4541   450
26.4641   474
26.4741   458
26.4841   454
26.4941   448
26.5041   433
26.5141   467
26.5241   449
26.5341   438
26.5441   499
26.5541   471
26.5641   463
26.5741   439
26.5841   454
26.5941   437
26.6041   420
26.6141   429
26.6241   442
26.6341   440
26.6441   460
26.6541   434
26.6641   422
26.6741   421
26.6841   461
26.6941   418
26.7041   413
26.7141   430
26.7241   427
26.7341   451
26.7441   463
26.7541   460
26.7641   430
26.7741   417
26.7841   449
26.7941   445
26.8041   461
26.8141   450
26.8241   417
26.8341   407
26.8441   432
26.8541   441
26.8641   423
26.8741   443
26.8841   411
26.8941   442
26.9041   442
26.9141   437
26.9241   397
26.9341   423
26.9441   439
26.9541   378
26.9641   404
26.9741   461
26.9841   439
26.9941   422
27.0041   405
27.0141   439
27.0241   416
27.0341   416
27.0441   451
27.0541   449
27.0641   409
27.0741   436
27.0841   410
27.0941   426
27.1041   437
27.1141   405
27.1241   418
27.1341   392
27.1441   398
27.1541   396
27.1641   417
27.1741   418
27.1841   401
27.1941   391
27.2041   429
27.2141   431
27.2241   422
27.2341   434
27.2441   415
27.2541   411
27.2641   416
27.2741   421
27.2841   430
27.2941   438
27.3041   443
27.3141   444
27.3241   410
27.3341   405
27.3441   401
27.3541   386
27.3641   403
27.3741   409
27.3841   400
27.3941   383
27.4041   398
27.4141   448
27.4241   444
27.4341   423
27.4441   453
27.4541   402
27.4641   402
27.4741   415
27.4841   449
27.4941   443
27.5041   436
27.5141   394
27.5241   420
27.5341   401
27.5441   424
27.5541   443
27.5641   409
27.5741   388
27.5841   408
27.5941   385
27.6041   391
27.6141   400
27.6241   398
27.6341   402
27.6441   376
27.6541   399
27.6641   356
27.6741   417
27.6841   400
27.6941   398
27.7041   397
27.7141   383
27.7241   380
27.7341   382
27.7441   391
27.7541   375
27.7641   427
27.7741   379
27.7841   399
27.7941   392
27.8041   386
27.8141   370
27.8241   378
27.8341   397
27.8441   373
27.8541   359
27.8641   398
27.8741   375
27.8841   409
27.8941   369
27.9041   370
27.9141   407
27.9241   412
27.9341   406
27.9441   416
27.9541   390
27.9641   369
27.9741   387
27.9841   393
27.9941   382
28.0041   390
28.0141   401
28.0241   380
28.0341   379
28.0441   365
28.0541   387
28.0641   360
28.0741   372
28.0841   376
28.0941   361
28.1041   349
28.1141   353
28.1241   379
28.1341   349
28.1441   386
28.1541   363
28.1641   336
28.1741   369
28.1841   372
28.1941   367
28.2041   375
28.2141   374
28.2241   372
28.2341   400
28.2441   389
28.2541   357
28.2641   351
28.2741   360
28.2841   378
28.2941   346
28.3041   371
28.3141   339
28.3241   355
28.3341   370
28.3441   384
28.3541   359
28.3641   356
28.3741   377
28.3841   342
28.3941   404
28.4041   394
28.4141   376
28.4241   345
28.4341   370
28.4441   377
28.4541   377
28.4641   362
28.4741   338
28.4841   374
28.4941   366
28.5041   368
28.5141   377
28.5241   351
28.5341   369
28.5441   369
28.5541   385
28.5641   372
28.5741   359
28.5841   383
28.5941   376
28.6041   354
28.6141   327
28.6241   358
28.6341   323
28.6441   347
28.6541   355
28.6641   339
28.6741   333
28.6841   376
28.6941   342
28.7041   340
28.7141   327
28.7241   357
28.7341   346
28.7441   337
28.7541   284
28.7641   340
28.7741   354
28.7841   352
28.7941   351
28.8041   338
28.8141   337
28.8241   328
28.8341   358
28.8441   360
28.8541   362
28.8641   348
28.8741   347
28.8841   351
28.8941   356
28.9041   331
28.9141   342
28.9241   361
28.9341   311
28.9441   315
28.9541   335
28.9641   318
28.9741   306
28.9841   326
28.9941   339
29.0041   351
29.0141   322
29.0241   340
29.0341   326
29.0441   366
29.0541   346
29.0641   353
29.0741   325
29.0841   316
29.0941   379
29.1041   327
29.1141   318
29.1241   322
29.1341   309
29.1441   324
29.1541   338
29.1641   321
29.1741   286
29.1841   337
29.1941   305
29.2041   304
29.2141   312
29.2241   330
29.2341   322
29.2441   352
29.2541   334
29.2641   347
29.2741   305
29.2841   343
29.2941   310
29.3041   298
29.3141   293
29.3241   296
29.3341   344
29.3441   312
29.3541   326
29.3641   349
29.3741   339
29.3841   334
29.3941   294
29.4041   309
29.4141   339
29.4241   334
29.4341   321
29.4441   320
29.4541   320
29.4641   330
29.4741   315
29.4841   314
29.4941   268
29.5041   313
29.5141   295
29.5241   287
29.5341   290
29.5441   307
29.5541   295
29.5641   305
29.5741   325
29.5841   320
29.5941   318
29.6041   304
29.6141   301
29.6241   332
29.6341   334
29.6441   278
29.6541   298
29.6641   294
29.6741   290
29.6841   292
29.6941   295
29.7041   302
29.7141   291
29.7241   326
29.7341   311
29.7441   306
29.7541   265
29.7641   294
29.7741   272
29.7841   267
29.7941   286
29.8041   296
29.8141   303
29.8241   303
29.8341   269
29.8441   287
29.8541   294
29.8641   284
29.8741   318
29.8841   287
29.8941   274
29.9041   299
29.9141   303
29.9241   291
29.9341   274
29.9441   297
29.9541   295
29.9641   314
29.9741   301
29.9841   284
29.9941   313
30.0041   291
30.0141   298
30.0241   287
30.0341   282
30.0441   277
30.0541   278
30.0641   288
30.0741   286
30.0841   309
30.0941   272
30.1041   290
30.1141   294
30.1241   294
30.1341   312
30.1441   291
30.1541   284
30.1641   277
30.1741   244
30.1841   280
30.1941   267
30.2041   299
30.2141   289
30.2241   297
30.2341   296
30.2441   267
30.2541   294
30.2641   272
30.2741   265
30.2841   268
30.2941   265
30.3041   295
30.3141   288
30.3241   282
30.3341   262
30.3441   268
30.3541   271
30.3641   281
30.3741   257
30.3841   296
30.3941   299
30.4041   275
30.4141   286
30.4241   263
30.4341   288
30.4441   263
30.4541   278
30.4641   255
30.4741   267
30.4841   271
30.4941   277
30.5041   261
30.5141   281
30.5241   272
30.5341   264
30.5441   280
30.5541   265
30.5641   285
30.5741   257
30.5841   257
30.5941   284
30.6041   276
30.6141   265
30.6241   248
30.6341   209
30.6441   263
30.6541   258
30.6641   252
30.6741   243
30.6841   233
30.6941   264
30.7041   285
30.7141   276
30.7241   231
30.7341   261
30.7441   230
30.7541   260
30.7641   268
30.7741   255
30.7841   238
30.7941   245
30.8041   248
30.8141   277
30.8241   265
30.8341   251
30.8441   230
30.8541   253
30.8641   261
30.8741   266
30.8841   273
30.8941   266
30.9041   261
30.9141   253
30.9241   245
30.9341   261
30.9441   236
30.9541   269
30.9641   251
30.9741   267
30.9841   248
30.9941   245
31.0041   216
31.0141   264
31.0241   243
31.0341   277
31.0441   275
31.0541   237
31.0641   241
31.0741   262
31.0841   248
31.0941   239
31.1041   241
31.1141   258
31.1241   248
31.1341   244
31.1441   244
31.1541   252
31.1641   239
31.1741   249
31.1841   250
31.1941   251
31.2041   242
31.2141   264
31.2241   241
31.2341   244
31.2441   251
31.2541   232
31.2641   231
31.2741   222
31.2841   227
31.2941   239
31.3041   247
31.3141   227
31.3241   233
31.3341   241
31.3441   250
31.3541   224
31.3641   222
31.3741   234
31.3841   232
31.3941   228
31.4041   246
31.4141   208
31.4241   244
31.4341   248
31.4441   255
31.4541   253
31.4641   237
31.4741   216
31.4841   236
31.4941   242
31.5041   219
31.5141   258
31.5241   246
31.5341   221
31.5441   239
31.5541   240
31.5641   227
31.5741   205
31.5841   242
31.5941   224
31.6041   232
31.6141   237
31.6241   215
31.6341   221
31.6441   245
31.6541   229
31.6641   215
31.6741   236
31.6841   235
31.6941   216
31.7041   241
31.7141   217
31.7241   219
31.7341   264
31.7441   223
31.7541   239
31.7641   203
31.7741   225
31.7841   207
31.7941   211
31.8041   211
31.8141   213
31.8241   236
31.8341   233
31.8441   240
31.8541   199
31.8641   196
31.8741   219
31.8841   196
31.8941   209
31.9041   240
31.9141   224
31.9241   208
31.9341   220
31.9441   186
31.9541   214
31.9641   218
31.9741   214
31.9841   244
31.9941   241
32.0041   231
32.0141   231
32.0241   211
32.0341   223
32.0441   208
32.0541   214
32.0641   202
32.0741   244
32.0841   198
32.0941   222
32.1041   223
32.1141   220
32.1241   207
32.1341   222
32.1441   213
32.1541   227
32.1641   225
32.1741   187
32.1841   204
32.1941   216
32.2041   213
32.2141   208
32.2241   196
32.2341   191
32.2441   209
32.2541   209
32.2641   210
32.2741   223
32.2841   197
32.2941   217
32.3041   247
32.3141   224
32.3241   215
32.3341   214
32.3441   185
32.3541   217
32.3641   230
32.3741   187
32.3841   203
32.3941   204
32.4041   203
32.4141   214
32.4241   197
32.4341   197
32.4441   189
32.4541   187
32.4641   180
32.4741   181
32.4841   211
32.4941   198
32.5041   197
32.5141   192
32.5241   176
32.5341   200
32.5441   177
32.5541   166
32.5641   170
32.5741   193
32.5841   204
32.5941   188
32.6041   199
32.6141   197
32.6241   185
32.6341   179
32.6441   191
32.6541   181
32.6641   194
32.6741   212
32.6841   190
32.6941   200
32.7041   174
32.7141   174
32.7241   175
32.7341   190
32.7441   182
32.7541   193
32.7641   187
32.7741   195
32.7841   177
32.7941   192
32.8041   189
32.8141   179
32.8241   214
32.8341   200
32.8441   181
32.8541   196
32.8641   172
32.8741   161
32.8841   173
32.8941   187
32.9041   185
32.9141   187
32.9241   157
32.9341   205
32.9441   193
32.9541   157
32.9641   212
32.9741   185
32.9841   186
32.9941   166
33.0041   174
33.0141   178
33.0241   178
33.0341   211
33.0441   177
33.0541   178
33.0641   181
33.0741   151
33.0841   177
33.0941   194
33.1041   170
33.1141   168
33.1241   200
33.1341   196
33.1441   168
33.1541   155
33.1641   167
33.1741   176
33.1841   157
33.1941   165
33.2041   154
33.2141   167
33.2241   161
33.2341   182
33.2441   174
33.2541   138
33.2641   170
33.2741   153
33.2841   162
33.2941   148
33.3041   172
33.3141   185
33.3241   161
33.3341   164
33.3441   174
33.3541   160
33.3641   180
33.3741   156
33.3841   147
33.3941   164
33.4041   153
33.4141   156
33.4241   155
33.4341   157
33.4441   152
33.4541   155
33.4641   143
33.4741   144
33.4841   177
33.4941   182
33.5041   169
33.5141   166
33.5241   166
33.5341   182
33.5441   172
33.5541   166
33.5641   158
33.5741   152
33.5841   157
33.5941   151
33.6041   161
33.6141   172
33.6241   178
33.6341   164
33.6441   163
33.6541   143
33.6641   171
33.6741   157
33.6841   147
33.6941   139
33.7041   162
33.7141   150
33.7241   143
33.7341   141
33.7441   138
33.7541   157
33.7641   170
33.7741   168
33.7841   152
33.7941   138
33.8041   164
33.8141   142
33.8241   156
33.8341   156
33.8441   145
33.8541   133
33.8641   170
33.8741   142
33.8841   151
33.8941   140
33.9041   161
33.9141   144
33.9241   147
33.9341   147
33.9441   130
33.9541   161
33.9641   160
33.9741   155
33.9841   159
33.9941   144
34.0041   168
34.0141   155
34.0241   135
34.0341   149
34.0441   151
34.0541   126
34.0641   146
34.0741   147
34.0841   142
34.0941   132
34.1041   149
34.1141   146
34.1241   147
34.1341   141
34.1441   133
34.1541   152
34.1641   158
34.1741   134
34.1841   148
34.1941   139
34.2041   134
34.2141   136
34.2241   146
34.2341   132
34.2441   151
34.2541   141
34.2641   144
34.2741   152
34.2841   143
34.2941   139
34.3041   135
34.3141   139
34.3241   159
34.3341   148
34.3441   142
34.3541   133
34.3641   117
34.3741   156
34.3841   144
34.3941   129
34.4041   117
34.4141   138
34.4241   136
34.4341   111
34.4441   117
34.4541   144
34.4641   126
34.4741   160
34.4841   131
34.4941   118
34.5041   113
34.5141   134
34.5241   133
34.5341   131
34.5441   126
34.5541   134
34.5641   117
34.5741   123
34.5841   121
34.5941   152
34.6041   130
34.6141   137
34.6241   134
34.6341   129
34.6441   127
34.6541   149
34.6641   153
34.6741   135
34.6841   141
34.6941   117
34.7041   136
34.7141   125
34.7241   116
34.7341   141
34.7441   119
34.7541   131
34.7641   138
34.7741   135
34.7841   137
34.7941   131
34.8041   152
34.8141   102
34.8241   117
34.8341   125
34.8441   126
34.8541   138
34.8641   117
34.8741   122
34.8841   123
34.8941   117
34.9041   133
34.9141   115
34.9241   136
34.9341   120
34.9441   130
34.9541   129
34.9641    99
34.9741   120
34.9841   117
34.9941   108
35.0041   121
35.0141   109
35.0241   119
35.0341   124
35.0441   143
35.0541   120
35.0641   118
35.0741   126
35.0841   139
35.0941   118
35.1041   114
35.1141   127
35.1241   109
35.1341   120
35.1441    97
35.1541   117
35.1641   144
35.1741   122
35.1841   114
35.1941   114
35.2041   116
35.2141   120
35.2241   112
35.2341    97
35.2441   114
35.2541   118
35.2641   131
35.2741   136
35.2841   129
35.2941   118
35.3041   123
35.3141   137
35.3241   112
35.3341   121
35.3441    96
35.3541   110
35.3641   115
35.3741   125
35.3841   114
35.3941   114
35.4041   101
35.4141   108
35.4241   116
35.4341   118
35.4441   136
35.4541   128
35.4641   123
35.4741   101
35.4841   106
35.4941   106
35.5041   115
35.5141   124
35.5241   107
35.5341    98
35.5441   114
35.5541   109
35.5641   116
35.5741   124
35.5841   108
35.5941   119
35.6041   101
35.6141   100
35.6241   102
35.6341   102
35.6441    91
35.6541    97
35.6641   117
35.6741   106
35.6841   125
35.6941   101
35.7041   107
35.7141    95
35.7241   111
35.7341   115
35.7441   108
35.7541   105
35.7641   114
35.7741    94
35.7841    85
35.7941    93
35.8041    86
35.8141    94
35.8241   104
35.8341    98
35.8441    92
35.8541   106
35.8641   112
35.8741    97
35.8841    99
35.8941    94
35.9041    98
35.9141   107
35.9241   111
35.9341   104
35.9441    96
35.9541   105
35.9641    91
35.9741    93
35.9841   124
35.9941   100
36.0041    80
36.0141    90
36.0241    98
36.0341   100
36.0441   103
36.0541   110
36.0641   101
36.0741    90
36.0841    96
36.0941    88
36.1041    88
36.1141   101
36.1241   108
36.1341    95
36.1441    97
36.1541    84
36.1641    97
36.1741    96
36.1841   104
36.1941   113
36.2041    97
36.2141    89
36.2241    85
36.2341    99
36.2441    88
36.2541    86
36.2641    79
36.2741    82
36.2841    92
36.2941    92
36.3041    97
36.3141    90
36.3241    90
36.3341    85
36.3441   104
36.3541    91
36.3641   106
36.3741   100
36.3841    89
36.3941    71
36.4041    92
36.4141    88
36.4241    85
36.4341   106
36.4441   101
36.4541   106
36.4641   108
36.4741    88
36.4841    84
36.4941    83
36.5041    92
36.5141    80
36.5241    90
36.5341    78
36.5441    98
36.5541    92
36.5641    76
36.5741    99
36.5841    91
36.5941    94
36.6041    98
36.6141    81
36.6241    72
36.6341    82
36.6441    75
36.6541    93
36.6641    83
36.6741    89
36.6841    75
36.6941    84
36.7041    89
36.7141    81
36.7241    77
36.7341    84
36.7441    91
36.7541    78
36.7641    83
36.7741    71
36.7841    88
36.7941    77
36.8041    84
36.8141    78
36.8241    80
36.8341    78
36.8441    90
36.8541    80
36.8641    89
36.8741    83
36.8841    86
36.8941    84
36.9041    81
36.9141    66
36.9241    91
36.9341    92
36.9441    90
36.9541    84
36.9641    90
36.9741    84
36.9841    70
36.9941    74
37.0041    77
37.0141    68
37.0241    74
37.0341    76
37.0441    86
37.0541    69
37.0641    73
37.0741    72
37.0841    85
37.0941    70
37.1041    75
37.1141    82
37.1241    76
37.1341    71
37.1441    65
37.1541    77
37.1641    58
37.1741    66
37.1841    69
37.1941    66
37.2041    79
37.2141    73
37.2241    68
37.2341    85
37.2441    65
37.2541    86
37.2641    82
37.2741    71
37.2841    70
37.2941    79
37.3041    83
37.3141    69
37.3241    82
37.3341    61
37.3441    78
37.3541    62
37.3641    63
37.3741    76
37.3841    65
37.3941    75
37.4041    73
37.4141    67
37.4241    69
37.4341    66
37.4441    75
37.4541    72
37.4641    76
37.4741    71
37.4841    66
37.4941    66
37.5041    80
37.5141    76
37.5241    67
37.5341    62
37.5441    83
37.5541    69
37.5641    56
37.5741    62
37.5841    63
37.5941    76
37.6041    63
37.6141    73
37.6241    60
37.6341    67
37.6441    61
37.6541    67
37.6641    72
37.6741    73
37.6841    60
37.6941    53
37.7041    59
37.7141    66
37.7241    56
37.7341    58
37.7441    54
37.7541    55
37.7641    56
37.7741    67
37.7841    58
37.7941    67
37.8041    52
37.8141    65
37.8241    42
37.8341    59
37.8441    78
37.8541    49
37.8641    67
37.8741    47
37.8841    54
37.8941    53
37.9041    68
37.9141    58
37.9241    62
37.9341    47
37.9441    57
37.9541    54
37.9641    64
37.9741    48
37.9841    52
37.9941    69
38.0041    66
38.0141    60
38.0241    65
38.0341    48
38.0441    53
38.0541    55
38.0641    56
38.0741    57
38.0841    47
38.0941    64
38.1041    60
38.1141    59
38.1241    49
38.1341    64
38.1441    76
38.1541    65
38.1641    44
38.1741    57
38.1841    58
38.1941    44
38.2041    46
38.2141    52
38.2241    61
38.2341    61
38.2441    55
38.2541    59
38.2641    55
38.2741    52
38.2841    44
38.2941    54
38.3041    70
38.3141    58
38.3241    54
38.3341    53
38.3441    46
38.3541    48
38.3641    53
38.3741    54
38.3841    52
38.3941    42
38.4041    64
38.4141    59
38.4241    45
38.4341    59
38.4441    46
38.4541    47
38.4641    52
38.4741    58
38.4841    60
38.4941    59
38.5041    56
38.5141    58
38.5241    56
38.5341    47
38.5441    57
38.5541    51
38.5641    51
38.5741    48
38.5841    48
38.5941    38
38.6041    64
38.6141    35
38.6241    48
38.6341    54
38.6441    38
38.6541    44
38.6641    52
38.6741    48
38.6841    46
38.6941    56
38.7041    42
38.7141    48
38.7241    64
38.7341    44
38.7441    34
38.7541    39
38.7641    53
38.7741    40
38.7841    52
38.7941    31
38.8041    38
38.8141    58
38.8241    48
38.8341    62
38.8441    44
38.8541    47
38.8641    56
38.8741    45
38.8841    55
38.8941    40
38.9041    52
38.9141    45
38.9241    46
38.9341    53
38.9441    42
38.9541    56
38.9641    47
38.9741    40
38.9841    27
38.9941    41
39.0041    37
39.0141    47
39.0241    32
39.0341    51
39.0441    48
39.0541    36
39.0641    45
39.0741    45
39.0841    46
39.0941    37
39.1041    34
39.1141    41
39.1241    40
39.1341    49
39.1441    39
39.1541    34
39.1641    32
39.1741    48
39.1841    38
39.1941    39
39.2041    30
39.2141    38
39.2241    36
39.2341    43
39.2441    37
39.2541    32
39.2641    33
39.2741    36
39.2841    35
39.2941    44
39.3041    42
39.3141    45
39.3241    34
39.3341    36
39.3441    47
39.3541    37
39.3641    34
39.3741    39
39.3841    27
39.3941    43
39.4041    37
39.4141    42
39.4241    31
39.4341    42
39.4441    34
39.4541    27
39.4641    26
39.4741    35
39.4841    45
39.4941    36
39.5041    36
39.5141    35
39.5241    33
39.5341    31
39.5441    41
39.5541    36
39.5641    26
39.5741    47
39.5841    34
39.5941    32
39.6041    38
39.6141    29
39.6241    44
39.6341    35
39.6441    32
39.6541    34
39.6641    39
39.6741    37
39.6841    27
39.6941    35
39.7041    31
39.7141    30
39.7241    38
39.7341    31
39.7441    31
39.7541    41
39.7641    31
39.7741    30
39.7841    31
39.7941    34
39.8041    34
39.8141    23
39.8241    44
39.8341    33
39.8441    18
39.8541    30
39.8641    25
39.8741    37
39.8841    37
39.8941    36
39.9041    42
39.9141    32
39.9241    33
39.9341    34
39.9441    39
39.9541    36
39.9641    31
39.9741    29
39.9841    33
