Bruker Nano GmbH Berlin, Germany
Esprit 1.9

Date: 4/21/2021 1:32:02 PM
Real time: 26806
Life time: 25178
Pulse density: 87445


Detector type: XFlash 430
Window type: Custom type
Detector thickness: 0.45
Si dead layer:0.029

Calibration, lin.: 10
Calibration, abs.: -955.9
Mn FWHM: 137.05
Fano factor: 0.121
Channels: 4096

Energy Counts
-0.9559     0
-0.9459     0
-0.9359     0
-0.9259     0
-0.9159     0
-0.9059     0
-0.8959     0
-0.8859     0
-0.8759     0
-0.8659     0
-0.8559     0
-0.8459     0
-0.8359     0
-0.8259     0
-0.8159     0
-0.8059     0
-0.7959     0
-0.7859     0
-0.7759     0
-0.7659     0
-0.7559     0
-0.7459     0
-0.7359     0
-0.7259     0
-0.7159     0
-0.7059     0
-0.6959     0
-0.6859     0
-0.6759     0
-0.6659     0
-0.6559     0
-0.6459     0
-0.6359     0
-0.6259     0
-0.6159     0
-0.6059     0
-0.5959     0
-0.5859     0
-0.5759     0
-0.5659     0
-0.5559     0
-0.5459     0
-0.5359     0
-0.5259     0
-0.5159     0
-0.5059     0
-0.4959     0
-0.4859     0
-0.4759     0
-0.4659     0
-0.4559     0
-0.4459     0
-0.4359     0
-0.4259     0
-0.4159     0
-0.4059     0
-0.3959     0
-0.3859     0
-0.3759     0
-0.3659     0
-0.3559     0
-0.3459     0
-0.3359     0
-0.3259     0
-0.3159     0
-0.3059     0
-0.2959     0
-0.2859     0
-0.2759     0
-0.2659     0
-0.2559     0
-0.2459     0
-0.2359     0
-0.2259     0
-0.2159     0
-0.2059     0
-0.1959     0
-0.1859     0
-0.1759     0
-0.1659     0
-0.1559     0
-0.1459     0
-0.1359     0
-0.1259     3
-0.1159     2
-0.1059    16
-0.0959    63
-0.0859   253
-0.0759   955
-0.0659  2876
-0.0559  7288
-0.0459 15869
-0.0359 29957
-0.0259 47899
-0.0159 65992
-0.0059 77297
 0.0041 77669
 0.0141 66500
 0.0241 49168
 0.0341 31463
 0.0441 16959
 0.0541  7916
 0.0641  3206
 0.0741  1120
 0.0841   350
 0.0941   113
 0.1041    28
 0.1141    13
 0.1241    12
 0.1341     8
 0.1441     6
 0.1541     2
 0.1641     7
 0.1741    28
 0.1841   262
 0.1941   467
 0.2041   437
 0.2141   454
 0.2241   449
 0.2341   470
 0.2441   434
 0.2541   446
 0.2641   455
 0.2741   423
 0.2841   411
 0.2941   412
 0.3041   421
 0.3141   446
 0.3241   422
 0.3341   434
 0.3441   385
 0.3541   392
 0.3641   373
 0.3741   405
 0.3841   397
 0.3941   380
 0.4041   378
 0.4141   423
 0.4241   417
 0.4341   406
 0.4441   387
 0.4541   398
 0.4641   388
 0.4741   392
 0.4841   376
 0.4941   372
 0.5041   405
 0.5141   394
 0.5241   370
 0.5341   371
 0.5441   357
 0.5541   372
 0.5641   358
 0.5741   346
 0.5841   355
 0.5941   352
 0.6041   334
 0.6141   343
 0.6241   330
 0.6341   316
 0.6441   345
 0.6541   343
 0.6641   326
 0.6741   347
 0.6841   350
 0.6941   333
 0.7041   332
 0.7141   320
 0.7241   334
 0.7341   334
 0.7441   306
 0.7541   313
 0.7641   314
 0.7741   297
 0.7841   287
 0.7941   299
 0.8041   318
 0.8141   309
 0.8241   296
 0.8341   312
 0.8441   303
 0.8541   301
 0.8641   332
 0.8741   297
 0.8841   299
 0.8941   327
 0.9041   297
 0.9141   296
 0.9241   298
 0.9341   299
 0.9441   288
 0.9541   279
 0.9641   300
 0.9741   295
 0.9841   284
 0.9941   289
 1.0041   309
 1.0141   276
 1.0241   303
 1.0341   279
 1.0441   291
 1.0541   276
 1.0641   277
 1.0741   278
 1.0841   278
 1.0941   291
 1.1041   282
 1.1141   274
 1.1241   264
 1.1341   300
 1.1441   282
 1.1541   281
 1.1641   272
 1.1741   258
 1.1841   277
 1.1941   267
 1.2041   281
 1.2141   281
 1.2241   276
 1.2341   259
 1.2441   267
 1.2541   271
 1.2641   263
 1.2741   260
 1.2841   268
 1.2941   273
 1.3041   250
 1.3141   248
 1.3241   266
 1.3341   273
 1.3441   261
 1.3541   250
 1.3641   230
 1.3741   267
 1.3841   249
 1.3941   248
 1.4041   258
 1.4141   261
 1.4241   239
 1.4341   263
 1.4441   275
 1.4541   268
 1.4641   271
 1.4741   254
 1.4841   251
 1.4941   280
 1.5041   244
 1.5141   252
 1.5241   270
 1.5341   248
 1.5441   237
 1.5541   263
 1.5641   243
 1.5741   246
 1.5841   231
 1.5941   215
 1.6041   255
 1.6141   260
 1.6241   266
 1.6341   261
 1.6441   276
 1.6541   314
 1.6641   333
 1.6741   423
 1.6841   530
 1.6941   587
 1.7041   710
 1.7141   867
 1.7241   931
 1.7341  1020
 1.7441   960
 1.7541   903
 1.7641   801
 1.7741   752
 1.7841   602
 1.7941   542
 1.8041   454
 1.8141   386
 1.8241   372
 1.8341   330
 1.8441   349
 1.8541   319
 1.8641   280
 1.8741   284
 1.8841   271
 1.8941   271
 1.9041   271
 1.9141   273
 1.9241   268
 1.9341   273
 1.9441   276
 1.9541   261
 1.9641   277
 1.9741   285
 1.9841   285
 1.9941   298
 2.0041   325
 2.0141   325
 2.0241   321
 2.0341   295
 2.0441   270
 2.0541   272
 2.0641   270
 2.0741   274
 2.0841   249
 2.0941   259
 2.1041   238
 2.1141   242
 2.1241   200
 2.1341   218
 2.1441   228
 2.1541   224
 2.1641   228
 2.1741   237
 2.1841   208
 2.1941   261
 2.2041   232
 2.2141   243
 2.2241   214
 2.2341   200
 2.2441   235
 2.2541   211
 2.2641   222
 2.2741   207
 2.2841   212
 2.2941   207
 2.3041   228
 2.3141   226
 2.3241   201
 2.3341   220
 2.3441   219
 2.3541   217
 2.3641   227
 2.3741   210
 2.3841   207
 2.3941   220
 2.4041   227
 2.4141   185
 2.4241   194
 2.4341   161
 2.4441   213
 2.4541   198
 2.4641   197
 2.4741   214
 2.4841   198
 2.4941   195
 2.5041   190
 2.5141   178
 2.5241   216
 2.5341   187
 2.5441   171
 2.5541   209
 2.5641   203
 2.5741   186
 2.5841   207
 2.5941   173
 2.6041   196
 2.6141   212
 2.6241   203
 2.6341   199
 2.6441   203
 2.6541   193
 2.6641   211
 2.6741   168
 2.6841   172
 2.6941   170
 2.7041   195
 2.7141   174
 2.7241   187
 2.7341   180
 2.7441   202
 2.7541   174
 2.7641   188
 2.7741   175
 2.7841   193
 2.7941   177
 2.8041   186
 2.8141   196
 2.8241   209
 2.8341   181
 2.8441   209
 2.8541   198
 2.8641   205
 2.8741   188
 2.8841   185
 2.8941   185
 2.9041   176
 2.9141   180
 2.9241   167
 2.9341   194
 2.9441   166
 2.9541   162
 2.9641   203
 2.9741   175
 2.9841   191
 2.9941   165
 3.0041   195
 3.0141   148
 3.0241   147
 3.0341   174
 3.0441   198
 3.0541   187
 3.0641   152
 3.0741   150
 3.0841   157
 3.0941   155
 3.1041   162
 3.1141   167
 3.1241   152
 3.1341   156
 3.1441   163
 3.1541   171
 3.1641   162
 3.1741   164
 3.1841   166
 3.1941   150
 3.2041   174
 3.2141   162
 3.2241   166
 3.2341   193
 3.2441   214
 3.2541   241
 3.2641   257
 3.2741   297
 3.2841   320
 3.2941   343
 3.3041   357
 3.3141   365
 3.3241   339
 3.3341   308
 3.3441   289
 3.3541   263
 3.3641   239
 3.3741   249
 3.3841   225
 3.3941   175
 3.4041   158
 3.4141   162
 3.4241   148
 3.4341   145
 3.4441   131
 3.4541   148
 3.4641   142
 3.4741   162
 3.4841   150
 3.4941   149
 3.5041   149
 3.5141   160
 3.5241   174
 3.5341   190
 3.5441   194
 3.5541   203
 3.5641   220
 3.5741   248
 3.5841   283
 3.5941   383
 3.6041   476
 3.6141   603
 3.6241   730
 3.6341   896
 3.6441  1004
 3.6541  1210
 3.6641  1337
 3.6741  1542
 3.6841  1465
 3.6941  1577
 3.7041  1491
 3.7141  1342
 3.7241  1218
 3.7341  1059
 3.7441   867
 3.7541   668
 3.7641   543
 3.7741   448
 3.7841   349
 3.7941   266
 3.8041   215
 3.8141   180
 3.8241   161
 3.8341   135
 3.8441   130
 3.8541   114
 3.8641   115
 3.8741   135
 3.8841   133
 3.8941   130
 3.9041   176
 3.9141   161
 3.9241   172
 3.9341   164
 3.9441   207
 3.9541   218
 3.9641   248
 3.9741   242
 3.9841   278
 3.9941   295
 4.0041   311
 4.0141   316
 4.0241   298
 4.0341   303
 4.0441   294
 4.0541   272
 4.0641   235
 4.0741   185
 4.0841   158
 4.0941   166
 4.1041   156
 4.1141   145
 4.1241   119
 4.1341   131
 4.1441   115
 4.1541   108
 4.1641    96
 4.1741   112
 4.1841   102
 4.1941   113
 4.2041    97
 4.2141   104
 4.2241   108
 4.2341   100
 4.2441    99
 4.2541    96
 4.2641   130
 4.2741   100
 4.2841   105
 4.2941   100
 4.3041   104
 4.3141   100
 4.3241    87
 4.3341   106
 4.3441   128
 4.3541   114
 4.3641   117
 4.3741   114
 4.3841   133
 4.3941   119
 4.4041   153
 4.4141   169
 4.4241   210
 4.4341   227
 4.4441   262
 4.4541   277
 4.4641   312
 4.4741   309
 4.4841   362
 4.4941   378
 4.5041   410
 4.5141   364
 4.5241   356
 4.5341   355
 4.5441   331
 4.5541   294
 4.5641   277
 4.5741   225
 4.5841   199
 4.5941   169
 4.6041   148
 4.6141   155
 4.6241   160
 4.6341   155
 4.6441   137
 4.6541   120
 4.6641   109
 4.6741   111
 4.6841   118
 4.6941   116
 4.7041   109
 4.7141   105
 4.7241   122
 4.7341   125
 4.7441   112
 4.7541    91
 4.7641   104
 4.7741   117
 4.7841    96
 4.7941   124
 4.8041   133
 4.8141   127
 4.8241   121
 4.8341   133
 4.8441   166
 4.8541   158
 4.8641   160
 4.8741   144
 4.8841   155
 4.8941   172
 4.9041   175
 4.9141   157
 4.9241   150
 4.9341   151
 4.9441   166
 4.9541   146
 4.9641   148
 4.9741   144
 4.9841   155
 4.9941   151
 5.0041   144
 5.0141   124
 5.0241   123
 5.0341   135
 5.0441   130
 5.0541   110
 5.0641    89
 5.0741   114
 5.0841   137
 5.0941   124
 5.1041   112
 5.1141   113
 5.1241   108
 5.1341   108
 5.1441   105
 5.1541   109
 5.1641   131
 5.1741   113
 5.1841   124
 5.1941   145
 5.2041   112
 5.2141   121
 5.2241   129
 5.2341   111
 5.2441   127
 5.2541   107
 5.2641   123
 5.2741   124
 5.2841   142
 5.2941   157
 5.3041   153
 5.3141   150
 5.3241   186
 5.3341   184
 5.3441   222
 5.3541   272
 5.3641   299
 5.3741   280
 5.3841   311
 5.3941   321
 5.4041   342
 5.4141   371
 5.4241   326
 5.4341   331
 5.4441   301
 5.4541   253
 5.4641   256
 5.4741   240
 5.4841   189
 5.4941   176
 5.5041   176
 5.5141   188
 5.5241   144
 5.5341   149
 5.5441   140
 5.5541   129
 5.5641   118
 5.5741   130
 5.5841   119
 5.5941   140
 5.6041   128
 5.6141   129
 5.6241   145
 5.6341   134
 5.6441   148
 5.6541   127
 5.6641   156
 5.6741   145
 5.6841   121
 5.6941   136
 5.7041   145
 5.7141   140
 5.7241   152
 5.7341   139
 5.7441   166
 5.7541   167
 5.7641   168
 5.7741   159
 5.7841   184
 5.7941   203
 5.8041   258
 5.8141   277
 5.8241   306
 5.8341   361
 5.8441   378
 5.8541   424
 5.8641   418
 5.8741   454
 5.8841   482
 5.8941   465
 5.9041   454
 5.9141   490
 5.9241   468
 5.9341   434
 5.9441   377
 5.9541   350
 5.9641   345
 5.9741   297
 5.9841   260
 5.9941   257
 6.0041   212
 6.0141   186
 6.0241   181
 6.0341   161
 6.0441   173
 6.0541   153
 6.0641   134
 6.0741   126
 6.0841   143
 6.0941   154
 6.1041   158
 6.1141   162
 6.1241   156
 6.1341   177
 6.1441   177
 6.1541   181
 6.1641   193
 6.1741   206
 6.1841   244
 6.1941   269
 6.2041   298
 6.2141   352
 6.2241   511
 6.2341   602
 6.2441   821
 6.2541  1093
 6.2641  1589
 6.2741  2106
 6.2841  2749
 6.2941  3691
 6.3041  4711
 6.3141  6001
 6.3241  7515
 6.3341  8829
 6.3441 10389
 6.3541 11701
 6.3641 13241
 6.3741 14227
 6.3841 15036
 6.3941 15456
 6.4041 15323
 6.4141 14982
 6.4241 14120
 6.4341 13155
 6.4441 11616
 6.4541 10235
 6.4641  8542
 6.4741  7079
 6.4841  5813
 6.4941  4430
 6.5041  3494
 6.5141  2600
 6.5241  1993
 6.5341  1411
 6.5441  1042
 6.5541   763
 6.5641   534
 6.5741   398
 6.5841   323
 6.5941   246
 6.6041   235
 6.6141   229
 6.6241   220
 6.6341   172
 6.6441   199
 6.6541   188
 6.6641   205
 6.6741   203
 6.6841   186
 6.6941   186
 6.7041   202
 6.7141   177
 6.7241   206
 6.7341   175
 6.7441   213
 6.7541   178
 6.7641   218
 6.7741   194
 6.7841   202
 6.7941   210
 6.8041   213
 6.8141   190
 6.8241   185
 6.8341   216
 6.8441   240
 6.8541   253
 6.8641   268
 6.8741   278
 6.8841   291
 6.8941   318
 6.9041   391
 6.9141   498
 6.9241   540
 6.9341   640
 6.9441   788
 6.9541   929
 6.9641  1093
 6.9741  1247
 6.9841  1439
 6.9941  1735
 7.0041  1917
 7.0141  2105
 7.0241  2307
 7.0341  2406
 7.0441  2508
 7.0541  2564
 7.0641  2487
 7.0741  2475
 7.0841  2324
 7.0941  2078
 7.1041  1928
 7.1141  1713
 7.1241  1495
 7.1341  1281
 7.1441  1052
 7.1541   906
 7.1641   731
 7.1741   634
 7.1841   509
 7.1941   408
 7.2041   363
 7.2141   323
 7.2241   309
 7.2341   295
 7.2441   257
 7.2541   257
 7.2641   261
 7.2741   296
 7.2841   274
 7.2941   288
 7.3041   301
 7.3141   304
 7.3241   308
 7.3341   349
 7.3441   354
 7.3541   413
 7.3641   378
 7.3741   419
 7.3841   473
 7.3941   501
 7.4041   544
 7.4141   555
 7.4241   596
 7.4341   570
 7.4441   661
 7.4541   617
 7.4641   653
 7.4741   585
 7.4841   577
 7.4941   572
 7.5041   562
 7.5141   527
 7.5241   491
 7.5341   463
 7.5441   433
 7.5541   404
 7.5641   351
 7.5741   339
 7.5841   351
 7.5941   314
 7.6041   308
 7.6141   283
 7.6241   263
 7.6341   264
 7.6441   269
 7.6541   263
 7.6641   248
 7.6741   278
 7.6841   311
 7.6941   302
 7.7041   295
 7.7141   307
 7.7241   314
 7.7341   284
 7.7441   291
 7.7541   324
 7.7641   352
 7.7741   327
 7.7841   338
 7.7941   342
 7.8041   338
 7.8141   354
 7.8241   354
 7.8341   356
 7.8441   398
 7.8541   401
 7.8641   450
 7.8741   432
 7.8841   456
 7.8941   435
 7.9041   448
 7.9141   549
 7.9241   552
 7.9341   556
 7.9441   578
 7.9541   610
 7.9641   621
 7.9741   684
 7.9841   748
 7.9941   772
 8.0041   813
 8.0141   860
 8.0241   948
 8.0341   981
 8.0441  1123
 8.0541  1201
 8.0641  1326
 8.0741  1385
 8.0841  1431
 8.0941  1436
 8.1041  1597
 8.1141  1615
 8.1241  1605
 8.1341  1702
 8.1441  1753
 8.1541  1777
 8.1641  1804
 8.1741  1920
 8.1841  1895
 8.1941  1905
 8.2041  1816
 8.2141  1971
 8.2241  2004
 8.2341  1943
 8.2441  2010
 8.2541  2114
 8.2641  2195
 8.2741  2197
 8.2841  2295
 8.2941  2383
 8.3041  2648
 8.3141  2707
 8.3241  2925
 8.3341  3180
 8.3441  3336
 8.3541  3551
 8.3641  3737
 8.3741  3723
 8.3841  3690
 8.3941  3709
 8.4041  3600
 8.4141  3523
 8.4241  3355
 8.4341  3163
 8.4441  2817
 8.4541  2531
 8.4641  2341
 8.4741  1968
 8.4841  1788
 8.4941  1527
 8.5041  1302
 8.5141  1089
 8.5241   890
 8.5341   743
 8.5441   694
 8.5541   634
 8.5641   575
 8.5741   524
 8.5841   511
 8.5941   515
 8.6041   502
 8.6141   469
 8.6241   465
 8.6341   513
 8.6441   513
 8.6541   537
 8.6641   507
 8.6741   447
 8.6841   513
 8.6941   479
 8.7041   453
 8.7141   477
 8.7241   506
 8.7341   479
 8.7441   472
 8.7541   473
 8.7641   446
 8.7741   476
 8.7841   489
 8.7941   440
 8.8041   469
 8.8141   430
 8.8241   408
 8.8341   443
 8.8441   466
 8.8541   434
 8.8641   454
 8.8741   460
 8.8841   425
 8.8941   510
 8.9041   503
 8.9141   472
 8.9241   491
 8.9341   503
 8.9441   483
 8.9541   492
 8.9641   547
 8.9741   519
 8.9841   549
 8.9941   564
 9.0041   601
 9.0141   562
 9.0241   594
 9.0341   574
 9.0441   611
 9.0541   592
 9.0641   636
 9.0741   642
 9.0841   663
 9.0941   674
 9.1041   667
 9.1141   702
 9.1241   761
 9.1341   772
 9.1441   791
 9.1541   820
 9.1641   835
 9.1741   883
 9.1841   922
 9.1941   999
 9.2041  1021
 9.2141  1018
 9.2241  1126
 9.2341  1188
 9.2441  1217
 9.2541  1297
 9.2641  1373
 9.2741  1411
 9.2841  1425
 9.2941  1528
 9.3041  1584
 9.3141  1643
 9.3241  1657
 9.3341  1754
 9.3441  1808
 9.3541  1864
 9.3641  1881
 9.3741  1976
 9.3841  1988
 9.3941  1998
 9.4041  2050
 9.4141  2110
 9.4241  2148
 9.4341  2118
 9.4441  2187
 9.4541  2285
 9.4641  2333
 9.4741  2408
 9.4841  2507
 9.4941  2560
 9.5041  2612
 9.5141  2606
 9.5241  2708
 9.5341  2865
 9.5441  3004
 9.5541  3148
 9.5641  3343
 9.5741  3465
 9.5841  3573
 9.5941  3758
 9.6041  4080
 9.6141  4292
 9.6241  4464
 9.6341  4628
 9.6441  4677
 9.6541  4819
 9.6641  4740
 9.6741  4734
 9.6841  4831
 9.6941  4582
 9.7041  4448
 9.7141  4186
 9.7241  4031
 9.7341  3681
 9.7441  3239
 9.7541  3026
 9.7641  2814
 9.7741  2491
 9.7841  2350
 9.7941  2129
 9.8041  1939
 9.8141  1867
 9.8241  1817
 9.8341  1706
 9.8441  1722
 9.8541  1616
 9.8641  1552
 9.8741  1648
 9.8841  1698
 9.8941  1694
 9.9041  1688
 9.9141  1707
 9.9241  1741
 9.9341  1806
 9.9441  1761
 9.9541  1780
 9.9641  1724
 9.9741  1689
 9.9841  1631
 9.9941  1573
10.0041  1491
10.0141  1347
10.0241  1239
10.0341  1172
10.0441  1070
10.0541   907
10.0641   835
10.0741   726
10.0841   682
10.0941   614
10.1041   562
10.1141   520
10.1241   501
10.1341   474
10.1441   420
10.1541   394
10.1641   389
10.1741   390
10.1841   377
10.1941   356
10.2041   364
10.2141   325
10.2241   320
10.2341   272
10.2441   269
10.2541   280
10.2641   297
10.2741   283
10.2841   278
10.2941   270
10.3041   257
10.3141   263
10.3241   233
10.3341   231
10.3441   254
10.3541   248
10.3641   248
10.3741   242
10.3841   254
10.3941   227
10.4041   249
10.4141   235
10.4241   252
10.4341   261
10.4441   246
10.4541   263
10.4641   243
10.4741   241
10.4841   254
10.4941   269
10.5041   269
10.5141   266
10.5241   260
10.5341   266
10.5441   281
10.5541   281
10.5641   310
10.5741   280
10.5841   303
10.5941   296
10.6041   297
10.6141   275
10.6241   284
10.6341   278
10.6441   274
10.6541   265
10.6641   271
10.6741   276
10.6841   275
10.6941   292
10.7041   304
10.7141   335
10.7241   340
10.7341   326
10.7441   316
10.7541   322
10.7641   346
10.7741   360
10.7841   364
10.7941   378
10.8041   396
10.8141   407
10.8241   390
10.8341   416
10.8441   410
10.8541   421
10.8641   407
10.8741   433
10.8841   409
10.8941   441
10.9041   460
10.9141   461
10.9241   418
10.9341   438
10.9441   451
10.9541   437
10.9641   417
10.9741   416
10.9841   443
10.9941   439
11.0041   419
11.0141   406
11.0241   415
11.0341   408
11.0441   416
11.0541   401
11.0641   391
11.0741   393
11.0841   360
11.0941   369
11.1041   392
11.1141   416
11.1241   397
11.1341   385
11.1441   398
11.1541   409
11.1641   410
11.1741   419
11.1841   459
11.1941   473
11.2041   522
11.2141   518
11.2241   536
11.2341   567
11.2441   546
11.2541   589
11.2641   595
11.2741   599
11.2841   607
11.2941   622
11.3041   602
11.3141   576
11.3241   535
11.3341   538
11.3441   566
11.3541   510
11.3641   462
11.3741   487
11.3841   439
11.3941   419
11.4041   415
11.4141   370
11.4241   338
11.4341   322
11.4441   314
11.4541   326
11.4641   315
11.4741   288
11.4841   304
11.4941   290
11.5041   288
11.5141   281
11.5241   295
11.5341   281
11.5441   298
11.5541   303
11.5641   303
11.5741   319
11.5841   311
11.5941   288
11.6041   309
11.6141   325
11.6241   317
11.6341   305
11.6441   289
11.6541   308
11.6641   319
11.6741   283
11.6841   282
11.6941   280
11.7041   278
11.7141   276
11.7241   275
11.7341   269
11.7441   255
11.7541   249
11.7641   243
11.7741   233
11.7841   255
11.7941   254
11.8041   242
11.8141   235
11.8241   225
11.8341   244
11.8441   249
11.8541   240
11.8641   252
11.8741   260
11.8841   219
11.8941   226
11.9041   255
11.9141   238
11.9241   238
11.9341   246
11.9441   241
11.9541   252
11.9641   229
11.9741   234
11.9841   257
11.9941   249
12.0041   250
12.0141   245
12.0241   246
12.0341   244
12.0441   247
12.0541   240
12.0641   243
12.0741   266
12.0841   260
12.0941   250
12.1041   251
12.1141   239
12.1241   220
12.1341   217
12.1441   219
12.1541   218
12.1641   218
12.1741   219
12.1841   227
12.1941   225
12.2041   214
12.2141   203
12.2241   224
12.2341   219
12.2441   212
12.2541   228
12.2641   220
12.2741   201
12.2841   213
12.2941   212
12.3041   212
12.3141   217
12.3241   223
12.3341   223
12.3441   212
12.3541   213
12.3641   206
12.3741   212
12.3841   220
12.3941   230
12.4041   224
12.4141   220
12.4241   211
12.4341   218
12.4441   238
12.4541   242
12.4641   236
12.4741   240
12.4841   249
12.4941   242
12.5041   217
12.5141   209
12.5241   236
12.5341   255
12.5441   222
12.5541   218
12.5641   242
12.5741   244
12.5841   234
12.5941   235
12.6041   260
12.6141   278
12.6241   259
12.6341   242
12.6441   246
12.6541   252
12.6641   245
12.6741   243
12.6841   251
12.6941   252
12.7041   253
12.7141   249
12.7241   267
12.7341   269
12.7441   272
12.7541   252
12.7641   249
12.7741   263
12.7841   258
12.7941   247
12.8041   262
12.8141   264
12.8241   285
12.8341   271
12.8441   248
12.8541   268
12.8641   269
12.8741   275
12.8841   269
12.8941   247
12.9041   256
12.9141   269
12.9241   263
12.9341   247
12.9441   242
12.9541   267
12.9641   280
12.9741   265
12.9841   260
12.9941   284
13.0041   290
13.0141   263
13.0241   254
13.0341   260
13.0441   245
13.0541   263
13.0641   261
13.0741   267
13.0841   270
13.0941   261
13.1041   271
13.1141   269
13.1241   279
13.1341   265
13.1441   266
13.1541   273
13.1641   267
13.1741   281
13.1841   298
13.1941   289
13.2041   286
13.2141   302
13.2241   300
13.2341   307
13.2441   303
13.2541   302
13.2641   300
13.2741   307
13.2841   340
13.2941   358
13.3041   367
13.3141   347
13.3241   346
13.3341   365
13.3441   345
13.3541   349
13.3641   371
13.3741   383
13.3841   365
13.3941   367
13.4041   377
13.4141   360
13.4241   339
13.4341   343
13.4441   339
13.4541   333
13.4641   339
13.4741   339
13.4841   331
13.4941   326
13.5041   330
13.5141   325
13.5241   320
13.5341   315
13.5441   310
13.5541   300
13.5641   269
13.5741   295
13.5841   302
13.5941   289
13.6041   296
13.6141   301
13.6241   317
13.6341   310
13.6441   293
13.6541   296
13.6641   293
13.6741   297
13.6841   298
13.6941   301
13.7041   322
13.7141   309
13.7241   320
13.7341   329
13.7441   312
13.7541   321
13.7641   326
13.7741   324
13.7841   313
13.7941   310
13.8041   326
13.8141   341
13.8241   325
13.8341   316
13.8441   318
13.8541   308
13.8641   308
13.8741   319
13.8841   318
13.8941   325
13.9041   356
13.9141   360
13.9241   334
13.9341   350
13.9441   355
13.9541   336
13.9641   362
13.9741   375
13.9841   365
13.9941   364
14.0041   387
14.0141   417
14.0241   430
14.0341   426
14.0441   442
14.0541   470
14.0641   474
14.0741   496
14.0841   512
14.0941   515
14.1041   496
14.1141   507
14.1241   542
14.1341   547
14.1441   554
14.1541   549
14.1641   568
14.1741   551
14.1841   526
14.1941   542
14.2041   550
14.2141   524
14.2241   486
14.2341   461
14.2441   445
14.2541   447
14.2641   448
14.2741   440
14.2841   437
14.2941   436
14.3041   418
14.3141   415
14.3241   421
14.3341   400
14.3441   393
14.3541   395
14.3641   372
14.3741   357
14.3841   352
14.3941   363
14.4041   368
14.4141   377
14.4241   387
14.4341   371
14.4441   362
14.4541   365
14.4641   355
14.4741   341
14.4841   356
14.4941   359
14.5041   345
14.5141   365
14.5241   386
14.5341   382
14.5441   380
14.5541   361
14.5641   359
14.5741   375
14.5841   378
14.5941   363
14.6041   347
14.6141   352
14.6241   367
14.6341   369
14.6441   374
14.6541   375
14.6641   361
14.6741   359
14.6841   367
14.6941   372
14.7041   380
14.7141   404
14.7241   416
14.7341   424
14.7441   402
14.7541   403
14.7641   421
14.7741   412
14.7841   398
14.7941   406
14.8041   405
14.8141   401
14.8241   406
14.8341   411
14.8441   425
14.8541   417
14.8641   416
14.8741   412
14.8841   396
14.8941   405
14.9041   415
14.9141   414
14.9241   413
14.9341   423
14.9441   449
14.9541   412
14.9641   407
14.9741   428
14.9841   431
14.9941   434
15.0041   423
15.0141   428
15.0241   429
15.0341   405
15.0441   432
15.0541   421
15.0641   389
15.0741   414
15.0841   425
15.0941   422
15.1041   433
15.1141   422
15.1241   409
15.1341   416
15.1441   397
15.1541   397
15.1641   403
15.1741   395
15.1841   399
15.1941   392
15.2041   387
15.2141   402
15.2241   392
15.2341   393
15.2441   404
15.2541   405
15.2641   394
15.2741   391
15.2841   394
15.2941   417
15.3041   411
15.3141   385
15.3241   401
15.3341   397
15.3441   417
15.3541   410
15.3641   411
15.3741   408
15.3841   399
15.3941   402
15.4041   418
15.4141   412
15.4241   412
15.4341   419
15.4441   438
15.4541   429
15.4641   424
15.4741   458
15.4841   451
15.4941   415
15.5041   418
15.5141   425
15.5241   424
15.5341   426
15.5441   427
15.5541   441
15.5641   472
15.5741   443
15.5841   434
15.5941   471
15.6041   490
15.6141   522
15.6241   492
15.6341   489
15.6441   507
15.6541   521
15.6641   534
15.6741   539
15.6841   572
15.6941   567
15.7041   578
15.7141   606
15.7241   608
15.7341   566
15.7441   556
15.7541   598
15.7641   583
15.7741   588
15.7841   646
15.7941   619
15.8041   580
15.8141   571
15.8241   582
15.8341   587
15.8441   577
15.8541   557
15.8641   567
15.8741   553
15.8841   544
15.8941   538
15.9041   527
15.9141   503
15.9241   515
15.9341   498
15.9441   494
15.9541   492
15.9641   491
15.9741   505
15.9841   502
15.9941   471
16.0041   443
16.0141   481
16.0241   483
16.0341   476
16.0441   474
16.0541   463
16.0641   458
16.0741   482
16.0841   492
16.0941   448
16.1041   450
16.1141   481
16.1241   494
16.1341   499
16.1441   515
16.1541   521
16.1641   484
16.1741   470
16.1841   494
16.1941   496
16.2041   496
16.2141   489
16.2241   497
16.2341   492
16.2441   473
16.2541   468
16.2641   488
16.2741   477
16.2841   483
16.2941   491
16.3041   487
16.3141   519
16.3241   517
16.3341   523
16.3441   538
16.3541   511
16.3641   480
16.3741   482
16.3841   467
16.3941   491
16.4041   527
16.4141   506
16.4241   480
16.4341   481
16.4441   498
16.4541   501
16.4641   484
16.4741   515
16.4841   499
16.4941   508
16.5041   512
16.5141   491
16.5241   459
16.5341   476
16.5441   528
16.5541   512
16.5641   512
16.5741   483
16.5841   527
16.5941   522
16.6041   518
16.6141   524
16.6241   525
16.6341   506
16.6441   506
16.6541   514
16.6641   539
16.6741   555
16.6841   520
16.6941   488
16.7041   522
16.7141   533
16.7241   532
16.7341   532
16.7441   521
16.7541   527
16.7641   540
16.7741   524
16.7841   528
16.7941   526
16.8041   542
16.8141   560
16.8241   523
16.8341   494
16.8441   549
16.8541   582
16.8641   577
16.8741   583
16.8841   588
16.8941   554
16.9041   538
16.9141   546
16.9241   548
16.9341   545
16.9441   580
16.9541   573
16.9641   564
16.9741   534
16.9841   543
16.9941   563
17.0041   570
17.0141   529
17.0241   531
17.0341   519
17.0441   519
17.0541   575
17.0641   596
17.0741   559
17.0841   549
17.0941   567
17.1041   586
17.1141   592
17.1241   568
17.1341   576
17.1441   567
17.1541   582
17.1641   568
17.1741   568
17.1841   546
17.1941   575
17.2041   595
17.2141   553
17.2241   547
17.2341   535
17.2441   573
17.2541   593
17.2641   566
17.2741   601
17.2841   585
17.2941   581
17.3041   589
17.3141   583
17.3241   577
17.3341   584
17.3441   615
17.3541   589
17.3641   591
17.3741   609
17.3841   613
17.3941   601
17.4041   584
17.4141   609
17.4241   625
17.4341   611
17.4441   635
17.4541   623
17.4641   597
17.4741   582
17.4841   601
17.4941   621
17.5041   637
17.5141   610
17.5241   613
17.5341   609
17.5441   623
17.5541   626
17.5641   624
17.5741   607
17.5841   620
17.5941   569
17.6041   601
17.6141   651
17.6241   647
17.6341   621
17.6441   615
17.6541   629
17.6641   668
17.6741   666
17.6841   611
17.6941   614
17.7041   604
17.7141   600
17.7241   598
17.7341   635
17.7441   629
17.7541   642
17.7641   615
17.7741   653
17.7841   632
17.7941   631
17.8041   620
17.8141   615
17.8241   597
17.8341   642
17.8441   612
17.8541   629
17.8641   602
17.8741   587
17.8841   623
17.8941   635
17.9041   614
17.9141   611
17.9241   647
17.9341   649
17.9441   636
17.9541   646
17.9641   654
17.9741   681
17.9841   656
17.9941   639
18.0041   600
18.0141   650
18.0241   669
18.0341   687
18.0441   636
18.0541   639
18.0641   636
18.0741   639
18.0841   619
18.0941   626
18.1041   645
18.1141   615
18.1241   620
18.1341   635
18.1441   636
18.1541   646
18.1641   622
18.1741   680
18.1841   632
18.1941   651
18.2041   637
18.2141   677
18.2241   655
18.2341   676
18.2441   653
18.2541   647
18.2641   670
18.2741   662
18.2841   644
18.2941   666
18.3041   673
18.3141   657
18.3241   641
18.3341   612
18.3441   661
18.3541   625
18.3641   653
18.3741   638
18.3841   651
18.3941   667
18.4041   667
18.4141   649
18.4241   680
18.4341   685
18.4441   678
18.4541   705
18.4641   687
18.4741   679
18.4841   657
18.4941   692
18.5041   711
18.5141   677
18.5241   702
18.5341   687
18.5441   694
18.5541   668
18.5641   635
18.5741   669
18.5841   694
18.5941   695
18.6041   675
18.6141   675
18.6241   697
18.6341   695
18.6441   661
18.6541   691
18.6641   673
18.6741   679
18.6841   669
18.6941   670
18.7041   652
18.7141   695
18.7241   713
18.7341   706
18.7441   692
18.7541   715
18.7641   697
18.7741   663
18.7841   687
18.7941   728
18.8041   660
18.8141   650
18.8241   673
18.8341   718
18.8441   688
18.8541   705
18.8641   665
18.8741   714
18.8841   737
18.8941   739
18.9041   742
18.9141   717
18.9241   699
18.9341   676
18.9441   738
18.9541   737
18.9641   698
18.9741   709
18.9841   692
18.9941   677
19.0041   706
19.0141   745
19.0241   696
19.0341   716
19.0441   730
19.0541   712
19.0641   721
19.0741   687
19.0841   696
19.0941   701
19.1041   697
19.1141   709
19.1241   694
19.1341   690
19.1441   726
19.1541   701
19.1641   721
19.1741   744
19.1841   715
19.1941   749
19.2041   719
19.2141   718
19.2241   712
19.2341   716
19.2441   744
19.2541   726
19.2641   729
19.2741   681
19.2841   675
19.2941   701
19.3041   707
19.3141   764
19.3241   683
19.3341   735
19.3441   714
19.3541   725
19.3641   730
19.3741   731
19.3841   731
19.3941   760
19.4041   716
19.4141   703
19.4241   713
19.4341   732
19.4441   735
19.4541   744
19.4641   724
19.4741   728
19.4841   706
19.4941   738
19.5041   746
19.5141   754
19.5241   712
19.5341   722
19.5441   705
19.5541   752
19.5641   823
19.5741   727
19.5841   700
19.5941   693
19.6041   717
19.6141   787
19.6241   778
19.6341   711
19.6441   719
19.6541   713
19.6641   753
19.6741   778
19.6841   764
19.6941   729
19.7041   699
19.7141   717
19.7241   736
19.7341   736
19.7441   738
19.7541   776
19.7641   786
19.7741   757
19.7841   716
19.7941   734
19.8041   723
19.8141   734
19.8241   751
19.8341   740
19.8441   738
19.8541   747
19.8641   762
19.8741   756
19.8841   759
19.8941   756
19.9041   755
19.9141   751
19.9241   788
19.9341   751
19.9441   755
19.9541   723
19.9641   723
19.9741   738
19.9841   720
19.9941   759
20.0041   745
20.0141   728
20.0241   713
20.0341   724
20.0441   733
20.0541   755
20.0641   757
20.0741   778
20.0841   764
20.0941   765
20.1041   771
20.1141   733
20.1241   734
20.1341   785
20.1441   762
20.1541   734
20.1641   747
20.1741   758
20.1841   794
20.1941   715
20.2041   741
20.2141   726
20.2241   751
20.2341   746
20.2441   786
20.2541   730
20.2641   765
20.2741   808
20.2841   758
20.2941   756
20.3041   794
20.3141   723
20.3241   773
20.3341   770
20.3441   754
20.3541   801
20.3641   788
20.3741   802
20.3841   791
20.3941   788
20.4041   777
20.4141   768
20.4241   812
20.4341   760
20.4441   768
20.4541   790
20.4641   783
20.4741   789
20.4841   776
20.4941   782
20.5041   810
20.5141   729
20.5241   716
20.5341   762
20.5441   766
20.5541   775
20.5641   762
20.5741   779
20.5841   781
20.5941   742
20.6041   767
20.6141   813
20.6241   785
20.6341   804
20.6441   778
20.6541   795
20.6641   796
20.6741   739
20.6841   742
20.6941   832
20.7041   789
20.7141   783
20.7241   796
20.7341   816
20.7441   753
20.7541   762
20.7641   821
20.7741   775
20.7841   771
20.7941   796
20.8041   791
20.8141   853
20.8241   835
20.8341   836
20.8441   864
20.8541   867
20.8641   894
20.8741   855
20.8841   925
20.8941   898
20.9041   889
20.9141   897
20.9241   956
20.9341   950
20.9441   980
20.9541   998
20.9641   965
20.9741  1021
20.9841  1039
20.9941  1006
21.0041  1057
21.0141  1122
21.0241  1047
21.0341  1154
21.0441  1111
21.0541  1158
21.0641  1158
21.0741  1192
21.0841  1221
21.0941  1191
21.1041  1203
21.1141  1203
21.1241  1205
21.1341  1195
21.1441  1243
21.1541  1239
21.1641  1226
21.1741  1199
21.1841  1248
21.1941  1222
21.2041  1134
21.2141  1149
21.2241  1133
21.2341  1097
21.2441  1108
21.2541  1076
21.2641  1103
21.2741   950
21.2841  1002
21.2941   982
21.3041   959
21.3141   934
21.3241   896
21.3341   896
21.3441   856
21.3541   857
21.3641   872
21.3741   846
21.3841   856
21.3941   801
21.4041   838
21.4141   791
21.4241   821
21.4341   844
21.4441   805
21.4541   837
21.4641   871
21.4741   812
21.4841   800
21.4941   852
21.5041   844
21.5141   780
21.5241   782
21.5341   752
21.5441   766
21.5541   776
21.5641   784
21.5741   839
21.5841   785
21.5941   766
21.6041   788
21.6141   827
21.6241   820
21.6341   813
21.6441   810
21.6541   807
21.6641   799
21.6741   793
21.6841   817
21.6941   780
21.7041   798
21.7141   798
21.7241   801
21.7341   877
21.7441   747
21.7541   812
21.7641   804
21.7741   783
21.7841   719
21.7941   793
21.8041   746
21.8141   804
21.8241   856
21.8341   830
21.8441   776
21.8541   784
21.8641   791
21.8741   809
21.8841   825
21.8941   758
21.9041   756
21.9141   840
21.9241   749
21.9341   779
21.9441   806
21.9541   787
21.9641   817
21.9741   780
21.9841   801
21.9941   807
22.0041   791
22.0141   826
22.0241   786
22.0341   806
22.0441   820
22.0541   759
22.0641   787
22.0741   832
22.0841   799
22.0941   762
22.1041   789
22.1141   810
22.1241   808
22.1341   803
22.1441   815
22.1541   759
22.1641   751
22.1741   846
22.1841   818
22.1941   778
22.2041   822
22.2141   747
22.2241   800
22.2341   793
22.2441   767
22.2541   788
22.2641   784
22.2741   808
22.2841   790
22.2941   767
22.3041   830
22.3141   793
22.3241   840
22.3341   815
22.3441   813
22.3541   820
22.3641   846
22.3741   780
22.3841   810
22.3941   787
22.4041   800
22.4141   817
22.4241   804
22.4341   803
22.4441   847
22.4541   844
22.4641   828
22.4741   776
22.4841   794
22.4941   840
22.5041   832
22.5141   817
22.5241   801
22.5341   817
22.5441   818
22.5541   802
22.5641   774
22.5741   766
22.5841   830
22.5941   831
22.6041   744
22.6141   782
22.6241   771
22.6341   791
22.6441   801
22.6541   814
22.6641   779
22.6741   783
22.6841   754
22.6941   809
22.7041   808
22.7141   831
22.7241   755
22.7341   771
22.7441   805
22.7541   840
22.7641   808
22.7741   792
22.7841   828
22.7941   813
22.8041   764
22.8141   799
22.8241   785
22.8341   829
22.8441   798
22.8541   822
22.8641   763
22.8741   806
22.8841   791
22.8941   743
22.9041   756
22.9141   812
22.9241   778
22.9341   763
22.9441   791
22.9541   785
22.9641   799
22.9741   745
22.9841   796
22.9941   768
23.0041   836
23.0141   790
23.0241   799
23.0341   773
23.0441   762
23.0541   769
23.0641   762
23.0741   758
23.0841   732
23.0941   769
23.1041   795
23.1141   787
23.1241   763
23.1341   781
23.1441   826
23.1541   744
23.1641   802
23.1741   820
23.1841   773
23.1941   778
23.2041   792
23.2141   822
23.2241   768
23.2341   801
23.2441   759
23.2541   784
23.2641   739
23.2741   803
23.2841   782
23.2941   753
23.3041   757
23.3141   825
23.3241   755
23.3341   720
23.3441   767
23.3541   792
23.3641   802
23.3741   763
23.3841   794
23.3941   773
23.4041   778
23.4141   770
23.4241   811
23.4341   805
23.4441   794
23.4541   812
23.4641   777
23.4741   825
23.4841   822
23.4941   781
23.5041   789
23.5141   786
23.5241   726
23.5341   833
23.5441   759
23.5541   788
23.5641   766
23.5741   788
23.5841   759
23.5941   769
23.6041   802
23.6141   809
23.6241   804
23.6341   794
23.6441   764
23.6541   822
23.6641   848
23.6741   834
23.6841   822
23.6941   848
23.7041   835
23.7141   832
23.7241   875
23.7341   816
23.7441   825
23.7541   781
23.7641   838
23.7741   837
23.7841   866
23.7941   863
23.8041   842
23.8141   855
23.8241   845
23.8341   820
23.8441   829
23.8541   841
23.8641   859
23.8741   830
23.8841   796
23.8941   821
23.9041   818
23.9141   767
23.9241   815
23.9341   803
23.9441   814
23.9541   864
23.9641   862
23.9741   804
23.9841   776
23.9941   779
24.0041   787
24.0141   794
24.0241   735
24.0341   812
24.0441   779
24.0541   771
24.0641   752
24.0741   760
24.0841   749
24.0941   745
24.1041   730
24.1141   699
24.1241   746
24.1341   717
24.1441   740
24.1541   755
24.1641   746
24.1741   773
24.1841   762
24.1941   790
24.2041   765
24.2141   704
24.2241   751
24.2341   757
24.2441   789
24.2541   775
24.2641   754
24.2741   776
24.2841   749
24.2941   759
24.3041   771
24.3141   749
24.3241   734
24.3341   732
24.3441   755
24.3541   762
24.3641   738
24.3741   721
24.3841   741
24.3941   777
24.4041   716
24.4141   739
24.4241   757
24.4341   714
24.4441   756
24.4541   746
24.4641   717
24.4741   704
24.4841   765
24.4941   717
24.5041   754
24.5141   711
24.5241   761
24.5341   713
24.5441   762
24.5541   713
24.5641   675
24.5741   743
24.5841   762
24.5941   734
24.6041   749
24.6141   698
24.6241   753
24.6341   705
24.6441   738
24.6541   704
24.6641   724
24.6741   749
24.6841   731
24.6941   753
24.7041   680
24.7141   717
24.7241   714
24.7341   682
24.7441   736
24.7541   709
24.7641   736
24.7741   687
24.7841   771
24.7941   757
24.8041   696
24.8141   688
24.8241   727
24.8341   685
24.8441   696
24.8541   711
24.8641   712
24.8741   706
24.8841   694
24.8941   741
24.9041   779
24.9141   701
24.9241   705
24.9341   685
24.9441   715
24.9541   723
24.9641   716
24.9741   730
24.9841   735
24.9941   762
25.0041   674
25.0141   768
25.0241   697
25.0341   686
25.0441   747
25.0541   743
25.0641   723
25.0741   754
25.0841   697
25.0941   717
25.1041   723
25.1141   723
25.1241   689
25.1341   730
25.1441   743
25.1541   728
25.1641   720
25.1741   719
25.1841   724
25.1941   706
25.2041   693
25.2141   743
25.2241   750
25.2341   743
25.2441   736
25.2541   748
25.2641   744
25.2741   771
25.2841   750
25.2941   757
25.3041   747
25.3141   756
25.3241   754
25.3341   769
25.3441   739
25.3541   740
25.3641   707
25.3741   755
25.3841   674
25.3941   739
25.4041   749
25.4141   751
25.4241   703
25.4341   708
25.4441   744
25.4541   674
25.4641   735
25.4741   721
25.4841   673
25.4941   686
25.5041   724
25.5141   721
25.5241   658
25.5341   698
25.5441   714
25.5541   704
25.5641   718
25.5741   669
25.5841   688
25.5941   695
25.6041   661
25.6141   683
25.6241   689
25.6341   689
25.6441   711
25.6541   699
25.6641   681
25.6741   668
25.6841   689
25.6941   695
25.7041   706
25.7141   676
25.7241   687
25.7341   683
25.7441   662
25.7541   677
25.7641   727
25.7741   687
25.7841   675
25.7941   715
25.8041   693
25.8141   702
25.8241   676
25.8341   740
25.8441   685
25.8541   645
25.8641   663
25.8741   642
25.8841   643
25.8941   661
25.9041   628
25.9141   668
25.9241   636
25.9341   629
25.9441   668
25.9541   639
25.9641   657
25.9741   706
25.9841   702
25.9941   675
26.0041   687
26.0141   633
26.0241   710
26.0341   676
26.0441   673
26.0541   637
26.0641   678
26.0741   656
26.0841   669
26.0941   630
26.1041   647
26.1141   646
26.1241   654
26.1341   692
26.1441   646
26.1541   638
26.1641   626
26.1741   656
26.1841   621
26.1941   652
26.2041   707
26.2141   660
26.2241   621
26.2341   703
26.2441   669
26.2541   661
26.2641   613
26.2741   617
26.2841   623
26.2941   647
26.3041   684
26.3141   636
26.3241   658
26.3341   676
26.3441   609
26.3541   685
26.3641   659
26.3741   665
26.3841   646
26.3941   622
26.4041   662
26.4141   673
26.4241   623
26.4341   644
26.4441   650
26.4541   637
26.4641   687
26.4741   648
26.4841   612
26.4941   631
26.5041   626
26.5141   641
26.5241   675
26.5341   635
26.5441   633
26.5541   599
26.5641   630
26.5741   603
26.5841   625
26.5941   642
26.6041   665
26.6141   626
26.6241   651
26.6341   607
26.6441   627
26.6541   608
26.6641   603
26.6741   609
26.6841   636
26.6941   595
26.7041   588
26.7141   614
26.7241   655
26.7341   620
26.7441   591
26.7541   621
26.7641   630
26.7741   632
26.7841   587
26.7941   630
26.8041   647
26.8141   601
26.8241   651
26.8341   616
26.8441   618
26.8541   619
26.8641   628
26.8741   635
26.8841   603
26.8941   616
26.9041   622
26.9141   619
26.9241   637
26.9341   606
26.9441   621
26.9541   583
26.9641   585
26.9741   616
26.9841   637
26.9941   663
27.0041   564
27.0141   634
27.0241   625
27.0341   627
27.0441   646
27.0541   626
27.0641   649
27.0741   589
27.0841   600
27.0941   610
27.1041   635
27.1141   614
27.1241   622
27.1341   588
27.1441   609
27.1541   616
27.1641   619
27.1741   633
27.1841   626
27.1941   604
27.2041   612
27.2141   577
27.2241   611
27.2341   579
27.2441   562
27.2541   546
27.2641   610
27.2741   576
27.2841   627
27.2941   600
27.3041   617
27.3141   609
27.3241   605
27.3341   597
27.3441   600
27.3541   590
27.3641   575
27.3741   632
27.3841   602
27.3941   544
27.4041   618
27.4141   606
27.4241   641
27.4341   561
27.4441   577
27.4541   607
27.4641   563
27.4741   559
27.4841   578
27.4941   581
27.5041   576
27.5141   568
27.5241   564
27.5341   560
27.5441   624
27.5541   644
27.5641   626
27.5741   570
27.5841   602
27.5941   580
27.6041   574
27.6141   586
27.6241   601
27.6341   590
27.6441   541
27.6541   546
27.6641   557
27.6741   608
27.6841   564
27.6941   571
27.7041   540
27.7141   598
27.7241   603
27.7341   538
27.7441   558
27.7541   561
27.7641   537
27.7741   539
27.7841   556
27.7941   576
27.8041   548
27.8141   563
27.8241   542
27.8341   554
27.8441   543
27.8541   555
27.8641   549
27.8741   529
27.8841   519
27.8941   600
27.9041   543
27.9141   565
27.9241   549
27.9341   552
27.9441   534
27.9541   590
27.9641   531
27.9741   531
27.9841   572
27.9941   565
28.0041   558
28.0141   519
28.0241   552
28.0341   584
28.0441   563
28.0541   556
28.0641   581
28.0741   546
28.0841   554
28.0941   517
28.1041   545
28.1141   576
28.1241   527
28.1341   531
28.1441   571
28.1541   553
28.1641   535
28.1741   533
28.1841   516
28.1941   533
28.2041   540
28.2141   547
28.2241   545
28.2341   528
28.2441   526
28.2541   518
28.2641   501
28.2741   550
28.2841   557
28.2941   542
28.3041   491
28.3141   504
28.3241   535
28.3341   534
28.3441   527
28.3541   517
28.3641   554
28.3741   502
28.3841   504
28.3941   512
28.4041   559
28.4141   540
28.4241   534
28.4341   544
28.4441   528
28.4541   506
28.4641   537
28.4741   531
28.4841   530
28.4941   508
28.5041   495
28.5141   482
28.5241   484
28.5341   500
28.5441   585
28.5541   507
28.5641   541
28.5741   518
28.5841   542
28.5941   491
28.6041   509
28.6141   497
28.6241   513
28.6341   552
28.6441   542
28.6541   510
28.6641   514
28.6741   515
28.6841   508
28.6941   461
28.7041   473
28.7141   466
28.7241   497
28.7341   541
28.7441   497
28.7541   481
28.7641   497
28.7741   507
28.7841   494
28.7941   472
28.8041   502
28.8141   506
28.8241   489
28.8341   484
28.8441   518
28.8541   476
28.8641   453
28.8741   489
28.8841   480
28.8941   472
28.9041   484
28.9141   493
28.9241   531
28.9341   474
28.9441   511
28.9541   454
28.9641   459
28.9741   490
28.9841   462
28.9941   455
29.0041   535
29.0141   507
29.0241   522
29.0341   487
29.0441   462
29.0541   467
29.0641   463
29.0741   473
29.0841   484
29.0941   486
29.1041   467
29.1141   471
29.1241   444
29.1341   466
29.1441   481
29.1541   472
29.1641   492
29.1741   441
29.1841   452
29.1941   503
29.2041   495
29.2141   468
29.2241   478
29.2341   499
29.2441   470
29.2541   458
29.2641   452
29.2741   455
29.2841   476
29.2941   447
29.3041   492
29.3141   481
29.3241   479
29.3341   473
29.3441   457
29.3541   464
29.3641   458
29.3741   430
29.3841   448
29.3941   432
29.4041   518
29.4141   446
29.4241   448
29.4341   448
29.4441   459
29.4541   433
29.4641   471
29.4741   434
29.4841   430
29.4941   435
29.5041   485
29.5141   445
29.5241   443
29.5341   453
29.5441   463
29.5541   472
29.5641   472
29.5741   447
29.5841   446
29.5941   446
29.6041   458
29.6141   432
29.6241   468
29.6341   456
29.6441   467
29.6541   443
29.6641   456
29.6741   461
29.6841   411
29.6941   392
29.7041   436
29.7141   434
29.7241   465
29.7341   416
29.7441   455
29.7541   423
29.7641   438
29.7741   449
29.7841   439
29.7941   434
29.8041   444
29.8141   421
29.8241   441
29.8341   433
29.8441   424
29.8541   453
29.8641   456
29.8741   441
29.8841   448
29.8941   466
29.9041   475
29.9141   444
29.9241   427
29.9341   423
29.9441   465
29.9541   407
29.9641   448
29.9741   430
29.9841   404
29.9941   432
30.0041   428
30.0141   407
30.0241   436
30.0341   433
30.0441   397
30.0541   429
30.0641   416
30.0741   415
30.0841   415
30.0941   401
30.1041   464
30.1141   472
30.1241   410
30.1341   429
30.1441   412
30.1541   422
30.1641   442
30.1741   423
30.1841   394
30.1941   423
30.2041   394
30.2141   437
30.2241   422
30.2341   399
30.2441   413
30.2541   412
30.2641   414
30.2741   423
30.2841   406
30.2941   413
30.3041   384
30.3141   414
30.3241   398
30.3341   419
30.3441   396
30.3541   423
30.3641   420
30.3741   374
30.3841   424
30.3941   400
30.4041   418
30.4141   416
30.4241   385
30.4341   403
30.4441   394
30.4541   409
30.4641   385
30.4741   379
30.4841   417
30.4941   429
30.5041   406
30.5141   435
30.5241   400
30.5341   386
30.5441   385
30.5541   439
30.5641   412
30.5741   380
30.5841   404
30.5941   369
30.6041   358
30.6141   391
30.6241   412
30.6341   389
30.6441   411
30.6541   397
30.6641   404
30.6741   396
30.6841   379
30.6941   337
30.7041   399
30.7141   402
30.7241   384
30.7341   411
30.7441   412
30.7541   353
30.7641   337
30.7741   363
30.7841   384
30.7941   392
30.8041   376
30.8141   399
30.8241   349
30.8341   377
30.8441   385
30.8541   389
30.8641   386
30.8741   394
30.8841   378
30.8941   323
30.9041   397
30.9141   418
30.9241   416
30.9341   380
30.9441   414
30.9541   423
30.9641   394
30.9741   350
30.9841   344
30.9941   376
31.0041   379
31.0141   368
31.0241   362
31.0341   363
31.0441   392
31.0541   409
31.0641   377
31.0741   349
31.0841   362
31.0941   357
31.1041   372
31.1141   356
31.1241   364
31.1341   374
31.1441   371
31.1541   354
31.1641   345
31.1741   350
31.1841   373
31.1941   400
31.2041   329
31.2141   377
31.2241   353
31.2341   356
31.2441   401
31.2541   352
31.2641   350
31.2741   368
31.2841   378
31.2941   356
31.3041   340
31.3141   382
31.3241   333
31.3341   375
31.3441   371
31.3541   372
31.3641   367
31.3741   359
31.3841   357
31.3941   337
31.4041   342
31.4141   340
31.4241   377
31.4341   338
31.4441   374
31.4541   352
31.4641   345
31.4741   343
31.4841   343
31.4941   372
31.5041   374
31.5141   374
31.5241   322
31.5341   345
31.5441   342
31.5541   335
31.5641   354
31.5741   343
31.5841   339
31.5941   355
31.6041   336
31.6141   351
31.6241   311
31.6341   327
31.6441   333
31.6541   349
31.6641   329
31.6741   368
31.6841   356
31.6941   335
31.7041   319
31.7141   352
31.7241   351
31.7341   336
31.7441   322
31.7541   357
31.7641   330
31.7741   373
31.7841   351
31.7941   357
31.8041   347
31.8141   322
31.8241   328
31.8341   343
31.8441   314
31.8541   316
31.8641   328
31.8741   316
31.8841   346
31.8941   347
31.9041   304
31.9141   331
31.9241   330
31.9341   341
31.9441   328
31.9541   323
31.9641   339
31.9741   301
31.9841   304
31.9941   329
32.0041   317
32.0141   324
32.0241   316
32.0341   312
32.0441   308
32.0541   326
32.0641   316
32.0741   311
32.0841   332
32.0941   348
32.1041   319
32.1141   329
32.1241   343
32.1341   315
32.1441   320
32.1541   316
32.1641   309
32.1741   303
32.1841   314
32.1941   297
32.2041   286
32.2141   294
32.2241   315
32.2341   314
32.2441   309
32.2541   314
32.2641   301
32.2741   306
32.2841   308
32.2941   303
32.3041   306
32.3141   321
32.3241   316
32.3341   307
32.3441   311
32.3541   301
32.3641   304
32.3741   320
32.3841   282
32.3941   339
32.4041   306
32.4141   272
32.4241   320
32.4341   269
32.4441   310
32.4541   298
32.4641   271
32.4741   314
32.4841   280
32.4941   286
32.5041   310
32.5141   292
32.5241   273
32.5341   293
32.5441   301
32.5541   278
32.5641   308
32.5741   312
32.5841   332
32.5941   316
32.6041   291
32.6141   305
32.6241   282
32.6341   289
32.6441   313
32.6541   297
32.6641   269
32.6741   257
32.6841   298
32.6941   282
32.7041   278
32.7141   281
32.7241   295
32.7341   279
32.7441   286
32.7541   268
32.7641   294
32.7741   301
32.7841   268
32.7941   288
32.8041   260
32.8141   279
32.8241   305
32.8341   292
32.8441   295
32.8541   293
32.8641   282
32.8741   276
32.8841   275
32.8941   267
32.9041   288
32.9141   271
32.9241   251
32.9341   268
32.9441   262
32.9541   256
32.9641   248
32.9741   244
32.9841   268
32.9941   274
33.0041   272
33.0141   239
33.0241   286
33.0341   272
33.0441   281
33.0541   277
33.0641   248
33.0741   264
33.0841   281
33.0941   265
33.1041   266
33.1141   244
33.1241   240
33.1341   261
33.1441   256
33.1541   235
33.1641   275
33.1741   282
33.1841   240
33.1941   229
33.2041   281
33.2141   266
33.2241   275
33.2341   242
33.2441   278
33.2541   271
33.2641   249
33.2741   255
33.2841   247
33.2941   257
33.3041   306
33.3141   245
33.3241   252
33.3341   261
33.3441   259
33.3541   261
33.3641   253
33.3741   254
33.3841   248
33.3941   254
33.4041   261
33.4141   269
33.4241   250
33.4341   256
33.4441   248
33.4541   258
33.4641   247
33.4741   240
33.4841   229
33.4941   255
33.5041   263
33.5141   234
33.5241   250
33.5341   271
33.5441   234
33.5541   259
33.5641   262
33.5741   245
33.5841   242
33.5941   231
33.6041   244
33.6141   251
33.6241   240
33.6341   230
33.6441   265
33.6541   230
33.6641   222
33.6741   236
33.6841   223
33.6941   230
33.7041   247
33.7141   250
33.7241   266
33.7341   258
33.7441   236
33.7541   247
33.7641   248
33.7741   237
33.7841   232
33.7941   199
33.8041   229
33.8141   239
33.8241   223
33.8341   234
33.8441   260
33.8541   236
33.8641   250
33.8741   234
33.8841   214
33.8941   212
33.9041   241
33.9141   215
33.9241   229
33.9341   221
33.9441   234
33.9541   241
33.9641   235
33.9741   223
33.9841   219
33.9941   242
34.0041   217
34.0141   213
34.0241   212
34.0341   249
34.0441   229
34.0541   250
34.0641   245
34.0741   246
34.0841   205
34.0941   228
34.1041   218
34.1141   211
34.1241   202
34.1341   209
34.1441   217
34.1541   202
34.1641   253
34.1741   215
34.1841   240
34.1941   190
34.2041   222
34.2141   214
34.2241   217
34.2341   236
34.2441   223
34.2541   228
34.2641   223
34.2741   212
34.2841   221
34.2941   201
34.3041   215
34.3141   210
34.3241   216
34.3341   194
34.3441   228
34.3541   213
34.3641   207
34.3741   235
34.3841   210
34.3941   219
34.4041   198
34.4141   215
34.4241   180
34.4341   206
34.4441   226
34.4541   201
34.4641   229
34.4741   239
34.4841   206
34.4941   187
34.5041   218
34.5141   230
34.5241   163
34.5341   212
34.5441   223
34.5541   198
34.5641   228
34.5741   202
34.5841   193
34.5941   206
34.6041   205
34.6141   205
34.6241   205
34.6341   211
34.6441   221
34.6541   208
34.6641   214
34.6741   204
34.6841   187
34.6941   213
34.7041   198
34.7141   183
34.7241   196
34.7341   205
34.7441   181
34.7541   187
34.7641   191
34.7741   212
34.7841   203
34.7941   200
34.8041   181
34.8141   179
34.8241   199
34.8341   181
34.8441   198
34.8541   196
34.8641   187
34.8741   193
34.8841   177
34.8941   173
34.9041   205
34.9141   209
34.9241   177
34.9341   175
34.9441   194
34.9541   197
34.9641   178
34.9741   182
34.9841   171
34.9941   186
35.0041   186
35.0141   198
35.0241   191
35.0341   190
35.0441   180
35.0541   204
35.0641   179
35.0741   186
35.0841   200
35.0941   197
35.1041   177
35.1141   176
35.1241   191
35.1341   185
35.1441   190
35.1541   199
35.1641   167
35.1741   189
35.1841   200
35.1941   201
35.2041   179
35.2141   186
35.2241   180
35.2341   180
35.2441   179
35.2541   175
35.2641   195
35.2741   182
35.2841   182
35.2941   176
35.3041   169
35.3141   184
35.3241   183
35.3341   177
35.3441   178
35.3541   161
35.3641   170
35.3741   159
35.3841   187
35.3941   171
35.4041   172
35.4141   196
35.4241   157
35.4341   170
35.4441   189
35.4541   196
35.4641   171
35.4741   162
35.4841   180
35.4941   161
35.5041   181
35.5141   163
35.5241   192
35.5341   160
35.5441   165
35.5541   172
35.5641   178
35.5741   170
35.5841   147
35.5941   166
35.6041   183
35.6141   165
35.6241   157
35.6341   170
35.6441   175
35.6541   191
35.6641   176
35.6741   161
35.6841   149
35.6941   175
35.7041   158
35.7141   164
35.7241   136
35.7341   136
35.7441   147
35.7541   170
35.7641   189
35.7741   166
35.7841   156
35.7941   161
35.8041   163
35.8141   164
35.8241   132
35.8341   148
35.8441   149
35.8541   139
35.8641   160
35.8741   141
35.8841   165
35.8941   143
35.9041   163
35.9141   166
35.9241   139
35.9341   126
35.9441   134
35.9541   135
35.9641   160
35.9741   163
35.9841   160
35.9941   137
36.0041   149
36.0141   149
36.0241   157
36.0341   153
36.0441   150
36.0541   159
36.0641   170
36.0741   156
36.0841   148
36.0941   135
36.1041   161
36.1141   148
36.1241   151
36.1341   139
36.1441   152
36.1541   163
36.1641   180
36.1741   144
36.1841   137
36.1941   161
36.2041   162
36.2141   167
36.2241   153
36.2341   143
36.2441   149
36.2541   132
36.2641   131
36.2741   161
36.2841   132
36.2941   155
36.3041   145
36.3141   153
36.3241   156
36.3341   146
36.3441   154
36.3541   148
36.3641   136
36.3741   162
36.3841   142
36.3941   136
36.4041   151
36.4141   131
36.4241   132
36.4341   140
36.4441   146
36.4541   144
36.4641   126
36.4741   155
36.4841   150
36.4941   166
36.5041   153
36.5141   140
36.5241   146
36.5341   155
36.5441   142
36.5541   145
36.5641   137
36.5741   156
36.5841   127
36.5941   134
36.6041   128
36.6141   154
36.6241   131
36.6341   160
36.6441   130
36.6541   119
36.6641   134
36.6741   128
36.6841   126
36.6941   129
36.7041   128
36.7141   134
36.7241   127
36.7341   121
36.7441   124
36.7541   134
36.7641   136
36.7741   146
36.7841   124
36.7941   125
36.8041   119
36.8141   124
36.8241   108
36.8341   135
36.8441   140
36.8541   132
36.8641   135
36.8741   122
36.8841   128
36.8941   135
36.9041   128
36.9141   112
36.9241   127
36.9341   127
36.9441   123
36.9541   116
36.9641   128
36.9741   136
36.9841   127
36.9941   141
37.0041   114
37.0141   118
37.0241   126
37.0341   105
37.0441   109
37.0541   105
37.0641   152
37.0741   111
37.0841   125
37.0941   119
37.1041   135
37.1141   119
37.1241   137
37.1341   115
37.1441   120
37.1541   117
37.1641   112
37.1741   129
37.1841   124
37.1941   121
37.2041   109
37.2141   101
37.2241   111
37.2341   103
37.2441   117
37.2541   110
37.2641   105
37.2741   113
37.2841    98
37.2941   104
37.3041   115
37.3141   115
37.3241   100
37.3341   123
37.3441   122
37.3541   101
37.3641   102
37.3741   111
37.3841   126
37.3941   112
37.4041   112
37.4141    90
37.4241   102
37.4341   116
37.4441   104
37.4541    95
37.4641   125
37.4741   116
37.4841   112
37.4941    99
37.5041   107
37.5141   130
37.5241   123
37.5341   118
37.5441   125
37.5541   104
37.5641   113
37.5741   121
37.5841   113
37.5941   109
37.6041    99
37.6141   112
37.6241   118
37.6341    90
37.6441    93
37.6541   104
37.6641   111
37.6741    84
37.6841   108
37.6941   105
37.7041   101
37.7141   102
37.7241    98
37.7341   106
37.7441    97
37.7541   109
37.7641    98
37.7741    85
37.7841    85
37.7941    97
37.8041    87
37.8141   109
37.8241   102
37.8341    92
37.8441   111
37.8541    97
37.8641    89
37.8741    99
37.8841   112
37.8941    96
37.9041    96
37.9141   102
37.9241    85
37.9341   123
37.9441   104
37.9541    87
37.9641    87
37.9741   104
37.9841    90
37.9941    97
38.0041   106
38.0141    83
38.0241   103
38.0341    90
38.0441   106
38.0541    90
38.0641   102
38.0741    96
38.0841   102
38.0941    87
38.1041    83
38.1141    84
38.1241    92
38.1341    83
38.1441    92
38.1541    90
38.1641    94
38.1741    88
38.1841    93
38.1941    88
38.2041   103
38.2141    86
38.2241    93
38.2341    87
38.2441    87
38.2541   111
38.2641    91
38.2741    82
38.2841    73
38.2941    87
38.3041    93
38.3141    83
38.3241    81
38.3341    69
38.3441    98
38.3541    90
38.3641    93
38.3741    69
38.3841    80
38.3941    79
38.4041    87
38.4141    76
38.4241    70
38.4341    94
38.4441    70
38.4541    86
38.4641    64
38.4741    70
38.4841    88
38.4941    86
38.5041    79
38.5141    92
38.5241    80
38.5341    89
38.5441    79
38.5541    90
38.5641    85
38.5741    96
38.5841    71
38.5941    79
38.6041    78
38.6141    98
38.6241    93
38.6341    80
38.6441    60
38.6541    92
38.6641    77
38.6741    81
38.6841    81
38.6941    82
38.7041    59
38.7141    86
38.7241    84
38.7341    60
38.7441    87
38.7541    72
38.7641    83
38.7741    91
38.7841    74
38.7941    79
38.8041    64
38.8141    87
38.8241    74
38.8341    87
38.8441    85
38.8541    86
38.8641    62
38.8741    66
38.8841    75
38.8941    64
38.9041    85
38.9141    70
38.9241    75
38.9341    76
38.9441    83
38.9541    78
38.9641    84
38.9741    72
38.9841    62
38.9941    74
39.0041    59
39.0141    54
39.0241    77
39.0341    69
39.0441    59
39.0541    69
39.0641    66
39.0741    59
39.0841    64
39.0941    70
39.1041    68
39.1141    84
39.1241    67
39.1341    67
39.1441    63
39.1541    73
39.1641    71
39.1741    86
39.1841    64
39.1941    74
39.2041    61
39.2141    54
39.2241    61
39.2341    60
39.2441    65
39.2541    77
39.2641    76
39.2741    75
39.2841    60
39.2941    77
39.3041    68
39.3141    55
39.3241    76
39.3341    81
39.3441    60
39.3541    59
39.3641    66
39.3741    44
39.3841    59
39.3941    66
39.4041    65
39.4141    72
39.4241    72
39.4341    51
39.4441    70
39.4541    58
39.4641    68
39.4741    65
39.4841    64
39.4941    64
39.5041    62
39.5141    54
39.5241    58
39.5341    63
39.5441    59
39.5541    46
39.5641    61
39.5741    46
39.5841    58
39.5941    56
39.6041    55
39.6141    56
39.6241    73
39.6341    76
39.6441    62
39.6541    55
39.6641    52
39.6741    52
39.6841    39
39.6941    60
39.7041    62
39.7141    56
39.7241    65
39.7341    48
39.7441    66
39.7541    58
39.7641    60
39.7741    47
39.7841    59
39.7941    59
39.8041    52
39.8141    51
39.8241    43
39.8341    52
39.8441    54
39.8541    71
39.8641    34
39.8741    59
39.8841    45
39.8941    61
39.9041    50
39.9141    53
39.9241    46
39.9341    55
39.9441    41
39.9541    51
39.9641    51
39.9741    39
39.9841    50
39.9941    60
