Bruker Nano GmbH Berlin, Germany
Esprit 1.9

Date: 4/1/2021 4:17:37 PM
Real time: 34376
Life time: 32466
Pulse density: 78626


Detector type: XFlash 430
Window type: Custom type
Detector thickness: 0.45
Si dead layer:0.029

Calibration, lin.: 10
Calibration, abs.: -955.9
Mn FWHM: 137.05
Fano factor: 0.121
Channels: 4096

Energy Counts
-0.9559     0
-0.9459     0
-0.9359     0
-0.9259     0
-0.9159     0
-0.9059     0
-0.8959     0
-0.8859     0
-0.8759     0
-0.8659     0
-0.8559     0
-0.8459     0
-0.8359     0
-0.8259     0
-0.8159     0
-0.8059     0
-0.7959     0
-0.7859     0
-0.7759     0
-0.7659     0
-0.7559     0
-0.7459     0
-0.7359     0
-0.7259     0
-0.7159     0
-0.7059     0
-0.6959     0
-0.6859     0
-0.6759     0
-0.6659     0
-0.6559     0
-0.6459     0
-0.6359     0
-0.6259     0
-0.6159     0
-0.6059     0
-0.5959     0
-0.5859     0
-0.5759     0
-0.5659     0
-0.5559     0
-0.5459     0
-0.5359     0
-0.5259     0
-0.5159     0
-0.5059     0
-0.4959     0
-0.4859     0
-0.4759     0
-0.4659     0
-0.4559     0
-0.4459     0
-0.4359     0
-0.4259     0
-0.4159     0
-0.4059     0
-0.3959     0
-0.3859     0
-0.3759     0
-0.3659     0
-0.3559     0
-0.3459     0
-0.3359     0
-0.3259     0
-0.3159     0
-0.3059     0
-0.2959     0
-0.2859     0
-0.2759     0
-0.2659     0
-0.2559     0
-0.2459     0
-0.2359     0
-0.2259     0
-0.2159     0
-0.2059     0
-0.1959     0
-0.1859     0
-0.1759     0
-0.1659     0
-0.1559     0
-0.1459     0
-0.1359     1
-0.1259     1
-0.1159     3
-0.1059    16
-0.0959   101
-0.0859   378
-0.0759  1252
-0.0659  3885
-0.0559  9488
-0.0459 20702
-0.0359 38465
-0.0259 61856
-0.0159 84812
-0.0059 99430
 0.0041 99965
 0.0141 86473
 0.0241 63634
 0.0341 40169
 0.0441 21570
 0.0541 10131
 0.0641  4136
 0.0741  1339
 0.0841   415
 0.0941   130
 0.1041    44
 0.1141    18
 0.1241    14
 0.1341     8
 0.1441     7
 0.1541     7
 0.1641     7
 0.1741    39
 0.1841   285
 0.1941   565
 0.2041   510
 0.2141   523
 0.2241   523
 0.2341   535
 0.2441   587
 0.2541   533
 0.2641   538
 0.2741   502
 0.2841   512
 0.2941   531
 0.3041   511
 0.3141   510
 0.3241   513
 0.3341   521
 0.3441   502
 0.3541   500
 0.3641   501
 0.3741   479
 0.3841   469
 0.3941   501
 0.4041   502
 0.4141   450
 0.4241   454
 0.4341   487
 0.4441   479
 0.4541   488
 0.4641   463
 0.4741   446
 0.4841   446
 0.4941   480
 0.5041   474
 0.5141   473
 0.5241   464
 0.5341   456
 0.5441   446
 0.5541   453
 0.5641   458
 0.5741   409
 0.5841   396
 0.5941   416
 0.6041   442
 0.6141   458
 0.6241   445
 0.6341   421
 0.6441   419
 0.6541   426
 0.6641   415
 0.6741   397
 0.6841   412
 0.6941   423
 0.7041   412
 0.7141   395
 0.7241   396
 0.7341   420
 0.7441   411
 0.7541   376
 0.7641   389
 0.7741   387
 0.7841   379
 0.7941   383
 0.8041   373
 0.8141   367
 0.8241   391
 0.8341   389
 0.8441   387
 0.8541   366
 0.8641   357
 0.8741   368
 0.8841   388
 0.8941   378
 0.9041   372
 0.9141   366
 0.9241   391
 0.9341   358
 0.9441   350
 0.9541   367
 0.9641   363
 0.9741   345
 0.9841   352
 0.9941   356
 1.0041   345
 1.0141   356
 1.0241   356
 1.0341   361
 1.0441   361
 1.0541   375
 1.0641   342
 1.0741   319
 1.0841   338
 1.0941   351
 1.1041   340
 1.1141   321
 1.1241   338
 1.1341   344
 1.1441   329
 1.1541   335
 1.1641   345
 1.1741   326
 1.1841   350
 1.1941   331
 1.2041   343
 1.2141   355
 1.2241   338
 1.2341   335
 1.2441   297
 1.2541   305
 1.2641   315
 1.2741   320
 1.2841   322
 1.2941   321
 1.3041   299
 1.3141   330
 1.3241   311
 1.3341   312
 1.3441   310
 1.3541   304
 1.3641   285
 1.3741   302
 1.3841   320
 1.3941   324
 1.4041   333
 1.4141   335
 1.4241   309
 1.4341   313
 1.4441   299
 1.4541   348
 1.4641   318
 1.4741   313
 1.4841   301
 1.4941   308
 1.5041   313
 1.5141   301
 1.5241   325
 1.5341   287
 1.5441   332
 1.5541   314
 1.5641   306
 1.5741   277
 1.5841   285
 1.5941   299
 1.6041   273
 1.6141   330
 1.6241   306
 1.6341   328
 1.6441   350
 1.6541   373
 1.6641   434
 1.6741   538
 1.6841   615
 1.6941   757
 1.7041   922
 1.7141  1063
 1.7241  1161
 1.7341  1227
 1.7441  1212
 1.7541  1120
 1.7641  1017
 1.7741   883
 1.7841   769
 1.7941   670
 1.8041   569
 1.8141   491
 1.8241   455
 1.8341   384
 1.8441   356
 1.8541   357
 1.8641   352
 1.8741   302
 1.8841   313
 1.8941   333
 1.9041   313
 1.9141   296
 1.9241   335
 1.9341   306
 1.9441   302
 1.9541   358
 1.9641   339
 1.9741   348
 1.9841   364
 1.9941   360
 2.0041   381
 2.0141   391
 2.0241   374
 2.0341   367
 2.0441   361
 2.0541   324
 2.0641   326
 2.0741   291
 2.0841   289
 2.0941   290
 2.1041   293
 2.1141   321
 2.1241   298
 2.1341   255
 2.1441   288
 2.1541   298
 2.1641   290
 2.1741   256
 2.1841   293
 2.1941   278
 2.2041   265
 2.2141   279
 2.2241   259
 2.2341   272
 2.2441   257
 2.2541   258
 2.2641   261
 2.2741   256
 2.2841   280
 2.2941   251
 2.3041   263
 2.3141   260
 2.3241   258
 2.3341   259
 2.3441   259
 2.3541   249
 2.3641   251
 2.3741   247
 2.3841   268
 2.3941   255
 2.4041   255
 2.4141   247
 2.4241   242
 2.4341   271
 2.4441   246
 2.4541   238
 2.4641   221
 2.4741   212
 2.4841   243
 2.4941   259
 2.5041   245
 2.5141   224
 2.5241   239
 2.5341   255
 2.5441   240
 2.5541   233
 2.5641   220
 2.5741   240
 2.5841   234
 2.5941   214
 2.6041   240
 2.6141   215
 2.6241   239
 2.6341   239
 2.6441   243
 2.6541   237
 2.6641   226
 2.6741   221
 2.6841   230
 2.6941   219
 2.7041   210
 2.7141   230
 2.7241   220
 2.7341   224
 2.7441   243
 2.7541   252
 2.7641   201
 2.7741   196
 2.7841   258
 2.7941   240
 2.8041   209
 2.8141   240
 2.8241   237
 2.8341   194
 2.8441   261
 2.8541   212
 2.8641   219
 2.8741   205
 2.8841   225
 2.8941   224
 2.9041   234
 2.9141   245
 2.9241   204
 2.9341   215
 2.9441   204
 2.9541   214
 2.9641   172
 2.9741   231
 2.9841   203
 2.9941   205
 3.0041   239
 3.0141   246
 3.0241   209
 3.0341   220
 3.0441   190
 3.0541   196
 3.0641   191
 3.0741   209
 3.0841   210
 3.0941   172
 3.1041   189
 3.1141   197
 3.1241   182
 3.1341   177
 3.1441   194
 3.1541   177
 3.1641   179
 3.1741   194
 3.1841   165
 3.1941   181
 3.2041   176
 3.2141   173
 3.2241   194
 3.2341   196
 3.2441   190
 3.2541   214
 3.2641   199
 3.2741   186
 3.2841   243
 3.2941   220
 3.3041   189
 3.3141   240
 3.3241   233
 3.3341   255
 3.3441   229
 3.3541   248
 3.3641   169
 3.3741   194
 3.3841   172
 3.3941   165
 3.4041   158
 3.4141   173
 3.4241   148
 3.4341   164
 3.4441   174
 3.4541   180
 3.4641   174
 3.4741   168
 3.4841   161
 3.4941   172
 3.5041   163
 3.5141   182
 3.5241   180
 3.5341   186
 3.5441   181
 3.5541   215
 3.5641   256
 3.5741   288
 3.5841   350
 3.5941   405
 3.6041   516
 3.6141   591
 3.6241   751
 3.6341   957
 3.6441  1065
 3.6541  1238
 3.6641  1474
 3.6741  1520
 3.6841  1619
 3.6941  1651
 3.7041  1549
 3.7141  1491
 3.7241  1355
 3.7341  1125
 3.7441   920
 3.7541   742
 3.7641   618
 3.7741   470
 3.7841   365
 3.7941   268
 3.8041   243
 3.8141   177
 3.8241   162
 3.8341   163
 3.8441   161
 3.8541   138
 3.8641   156
 3.8741   162
 3.8841   159
 3.8941   167
 3.9041   154
 3.9141   183
 3.9241   196
 3.9341   209
 3.9441   204
 3.9541   252
 3.9641   234
 3.9741   257
 3.9841   300
 3.9941   342
 4.0041   329
 4.0141   289
 4.0241   309
 4.0341   307
 4.0441   283
 4.0541   240
 4.0641   247
 4.0741   208
 4.0841   185
 4.0941   161
 4.1041   186
 4.1141   165
 4.1241   157
 4.1341   143
 4.1441   124
 4.1541   145
 4.1641   134
 4.1741   124
 4.1841   132
 4.1941   126
 4.2041   126
 4.2141   116
 4.2241   131
 4.2341   119
 4.2441   117
 4.2541   125
 4.2641   114
 4.2741   117
 4.2841   111
 4.2941   115
 4.3041   149
 4.3141   129
 4.3241   131
 4.3341   137
 4.3441   144
 4.3541   138
 4.3641   146
 4.3741   142
 4.3841   115
 4.3941   138
 4.4041   154
 4.4141   172
 4.4241   156
 4.4341   170
 4.4441   183
 4.4541   200
 4.4641   246
 4.4741   232
 4.4841   259
 4.4941   250
 4.5041   295
 4.5141   283
 4.5241   276
 4.5341   256
 4.5441   236
 4.5541   198
 4.5641   200
 4.5741   185
 4.5841   175
 4.5941   157
 4.6041   151
 4.6141   164
 4.6241   153
 4.6341   141
 4.6441   158
 4.6541   160
 4.6641   124
 4.6741   130
 4.6841   149
 4.6941   154
 4.7041   138
 4.7141   113
 4.7241   132
 4.7341   128
 4.7441   118
 4.7541   122
 4.7641   119
 4.7741   126
 4.7841   126
 4.7941   110
 4.8041   122
 4.8141   134
 4.8241   135
 4.8341   146
 4.8441   140
 4.8541   123
 4.8641   137
 4.8741   143
 4.8841   162
 4.8941   143
 4.9041   152
 4.9141   136
 4.9241   156
 4.9341   155
 4.9441   161
 4.9541   141
 4.9641   138
 4.9741   145
 4.9841   128
 4.9941   125
 5.0041   141
 5.0141   136
 5.0241   149
 5.0341   136
 5.0441   136
 5.0541   146
 5.0641   158
 5.0741   165
 5.0841   148
 5.0941   149
 5.1041   143
 5.1141   152
 5.1241   128
 5.1341   155
 5.1441   144
 5.1541   145
 5.1641   155
 5.1741   133
 5.1841   129
 5.1941   152
 5.2041   121
 5.2141   136
 5.2241   129
 5.2341   145
 5.2441   128
 5.2541   130
 5.2641   132
 5.2741   123
 5.2841   132
 5.2941   137
 5.3041   140
 5.3141   142
 5.3241   146
 5.3341   156
 5.3441   140
 5.3541   139
 5.3641   143
 5.3741   165
 5.3841   142
 5.3941   139
 5.4041   160
 5.4141   150
 5.4241   166
 5.4341   136
 5.4441   156
 5.4541   129
 5.4641   134
 5.4741   150
 5.4841   162
 5.4941   146
 5.5041   154
 5.5141   140
 5.5241   131
 5.5341   155
 5.5441   141
 5.5541   143
 5.5641   133
 5.5741   152
 5.5841   129
 5.5941   156
 5.6041   130
 5.6141   160
 5.6241   138
 5.6341   163
 5.6441   162
 5.6541   164
 5.6641   159
 5.6741   196
 5.6841   132
 5.6941   152
 5.7041   182
 5.7141   176
 5.7241   148
 5.7341   171
 5.7441   176
 5.7541   190
 5.7641   231
 5.7741   181
 5.7841   270
 5.7941   250
 5.8041   338
 5.8141   354
 5.8241   437
 5.8341   461
 5.8441   524
 5.8541   610
 5.8641   620
 5.8741   657
 5.8841   736
 5.8941   735
 5.9041   698
 5.9141   671
 5.9241   659
 5.9341   618
 5.9441   523
 5.9541   477
 5.9641   444
 5.9741   390
 5.9841   342
 5.9941   311
 6.0041   254
 6.0141   251
 6.0241   217
 6.0341   198
 6.0441   202
 6.0541   204
 6.0641   158
 6.0741   173
 6.0841   194
 6.0941   204
 6.1041   184
 6.1141   183
 6.1241   184
 6.1341   181
 6.1441   191
 6.1541   203
 6.1641   197
 6.1741   210
 6.1841   184
 6.1941   198
 6.2041   227
 6.2141   246
 6.2241   290
 6.2341   327
 6.2441   406
 6.2541   511
 6.2641   686
 6.2741   879
 6.2841  1115
 6.2941  1420
 6.3041  1870
 6.3141  2280
 6.3241  2799
 6.3341  3216
 6.3441  3802
 6.3541  4379
 6.3641  4847
 6.3741  5152
 6.3841  5526
 6.3941  5441
 6.4041  5642
 6.4141  5505
 6.4241  5043
 6.4341  4648
 6.4441  4307
 6.4541  3748
 6.4641  3217
 6.4741  2618
 6.4841  2117
 6.4941  1763
 6.5041  1356
 6.5141  1071
 6.5241   874
 6.5341   673
 6.5441   522
 6.5541   436
 6.5641   375
 6.5741   304
 6.5841   265
 6.5941   262
 6.6041   225
 6.6141   206
 6.6241   229
 6.6341   193
 6.6441   238
 6.6541   212
 6.6641   214
 6.6741   204
 6.6841   213
 6.6941   200
 6.7041   216
 6.7141   206
 6.7241   221
 6.7341   221
 6.7441   209
 6.7541   221
 6.7641   216
 6.7741   221
 6.7841   239
 6.7941   231
 6.8041   232
 6.8141   237
 6.8241   244
 6.8341   239
 6.8441   256
 6.8541   285
 6.8641   288
 6.8741   282
 6.8841   293
 6.8941   313
 6.9041   323
 6.9141   339
 6.9241   363
 6.9341   378
 6.9441   474
 6.9541   527
 6.9641   598
 6.9741   636
 6.9841   732
 6.9941   843
 7.0041   839
 7.0141   921
 7.0241  1037
 7.0341  1018
 7.0441  1069
 7.0541  1155
 7.0641  1043
 7.0741  1088
 7.0841   991
 7.0941   939
 7.1041   836
 7.1141   793
 7.1241   680
 7.1341   620
 7.1441   587
 7.1541   517
 7.1641   456
 7.1741   435
 7.1841   358
 7.1941   346
 7.2041   355
 7.2141   343
 7.2241   322
 7.2341   295
 7.2441   327
 7.2541   321
 7.2641   327
 7.2741   320
 7.2841   327
 7.2941   312
 7.3041   339
 7.3141   360
 7.3241   364
 7.3341   348
 7.3441   365
 7.3541   378
 7.3641   395
 7.3741   425
 7.3841   407
 7.3941   453
 7.4041   421
 7.4141   404
 7.4241   396
 7.4341   392
 7.4441   374
 7.4541   368
 7.4641   362
 7.4741   349
 7.4841   360
 7.4941   356
 7.5041   312
 7.5141   288
 7.5241   315
 7.5341   283
 7.5441   297
 7.5541   320
 7.5641   301
 7.5741   295
 7.5841   324
 7.5941   316
 7.6041   344
 7.6141   329
 7.6241   343
 7.6341   344
 7.6441   319
 7.6541   305
 7.6641   372
 7.6741   343
 7.6841   380
 7.6941   374
 7.7041   370
 7.7141   373
 7.7241   410
 7.7341   399
 7.7441   397
 7.7541   417
 7.7641   434
 7.7741   400
 7.7841   470
 7.7941   496
 7.8041   432
 7.8141   496
 7.8241   458
 7.8341   511
 7.8441   519
 7.8541   524
 7.8641   575
 7.8741   602
 7.8841   649
 7.8941   628
 7.9041   598
 7.9141   668
 7.9241   689
 7.9341   711
 7.9441   695
 7.9541   775
 7.9641   831
 7.9741   847
 7.9841   903
 7.9941   932
 8.0041  1050
 8.0141  1119
 8.0241  1198
 8.0341  1216
 8.0441  1361
 8.0541  1396
 8.0641  1512
 8.0741  1620
 8.0841  1737
 8.0941  1750
 8.1041  1869
 8.1141  1942
 8.1241  2079
 8.1341  2176
 8.1441  2249
 8.1541  2258
 8.1641  2328
 8.1741  2352
 8.1841  2389
 8.1941  2388
 8.2041  2423
 8.2141  2522
 8.2241  2611
 8.2341  2562
 8.2441  2558
 8.2541  2619
 8.2641  2726
 8.2741  2939
 8.2841  3106
 8.2941  3132
 8.3041  3393
 8.3141  3699
 8.3241  3985
 8.3341  4127
 8.3441  4492
 8.3541  4727
 8.3641  4791
 8.3741  4966
 8.3841  4934
 8.3941  4962
 8.4041  4842
 8.4141  4629
 8.4241  4214
 8.4341  4160
 8.4441  3644
 8.4541  3347
 8.4641  3046
 8.4741  2668
 8.4841  2241
 8.4941  1888
 8.5041  1616
 8.5141  1404
 8.5241  1204
 8.5341  1004
 8.5441   904
 8.5541   836
 8.5641   706
 8.5741   652
 8.5841   689
 8.5941   601
 8.6041   627
 8.6141   618
 8.6241   590
 8.6341   626
 8.6441   563
 8.6541   594
 8.6641   621
 8.6741   576
 8.6841   608
 8.6941   582
 8.7041   597
 8.7141   595
 8.7241   560
 8.7341   602
 8.7441   590
 8.7541   583
 8.7641   575
 8.7741   577
 8.7841   627
 8.7941   569
 8.8041   540
 8.8141   547
 8.8241   528
 8.8341   590
 8.8441   607
 8.8541   572
 8.8641   582
 8.8741   588
 8.8841   549
 8.8941   550
 8.9041   569
 8.9141   592
 8.9241   634
 8.9341   601
 8.9441   615
 8.9541   682
 8.9641   669
 8.9741   654
 8.9841   657
 8.9941   690
 9.0041   663
 9.0141   670
 9.0241   728
 9.0341   746
 9.0441   728
 9.0541   773
 9.0641   773
 9.0741   814
 9.0841   856
 9.0941   913
 9.1041   884
 9.1141   916
 9.1241   920
 9.1341   949
 9.1441  1015
 9.1541  1065
 9.1641  1173
 9.1741  1182
 9.1841  1222
 9.1941  1297
 9.2041  1319
 9.2141  1390
 9.2241  1433
 9.2341  1519
 9.2441  1569
 9.2541  1657
 9.2641  1728
 9.2741  1806
 9.2841  1891
 9.2941  1965
 9.3041  2010
 9.3141  2138
 9.3241  2207
 9.3341  2223
 9.3441  2296
 9.3541  2372
 9.3641  2345
 9.3741  2416
 9.3841  2505
 9.3941  2441
 9.4041  2584
 9.4141  2520
 9.4241  2606
 9.4341  2626
 9.4441  2617
 9.4541  2724
 9.4641  2719
 9.4741  2823
 9.4841  2824
 9.4941  2856
 9.5041  2944
 9.5141  3020
 9.5241  3081
 9.5341  3191
 9.5441  3354
 9.5541  3469
 9.5641  3710
 9.5741  3825
 9.5841  4145
 9.5941  4301
 9.6041  4434
 9.6141  4717
 9.6241  4886
 9.6341  5122
 9.6441  5241
 9.6541  5357
 9.6641  5284
 9.6741  5409
 9.6841  5264
 9.6941  5092
 9.7041  4971
 9.7141  4746
 9.7241  4480
 9.7341  4196
 9.7441  3958
 9.7541  3670
 9.7641  3460
 9.7741  3231
 9.7841  2901
 9.7941  2771
 9.8041  2695
 9.8141  2526
 9.8241  2490
 9.8341  2418
 9.8441  2400
 9.8541  2467
 9.8641  2446
 9.8741  2537
 9.8841  2507
 9.8941  2561
 9.9041  2702
 9.9141  2746
 9.9241  2755
 9.9341  2764
 9.9441  2854
 9.9541  2830
 9.9641  2835
 9.9741  2682
 9.9841  2639
 9.9941  2496
10.0041  2449
10.0141  2236
10.0241  2052
10.0341  1834
10.0441  1654
10.0541  1488
10.0641  1279
10.0741  1186
10.0841  1097
10.0941   944
10.1041   840
10.1141   791
10.1241   683
10.1341   636
10.1441   603
10.1541   570
10.1641   556
10.1741   490
10.1841   461
10.1941   445
10.2041   459
10.2141   445
10.2241   435
10.2341   448
10.2441   416
10.2541   406
10.2641   373
10.2741   373
10.2841   374
10.2941   382
10.3041   336
10.3141   351
10.3241   345
10.3341   360
10.3441   344
10.3541   333
10.3641   333
10.3741   356
10.3841   339
10.3941   325
10.4041   301
10.4141   307
10.4241   337
10.4341   327
10.4441   316
10.4541   299
10.4641   301
10.4741   316
10.4841   330
10.4941   346
10.5041   379
10.5141   368
10.5241   350
10.5341   321
10.5441   364
10.5541   338
10.5641   357
10.5741   367
10.5841   387
10.5941   392
10.6041   329
10.6141   338
10.6241   352
10.6341   354
10.6441   392
10.6541   387
10.6641   396
10.6741   393
10.6841   394
10.6941   393
10.7041   438
10.7141   466
10.7241   469
10.7341   435
10.7441   455
10.7541   465
10.7641   461
10.7741   494
10.7841   494
10.7941   506
10.8041   537
10.8141   525
10.8241   501
10.8341   563
10.8441   554
10.8541   565
10.8641   575
10.8741   587
10.8841   601
10.8941   599
10.9041   588
10.9141   554
10.9241   571
10.9341   598
10.9441   620
10.9541   612
10.9641   604
10.9741   579
10.9841   571
10.9941   579
11.0041   578
11.0141   560
11.0241   554
11.0341   561
11.0441   560
11.0541   568
11.0641   544
11.0741   534
11.0841   528
11.0941   531
11.1041   509
11.1141   491
11.1241   552
11.1341   582
11.1441   551
11.1541   533
11.1641   548
11.1741   617
11.1841   655
11.1941   605
11.2041   653
11.2141   726
11.2241   757
11.2341   756
11.2441   774
11.2541   779
11.2641   805
11.2741   827
11.2841   825
11.2941   843
11.3041   804
11.3141   806
11.3241   805
11.3341   738
11.3441   693
11.3541   653
11.3641   685
11.3741   608
11.3841   582
11.3941   555
11.4041   514
11.4141   514
11.4241   470
11.4341   452
11.4441   446
11.4541   442
11.4641   443
11.4741   422
11.4841   383
11.4941   387
11.5041   405
11.5141   432
11.5241   428
11.5341   394
11.5441   407
11.5541   440
11.5641   405
11.5741   417
11.5841   436
11.5941   444
11.6041   430
11.6141   433
11.6241   420
11.6341   419
11.6441   410
11.6541   413
11.6641   429
11.6741   382
11.6841   358
11.6941   377
11.7041   400
11.7141   410
11.7241   391
11.7341   385
11.7441   369
11.7541   336
11.7641   315
11.7741   317
11.7841   311
11.7941   303
11.8041   296
11.8141   289
11.8241   293
11.8341   300
11.8441   303
11.8541   311
11.8641   324
11.8741   319
11.8841   290
11.8941   293
11.9041   289
11.9141   285
11.9241   315
11.9341   306
11.9441   304
11.9541   302
11.9641   317
11.9741   318
11.9841   309
11.9941   323
12.0041   316
12.0141   300
12.0241   296
12.0341   318
12.0441   326
12.0541   323
12.0641   307
12.0741   316
12.0841   318
12.0941   320
12.1041   313
12.1141   307
12.1241   298
12.1341   324
12.1441   337
12.1541   300
12.1641   286
12.1741   330
12.1841   333
12.1941   310
12.2041   285
12.2141   289
12.2241   283
12.2341   293
12.2441   292
12.2541   319
12.2641   315
12.2741   288
12.2841   305
12.2941   308
12.3041   295
12.3141   299
12.3241   285
12.3341   264
12.3441   286
12.3541   286
12.3641   287
12.3741   298
12.3841   301
12.3941   310
12.4041   309
12.4141   300
12.4241   312
12.4341   324
12.4441   321
12.4541   317
12.4641   309
12.4741   320
12.4841   324
12.4941   330
12.5041   311
12.5141   300
12.5241   311
12.5341   315
12.5441   305
12.5541   314
12.5641   320
12.5741   319
12.5841   328
12.5941   326
12.6041   332
12.6141   340
12.6241   335
12.6341   334
12.6441   343
12.6541   343
12.6641   333
12.6741   317
12.6841   322
12.6941   331
12.7041   331
12.7141   340
12.7241   331
12.7341   348
12.7441   348
12.7541   330
12.7641   343
12.7741   345
12.7841   360
12.7941   370
12.8041   352
12.8141   341
12.8241   345
12.8341   360
12.8441   349
12.8541   337
12.8641   340
12.8741   345
12.8841   353
12.8941   356
12.9041   356
12.9141   344
12.9241   320
12.9341   342
12.9441   362
12.9541   369
12.9641   357
12.9741   341
12.9841   364
12.9941   370
13.0041   365
13.0141   371
13.0241   350
13.0341   350
13.0441   373
13.0541   369
13.0641   354
13.0741   348
13.0841   348
13.0941   366
13.1041   380
13.1141   380
13.1241   376
13.1341   380
13.1441   367
13.1541   370
13.1641   381
13.1741   371
13.1841   371
13.1941   370
13.2041   366
13.2141   364
13.2241   374
13.2341   400
13.2441   416
13.2541   407
13.2641   423
13.2741   421
13.2841   405
13.2941   428
13.3041   438
13.3141   439
13.3241   438
13.3341   430
13.3441   427
13.3541   435
13.3641   445
13.3741   457
13.3841   450
13.3941   435
13.4041   417
13.4141   392
13.4241   408
13.4341   421
13.4441   421
13.4541   465
13.4641   464
13.4741   442
13.4841   425
13.4941   418
13.5041   425
13.5141   423
13.5241   409
13.5341   418
13.5441   434
13.5541   404
13.5641   397
13.5741   424
13.5841   438
13.5941   434
13.6041   437
13.6141   429
13.6241   426
13.6341   444
13.6441   445
13.6541   432
13.6641   433
13.6741   432
13.6841   433
13.6941   445
13.7041   446
13.7141   445
13.7241   432
13.7341   417
13.7441   397
13.7541   426
13.7641   459
13.7741   442
13.7841   444
13.7941   431
13.8041   427
13.8141   470
13.8241   465
13.8341   459
13.8441   456
13.8541   433
13.8641   443
13.8741   440
13.8841   419
13.8941   430
13.9041   442
13.9141   437
13.9241   439
13.9341   444
13.9441   460
13.9541   461
13.9641   467
13.9741   477
13.9841   493
13.9941   491
14.0041   464
14.0141   485
14.0241   507
14.0341   504
14.0441   501
14.0541   499
14.0641   516
14.0741   535
14.0841   529
14.0941   510
14.1041   511
14.1141   509
14.1241   534
14.1341   557
14.1441   536
14.1541   540
14.1641   556
14.1741   541
14.1841   556
14.1941   577
14.2041   550
14.2141   542
14.2241   532
14.2341   519
14.2441   511
14.2541   514
14.2641   506
14.2741   504
14.2841   515
14.2941   501
14.3041   500
14.3141   514
14.3241   518
14.3341   508
14.3441   494
14.3541   493
14.3641   522
14.3741   516
14.3841   471
14.3941   480
14.4041   497
14.4141   519
14.4241   543
14.4341   504
14.4441   509
14.4541   510
14.4641   489
14.4741   509
14.4841   521
14.4941   534
14.5041   530
14.5141   508
14.5241   518
14.5341   513
14.5441   496
14.5541   520
14.5641   508
14.5741   485
14.5841   517
14.5941   547
14.6041   528
14.6141   515
14.6241   513
14.6341   525
14.6441   536
14.6541   545
14.6641   550
14.6741   532
14.6841   535
14.6941   541
14.7041   528
14.7141   545
14.7241   540
14.7341   535
14.7441   561
14.7541   574
14.7641   568
14.7741   595
14.7841   591
14.7941   584
14.8041   568
14.8141   534
14.8241   556
14.8341   556
14.8441   531
14.8541   537
14.8641   576
14.8741   574
14.8841   556
14.8941   583
14.9041   600
14.9141   588
14.9241   585
14.9341   574
14.9441   592
14.9541   618
14.9641   575
14.9741   553
14.9841   569
14.9941   624
15.0041   608
15.0141   598
15.0241   616
15.0341   574
15.0441   557
15.0541   567
15.0641   551
15.0741   543
15.0841   557
15.0941   550
15.1041   570
15.1141   586
15.1241   580
15.1341   572
15.1441   570
15.1541   555
15.1641   545
15.1741   548
15.1841   572
15.1941   579
15.2041   576
15.2141   544
15.2241   537
15.2341   558
15.2441   580
15.2541   577
15.2641   588
15.2741   590
15.2841   564
15.2941   564
15.3041   583
15.3141   597
15.3241   593
15.3341   589
15.3441   558
15.3541   554
15.3641   610
15.3741   615
15.3841   579
15.3941   591
15.4041   589
15.4141   577
15.4241   613
15.4341   605
15.4441   606
15.4541   622
15.4641   608
15.4741   571
15.4841   605
15.4941   626
15.5041   633
15.5141   605
15.5241   611
15.5341   632
15.5441   619
15.5541   635
15.5641   690
15.5741   665
15.5841   659
15.5941   687
15.6041   696
15.6141   702
15.6241   714
15.6341   705
15.6441   703
15.6541   722
15.6641   748
15.6741   767
15.6841   797
15.6941   806
15.7041   794
15.7141   794
15.7241   807
15.7341   794
15.7441   810
15.7541   824
15.7641   803
15.7741   787
15.7841   827
15.7941   822
15.8041   792
15.8141   768
15.8241   782
15.8341   787
15.8441   780
15.8541   768
15.8641   764
15.8741   746
15.8841   743
15.8941   726
15.9041   721
15.9141   713
15.9241   716
15.9341   680
15.9441   687
15.9541   687
15.9641   682
15.9741   677
15.9841   659
15.9941   654
16.0041   665
16.0141   646
16.0241   656
16.0341   684
16.0441   698
16.0541   684
16.0641   676
16.0741   678
16.0841   695
16.0941   690
16.1041   677
16.1141   662
16.1241   699
16.1341   680
16.1441   692
16.1541   702
16.1641   699
16.1741   681
16.1841   682
16.1941   704
16.2041   717
16.2141   718
16.2241   744
16.2341   716
16.2441   700
16.2541   690
16.2641   714
16.2741   739
16.2841   716
16.2941   728
16.3041   701
16.3141   721
16.3241   729
16.3341   697
16.3441   710
16.3541   735
16.3641   760
16.3741   711
16.3841   706
16.3941   739
16.4041   736
16.4141   708
16.4241   741
16.4341   747
16.4441   718
16.4541   744
16.4641   742
16.4741   726
16.4841   724
16.4941   700
16.5041   730
16.5141   734
16.5241   759
16.5341   754
16.5441   748
16.5541   784
16.5641   767
16.5741   757
16.5841   765
16.5941   794
16.6041   782
16.6141   767
16.6241   745
16.6341   748
16.6441   724
16.6541   752
16.6641   762
16.6741   736
16.6841   772
16.6941   770
16.7041   747
16.7141   751
16.7241   763
16.7341   784
16.7441   791
16.7541   790
16.7641   749
16.7741   734
16.7841   782
16.7941   794
16.8041   799
16.8141   770
16.8241   769
16.8341   791
16.8441   799
16.8541   775
16.8641   767
16.8741   805
16.8841   771
16.8941   754
16.9041   777
16.9141   786
16.9241   787
16.9341   790
16.9441   780
16.9541   792
16.9641   817
16.9741   794
16.9841   783
16.9941   790
17.0041   810
17.0141   799
17.0241   817
17.0341   817
17.0441   827
17.0541   824
17.0641   825
17.0741   828
17.0841   825
17.0941   786
17.1041   793
17.1141   818
17.1241   813
17.1341   800
17.1441   784
17.1541   798
17.1641   799
17.1741   825
17.1841   854
17.1941   846
17.2041   816
17.2141   825
17.2241   821
17.2341   836
17.2441   855
17.2541   846
17.2641   820
17.2741   817
17.2841   818
17.2941   812
17.3041   838
17.3141   849
17.3241   843
17.3341   854
17.3441   842
17.3541   787
17.3641   808
17.3741   835
17.3841   836
17.3941   825
17.4041   840
17.4141   887
17.4241   892
17.4341   849
17.4441   887
17.4541   850
17.4641   846
17.4741   878
17.4841   856
17.4941   860
17.5041   878
17.5141   894
17.5241   871
17.5341   833
17.5441   884
17.5541   840
17.5641   851
17.5741   867
17.5841   920
17.5941   932
17.6041   896
17.6141   884
17.6241   898
17.6341   921
17.6441   910
17.6541   891
17.6641   876
17.6741   959
17.6841   928
17.6941   926
17.7041   920
17.7141   888
17.7241   904
17.7341   916
17.7441   925
17.7541   916
17.7641   924
17.7741   879
17.7841   875
17.7941   924
17.8041   948
17.8141   924
17.8241   905
17.8341   892
17.8441   894
17.8541   857
17.8641   845
17.8741   897
17.8841   877
17.8941   918
17.9041   899
17.9141   857
17.9241   877
17.9341   905
17.9441   896
17.9541   918
17.9641   910
17.9741   928
17.9841   907
17.9941   919
18.0041   942
18.0141   892
18.0241   898
18.0341   882
18.0441   920
18.0541   910
18.0641   936
18.0741   940
18.0841   915
18.0941   934
18.1041   929
18.1141   900
18.1241   883
18.1341   948
18.1441   947
18.1541   945
18.1641   915
18.1741   903
18.1841   920
18.1941   930
18.2041   911
18.2141   900
18.2241   896
18.2341   918
18.2441   898
18.2541   919
18.2641   975
18.2741   986
18.2841   960
18.2941   953
18.3041   981
18.3141   931
18.3241   944
18.3341   940
18.3441   908
18.3541   944
18.3641   932
18.3741   892
18.3841   977
18.3941   960
18.4041   949
18.4141   955
18.4241   962
18.4341   921
18.4441   922
18.4541   936
18.4641  1003
18.4741   973
18.4841   970
18.4941   970
18.5041  1009
18.5141  1006
18.5241   982
18.5341   953
18.5441   968
18.5541   930
18.5641   976
18.5741  1005
18.5841   956
18.5941   977
18.6041   968
18.6141   989
18.6241  1002
18.6341  1006
18.6441   992
18.6541   977
18.6641  1010
18.6741  1003
18.6841   991
18.6941   964
18.7041   979
18.7141  1020
18.7241  1014
18.7341  1026
18.7441   956
18.7541   958
18.7641   999
18.7741   965
18.7841   995
18.7941   966
18.8041   948
18.8141  1007
18.8241   955
18.8341   961
18.8441   954
18.8541   982
18.8641   977
18.8741  1010
18.8841  1001
18.8941   994
18.9041  1037
18.9141   997
18.9241  1021
18.9341   977
18.9441  1002
18.9541  1038
18.9641   987
18.9741  1014
18.9841  1033
18.9941  1018
19.0041  1000
19.0141   977
19.0241   973
19.0341   993
19.0441  1005
19.0541   994
19.0641  1027
19.0741  1037
19.0841  1071
19.0941   994
19.1041   983
19.1141  1027
19.1241  1041
19.1341   974
19.1441   983
19.1541  1015
19.1641  1083
19.1741  1039
19.1841  1021
19.1941  1018
19.2041  1034
19.2141  1011
19.2241   994
19.2341   993
19.2441  1016
19.2541  1017
19.2641  1036
19.2741   998
19.2841   983
19.2941  1041
19.3041  1022
19.3141  1015
19.3241  1050
19.3341  1004
19.3441  1034
19.3541  1065
19.3641   995
19.3741   967
19.3841  1016
19.3941  1002
19.4041  1017
19.4141  1017
19.4241  1065
19.4341  1070
19.4441  1052
19.4541  1072
19.4641  1032
19.4741  1071
19.4841  1041
19.4941  1040
19.5041  1037
19.5141   973
19.5241   994
19.5341  1002
19.5441  1025
19.5541  1056
19.5641   999
19.5741  1014
19.5841  1023
19.5941  1037
19.6041  1026
19.6141  1066
19.6241  1039
19.6341  1028
19.6441  1040
19.6541  1064
19.6641  1074
19.6741  1073
19.6841  1052
19.6941  1050
19.7041  1038
19.7141  1039
19.7241  1110
19.7341  1017
19.7441  1034
19.7541  1076
19.7641  1078
19.7741  1097
19.7841  1045
19.7941  1030
19.8041  1048
19.8141  1059
19.8241  1059
19.8341  1010
19.8441  1005
19.8541  1033
19.8641  1072
19.8741  1081
19.8841  1032
19.8941  1042
19.9041  1057
19.9141  1032
19.9241  1064
19.9341  1021
19.9441  1057
19.9541  1045
19.9641  1069
19.9741  1009
19.9841  1023
19.9941  1036
20.0041  1046
20.0141  1087
20.0241  1061
20.0341  1088
20.0441  1103
20.0541  1023
20.0641  1054
20.0741  1079
20.0841  1036
20.0941  1064
20.1041  1037
20.1141  1063
20.1241  1043
20.1341  1043
20.1441  1033
20.1541  1018
20.1641  1035
20.1741  1016
20.1841  1065
20.1941  1013
20.2041  1107
20.2141  1062
20.2241  1039
20.2341  1091
20.2441  1060
20.2541  1066
20.2641  1082
20.2741  1071
20.2841  1078
20.2941  1090
20.3041  1092
20.3141  1080
20.3241  1072
20.3341  1040
20.3441  1111
20.3541  1065
20.3641  1036
20.3741  1020
20.3841  1070
20.3941  1044
20.4041  1047
20.4141  1077
20.4241  1039
20.4341  1068
20.4441  1074
20.4541  1056
20.4641  1016
20.4741  1046
20.4841  1026
20.4941  1108
20.5041  1045
20.5141  1048
20.5241  1036
20.5341  1048
20.5441  1065
20.5541   993
20.5641  1053
20.5741  1073
20.5841  1034
20.5941  1011
20.6041  1091
20.6141  1078
20.6241  1039
20.6341  1010
20.6441  1083
20.6541  1056
20.6641  1071
20.6741  1065
20.6841  1036
20.6941  1070
20.7041  1071
20.7141  1079
20.7241  1076
20.7341  1050
20.7441  1104
20.7541  1110
20.7641  1072
20.7741  1100
20.7841  1079
20.7941  1076
20.8041  1116
20.8141  1094
20.8241  1099
20.8341  1170
20.8441  1126
20.8541  1116
20.8641  1125
20.8741  1206
20.8841  1145
20.8941  1172
20.9041  1201
20.9141  1257
20.9241  1261
20.9341  1300
20.9441  1333
20.9541  1309
20.9641  1337
20.9741  1417
20.9841  1418
20.9941  1427
21.0041  1451
21.0141  1514
21.0241  1546
21.0341  1421
21.0441  1469
21.0541  1457
21.0641  1527
21.0741  1513
21.0841  1535
21.0941  1552
21.1041  1618
21.1141  1548
21.1241  1626
21.1341  1643
21.1441  1591
21.1541  1546
21.1641  1536
21.1741  1538
21.1841  1501
21.1941  1543
21.2041  1485
21.2141  1544
21.2241  1484
21.2341  1467
21.2441  1421
21.2541  1349
21.2641  1369
21.2741  1365
21.2841  1325
21.2941  1279
21.3041  1257
21.3141  1258
21.3241  1194
21.3341  1152
21.3441  1188
21.3541  1260
21.3641  1190
21.3741  1123
21.3841  1128
21.3941  1054
21.4041  1103
21.4141  1088
21.4241  1079
21.4341  1087
21.4441  1071
21.4541  1112
21.4641  1110
21.4741  1052
21.4841  1082
21.4941  1073
21.5041  1093
21.5141  1071
21.5241  1076
21.5341  1093
21.5441  1052
21.5541  1070
21.5641  1063
21.5741  1115
21.5841  1081
21.5941  1096
21.6041  1160
21.6141  1152
21.6241  1075
21.6341  1091
21.6441  1103
21.6541  1089
21.6641  1000
21.6741  1090
21.6841  1086
21.6941  1088
21.7041  1089
21.7141  1083
21.7241  1100
21.7341  1072
21.7441  1109
21.7541  1051
21.7641  1120
21.7741  1088
21.7841  1104
21.7941  1071
21.8041  1060
21.8141  1127
21.8241  1042
21.8341  1089
21.8441  1082
21.8541  1040
21.8641  1086
21.8741  1087
21.8841  1099
21.8941  1077
21.9041  1095
21.9141  1101
21.9241  1064
21.9341  1082
21.9441  1103
21.9541  1064
21.9641  1033
21.9741  1085
21.9841  1097
21.9941  1038
22.0041  1099
22.0141  1011
22.0241  1075
22.0341  1096
22.0441  1031
22.0541  1022
22.0641  1095
22.0741  1076
22.0841  1048
22.0941  1051
22.1041  1098
22.1141  1017
22.1241  1013
22.1341  1118
22.1441  1127
22.1541  1072
22.1641  1039
22.1741  1053
22.1841  1036
22.1941  1075
22.2041  1056
22.2141  1085
22.2241  1057
22.2341  1066
22.2441  1087
22.2541  1093
22.2641  1033
22.2741  1054
22.2841  1041
22.2941  1060
22.3041  1018
22.3141  1037
22.3241  1048
22.3341  1111
22.3441  1019
22.3541  1071
22.3641  1052
22.3741  1071
22.3841  1047
22.3941  1074
22.4041  1029
22.4141  1082
22.4241  1065
22.4341  1025
22.4441  1051
22.4541  1030
22.4641  1074
22.4741  1077
22.4841  1070
22.4941  1042
22.5041  1017
22.5141  1018
22.5241  1076
22.5341  1006
22.5441  1055
22.5541  1072
22.5641  1064
22.5741  1079
22.5841  1054
22.5941  1067
22.6041  1036
22.6141  1016
22.6241  1124
22.6341  1038
22.6441  1045
22.6541   985
22.6641  1059
22.6741  1083
22.6841  1119
22.6941  1002
22.7041  1055
22.7141  1049
22.7241  1063
22.7341  1024
22.7441  1117
22.7541  1023
22.7641  1039
22.7741  1084
22.7841  1027
22.7941  1038
22.8041  1077
22.8141  1024
22.8241   985
22.8341  1054
22.8441   943
22.8541  1085
22.8641   998
22.8741  1016
22.8841  1051
22.8941  1026
22.9041  1037
22.9141  1030
22.9241  1021
22.9341   989
22.9441  1059
22.9541   997
22.9641  1011
22.9741  1036
22.9841  1067
22.9941  1004
23.0041   987
23.0141  1024
23.0241  1033
23.0341  1036
23.0441  1052
23.0541  1013
23.0641  1016
23.0741  1049
23.0841  1037
23.0941  1028
23.1041  1102
23.1141  1009
23.1241  1028
23.1341  1038
23.1441  1021
23.1541   996
23.1641  1024
23.1741  1067
23.1841  1002
23.1941   995
23.2041  1073
23.2141  1008
23.2241  1017
23.2341   961
23.2441  1022
23.2541   992
23.2641  1018
23.2741  1060
23.2841  1026
23.2941   992
23.3041  1026
23.3141  1009
23.3241  1024
23.3341   997
23.3441   983
23.3541  1039
23.3641   955
23.3741   998
23.3841  1049
23.3941  1028
23.4041   986
23.4141  1018
23.4241  1018
23.4341   971
23.4441  1030
23.4541  1002
23.4641  1014
23.4741  1012
23.4841  1057
23.4941   993
23.5041  1023
23.5141   994
23.5241  1056
23.5341   966
23.5441   991
23.5541  1060
23.5641  1016
23.5741  1067
23.5841  1022
23.5941   989
23.6041  1023
23.6141  1073
23.6241  1041
23.6341   975
23.6441   999
23.6541  1021
23.6641  1103
23.6741  1069
23.6841  1064
23.6941  1128
23.7041  1103
23.7141  1072
23.7241  1019
23.7341  1103
23.7441  1107
23.7541  1092
23.7641  1051
23.7741  1106
23.7841  1043
23.7941  1156
23.8041  1043
23.8141  1047
23.8241  1077
23.8341  1045
23.8441  1119
23.8541  1084
23.8641  1104
23.8741  1043
23.8841  1074
23.8941  1050
23.9041  1043
23.9141  1081
23.9241  1044
23.9341  1059
23.9441  1074
23.9541  1012
23.9641  1009
23.9741  1064
23.9841  1034
23.9941   970
24.0041   982
24.0141   981
24.0241   986
24.0341   979
24.0441   954
24.0541  1011
24.0641   983
24.0741   977
24.0841  1031
24.0941   986
24.1041   988
24.1141   948
24.1241   985
24.1341   990
24.1441  1031
24.1541   915
24.1641  1000
24.1741   987
24.1841   951
24.1941   924
24.2041  1009
24.2141   977
24.2241   996
24.2341   977
24.2441   988
24.2541   973
24.2641   933
24.2741   942
24.2841   960
24.2941   965
24.3041   924
24.3141  1000
24.3241   949
24.3341   916
24.3441   977
24.3541   977
24.3641   955
24.3741  1003
24.3841   938
24.3941   954
24.4041   970
24.4141   942
24.4241   937
24.4341   967
24.4441   952
24.4541   874
24.4641   921
24.4741   964
24.4841   974
24.4941   974
24.5041   903
24.5141   917
24.5241   913
24.5341   930
24.5441   921
24.5541   928
24.5641   910
24.5741   941
24.5841   927
24.5941   920
24.6041   917
24.6141   918
24.6241   861
24.6341   862
24.6441   935
24.6541   943
24.6641   940
24.6741   902
24.6841   895
24.6941   928
24.7041   903
24.7141   926
24.7241   958
24.7341   930
24.7441   952
24.7541   963
24.7641   907
24.7741   947
24.7841   890
24.7941   941
24.8041   969
24.8141   894
24.8241   890
24.8341   993
24.8441   909
24.8541   947
24.8641   915
24.8741   894
24.8841   921
24.8941   918
24.9041   933
24.9141   918
24.9241   921
24.9341   956
24.9441   912
24.9541   946
24.9641   931
24.9741   932
24.9841   936
24.9941   950
25.0041   964
25.0141   925
25.0241   861
25.0341   963
25.0441   916
25.0541   960
25.0641   916
25.0741   896
25.0841   906
25.0941   888
25.1041   938
25.1141   954
25.1241   946
25.1341   925
25.1441   958
25.1541   947
25.1641   970
25.1741   881
25.1841   919
25.1941   915
25.2041   894
25.2141   932
25.2241   932
25.2341   923
25.2441   872
25.2541   908
25.2641   931
25.2741   941
25.2841   920
25.2941   911
25.3041   926
25.3141   926
25.3241   890
25.3341   894
25.3441   928
25.3541   938
25.3641   946
25.3741   882
25.3841   894
25.3941   921
25.4041   877
25.4141   903
25.4241   909
25.4341   909
25.4441   856
25.4541   872
25.4641   840
25.4741   832
25.4841   880
25.4941   833
25.5041   845
25.5141   849
25.5241   904
25.5341   887
25.5441   908
25.5541   903
25.5641   872
25.5741   828
25.5841   834
25.5941   800
25.6041   909
25.6141   873
25.6241   866
25.6341   849
25.6441   887
25.6541   832
25.6641   842
25.6741   806
25.6841   860
25.6941   855
25.7041   853
25.7141   825
25.7241   893
25.7341   862
25.7441   887
25.7541   851
25.7641   865
25.7741   856
25.7841   844
25.7941   838
25.8041   859
25.8141   854
25.8241   808
25.8341   800
25.8441   872
25.8541   845
25.8641   779
25.8741   850
25.8841   836
25.8941   830
25.9041   851
25.9141   836
25.9241   849
25.9341   807
25.9441   850
25.9541   803
25.9641   814
25.9741   801
25.9841   842
25.9941   857
26.0041   883
26.0141   783
26.0241   835
26.0341   836
26.0441   824
26.0541   892
26.0641   885
26.0741   852
26.0841   819
26.0941   814
26.1041   824
26.1141   803
26.1241   788
26.1341   831
26.1441   842
26.1541   807
26.1641   800
26.1741   815
26.1841   830
26.1941   846
26.2041   801
26.2141   791
26.2241   849
26.2341   842
26.2441   792
26.2541   810
26.2641   811
26.2741   744
26.2841   791
26.2941   830
26.3041   810
26.3141   780
26.3241   784
26.3341   782
26.3441   793
26.3541   824
26.3641   780
26.3741   785
26.3841   812
26.3941   803
26.4041   819
26.4141   841
26.4241   820
26.4341   798
26.4441   769
26.4541   823
26.4641   782
26.4741   794
26.4841   862
26.4941   787
26.5041   761
26.5141   824
26.5241   850
26.5341   778
26.5441   786
26.5541   806
26.5641   830
26.5741   797
26.5841   777
26.5941   795
26.6041   755
26.6141   765
26.6241   724
26.6341   753
26.6441   773
26.6541   727
26.6641   816
26.6741   814
26.6841   796
26.6941   742
26.7041   745
26.7141   780
26.7241   790
26.7341   763
26.7441   798
26.7541   745
26.7641   742
26.7741   741
26.7841   734
26.7941   750
26.8041   744
26.8141   767
26.8241   779
26.8341   780
26.8441   805
26.8541   772
26.8641   782
26.8741   792
26.8841   752
26.8941   765
26.9041   748
26.9141   770
26.9241   770
26.9341   746
26.9441   694
26.9541   748
26.9641   736
26.9741   721
26.9841   757
26.9941   722
27.0041   728
27.0141   739
27.0241   788
27.0341   771
27.0441   722
27.0541   734
27.0641   744
27.0741   761
27.0841   760
27.0941   689
27.1041   764
27.1141   732
27.1241   749
27.1341   720
27.1441   752
27.1541   724
27.1641   737
27.1741   716
27.1841   754
27.1941   746
27.2041   717
27.2141   710
27.2241   720
27.2341   736
27.2441   712
27.2541   679
27.2641   704
27.2741   754
27.2841   757
27.2941   746
27.3041   743
27.3141   749
27.3241   698
27.3341   742
27.3441   724
27.3541   756
27.3641   742
27.3741   752
27.3841   741
27.3941   745
27.4041   747
27.4141   708
27.4241   703
27.4341   716
27.4441   739
27.4541   765
27.4641   745
27.4741   742
27.4841   691
27.4941   706
27.5041   708
27.5141   725
27.5241   716
27.5341   657
27.5441   717
27.5541   674
27.5641   701
27.5741   692
27.5841   684
27.5941   697
27.6041   697
27.6141   685
27.6241   725
27.6341   717
27.6441   682
27.6541   717
27.6641   704
27.6741   728
27.6841   687
27.6941   699
27.7041   675
27.7141   649
27.7241   676
27.7341   689
27.7441   668
27.7541   667
27.7641   692
27.7741   713
27.7841   701
27.7941   676
27.8041   678
27.8141   699
27.8241   671
27.8341   665
27.8441   657
27.8541   644
27.8641   666
27.8741   685
27.8841   677
27.8941   645
27.9041   670
27.9141   682
27.9241   615
27.9341   670
27.9441   641
27.9541   649
27.9641   644
27.9741   640
27.9841   711
27.9941   620
28.0041   648
28.0141   643
28.0241   631
28.0341   657
28.0441   646
28.0541   654
28.0641   670
28.0741   658
28.0841   711
28.0941   652
28.1041   657
28.1141   649
28.1241   587
28.1341   615
28.1441   610
28.1541   668
28.1641   635
28.1741   638
28.1841   618
28.1941   636
28.2041   660
28.2141   663
28.2241   608
28.2341   637
28.2441   679
28.2541   658
28.2641   618
28.2741   705
28.2841   662
28.2941   645
28.3041   610
28.3141   646
28.3241   636
28.3341   675
28.3441   643
28.3541   665
28.3641   630
28.3741   636
28.3841   593
28.3941   604
28.4041   651
28.4141   627
28.4241   580
28.4341   604
28.4441   607
28.4541   667
28.4641   649
28.4741   665
28.4841   655
28.4941   610
28.5041   581
28.5141   643
28.5241   652
28.5341   663
28.5441   608
28.5541   599
28.5641   653
28.5741   644
28.5841   599
28.5941   607
28.6041   608
28.6141   609
28.6241   641
28.6341   627
28.6441   607
28.6541   613
28.6641   633
28.6741   600
28.6841   576
28.6941   632
28.7041   623
28.7141   620
28.7241   596
28.7341   619
28.7441   648
28.7541   608
28.7641   587
28.7741   593
28.7841   624
28.7941   606
28.8041   579
28.8141   593
28.8241   574
28.8341   609
28.8441   598
28.8541   576
28.8641   572
28.8741   575
28.8841   594
28.8941   543
28.9041   574
28.9141   554
28.9241   601
28.9341   592
28.9441   601
28.9541   607
28.9641   566
28.9741   588
28.9841   564
28.9941   578
29.0041   631
29.0141   624
29.0241   573
29.0341   565
29.0441   600
29.0541   534
29.0641   577
29.0741   574
29.0841   557
29.0941   602
29.1041   610
29.1141   572
29.1241   557
29.1341   583
29.1441   560
29.1541   562
29.1641   587
29.1741   569
29.1841   551
29.1941   559
29.2041   552
29.2141   550
29.2241   578
29.2341   577
29.2441   560
29.2541   519
29.2641   584
29.2741   543
29.2841   521
29.2941   528
29.3041   549
29.3141   588
29.3241   543
29.3341   565
29.3441   534
29.3541   488
29.3641   507
29.3741   574
29.3841   515
29.3941   521
29.4041   562
29.4141   534
29.4241   537
29.4341   566
29.4441   539
29.4541   536
29.4641   546
29.4741   546
29.4841   528
29.4941   529
29.5041   540
29.5141   542
29.5241   543
29.5341   557
29.5441   560
29.5541   560
29.5641   525
29.5741   536
29.5841   538
29.5941   523
29.6041   559
29.6141   540
29.6241   501
29.6341   534
29.6441   511
29.6541   548
29.6641   545
29.6741   570
29.6841   576
29.6941   529
29.7041   510
29.7141   497
29.7241   562
29.7341   519
29.7441   539
29.7541   489
29.7641   499
29.7741   503
29.7841   522
29.7941   506
29.8041   489
29.8141   545
29.8241   533
29.8341   529
29.8441   513
29.8541   509
29.8641   488
29.8741   517
29.8841   451
29.8941   525
29.9041   502
29.9141   535
29.9241   523
29.9341   501
29.9441   520
29.9541   564
29.9641   536
29.9741   507
29.9841   503
29.9941   500
30.0041   513
30.0141   508
30.0241   481
30.0341   508
30.0441   501
30.0541   480
30.0641   487
30.0741   505
30.0841   440
30.0941   507
30.1041   448
30.1141   551
30.1241   477
30.1341   469
30.1441   502
30.1541   520
30.1641   497
30.1741   512
30.1841   493
30.1941   501
30.2041   503
30.2141   492
30.2241   499
30.2341   449
30.2441   481
30.2541   482
30.2641   472
30.2741   467
30.2841   471
30.2941   507
30.3041   496
30.3141   470
30.3241   524
30.3341   481
30.3441   497
30.3541   482
30.3641   490
30.3741   491
30.3841   494
30.3941   499
30.4041   474
30.4141   448
30.4241   448
30.4341   446
30.4441   485
30.4541   508
30.4641   459
30.4741   494
30.4841   458
30.4941   481
30.5041   447
30.5141   434
30.5241   442
30.5341   437
30.5441   476
30.5541   466
30.5641   450
30.5741   465
30.5841   432
30.5941   458
30.6041   482
30.6141   472
30.6241   442
30.6341   421
30.6441   441
30.6541   450
30.6641   460
30.6741   445
30.6841   435
30.6941   457
30.7041   451
30.7141   476
30.7241   467
30.7341   434
30.7441   455
30.7541   416
30.7641   462
30.7741   462
30.7841   470
30.7941   416
30.8041   436
30.8141   425
30.8241   469
30.8341   456
30.8441   420
30.8541   449
30.8641   434
30.8741   450
30.8841   454
30.8941   456
30.9041   450
30.9141   417
30.9241   447
30.9341   421
30.9441   411
30.9541   423
30.9641   418
30.9741   424
30.9841   408
30.9941   429
31.0041   436
31.0141   450
31.0241   426
31.0341   406
31.0441   461
31.0541   433
31.0641   444
31.0741   460
31.0841   433
31.0941   426
31.1041   411
31.1141   423
31.1241   427
31.1341   417
31.1441   432
31.1541   442
31.1641   416
31.1741   407
31.1841   417
31.1941   433
31.2041   462
31.2141   431
31.2241   414
31.2341   413
31.2441   402
31.2541   417
31.2641   411
31.2741   425
31.2841   410
31.2941   420
31.3041   433
31.3141   403
31.3241   428
31.3341   415
31.3441   397
31.3541   397
31.3641   406
31.3741   398
31.3841   386
31.3941   408
31.4041   392
31.4141   413
31.4241   390
31.4341   399
31.4441   415
31.4541   392
31.4641   440
31.4741   437
31.4841   422
31.4941   403
31.5041   398
31.5141   404
31.5241   418
31.5341   415
31.5441   435
31.5541   385
31.5641   393
31.5741   395
31.5841   373
31.5941   417
31.6041   378
31.6141   393
31.6241   400
31.6341   388
31.6441   415
31.6541   401
31.6641   395
31.6741   390
31.6841   393
31.6941   391
31.7041   396
31.7141   399
31.7241   367
31.7341   351
31.7441   366
31.7541   358
31.7641   362
31.7741   353
31.7841   403
31.7941   381
31.8041   355
31.8141   402
31.8241   400
31.8341   401
31.8441   366
31.8541   371
31.8641   356
31.8741   355
31.8841   402
31.8941   390
31.9041   384
31.9141   405
31.9241   369
31.9341   344
31.9441   355
31.9541   374
31.9641   365
31.9741   415
31.9841   383
31.9941   367
32.0041   406
32.0141   386
32.0241   369
32.0341   354
32.0441   351
32.0541   358
32.0641   367
32.0741   407
32.0841   383
32.0941   334
32.1041   352
32.1141   373
32.1241   340
32.1341   358
32.1441   380
32.1541   353
32.1641   359
32.1741   381
32.1841   328
32.1941   358
32.2041   388
32.2141   381
32.2241   354
32.2341   378
32.2441   370
32.2541   352
32.2641   358
32.2741   345
32.2841   339
32.2941   359
32.3041   340
32.3141   347
32.3241   336
32.3341   330
32.3441   367
32.3541   359
32.3641   354
32.3741   354
32.3841   301
32.3941   338
32.4041   363
32.4141   334
32.4241   372
32.4341   343
32.4441   346
32.4541   331
32.4641   357
32.4741   344
32.4841   327
32.4941   334
32.5041   357
32.5141   355
32.5241   354
32.5341   349
32.5441   363
32.5541   302
32.5641   335
32.5741   335
32.5841   327
32.5941   310
32.6041   325
32.6141   345
32.6241   348
32.6341   327
32.6441   309
32.6541   318
32.6641   282
32.6741   301
32.6841   325
32.6941   355
32.7041   315
32.7141   334
32.7241   310
32.7341   325
32.7441   319
32.7541   288
32.7641   332
32.7741   330
32.7841   317
32.7941   318
32.8041   340
32.8141   318
32.8241   334
32.8341   323
32.8441   288
32.8541   325
32.8641   322
32.8741   297
32.8841   291
32.8941   330
32.9041   307
32.9141   309
32.9241   347
32.9341   328
32.9441   292
32.9541   296
32.9641   332
32.9741   332
32.9841   314
32.9941   292
33.0041   297
33.0141   317
33.0241   313
33.0341   329
33.0441   291
33.0541   304
33.0641   338
33.0741   315
33.0841   305
33.0941   301
33.1041   286
33.1141   311
33.1241   298
33.1341   303
33.1441   339
33.1541   318
33.1641   325
33.1741   270
33.1841   313
33.1941   313
33.2041   303
33.2141   331
33.2241   295
33.2341   284
33.2441   310
33.2541   280
33.2641   312
33.2741   294
33.2841   327
33.2941   283
33.3041   317
33.3141   317
33.3241   288
33.3341   284
33.3441   305
33.3541   312
33.3641   293
33.3741   306
33.3841   260
33.3941   273
33.4041   272
33.4141   292
33.4241   280
33.4341   288
33.4441   309
33.4541   300
33.4641   303
33.4741   292
33.4841   278
33.4941   286
33.5041   279
33.5141   313
33.5241   284
33.5341   292
33.5441   297
33.5541   272
33.5641   300
33.5741   305
33.5841   272
33.5941   288
33.6041   301
33.6141   303
33.6241   284
33.6341   270
33.6441   291
33.6541   268
33.6641   278
33.6741   252
33.6841   290
33.6941   278
33.7041   279
33.7141   270
33.7241   278
33.7341   259
33.7441   292
33.7541   263
33.7641   282
33.7741   271
33.7841   292
33.7941   272
33.8041   277
33.8141   257
33.8241   264
33.8341   288
33.8441   256
33.8541   277
33.8641   257
33.8741   258
33.8841   264
33.8941   296
33.9041   260
33.9141   262
33.9241   233
33.9341   248
33.9441   260
33.9541   264
33.9641   283
33.9741   271
33.9841   241
33.9941   253
34.0041   248
34.0141   263
34.0241   272
34.0341   251
34.0441   248
34.0541   213
34.0641   285
34.0741   264
34.0841   234
34.0941   257
34.1041   240
34.1141   233
34.1241   254
34.1341   245
34.1441   259
34.1541   240
34.1641   266
34.1741   238
34.1841   277
34.1941   242
34.2041   250
34.2141   284
34.2241   255
34.2341   234
34.2441   245
34.2541   257
34.2641   241
34.2741   253
34.2841   253
34.2941   259
34.3041   224
34.3141   233
34.3241   266
34.3341   235
34.3441   239
34.3541   264
34.3641   241
34.3741   247
34.3841   230
34.3941   237
34.4041   221
34.4141   254
34.4241   241
34.4341   234
34.4441   230
34.4541   246
34.4641   251
34.4741   240
34.4841   266
34.4941   253
34.5041   214
34.5141   239
34.5241   251
34.5341   210
34.5441   222
34.5541   238
34.5641   232
34.5741   228
34.5841   233
34.5941   242
34.6041   253
34.6141   216
34.6241   236
34.6341   222
34.6441   209
34.6541   227
34.6641   220
34.6741   226
34.6841   257
34.6941   229
34.7041   232
34.7141   231
34.7241   232
34.7341   200
34.7441   240
34.7541   203
34.7641   215
34.7741   219
34.7841   241
34.7941   192
34.8041   215
34.8141   210
34.8241   199
34.8341   226
34.8441   237
34.8541   225
34.8641   221
34.8741   222
34.8841   219
34.8941   228
34.9041   218
34.9141   220
34.9241   186
34.9341   203
34.9441   229
34.9541   220
34.9641   206
34.9741   202
34.9841   219
34.9941   221
35.0041   209
35.0141   204
35.0241   217
35.0341   210
35.0441   210
35.0541   200
35.0641   205
35.0741   200
35.0841   222
35.0941   229
35.1041   203
35.1141   215
35.1241   227
35.1341   211
35.1441   220
35.1541   216
35.1641   222
35.1741   181
35.1841   202
35.1941   213
35.2041   252
35.2141   209
35.2241   197
35.2341   175
35.2441   179
35.2541   186
35.2641   198
35.2741   205
35.2841   205
35.2941   180
35.3041   196
35.3141   184
35.3241   220
35.3341   198
35.3441   193
35.3541   210
35.3641   224
35.3741   197
35.3841   233
35.3941   201
35.4041   199
35.4141   187
35.4241   186
35.4341   206
35.4441   189
35.4541   202
35.4641   190
35.4741   186
35.4841   202
35.4941   197
35.5041   179
35.5141   185
35.5241   194
35.5341   200
35.5441   200
35.5541   198
35.5641   192
35.5741   185
35.5841   156
35.5941   182
35.6041   214
35.6141   190
35.6241   186
35.6341   170
35.6441   194
35.6541   200
35.6641   194
35.6741   186
35.6841   175
35.6941   182
35.7041   176
35.7141   197
35.7241   180
35.7341   196
35.7441   177
35.7541   176
35.7641   189
35.7741   194
35.7841   202
35.7941   187
35.8041   180
35.8141   187
35.8241   180
35.8341   166
35.8441   183
35.8541   154
35.8641   169
35.8741   175
35.8841   151
35.8941   177
35.9041   192
35.9141   165
35.9241   172
35.9341   162
35.9441   198
35.9541   175
35.9641   165
35.9741   176
35.9841   170
35.9941   168
36.0041   165
36.0141   154
36.0241   192
36.0341   171
36.0441   180
36.0541   174
36.0641   167
36.0741   177
36.0841   171
36.0941   172
36.1041   175
36.1141   188
36.1241   168
36.1341   188
36.1441   174
36.1541   173
36.1641   165
36.1741   180
36.1841   193
36.1941   165
36.2041   168
36.2141   161
36.2241   162
36.2341   167
36.2441   183
36.2541   155
36.2641   161
36.2741   170
36.2841   162
36.2941   167
36.3041   150
36.3141   159
36.3241   179
36.3341   173
36.3441   163
36.3541   179
36.3641   175
36.3741   151
36.3841   168
36.3941   164
36.4041   145
36.4141   153
36.4241   150
36.4341   183
36.4441   166
36.4541   156
36.4641   165
36.4741   154
36.4841   154
36.4941   146
36.5041   167
36.5141   161
36.5241   137
36.5341   163
36.5441   165
36.5541   151
36.5641   169
36.5741   137
36.5841   145
36.5941   142
36.6041   160
36.6141   142
36.6241   157
36.6341   169
36.6441   158
36.6541   150
36.6641   169
36.6741   135
36.6841   133
36.6941   147
36.7041   147
36.7141   168
36.7241   139
36.7341   149
36.7441   151
36.7541   135
36.7641   141
36.7741   140
36.7841   162
36.7941   153
36.8041   154
36.8141   146
36.8241   149
36.8341   137
36.8441   131
36.8541   142
36.8641   153
36.8741   131
36.8841   133
36.8941   142
36.9041   136
36.9141   140
36.9241   144
36.9341   127
36.9441   140
36.9541   152
36.9641   135
36.9741   159
36.9841   134
36.9941   143
37.0041   143
37.0141   151
37.0241   117
37.0341   133
37.0441   135
37.0541   150
37.0641   135
37.0741   120
37.0841   143
37.0941   150
37.1041   146
37.1141   119
37.1241   136
37.1341   110
37.1441   146
37.1541   139
37.1641   144
37.1741   144
37.1841   127
37.1941   137
37.2041   141
37.2141   152
37.2241   129
37.2341   132
37.2441   124
37.2541   131
37.2641   154
37.2741   138
37.2841   118
37.2941   146
37.3041   122
37.3141   116
37.3241   124
37.3341   122
37.3441   130
37.3541   133
37.3641   118
37.3741   134
37.3841   124
37.3941   119
37.4041   124
37.4141   104
37.4241   115
37.4341   126
37.4441   115
37.4541   110
37.4641   120
37.4741   114
37.4841   131
37.4941   122
37.5041   129
37.5141   108
37.5241   103
37.5341   112
37.5441   105
37.5541   104
37.5641   117
37.5741   119
37.5841   126
37.5941   133
37.6041   104
37.6141   116
37.6241   138
37.6341   121
37.6441   134
37.6541   103
37.6641   122
37.6741   113
37.6841   140
37.6941   109
37.7041   116
37.7141   108
37.7241   108
37.7341   131
37.7441   105
37.7541   103
37.7641   110
37.7741   109
37.7841   138
37.7941   133
37.8041   127
37.8141   113
37.8241   124
37.8341   104
37.8441   114
37.8541   115
37.8641    98
37.8741   108
37.8841   124
37.8941    98
37.9041   121
37.9141   104
37.9241   101
37.9341   127
37.9441   103
37.9541    93
37.9641   113
37.9741   125
37.9841   102
37.9941   111
38.0041   106
38.0141   112
38.0241    97
38.0341   114
38.0441    92
38.0541    93
38.0641    98
38.0741    89
38.0841   110
38.0941    82
38.1041   104
38.1141    96
38.1241    91
38.1341    97
38.1441   113
38.1541   110
38.1641    95
38.1741   109
38.1841   109
38.1941   107
38.2041    98
38.2141    86
38.2241    96
38.2341    90
38.2441   117
38.2541    92
38.2641    98
38.2741   105
38.2841   115
38.2941    94
38.3041    85
38.3141    96
38.3241    96
38.3341    94
38.3441    88
38.3541   105
38.3641   119
38.3741    83
38.3841    83
38.3941    96
38.4041    88
38.4141    88
38.4241   104
38.4341    91
38.4441   103
38.4541    97
38.4641    87
38.4741    98
38.4841   101
38.4941    97
38.5041    73
38.5141    95
38.5241   111
38.5341   102
38.5441   106
38.5541    96
38.5641   101
38.5741    87
38.5841    86
38.5941    95
38.6041    83
38.6141    94
38.6241    82
38.6341    80
38.6441    86
38.6541    94
38.6641    82
38.6741    94
38.6841    80
38.6941    91
38.7041    89
38.7141    89
38.7241    84
38.7341    82
38.7441    93
38.7541    90
38.7641    88
38.7741    94
38.7841    83
38.7941    89
38.8041    85
38.8141    73
38.8241    85
38.8341    73
38.8441    81
38.8541    90
38.8641    85
38.8741    77
38.8841    88
38.8941    74
38.9041    73
38.9141    74
38.9241    65
38.9341    84
38.9441    86
38.9541    89
38.9641    83
38.9741    74
38.9841    86
38.9941    76
39.0041    73
39.0141    89
39.0241    87
39.0341    85
39.0441    96
39.0541    88
39.0641    79
39.0741    76
39.0841    79
39.0941    74
39.1041    85
39.1141    63
39.1241    75
39.1341    77
39.1441    68
39.1541    80
39.1641    76
39.1741    77
39.1841    83
39.1941    74
39.2041    64
39.2141    72
39.2241    85
39.2341    80
39.2441    76
39.2541    79
39.2641    68
39.2741    69
39.2841    76
39.2941    68
39.3041    65
39.3141    72
39.3241    65
39.3341    65
39.3441    73
39.3541    61
39.3641    63
39.3741    69
39.3841    76
39.3941    82
39.4041    62
39.4141    67
39.4241    81
39.4341    59
39.4441    71
39.4541    69
39.4641    74
39.4741    65
39.4841    68
39.4941    76
39.5041    75
39.5141    66
39.5241    61
39.5341    61
39.5441    67
39.5541    69
39.5641    84
39.5741    48
39.5841    68
39.5941    63
39.6041    65
39.6141    67
39.6241    59
39.6341    60
39.6441    79
39.6541    59
39.6641    69
39.6741    64
39.6841    73
39.6941    65
39.7041    67
39.7141    70
39.7241    72
39.7341    49
39.7441    60
39.7541    59
39.7641    68
39.7741    50
39.7841    60
39.7941    45
39.8041    55
39.8141    65
39.8241    74
39.8341    58
39.8441    53
39.8541    60
39.8641    73
39.8741    58
39.8841    55
39.8941    56
39.9041    59
39.9141    51
39.9241    55
39.9341    62
39.9441    54
39.9541    53
39.9641    52
39.9741    58
39.9841    64
39.9941    60
