Bruker Nano GmbH Berlin, Germany
Esprit 1.9

Date: 5/14/2021 1:34:46 PM
Real time: 18581
Life time: 17394
Pulse density: 92558


Detector type: XFlash 430
Window type: Custom type
Detector thickness: 0.45
Si dead layer:0.029

Calibration, lin.: 10
Calibration, abs.: -955.9
Mn FWHM: 137.05
Fano factor: 0.121
Channels: 4095

Energy Counts
-0.9559     0
-0.9459     0
-0.9359     0
-0.9259     0
-0.9159     0
-0.9059     0
-0.8959     0
-0.8859     0
-0.8759     0
-0.8659     0
-0.8559     0
-0.8459     0
-0.8359     0
-0.8259     0
-0.8159     0
-0.8059     0
-0.7959     0
-0.7859     0
-0.7759     0
-0.7659     0
-0.7559     0
-0.7459     0
-0.7359     0
-0.7259     0
-0.7159     0
-0.7059     0
-0.6959     0
-0.6859     0
-0.6759     0
-0.6659     0
-0.6559     0
-0.6459     0
-0.6359     0
-0.6259     0
-0.6159     0
-0.6059     0
-0.5959     0
-0.5859     0
-0.5759     0
-0.5659     0
-0.5559     0
-0.5459     0
-0.5359     0
-0.5259     0
-0.5159     0
-0.5059     0
-0.4959     0
-0.4859     0
-0.4759     0
-0.4659     0
-0.4559     0
-0.4459     0
-0.4359     0
-0.4259     0
-0.4159     0
-0.4059     0
-0.3959     0
-0.3859     0
-0.3759     0
-0.3659     0
-0.3559     0
-0.3459     0
-0.3359     0
-0.3259     0
-0.3159     0
-0.3059     0
-0.2959     0
-0.2859     0
-0.2759     0
-0.2659     0
-0.2559     0
-0.2459     0
-0.2359     0
-0.2259     0
-0.2159     0
-0.2059     0
-0.1959     0
-0.1859     0
-0.1759     0
-0.1659     0
-0.1559     0
-0.1459     0
-0.1359     1
-0.1259     0
-0.1159     1
-0.1059    13
-0.0959    58
-0.0859   174
-0.0759   651
-0.0659  1955
-0.0559  4956
-0.0459 11037
-0.0359 20645
-0.0259 33195
-0.0159 45361
-0.0059 53239
 0.0041 53764
 0.0141 45807
 0.0241 34146
 0.0341 21747
 0.0441 11909
 0.0541  5482
 0.0641  2192
 0.0741   731
 0.0841   248
 0.0941    77
 0.1041    12
 0.1141     8
 0.1241    13
 0.1341     4
 0.1441     3
 0.1541     5
 0.1641     4
 0.1741     0
 0.1841   174
 0.1941   335
 0.2041   298
 0.2141   310
 0.2241   302
 0.2341   294
 0.2441   317
 0.2541   298
 0.2641   286
 0.2741   284
 0.2841   286
 0.2941   302
 0.3041   292
 0.3141   313
 0.3241   294
 0.3341   277
 0.3441   271
 0.3541   265
 0.3641   281
 0.3741   272
 0.3841   251
 0.3941   260
 0.4041   270
 0.4141   267
 0.4241   275
 0.4341   266
 0.4441   255
 0.4541   239
 0.4641   258
 0.4741   282
 0.4841   246
 0.4941   249
 0.5041   252
 0.5141   243
 0.5241   246
 0.5341   237
 0.5441   243
 0.5541   260
 0.5641   247
 0.5741   224
 0.5841   246
 0.5941   257
 0.6041   242
 0.6141   239
 0.6241   240
 0.6341   236
 0.6441   224
 0.6541   215
 0.6641   225
 0.6741   215
 0.6841   204
 0.6941   233
 0.7041   239
 0.7141   226
 0.7241   217
 0.7341   223
 0.7441   229
 0.7541   213
 0.7641   218
 0.7741   221
 0.7841   219
 0.7941   206
 0.8041   207
 0.8141   214
 0.8241   202
 0.8341   209
 0.8441   211
 0.8541   209
 0.8641   205
 0.8741   205
 0.8841   220
 0.8941   209
 0.9041   196
 0.9141   214
 0.9241   210
 0.9341   209
 0.9441   204
 0.9541   200
 0.9641   200
 0.9741   196
 0.9841   200
 0.9941   193
 1.0041   208
 1.0141   205
 1.0241   187
 1.0341   193
 1.0441   183
 1.0541   214
 1.0641   200
 1.0741   193
 1.0841   191
 1.0941   165
 1.1041   192
 1.1141   193
 1.1241   173
 1.1341   169
 1.1441   185
 1.1541   177
 1.1641   178
 1.1741   176
 1.1841   183
 1.1941   186
 1.2041   178
 1.2141   172
 1.2241   194
 1.2341   204
 1.2441   185
 1.2541   215
 1.2641   154
 1.2741   161
 1.2841   169
 1.2941   166
 1.3041   195
 1.3141   180
 1.3241   172
 1.3341   184
 1.3441   163
 1.3541   171
 1.3641   171
 1.3741   168
 1.3841   153
 1.3941   186
 1.4041   162
 1.4141   174
 1.4241   156
 1.4341   174
 1.4441   174
 1.4541   192
 1.4641   180
 1.4741   186
 1.4841   168
 1.4941   171
 1.5041   171
 1.5141   164
 1.5241   160
 1.5341   158
 1.5441   188
 1.5541   160
 1.5641   144
 1.5741   177
 1.5841   151
 1.5941   153
 1.6041   173
 1.6141   166
 1.6241   156
 1.6341   180
 1.6441   188
 1.6541   217
 1.6641   234
 1.6741   284
 1.6841   356
 1.6941   436
 1.7041   536
 1.7141   630
 1.7241   671
 1.7341   709
 1.7441   695
 1.7541   695
 1.7641   594
 1.7741   495
 1.7841   410
 1.7941   348
 1.8041   288
 1.8141   263
 1.8241   240
 1.8341   218
 1.8441   186
 1.8541   191
 1.8641   192
 1.8741   184
 1.8841   181
 1.8941   195
 1.9041   171
 1.9141   173
 1.9241   174
 1.9341   167
 1.9441   198
 1.9541   209
 1.9641   194
 1.9741   188
 1.9841   202
 1.9941   208
 2.0041   226
 2.0141   198
 2.0241   200
 2.0341   197
 2.0441   191
 2.0541   173
 2.0641   169
 2.0741   182
 2.0841   157
 2.0941   149
 2.1041   172
 2.1141   162
 2.1241   169
 2.1341   176
 2.1441   146
 2.1541   150
 2.1641   176
 2.1741   135
 2.1841   147
 2.1941   141
 2.2041   148
 2.2141   158
 2.2241   144
 2.2341   167
 2.2441   144
 2.2541   150
 2.2641   139
 2.2741   158
 2.2841   136
 2.2941   146
 2.3041   165
 2.3141   139
 2.3241   157
 2.3341   136
 2.3441   143
 2.3541   140
 2.3641   155
 2.3741   162
 2.3841   148
 2.3941   159
 2.4041   128
 2.4141   115
 2.4241   126
 2.4341   129
 2.4441   153
 2.4541   130
 2.4641   148
 2.4741   157
 2.4841   136
 2.4941   129
 2.5041   122
 2.5141   123
 2.5241   131
 2.5341   133
 2.5441   128
 2.5541   136
 2.5641   147
 2.5741   143
 2.5841   134
 2.5941   126
 2.6041   131
 2.6141   130
 2.6241   124
 2.6341   118
 2.6441   139
 2.6541   119
 2.6641   120
 2.6741   155
 2.6841   138
 2.6941   120
 2.7041   124
 2.7141   124
 2.7241   119
 2.7341   110
 2.7441   113
 2.7541   113
 2.7641   130
 2.7741   140
 2.7841   129
 2.7941   136
 2.8041   121
 2.8141   130
 2.8241   139
 2.8341   149
 2.8441   132
 2.8541   140
 2.8641   149
 2.8741   122
 2.8841   124
 2.8941   136
 2.9041   121
 2.9141   115
 2.9241   129
 2.9341   127
 2.9441   109
 2.9541   124
 2.9641   118
 2.9741   103
 2.9841   120
 2.9941   130
 3.0041   113
 3.0141   115
 3.0241   122
 3.0341   118
 3.0441   103
 3.0541   107
 3.0641   102
 3.0741   112
 3.0841   120
 3.0941   118
 3.1041   109
 3.1141   118
 3.1241   103
 3.1341   118
 3.1441   110
 3.1541   109
 3.1641   113
 3.1741   123
 3.1841   112
 3.1941   123
 3.2041   118
 3.2141   124
 3.2241   162
 3.2341   159
 3.2441   210
 3.2541   216
 3.2641   247
 3.2741   261
 3.2841   301
 3.2941   330
 3.3041   352
 3.3141   355
 3.3241   398
 3.3341   318
 3.3441   330
 3.3541   248
 3.3641   236
 3.3741   193
 3.3841   171
 3.3941   139
 3.4041   127
 3.4141   123
 3.4241   121
 3.4341    85
 3.4441   101
 3.4541   107
 3.4641   108
 3.4741    98
 3.4841   104
 3.4941   110
 3.5041   112
 3.5141   107
 3.5241   129
 3.5341   137
 3.5441   142
 3.5541   135
 3.5641   174
 3.5741   196
 3.5841   263
 3.5941   289
 3.6041   353
 3.6141   476
 3.6241   572
 3.6341   652
 3.6441   818
 3.6541   912
 3.6641  1066
 3.6741  1159
 3.6841  1136
 3.6941  1103
 3.7041  1117
 3.7141  1042
 3.7241   934
 3.7341   790
 3.7441   646
 3.7541   542
 3.7641   382
 3.7741   318
 3.7841   269
 3.7941   197
 3.8041   149
 3.8141   126
 3.8241    92
 3.8341    90
 3.8441    92
 3.8541    84
 3.8641    86
 3.8741    79
 3.8841   108
 3.8941    98
 3.9041   112
 3.9141   105
 3.9241   123
 3.9341   132
 3.9441   142
 3.9541   151
 3.9641   179
 3.9741   195
 3.9841   199
 3.9941   238
 4.0041   254
 4.0141   237
 4.0241   249
 4.0341   205
 4.0441   207
 4.0541   182
 4.0641   156
 4.0741   136
 4.0841   117
 4.0941   110
 4.1041    90
 4.1141    91
 4.1241    77
 4.1341    86
 4.1441    83
 4.1541    87
 4.1641    80
 4.1741    73
 4.1841    76
 4.1941    73
 4.2041    72
 4.2141    67
 4.2241    87
 4.2341    63
 4.2441    84
 4.2541    64
 4.2641    69
 4.2741    74
 4.2841    75
 4.2941    85
 4.3041    79
 4.3141    69
 4.3241    67
 4.3341    67
 4.3441    83
 4.3541    84
 4.3641    85
 4.3741    87
 4.3841    97
 4.3941   104
 4.4041   112
 4.4141   132
 4.4241   170
 4.4341   179
 4.4441   221
 4.4541   229
 4.4641   268
 4.4741   321
 4.4841   339
 4.4941   364
 4.5041   348
 4.5141   338
 4.5241   386
 4.5341   326
 4.5441   320
 4.5541   254
 4.5641   218
 4.5741   220
 4.5841   171
 4.5941   135
 4.6041   125
 4.6141   118
 4.6241   109
 4.6341   103
 4.6441    96
 4.6541    71
 4.6641    68
 4.6741   102
 4.6841    82
 4.6941    83
 4.7041    85
 4.7141    83
 4.7241    64
 4.7341    94
 4.7441    59
 4.7541    81
 4.7641    80
 4.7741    80
 4.7841    91
 4.7941    94
 4.8041    91
 4.8141   109
 4.8241   108
 4.8341   110
 4.8441   100
 4.8541   119
 4.8641   120
 4.8741   135
 4.8841   120
 4.8941   146
 4.9041   144
 4.9141   157
 4.9241   132
 4.9341   136
 4.9441   138
 4.9541   132
 4.9641   128
 4.9741   128
 4.9841   133
 4.9941   122
 5.0041   106
 5.0141    93
 5.0241    81
 5.0341   100
 5.0441    79
 5.0541    91
 5.0641    82
 5.0741    76
 5.0841    85
 5.0941    91
 5.1041    85
 5.1141    97
 5.1241    69
 5.1341    79
 5.1441    87
 5.1541    97
 5.1641    93
 5.1741    94
 5.1841    94
 5.1941    75
 5.2041    76
 5.2141    79
 5.2241    71
 5.2341    74
 5.2441    83
 5.2541    85
 5.2641    87
 5.2741    82
 5.2841    80
 5.2941    78
 5.3041    79
 5.3141    93
 5.3241    90
 5.3341    94
 5.3441   109
 5.3541   135
 5.3641   120
 5.3741   138
 5.3841   143
 5.3941   148
 5.4041   147
 5.4141   144
 5.4241   151
 5.4341   142
 5.4441   122
 5.4541   120
 5.4641   133
 5.4741   119
 5.4841   118
 5.4941   119
 5.5041   115
 5.5141   110
 5.5241   116
 5.5341    87
 5.5441    96
 5.5541    97
 5.5641    86
 5.5741    69
 5.5841   102
 5.5941   106
 5.6041    94
 5.6141    98
 5.6241    85
 5.6341    97
 5.6441    89
 5.6541    89
 5.6641    83
 5.6741   102
 5.6841    92
 5.6941   105
 5.7041    79
 5.7141    97
 5.7241    86
 5.7341    99
 5.7441   110
 5.7541    99
 5.7641   113
 5.7741   123
 5.7841   124
 5.7941   143
 5.8041   149
 5.8141   137
 5.8241   178
 5.8341   194
 5.8441   199
 5.8541   244
 5.8641   245
 5.8741   279
 5.8841   254
 5.8941   295
 5.9041   289
 5.9141   261
 5.9241   281
 5.9341   238
 5.9441   224
 5.9541   196
 5.9641   176
 5.9741   181
 5.9841   172
 5.9941   137
 6.0041   127
 6.0141   129
 6.0241    92
 6.0341   109
 6.0441   113
 6.0541   121
 6.0641   127
 6.0741   125
 6.0841   127
 6.0941   121
 6.1041   107
 6.1141   119
 6.1241   126
 6.1341   151
 6.1441   158
 6.1541   127
 6.1641   135
 6.1741   159
 6.1841   221
 6.1941   230
 6.2041   303
 6.2141   368
 6.2241   458
 6.2341   647
 6.2441   863
 6.2541  1139
 6.2641  1616
 6.2741  2214
 6.2841  2990
 6.2941  3906
 6.3041  5067
 6.3141  6481
 6.3241  7813
 6.3341  9475
 6.3441 11062
 6.3541 12721
 6.3641 13933
 6.3741 15320
 6.3841 16225
 6.3941 16655
 6.4041 16556
 6.4141 15979
 6.4241 15055
 6.4341 13886
 6.4441 12130
 6.4541 10800
 6.4641  9225
 6.4741  7547
 6.4841  5915
 6.4941  4796
 6.5041  3586
 6.5141  2617
 6.5241  2012
 6.5341  1388
 6.5441  1021
 6.5541   734
 6.5641   467
 6.5741   359
 6.5841   274
 6.5941   203
 6.6041   200
 6.6141   164
 6.6241   151
 6.6341   166
 6.6441   162
 6.6541   136
 6.6641   124
 6.6741   144
 6.6841   123
 6.6941   133
 6.7041   141
 6.7141   138
 6.7241   146
 6.7341   129
 6.7441   150
 6.7541   144
 6.7641   156
 6.7741   163
 6.7841   141
 6.7941   167
 6.8041   164
 6.8141   171
 6.8241   182
 6.8341   193
 6.8441   199
 6.8541   199
 6.8641   216
 6.8741   239
 6.8841   287
 6.8941   332
 6.9041   374
 6.9141   469
 6.9241   564
 6.9341   704
 6.9441   776
 6.9541  1050
 6.9641  1148
 6.9741  1412
 6.9841  1639
 6.9941  1934
 7.0041  2128
 7.0141  2429
 7.0241  2490
 7.0341  2683
 7.0441  2734
 7.0541  2841
 7.0641  2739
 7.0741  2672
 7.0841  2590
 7.0941  2279
 7.1041  2085
 7.1141  1867
 7.1241  1618
 7.1341  1324
 7.1441  1151
 7.1541   910
 7.1641   772
 7.1741   573
 7.1841   492
 7.1941   402
 7.2041   353
 7.2141   273
 7.2241   268
 7.2341   236
 7.2441   220
 7.2541   198
 7.2641   197
 7.2741   211
 7.2841   183
 7.2941   204
 7.3041   197
 7.3141   217
 7.3241   202
 7.3341   214
 7.3441   207
 7.3541   219
 7.3641   263
 7.3741   277
 7.3841   261
 7.3941   287
 7.4041   311
 7.4141   259
 7.4241   273
 7.4341   289
 7.4441   320
 7.4541   318
 7.4641   297
 7.4741   295
 7.4841   294
 7.4941   272
 7.5041   260
 7.5141   284
 7.5241   263
 7.5341   240
 7.5441   232
 7.5541   207
 7.5641   202
 7.5741   206
 7.5841   206
 7.5941   190
 7.6041   186
 7.6141   197
 7.6241   180
 7.6341   172
 7.6441   195
 7.6541   186
 7.6641   196
 7.6741   172
 7.6841   185
 7.6941   214
 7.7041   181
 7.7141   176
 7.7241   219
 7.7341   213
 7.7441   220
 7.7541   221
 7.7641   205
 7.7741   200
 7.7841   226
 7.7941   232
 7.8041   235
 7.8141   243
 7.8241   246
 7.8341   268
 7.8441   277
 7.8541   260
 7.8641   275
 7.8741   255
 7.8841   279
 7.8941   297
 7.9041   281
 7.9141   323
 7.9241   373
 7.9341   386
 7.9441   407
 7.9541   405
 7.9641   448
 7.9741   419
 7.9841   499
 7.9941   571
 8.0041   558
 8.0141   595
 8.0241   652
 8.0341   732
 8.0441   779
 8.0541   832
 8.0641   873
 8.0741   903
 8.0841  1055
 8.0941  1018
 8.1041  1066
 8.1141  1079
 8.1241  1139
 8.1341  1127
 8.1441  1156
 8.1541  1197
 8.1641  1229
 8.1741  1272
 8.1841  1258
 8.1941  1334
 8.2041  1308
 8.2141  1271
 8.2241  1345
 8.2341  1380
 8.2441  1441
 8.2541  1425
 8.2641  1466
 8.2741  1586
 8.2841  1661
 8.2941  1761
 8.3041  1898
 8.3141  2113
 8.3241  2238
 8.3341  2435
 8.3441  2623
 8.3541  2688
 8.3641  2829
 8.3741  2861
 8.3841  2910
 8.3941  2940
 8.4041  2810
 8.4141  2772
 8.4241  2486
 8.4341  2352
 8.4441  2153
 8.4541  2004
 8.4641  1748
 8.4741  1494
 8.4841  1283
 8.4941  1062
 8.5041   940
 8.5141   822
 8.5241   725
 8.5341   563
 8.5441   531
 8.5541   463
 8.5641   413
 8.5741   382
 8.5841   383
 8.5941   402
 8.6041   359
 8.6141   359
 8.6241   404
 8.6341   394
 8.6441   405
 8.6541   374
 8.6641   360
 8.6741   337
 8.6841   369
 8.6941   355
 8.7041   368
 8.7141   323
 8.7241   333
 8.7341   331
 8.7441   308
 8.7541   296
 8.7641   310
 8.7741   303
 8.7841   304
 8.7941   313
 8.8041   285
 8.8141   292
 8.8241   270
 8.8341   287
 8.8441   288
 8.8541   287
 8.8641   262
 8.8741   282
 8.8841   291
 8.8941   300
 8.9041   283
 8.9141   323
 8.9241   323
 8.9341   288
 8.9441   318
 8.9541   294
 8.9641   330
 8.9741   327
 8.9841   312
 8.9941   357
 9.0041   348
 9.0141   365
 9.0241   387
 9.0341   376
 9.0441   390
 9.0541   380
 9.0641   416
 9.0741   373
 9.0841   436
 9.0941   414
 9.1041   460
 9.1141   477
 9.1241   506
 9.1341   531
 9.1441   511
 9.1541   555
 9.1641   604
 9.1741   625
 9.1841   678
 9.1941   674
 9.2041   709
 9.2141   757
 9.2241   779
 9.2341   801
 9.2441   870
 9.2541   874
 9.2641   878
 9.2741   964
 9.2841   990
 9.2941  1018
 9.3041  1056
 9.3141  1029
 9.3241  1100
 9.3341  1120
 9.3441  1139
 9.3541  1193
 9.3641  1246
 9.3741  1224
 9.3841  1227
 9.3941  1317
 9.4041  1333
 9.4141  1259
 9.4241  1357
 9.4341  1334
 9.4441  1275
 9.4541  1346
 9.4641  1345
 9.4741  1354
 9.4841  1400
 9.4941  1456
 9.5041  1461
 9.5141  1468
 9.5241  1578
 9.5341  1695
 9.5441  1746
 9.5541  1818
 9.5641  1879
 9.5741  2025
 9.5841  2134
 9.5941  2302
 9.6041  2434
 9.6141  2584
 9.6241  2696
 9.6341  2847
 9.6441  2910
 9.6541  2917
 9.6641  2949
 9.6741  2950
 9.6841  2913
 9.6941  2840
 9.7041  2731
 9.7141  2663
 9.7241  2480
 9.7341  2320
 9.7441  2109
 9.7541  2043
 9.7641  1820
 9.7741  1644
 9.7841  1451
 9.7941  1374
 9.8041  1309
 9.8141  1291
 9.8241  1172
 9.8341  1103
 9.8441  1054
 9.8541  1073
 9.8641  1085
 9.8741  1078
 9.8841  1110
 9.8941  1139
 9.9041  1168
 9.9141  1200
 9.9241  1194
 9.9341  1247
 9.9441  1174
 9.9541  1186
 9.9641  1157
 9.9741  1192
 9.9841  1107
 9.9941  1110
10.0041  1081
10.0141   971
10.0241   889
10.0341   825
10.0441   728
10.0541   662
10.0641   619
10.0741   537
10.0841   470
10.0941   444
10.1041   384
10.1141   339
10.1241   319
10.1341   310
10.1441   286
10.1541   250
10.1641   225
10.1741   231
10.1841   239
10.1941   255
10.2041   210
10.2141   220
10.2241   200
10.2341   214
10.2441   195
10.2541   187
10.2641   184
10.2741   182
10.2841   172
10.2941   177
10.3041   193
10.3141   166
10.3241   160
10.3341   162
10.3441   162
10.3541   162
10.3641   169
10.3741   150
10.3841   149
10.3941   138
10.4041   149
10.4141   167
10.4241   155
10.4341   140
10.4441   162
10.4541   169
10.4641   171
10.4741   169
10.4841   167
10.4941   166
10.5041   178
10.5141   185
10.5241   178
10.5341   195
10.5441   198
10.5541   186
10.5641   189
10.5741   177
10.5841   180
10.5941   184
10.6041   175
10.6141   195
10.6241   192
10.6341   183
10.6441   207
10.6541   212
10.6641   197
10.6741   210
10.6841   222
10.6941   187
10.7041   189
10.7141   209
10.7241   229
10.7341   216
10.7441   217
10.7541   215
10.7641   213
10.7741   250
10.7841   251
10.7941   239
10.8041   243
10.8141   249
10.8241   256
10.8341   251
10.8441   252
10.8541   264
10.8641   270
10.8741   274
10.8841   304
10.8941   305
10.9041   286
10.9141   275
10.9241   285
10.9341   278
10.9441   279
10.9541   275
10.9641   288
10.9741   297
10.9841   279
10.9941   266
11.0041   271
11.0141   260
11.0241   271
11.0341   253
11.0441   267
11.0541   254
11.0641   250
11.0741   229
11.0841   242
11.0941   271
11.1041   262
11.1141   262
11.1241   244
11.1341   239
11.1441   251
11.1541   260
11.1641   276
11.1741   297
11.1841   303
11.1941   318
11.2041   309
11.2141   357
11.2241   361
11.2341   372
11.2441   385
11.2541   390
11.2641   396
11.2741   419
11.2841   431
11.2941   433
11.3041   432
11.3141   417
11.3241   401
11.3341   408
11.3441   369
11.3541   326
11.3641   304
11.3741   294
11.3841   282
11.3941   287
11.4041   261
11.4141   246
11.4241   248
11.4341   234
11.4441   212
11.4541   223
11.4641   208
11.4741   211
11.4841   211
11.4941   204
11.5041   206
11.5141   198
11.5241   202
11.5341   213
11.5441   199
11.5541   193
11.5641   206
11.5741   191
11.5841   209
11.5941   200
11.6041   187
11.6141   202
11.6241   214
11.6341   236
11.6441   236
11.6541   231
11.6641   218
11.6741   224
11.6841   219
11.6941   217
11.7041   213
11.7141   197
11.7241   180
11.7341   170
11.7441   166
11.7541   182
11.7641   181
11.7741   169
11.7841   152
11.7941   144
11.8041   144
11.8141   155
11.8241   170
11.8341   158
11.8441   130
11.8541   141
11.8641   157
11.8741   156
11.8841   153
11.8941   157
11.9041   142
11.9141   158
11.9241   148
11.9341   149
11.9441   146
11.9541   145
11.9641   157
11.9741   159
11.9841   153
11.9941   126
12.0041   140
12.0141   140
12.0241   146
12.0341   158
12.0441   156
12.0541   159
12.0641   157
12.0741   146
12.0841   138
12.0941   142
12.1041   139
12.1141   144
12.1241   139
12.1341   159
12.1441   152
12.1541   146
12.1641   139
12.1741   149
12.1841   172
12.1941   145
12.2041   141
12.2141   158
12.2241   145
12.2341   138
12.2441   153
12.2541   151
12.2641   142
12.2741   136
12.2841   152
12.2941   149
12.3041   127
12.3141   141
12.3241   152
12.3341   137
12.3441   144
12.3541   164
12.3641   138
12.3741   143
12.3841   151
12.3941   143
12.4041   139
12.4141   140
12.4241   152
12.4341   144
12.4441   144
12.4541   147
12.4641   150
12.4741   152
12.4841   160
12.4941   156
12.5041   150
12.5141   149
12.5241   150
12.5341   157
12.5441   161
12.5541   166
12.5641   176
12.5741   165
12.5841   163
12.5941   159
12.6041   175
12.6141   165
12.6241   147
12.6341   163
12.6441   174
12.6541   156
12.6641   153
12.6741   152
12.6841   156
12.6941   158
12.7041   167
12.7141   168
12.7241   160
12.7341   156
12.7441   153
12.7541   155
12.7641   158
12.7741   159
12.7841   159
12.7941   159
12.8041   158
12.8141   161
12.8241   166
12.8341   170
12.8441   175
12.8541   180
12.8641   178
12.8741   176
12.8841   175
12.8941   173
12.9041   165
12.9141   152
12.9241   149
12.9341   156
12.9441   151
12.9541   164
12.9641   162
12.9741   157
12.9841   166
12.9941   178
13.0041   182
13.0141   173
13.0241   164
13.0341   179
13.0441   182
13.0541   176
13.0641   176
13.0741   165
13.0841   174
13.0941   177
13.1041   179
13.1141   181
13.1241   186
13.1341   186
13.1441   175
13.1541   182
13.1641   194
13.1741   193
13.1841   198
13.1941   200
13.2041   223
13.2141   232
13.2241   211
13.2341   227
13.2441   258
13.2541   274
13.2641   279
13.2741   290
13.2841   291
13.2941   310
13.3041   316
13.3141   310
13.3241   347
13.3341   374
13.3441   378
13.3541   372
13.3641   359
13.3741   368
13.3841   380
13.3941   373
13.4041   371
13.4141   369
13.4241   369
13.4341   352
13.4441   324
13.4541   324
13.4641   308
13.4741   280
13.4841   277
13.4941   270
13.5041   258
13.5141   249
13.5241   237
13.5341   221
13.5441   212
13.5541   204
13.5641   198
13.5741   203
13.5841   206
13.5941   200
13.6041   208
13.6141   203
13.6241   204
13.6341   197
13.6441   203
13.6541   222
13.6641   214
13.6741   194
13.6841   184
13.6941   215
13.7041   227
13.7141   210
13.7241   197
13.7341   202
13.7441   216
13.7541   205
13.7641   198
13.7741   218
13.7841   224
13.7941   222
13.8041   210
13.8141   205
13.8241   217
13.8341   227
13.8441   224
13.8541   232
13.8641   223
13.8741   211
13.8841   227
13.8941   220
13.9041   209
13.9141   228
13.9241   217
13.9341   219
13.9441   238
13.9541   250
13.9641   259
13.9741   229
13.9841   221
13.9941   236
14.0041   260
14.0141   268
14.0241   282
14.0341   294
14.0441   291
14.0541   321
14.0641   343
14.0741   331
14.0841   318
14.0941   340
14.1041   368
14.1141   366
14.1241   365
14.1341   355
14.1441   349
14.1541   343
14.1641   335
14.1741   359
14.1841   363
14.1941   351
14.2041   349
14.2141   332
14.2241   317
14.2341   302
14.2441   299
14.2541   313
14.2641   298
14.2741   289
14.2841   273
14.2941   246
14.3041   249
14.3141   259
14.3241   249
14.3341   259
14.3441   272
14.3541   245
14.3641   227
14.3741   249
14.3841   249
14.3941   231
14.4041   225
14.4141   223
14.4241   252
14.4341   263
14.4441   249
14.4541   247
14.4641   252
14.4741   244
14.4841   232
14.4941   243
14.5041   248
14.5141   257
14.5241   259
14.5341   252
14.5441   245
14.5541   242
14.5641   246
14.5741   256
14.5841   244
14.5941   226
14.6041   236
14.6141   232
14.6241   230
14.6341   217
14.6441   212
14.6541   234
14.6641   244
14.6741   242
14.6841   245
14.6941   247
14.7041   250
14.7141   257
14.7241   259
14.7341   236
14.7441   250
14.7541   249
14.7641   242
14.7741   268
14.7841   265
14.7941   252
14.8041   271
14.8141   265
14.8241   257
14.8341   269
14.8441   296
14.8541   307
14.8641   297
14.8741   286
14.8841   290
14.8941   329
14.9041   322
14.9141   320
14.9241   339
14.9341   321
14.9441   315
14.9541   314
14.9641   299
14.9741   291
14.9841   308
14.9941   321
15.0041   312
15.0141   296
15.0241   287
15.0341   290
15.0441   317
15.0541   327
15.0641   304
15.0741   292
15.0841   292
15.0941   289
15.1041   287
15.1141   298
15.1241   303
15.1341   306
15.1441   309
15.1541   285
15.1641   274
15.1741   281
15.1841   283
15.1941   274
15.2041   280
15.2141   277
15.2241   295
15.2341   303
15.2441   281
15.2541   266
15.2641   263
15.2741   286
15.2841   278
15.2941   281
15.3041   287
15.3141   287
15.3241   292
15.3341   318
15.3441   303
15.3541   275
15.3641   276
15.3741   267
15.3841   274
15.3941   291
15.4041   301
15.4141   308
15.4241   311
15.4341   295
15.4441   292
15.4541   297
15.4641   304
15.4741   291
15.4841   282
15.4941   293
15.5041   306
15.5141   303
15.5241   292
15.5341   313
15.5441   317
15.5541   320
15.5641   307
15.5741   328
15.5841   325
15.5941   316
15.6041   317
15.6141   324
15.6241   349
15.6341   387
15.6441   387
15.6541   391
15.6641   402
15.6741   412
15.6841   421
15.6941   412
15.7041   416
15.7141   413
15.7241   436
15.7341   440
15.7441   453
15.7541   447
15.7641   436
15.7741   440
15.7841   436
15.7941   479
15.8041   434
15.8141   415
15.8241   420
15.8341   433
15.8441   419
15.8541   412
15.8641   403
15.8741   404
15.8841   381
15.8941   370
15.9041   364
15.9141   356
15.9241   352
15.9341   371
15.9441   348
15.9541   331
15.9641   329
15.9741   338
15.9841   340
15.9941   335
16.0041   328
16.0141   338
16.0241   335
16.0341   328
16.0441   334
16.0541   335
16.0641   318
16.0741   328
16.0841   319
16.0941   312
16.1041   314
16.1141   346
16.1241   330
16.1341   331
16.1441   334
16.1541   335
16.1641   341
16.1741   322
16.1841   345
16.1941   334
16.2041   344
16.2141   330
16.2241   340
16.2341   347
16.2441   333
16.2541   336
16.2641   317
16.2741   330
16.2841   335
16.2941   316
16.3041   318
16.3141   332
16.3241   349
16.3341   324
16.3441   331
16.3541   340
16.3641   359
16.3741   366
16.3841   361
16.3941   352
16.4041   329
16.4141   345
16.4241   367
16.4341   356
16.4441   357
16.4541   381
16.4641   382
16.4741   338
16.4841   342
16.4941   372
16.5041   367
16.5141   350
16.5241   355
16.5341   402
16.5441   377
16.5541   368
16.5641   378
16.5741   375
16.5841   355
16.5941   365
16.6041   367
16.6141   353
16.6241   372
16.6341   382
16.6441   354
16.6541   362
16.6641   365
16.6741   368
16.6841   381
16.6941   371
16.7041   374
16.7141   380
16.7241   390
16.7341   384
16.7441   389
16.7541   373
16.7641   379
16.7741   368
16.7841   360
16.7941   362
16.8041   376
16.8141   392
16.8241   387
16.8341   385
16.8441   371
16.8541   407
16.8641   378
16.8741   378
16.8841   401
16.8941   384
16.9041   389
16.9141   403
16.9241   401
16.9341   376
16.9441   402
16.9541   393
16.9641   371
16.9741   373
16.9841   386
16.9941   399
17.0041   390
17.0141   394
17.0241   385
17.0341   385
17.0441   411
17.0541   384
17.0641   394
17.0741   405
17.0841   419
17.0941   414
17.1041   393
17.1141   410
17.1241   414
17.1341   402
17.1441   394
17.1541   401
17.1641   386
17.1741   383
17.1841   415
17.1941   403
17.2041   391
17.2141   423
17.2241   418
17.2341   386
17.2441   389
17.2541   394
17.2641   401
17.2741   401
17.2841   417
17.2941   400
17.3041   404
17.3141   420
17.3241   415
17.3341   418
17.3441   413
17.3541   418
17.3641   436
17.3741   428
17.3841   413
17.3941   417
17.4041   402
17.4141   407
17.4241   420
17.4341   403
17.4441   400
17.4541   422
17.4641   417
17.4741   412
17.4841   395
17.4941   429
17.5041   444
17.5141   421
17.5241   436
17.5341   441
17.5441   415
17.5541   436
17.5641   418
17.5741   403
17.5841   437
17.5941   452
17.6041   450
17.6141   432
17.6241   437
17.6341   436
17.6441   433
17.6541   435
17.6641   448
17.6741   443
17.6841   434
17.6941   421
17.7041   449
17.7141   413
17.7241   435
17.7341   439
17.7441   463
17.7541   461
17.7641   435
17.7741   451
17.7841   421
17.7941   424
17.8041   431
17.8141   439
17.8241   455
17.8341   450
17.8441   414
17.8541   426
17.8641   421
17.8741   453
17.8841   431
17.8941   408
17.9041   411
17.9141   451
17.9241   485
17.9341   446
17.9441   455
17.9541   442
17.9641   439
17.9741   460
17.9841   460
17.9941   443
18.0041   460
18.0141   461
18.0241   450
18.0341   441
18.0441   452
18.0541   456
18.0641   449
18.0741   464
18.0841   461
18.0941   454
18.1041   443
18.1141   452
18.1241   442
18.1341   474
18.1441   470
18.1541   488
18.1641   467
18.1741   460
18.1841   481
18.1941   481
18.2041   458
18.2141   430
18.2241   467
18.2341   460
18.2441   471
18.2541   479
18.2641   463
18.2741   465
18.2841   464
18.2941   471
18.3041   457
18.3141   421
18.3241   465
18.3341   474
18.3441   479
18.3541   481
18.3641   425
18.3741   444
18.3841   506
18.3941   492
18.4041   483
18.4141   437
18.4241   419
18.4341   469
18.4441   450
18.4541   450
18.4641   479
18.4741   488
18.4841   464
18.4941   436
18.5041   479
18.5141   471
18.5241   486
18.5341   493
18.5441   491
18.5541   483
18.5641   445
18.5741   480
18.5841   513
18.5941   527
18.6041   474
18.6141   478
18.6241   447
18.6341   437
18.6441   490
18.6541   529
18.6641   483
18.6741   474
18.6841   500
18.6941   469
18.7041   503
18.7141   524
18.7241   535
18.7341   463
18.7441   468
18.7541   485
18.7641   506
18.7741   508
18.7841   478
18.7941   496
18.8041   465
18.8141   491
18.8241   472
18.8341   502
18.8441   458
18.8541   479
18.8641   492
18.8741   502
18.8841   509
18.8941   498
18.9041   507
18.9141   506
18.9241   484
18.9341   512
18.9441   508
18.9541   489
18.9641   504
18.9741   499
18.9841   485
18.9941   497
19.0041   505
19.0141   484
19.0241   471
19.0341   504
19.0441   495
19.0541   508
19.0641   532
19.0741   500
19.0841   490
19.0941   460
19.1041   491
19.1141   492
19.1241   513
19.1341   492
19.1441   497
19.1541   521
19.1641   518
19.1741   538
19.1841   535
19.1941   488
19.2041   491
19.2141   490
19.2241   496
19.2341   493
19.2441   494
19.2541   486
19.2641   521
19.2741   494
19.2841   515
19.2941   529
19.3041   488
19.3141   487
19.3241   526
19.3341   527
19.3441   487
19.3541   483
19.3641   512
19.3741   525
19.3841   544
19.3941   511
19.4041   488
19.4141   497
19.4241   524
19.4341   520
19.4441   531
19.4541   512
19.4641   479
19.4741   503
19.4841   523
19.4941   499
19.5041   519
19.5141   498
19.5241   494
19.5341   485
19.5441   476
19.5541   518
19.5641   513
19.5741   477
19.5841   513
19.5941   514
19.6041   535
19.6141   505
19.6241   515
19.6341   554
19.6441   501
19.6541   505
19.6641   483
19.6741   518
19.6841   518
19.6941   520
19.7041   504
19.7141   534
19.7241   535
19.7341   526
19.7441   505
19.7541   528
19.7641   515
19.7741   531
19.7841   524
19.7941   527
19.8041   520
19.8141   509
19.8241   543
19.8341   525
19.8441   495
19.8541   534
19.8641   501
19.8741   504
19.8841   473
19.8941   540
19.9041   515
19.9141   500
19.9241   525
19.9341   540
19.9441   494
19.9541   532
19.9641   526
19.9741   538
19.9841   552
19.9941   558
20.0041   536
20.0141   526
20.0241   477
20.0341   522
20.0441   521
20.0541   535
20.0641   473
20.0741   492
20.0841   539
20.0941   542
20.1041   558
20.1141   515
20.1241   502
20.1341   490
20.1441   520
20.1541   526
20.1641   539
20.1741   517
20.1841   562
20.1941   531
20.2041   482
20.2141   500
20.2241   543
20.2341   547
20.2441   505
20.2541   555
20.2641   521
20.2741   540
20.2841   558
20.2941   563
20.3041   568
20.3141   556
20.3241   502
20.3341   543
20.3441   541
20.3541   539
20.3641   533
20.3741   541
20.3841   521
20.3941   541
20.4041   536
20.4141   565
20.4241   568
20.4341   559
20.4441   520
20.4541   534
20.4641   551
20.4741   568
20.4841   547
20.4941   555
20.5041   532
20.5141   553
20.5241   562
20.5341   533
20.5441   541
20.5541   584
20.5641   555
20.5741   498
20.5841   532
20.5941   533
20.6041   578
20.6141   548
20.6241   533
20.6341   552
20.6441   560
20.6541   523
20.6641   569
20.6741   579
20.6841   517
20.6941   526
20.7041   544
20.7141   534
20.7241   556
20.7341   542
20.7441   599
20.7541   574
20.7641   574
20.7741   570
20.7841   561
20.7941   577
20.8041   557
20.8141   561
20.8241   575
20.8341   573
20.8441   596
20.8541   562
20.8641   611
20.8741   593
20.8841   613
20.8941   628
20.9041   621
20.9141   614
20.9241   667
20.9341   659
20.9441   655
20.9541   652
20.9641   699
20.9741   674
20.9841   698
20.9941   729
21.0041   681
21.0141   701
21.0241   759
21.0341   742
21.0441   799
21.0541   810
21.0641   825
21.0741   836
21.0841   816
21.0941   822
21.1041   874
21.1141   818
21.1241   806
21.1341   894
21.1441   774
21.1541   822
21.1641   817
21.1741   813
21.1841   809
21.1941   779
21.2041   796
21.2141   809
21.2241   771
21.2341   763
21.2441   718
21.2541   753
21.2641   715
21.2741   701
21.2841   675
21.2941   710
21.3041   699
21.3141   620
21.3241   640
21.3341   621
21.3441   622
21.3541   599
21.3641   584
21.3741   563
21.3841   565
21.3941   553
21.4041   551
21.4141   555
21.4241   533
21.4341   576
21.4441   566
21.4541   540
21.4641   597
21.4741   571
21.4841   575
21.4941   551
21.5041   501
21.5141   564
21.5241   551
21.5341   531
21.5441   561
21.5541   570
21.5641   559
21.5741   520
21.5841   540
21.5941   552
21.6041   562
21.6141   572
21.6241   536
21.6341   523
21.6441   543
21.6541   524
21.6641   539
21.6741   532
21.6841   544
21.6941   577
21.7041   555
21.7141   557
21.7241   594
21.7341   583
21.7441   568
21.7541   565
21.7641   560
21.7741   578
21.7841   543
21.7941   517
21.8041   535
21.8141   534
21.8241   484
21.8341   549
21.8441   547
21.8541   540
21.8641   570
21.8741   547
21.8841   519
21.8941   554
21.9041   553
21.9141   557
21.9241   548
21.9341   568
21.9441   566
21.9541   567
21.9641   547
21.9741   594
21.9841   552
21.9941   539
22.0041   559
22.0141   539
22.0241   505
22.0341   572
22.0441   569
22.0541   567
22.0641   547
22.0741   531
22.0841   568
22.0941   567
22.1041   557
22.1141   536
22.1241   574
22.1341   559
22.1441   548
22.1541   582
22.1641   589
22.1741   518
22.1841   557
22.1941   577
22.2041   523
22.2141   516
22.2241   596
22.2341   546
22.2441   573
22.2541   535
22.2641   531
22.2741   562
22.2841   558
22.2941   562
22.3041   561
22.3141   543
22.3241   531
22.3341   537
22.3441   540
22.3541   579
22.3641   497
22.3741   572
22.3841   562
22.3941   542
22.4041   515
22.4141   526
22.4241   554
22.4341   535
22.4441   543
22.4541   538
22.4641   545
22.4741   566
22.4841   511
22.4941   577
22.5041   552
22.5141   553
22.5241   600
22.5341   552
22.5441   555
22.5541   575
22.5641   554
22.5741   548
22.5841   545
22.5941   568
22.6041   567
22.6141   551
22.6241   491
22.6341   529
22.6441   533
22.6541   553
22.6641   547
22.6741   528
22.6841   504
22.6941   490
22.7041   526
22.7141   506
22.7241   544
22.7341   544
22.7441   576
22.7541   525
22.7641   550
22.7741   527
22.7841   552
22.7941   514
22.8041   565
22.8141   506
22.8241   553
22.8341   548
22.8441   560
22.8541   551
22.8641   499
22.8741   509
22.8841   569
22.8941   537
22.9041   502
22.9141   506
22.9241   525
22.9341   527
22.9441   510
22.9541   546
22.9641   551
22.9741   510
22.9841   530
22.9941   550
23.0041   522
23.0141   522
23.0241   519
23.0341   534
23.0441   576
23.0541   527
23.0641   555
23.0741   570
23.0841   497
23.0941   543
23.1041   522
23.1141   501
23.1241   550
23.1341   559
23.1441   527
23.1541   539
23.1641   534
23.1741   537
23.1841   550
23.1941   570
23.2041   548
23.2141   574
23.2241   551
23.2341   541
23.2441   524
23.2541   543
23.2641   529
23.2741   528
23.2841   543
23.2941   533
23.3041   518
23.3141   523
23.3241   525
23.3341   527
23.3441   542
23.3541   517
23.3641   529
23.3741   549
23.3841   509
23.3941   568
23.4041   532
23.4141   522
23.4241   518
23.4341   544
23.4441   523
23.4541   537
23.4641   511
23.4741   556
23.4841   539
23.4941   500
23.5041   569
23.5141   512
23.5241   537
23.5341   552
23.5441   473
23.5541   536
23.5641   532
23.5741   502
23.5841   555
23.5941   535
23.6041   516
23.6141   534
23.6241   525
23.6341   578
23.6441   532
23.6541   549
23.6641   532
23.6741   577
23.6841   531
23.6941   552
23.7041   565
23.7141   573
23.7241   532
23.7341   581
23.7441   583
23.7541   605
23.7641   553
23.7741   598
23.7841   558
23.7941   569
23.8041   583
23.8141   562
23.8241   580
23.8341   571
23.8441   598
23.8541   569
23.8641   566
23.8741   556
23.8841   576
23.8941   543
23.9041   555
23.9141   532
23.9241   567
23.9341   576
23.9441   532
23.9541   569
23.9641   482
23.9741   529
23.9841   558
23.9941   539
24.0041   498
24.0141   549
24.0241   513
24.0341   483
24.0441   524
24.0541   506
24.0641   492
24.0741   496
24.0841   531
24.0941   529
24.1041   492
24.1141   524
24.1241   514
24.1341   483
24.1441   521
24.1541   527
24.1641   519
24.1741   469
24.1841   527
24.1941   517
24.2041   566
24.2141   512
24.2241   503
24.2341   502
24.2441   480
24.2541   538
24.2641   482
24.2741   459
24.2841   526
24.2941   556
24.3041   533
24.3141   567
24.3241   545
24.3341   499
24.3441   502
24.3541   495
24.3641   516
24.3741   519
24.3841   503
24.3941   519
24.4041   488
24.4141   489
24.4241   479
24.4341   499
24.4441   527
24.4541   491
24.4641   544
24.4741   520
24.4841   537
24.4941   533
24.5041   520
24.5141   501
24.5241   482
24.5341   507
24.5441   503
24.5541   458
24.5641   502
24.5741   517
24.5841   479
24.5941   482
24.6041   507
24.6141   491
24.6241   480
24.6341   495
24.6441   470
24.6541   501
24.6641   486
24.6741   493
24.6841   504
24.6941   487
24.7041   477
24.7141   490
24.7241   503
24.7341   511
24.7441   483
24.7541   517
24.7641   520
24.7741   474
24.7841   539
24.7941   500
24.8041   465
24.8141   478
24.8241   469
24.8341   489
24.8441   465
24.8541   465
24.8641   515
24.8741   537
24.8841   511
24.8941   498
24.9041   488
24.9141   497
24.9241   512
24.9341   511
24.9441   523
24.9541   487
24.9641   473
24.9741   520
24.9841   520
24.9941   501
25.0041   482
25.0141   520
25.0241   472
25.0341   502
25.0441   523
25.0541   499
25.0641   502
25.0741   486
25.0841   480
25.0941   503
25.1041   514
25.1141   463
25.1241   507
25.1341   528
25.1441   511
25.1541   527
25.1641   509
25.1741   447
25.1841   485
25.1941   513
25.2041   485
25.2141   486
25.2241   506
25.2341   463
25.2441   507
25.2541   498
25.2641   496
25.2741   478
25.2841   504
25.2941   495
25.3041   533
25.3141   489
25.3241   447
25.3341   495
25.3441   473
25.3541   451
25.3641   474
25.3741   467
25.3841   490
25.3941   458
25.4041   481
25.4141   502
25.4241   472
25.4341   476
25.4441   489
25.4541   452
25.4641   472
25.4741   495
25.4841   519
25.4941   444
25.5041   481
25.5141   464
25.5241   469
25.5341   486
25.5441   471
25.5541   453
25.5641   491
25.5741   444
25.5841   471
25.5941   456
25.6041   455
25.6141   446
25.6241   496
25.6341   442
25.6441   449
25.6541   469
25.6641   453
25.6741   464
25.6841   465
25.6941   456
25.7041   458
25.7141   439
25.7241   468
25.7341   461
25.7441   456
25.7541   463
25.7641   441
25.7741   428
25.7841   451
25.7941   445
25.8041   428
25.8141   480
25.8241   425
25.8341   434
25.8441   472
25.8541   432
25.8641   431
25.8741   423
25.8841   457
25.8941   468
25.9041   450
25.9141   422
25.9241   439
25.9341   443
25.9441   467
25.9541   460
25.9641   443
25.9741   470
25.9841   454
25.9941   417
26.0041   450
26.0141   422
26.0241   427
26.0341   444
26.0441   489
26.0541   491
26.0641   447
26.0741   433
26.0841   438
26.0941   471
26.1041   437
26.1141   444
26.1241   445
26.1341   437
26.1441   439
26.1541   417
26.1641   441
26.1741   406
26.1841   430
26.1941   458
26.2041   432
26.2141   448
26.2241   445
26.2341   450
26.2441   440
26.2541   413
26.2641   468
26.2741   456
26.2841   436
26.2941   449
26.3041   449
26.3141   448
26.3241   448
26.3341   434
26.3441   420
26.3541   427
26.3641   392
26.3741   444
26.3841   455
26.3941   422
26.4041   416
26.4141   434
26.4241   426
26.4341   465
26.4441   425
26.4541   427
26.4641   488
26.4741   427
26.4841   396
26.4941   452
26.5041   450
26.5141   454
26.5241   444
26.5341   460
26.5441   478
26.5541   431
26.5641   408
26.5741   445
26.5841   430
26.5941   393
26.6041   407
26.6141   429
26.6241   435
26.6341   405
26.6441   391
26.6541   384
26.6641   462
26.6741   390
26.6841   420
26.6941   395
26.7041   439
26.7141   433
26.7241   411
26.7341   409
26.7441   423
26.7541   422
26.7641   414
26.7741   411
26.7841   385
26.7941   383
26.8041   413
26.8141   380
26.8241   366
26.8341   384
26.8441   408
26.8541   407
26.8641   391
26.8741   407
26.8841   416
26.8941   430
26.9041   436
26.9141   412
26.9241   408
26.9341   387
26.9441   403
26.9541   371
26.9641   400
26.9741   429
26.9841   435
26.9941   412
27.0041   416
27.0141   414
27.0241   391
27.0341   406
27.0441   417
27.0541   407
27.0641   420
27.0741   402
27.0841   423
27.0941   400
27.1041   402
27.1141   414
27.1241   378
27.1341   399
27.1441   398
27.1541   427
27.1641   381
27.1741   384
27.1841   402
27.1941   427
27.2041   427
27.2141   395
27.2241   405
27.2341   393
27.2441   387
27.2541   397
27.2641   400
27.2741   388
27.2841   404
27.2941   386
27.3041   367
27.3141   414
27.3241   396
27.3341   388
27.3441   424
27.3541   391
27.3641   417
27.3741   392
27.3841   405
27.3941   389
27.4041   380
27.4141   415
27.4241   390
27.4341   396
27.4441   381
27.4541   407
27.4641   404
27.4741   369
27.4841   395
27.4941   387
27.5041   391
27.5141   407
27.5241   367
27.5341   390
27.5441   389
27.5541   379
27.5641   400
27.5741   366
27.5841   378
27.5941   376
27.6041   412
27.6141   413
27.6241   375
27.6341   366
27.6441   370
27.6541   370
27.6641   399
27.6741   399
27.6841   386
27.6941   342
27.7041   370
27.7141   353
27.7241   399
27.7341   396
27.7441   379
27.7541   360
27.7641   384
27.7741   368
27.7841   355
27.7941   375
27.8041   336
27.8141   363
27.8241   401
27.8341   365
27.8441   349
27.8541   384
27.8641   373
27.8741   334
27.8841   337
27.8941   376
27.9041   377
27.9141   365
27.9241   363
27.9341   374
27.9441   345
27.9541   339
27.9641   368
27.9741   379
27.9841   308
27.9941   347
28.0041   347
28.0141   374
28.0241   360
28.0341   385
28.0441   379
28.0541   353
28.0641   387
28.0741   366
28.0841   332
28.0941   356
28.1041   349
28.1141   376
28.1241   361
28.1341   355
28.1441   372
28.1541   344
28.1641   373
28.1741   344
28.1841   379
28.1941   404
28.2041   359
28.2141   357
28.2241   381
28.2341   367
28.2441   362
28.2541   335
28.2641   329
28.2741   347
28.2841   362
28.2941   371
28.3041   342
28.3141   334
28.3241   359
28.3341   347
28.3441   351
28.3541   355
28.3641   334
28.3741   342
28.3841   368
28.3941   357
28.4041   342
28.4141   339
28.4241   331
28.4341   338
28.4441   369
28.4541   355
28.4641   341
28.4741   350
28.4841   348
28.4941   332
28.5041   315
28.5141   315
28.5241   337
28.5341   349
28.5441   352
28.5541   321
28.5641   338
28.5741   340
28.5841   354
28.5941   331
28.6041   321
28.6141   337
28.6241   343
28.6341   352
28.6441   322
28.6541   369
28.6641   337
28.6741   332
28.6841   333
28.6941   319
28.7041   325
28.7141   348
28.7241   324
28.7341   311
28.7441   319
28.7541   334
28.7641   335
28.7741   340
28.7841   337
28.7941   345
28.8041   349
28.8141   307
28.8241   349
28.8341   341
28.8441   326
28.8541   325
28.8641   324
28.8741   325
28.8841   331
28.8941   313
28.9041   319
28.9141   307
28.9241   312
28.9341   335
28.9441   294
28.9541   322
28.9641   333
28.9741   333
28.9841   320
28.9941   312
29.0041   339
29.0141   326
29.0241   307
29.0341   321
29.0441   337
29.0541   316
29.0641   333
29.0741   309
29.0841   321
29.0941   340
29.1041   318
29.1141   327
29.1241   344
29.1341   351
29.1441   323
29.1541   309
29.1641   327
29.1741   325
29.1841   292
29.1941   330
29.2041   316
29.2141   301
29.2241   330
29.2341   328
29.2441   335
29.2541   319
29.2641   316
29.2741   315
29.2841   278
29.2941   293
29.3041   324
29.3141   316
29.3241   272
29.3341   301
29.3441   302
29.3541   291
29.3641   287
29.3741   327
29.3841   301
29.3941   299
29.4041   323
29.4141   320
29.4241   300
29.4341   322
29.4441   309
29.4541   297
29.4641   307
29.4741   294
29.4841   313
29.4941   308
29.5041   297
29.5141   311
29.5241   280
29.5341   299
29.5441   312
29.5541   300
29.5641   276
29.5741   298
29.5841   281
29.5941   281
29.6041   301
29.6141   318
29.6241   294
29.6341   272
29.6441   311
29.6541   302
29.6641   306
29.6741   316
29.6841   285
29.6941   301
29.7041   312
29.7141   326
29.7241   291
29.7341   285
29.7441   309
29.7541   274
29.7641   290
29.7741   276
29.7841   317
29.7941   295
29.8041   274
29.8141   288
29.8241   297
29.8341   280
29.8441   273
29.8541   300
29.8641   259
29.8741   299
29.8841   281
29.8941   290
29.9041   275
29.9141   285
29.9241   263
29.9341   312
29.9441   279
29.9541   293
29.9641   280
29.9741   305
29.9841   274
29.9941   303
30.0041   289
30.0141   268
30.0241   262
30.0341   275
30.0441   275
30.0541   291
30.0641   289
30.0741   290
30.0841   286
30.0941   274
30.1041   276
30.1141   275
30.1241   277
30.1341   272
30.1441   293
30.1541   305
30.1641   276
30.1741   294
30.1841   274
30.1941   264
30.2041   308
30.2141   247
30.2241   263
30.2341   270
30.2441   281
30.2541   277
30.2641   243
30.2741   290
30.2841   280
30.2941   252
30.3041   259
30.3141   281
30.3241   274
30.3341   272
30.3441   281
30.3541   266
30.3641   275
30.3741   253
30.3841   266
30.3941   269
30.4041   250
30.4141   258
30.4241   275
30.4341   259
30.4441   245
30.4541   248
30.4641   274
30.4741   257
30.4841   259
30.4941   267
30.5041   274
30.5141   290
30.5241   268
30.5341   257
30.5441   246
30.5541   251
30.5641   247
30.5741   279
30.5841   248
30.5941   275
30.6041   261
30.6141   271
30.6241   247
30.6341   251
30.6441   282
30.6541   269
30.6641   239
30.6741   263
30.6841   247
30.6941   226
30.7041   255
30.7141   258
30.7241   257
30.7341   245
30.7441   210
30.7541   236
30.7641   233
30.7741   254
30.7841   261
30.7941   252
30.8041   238
30.8141   274
30.8241   237
30.8341   267
30.8441   245
30.8541   262
30.8641   253
30.8741   239
30.8841   241
30.8941   242
30.9041   232
30.9141   260
30.9241   250
30.9341   256
30.9441   230
30.9541   242
30.9641   281
30.9741   251
30.9841   257
30.9941   262
31.0041   247
31.0141   259
31.0241   234
31.0341   252
31.0441   233
31.0541   270
31.0641   246
31.0741   236
31.0841   257
31.0941   253
31.1041   258
31.1141   259
31.1241   258
31.1341   247
31.1441   263
31.1541   234
31.1641   227
31.1741   265
31.1841   241
31.1941   235
31.2041   240
31.2141   242
31.2241   214
31.2341   223
31.2441   259
31.2541   226
31.2641   201
31.2741   213
31.2841   255
31.2941   245
31.3041   260
31.3141   218
31.3241   237
31.3341   229
31.3441   216
31.3541   238
31.3641   227
31.3741   219
31.3841   230
31.3941   219
31.4041   237
31.4141   231
31.4241   228
31.4341   238
31.4441   231
31.4541   236
31.4641   222
31.4741   208
31.4841   231
31.4941   221
31.5041   216
31.5141   221
31.5241   202
31.5341   204
31.5441   238
31.5541   200
31.5641   217
31.5741   232
31.5841   224
31.5941   259
31.6041   245
31.6141   227
31.6241   254
31.6341   231
31.6441   225
31.6541   205
31.6641   220
31.6741   211
31.6841   217
31.6941   244
31.7041   236
31.7141   219
31.7241   237
31.7341   235
31.7441   229
31.7541   224
31.7641   227
31.7741   213
31.7841   227
31.7941   216
31.8041   213
31.8141   221
31.8241   242
31.8341   229
31.8441   207
31.8541   232
31.8641   217
31.8741   199
31.8841   217
31.8941   202
31.9041   200
31.9141   223
31.9241   207
31.9341   227
31.9441   213
31.9541   234
31.9641   212
31.9741   211
31.9841   182
31.9941   212
32.0041   233
32.0141   200
32.0241   202
32.0341   213
32.0441   181
32.0541   249
32.0641   213
32.0741   202
32.0841   197
32.0941   198
32.1041   246
32.1141   231
32.1241   229
32.1341   195
32.1441   202
32.1541   203
32.1641   201
32.1741   213
32.1841   245
32.1941   222
32.2041   227
32.2141   224
32.2241   206
32.2341   245
32.2441   219
32.2541   219
32.2641   218
32.2741   233
32.2841   218
32.2941   194
32.3041   206
32.3141   211
32.3241   193
32.3341   214
32.3441   225
32.3541   193
32.3641   183
32.3741   214
32.3841   185
32.3941   198
32.4041   204
32.4141   192
32.4241   209
32.4341   209
32.4441   188
32.4541   228
32.4641   200
32.4741   168
32.4841   191
32.4941   198
32.5041   207
32.5141   176
32.5241   181
32.5341   194
32.5441   191
32.5541   188
32.5641   192
32.5741   181
32.5841   176
32.5941   170
32.6041   199
32.6141   180
32.6241   187
32.6341   196
32.6441   179
32.6541   176
32.6641   193
32.6741   175
32.6841   176
32.6941   187
32.7041   177
32.7141   200
32.7241   186
32.7341   187
32.7441   178
32.7541   169
32.7641   201
32.7741   195
32.7841   174
32.7941   183
32.8041   189
32.8141   182
32.8241   167
32.8341   183
32.8441   183
32.8541   187
32.8641   188
32.8741   175
32.8841   185
32.8941   174
32.9041   164
32.9141   173
32.9241   176
32.9341   178
32.9441   174
32.9541   162
32.9641   187
32.9741   171
32.9841   190
32.9941   177
33.0041   186
33.0141   178
33.0241   187
33.0341   177
33.0441   187
33.0541   172
33.0641   176
33.0741   180
33.0841   178
33.0941   162
33.1041   164
33.1141   185
33.1241   161
33.1341   172
33.1441   157
33.1541   160
33.1641   167
33.1741   183
33.1841   187
33.1941   166
33.2041   180
33.2141   193
33.2241   155
33.2341   167
33.2441   166
33.2541   166
33.2641   159
33.2741   165
33.2841   177
33.2941   186
33.3041   158
33.3141   163
33.3241   153
33.3341   205
33.3441   175
33.3541   176
33.3641   170
33.3741   162
33.3841   135
33.3941   164
33.4041   164
33.4141   171
33.4241   169
33.4341   190
33.4441   140
33.4541   145
33.4641   157
33.4741   183
33.4841   154
33.4941   154
33.5041   178
33.5141   150
33.5241   176
33.5341   165
33.5441   157
33.5541   162
33.5641   181
33.5741   144
33.5841   148
33.5941   176
33.6041   149
33.6141   159
33.6241   176
33.6341   152
33.6441   147
33.6541   153
33.6641   178
33.6741   175
33.6841   172
33.6941   165
33.7041   169
33.7141   169
33.7241   131
33.7341   146
33.7441   148
33.7541   152
33.7641   151
33.7741   127
33.7841   152
33.7941   147
33.8041   159
33.8141   152
33.8241   176
33.8341   137
33.8441   185
33.8541   154
33.8641   154
33.8741   127
33.8841   151
33.8941   146
33.9041   138
33.9141   148
33.9241   144
33.9341   158
33.9441   124
33.9541   149
33.9641   144
33.9741   163
33.9841   154
33.9941   158
34.0041   156
34.0141   143
34.0241   141
34.0341   146
34.0441   155
34.0541   136
34.0641   151
34.0741   170
34.0841   152
34.0941   149
34.1041   158
34.1141   135
34.1241   136
34.1341   144
34.1441   148
34.1541   143
34.1641   176
34.1741   142
34.1841   132
34.1941   154
34.2041   144
34.2141   127
34.2241   147
34.2341   140
34.2441   140
34.2541   131
34.2641   140
34.2741   148
34.2841   151
34.2941   142
34.3041   144
34.3141   144
34.3241   132
34.3341   130
34.3441   142
34.3541   130
34.3641   135
34.3741   154
34.3841   136
34.3941   129
34.4041   140
34.4141   126
34.4241   129
34.4341   126
34.4441   119
34.4541   134
34.4641   125
34.4741   123
34.4841   142
34.4941   127
34.5041   140
34.5141   131
34.5241   137
34.5341   150
34.5441   131
34.5541   129
34.5641   134
34.5741   119
34.5841   121
34.5941   158
34.6041   142
34.6141   151
34.6241   135
34.6341   140
34.6441   137
34.6541   136
34.6641   127
34.6741   127
34.6841   138
34.6941   132
34.7041   139
34.7141   127
34.7241   155
34.7341   139
34.7441   124
34.7541   137
34.7641   120
34.7741   123
34.7841   122
34.7941   123
34.8041   127
34.8141   134
34.8241   124
34.8341   139
34.8441   128
34.8541   106
34.8641   133
34.8741   138
34.8841   137
34.8941   128
34.9041   128
34.9141   126
34.9241   120
34.9341   135
34.9441   120
34.9541   128
34.9641   123
34.9741   128
34.9841   120
34.9941   116
35.0041   111
35.0141   115
35.0241   119
35.0341   134
35.0441   120
35.0541   119
35.0641   124
35.0741   118
35.0841   118
35.0941   126
35.1041   111
35.1141   124
35.1241   119
35.1341   104
35.1441   105
35.1541    99
35.1641   115
35.1741   104
35.1841   121
35.1941   121
35.2041   104
35.2141   110
35.2241   122
35.2341    96
35.2441    95
35.2541   125
35.2641   110
35.2741   119
35.2841   119
35.2941   107
35.3041   106
35.3141   116
35.3241   114
35.3341    97
35.3441   114
35.3541   132
35.3641   121
35.3741   130
35.3841   117
35.3941   125
35.4041   116
35.4141   123
35.4241   101
35.4341   109
35.4441   111
35.4541   109
35.4641   104
35.4741   103
35.4841   133
35.4941   116
35.5041    99
35.5141   103
35.5241   129
35.5341   100
35.5441   121
35.5541   114
35.5641   108
35.5741   112
35.5841    97
35.5941   105
35.6041    95
35.6141    98
35.6241    86
35.6341   117
35.6441   119
35.6541   108
35.6641   110
35.6741   108
35.6841    97
35.6941   121
35.7041   106
35.7141   113
35.7241   130
35.7341   105
35.7441   111
35.7541   117
35.7641   102
35.7741   109
35.7841   104
35.7941   111
35.8041   104
35.8141   111
35.8241    98
35.8341    85
35.8441    99
35.8541   116
35.8641   105
35.8741   110
35.8841    98
35.8941   108
35.9041    89
35.9141   100
35.9241    93
35.9341    94
35.9441   100
35.9541    85
35.9641    95
35.9741   100
35.9841   103
35.9941   112
36.0041   107
36.0141   107
36.0241    95
36.0341    94
36.0441    76
36.0541   106
36.0641    99
36.0741    99
36.0841    93
36.0941    93
36.1041    90
36.1141    93
36.1241   101
36.1341   116
36.1441   100
36.1541   100
36.1641   101
36.1741   101
36.1841   109
36.1941    97
36.2041   100
36.2141   112
36.2241    86
36.2341    99
36.2441   112
36.2541    80
36.2641    86
36.2741    88
36.2841    86
36.2941    88
36.3041    88
36.3141    91
36.3241    95
36.3341    93
36.3441    99
36.3541    90
36.3641   106
36.3741    90
36.3841    90
36.3941    79
36.4041    88
36.4141   100
36.4241   109
36.4341    83
36.4441    88
36.4541   102
36.4641    94
36.4741    93
36.4841    95
36.4941    85
36.5041    89
36.5141    91
36.5241    84
36.5341   100
36.5441   102
36.5541    69
36.5641    82
36.5741    93
36.5841    73
36.5941   102
36.6041    95
36.6141    88
36.6241   106
36.6341    84
36.6441    88
36.6541    92
36.6641    90
36.6741    85
36.6841    80
36.6941    81
36.7041    75
36.7141    80
36.7241    92
36.7341   100
36.7441    85
36.7541   105
36.7641    91
36.7741    78
36.7841    75
36.7941    67
36.8041    82
36.8141    91
36.8241    90
36.8341    86
36.8441    82
36.8541    62
36.8641    83
36.8741    79
36.8841    75
36.8941    82
36.9041    80
36.9141    91
36.9241    85
36.9341    75
36.9441    92
36.9541    88
36.9641    79
36.9741    80
36.9841    68
36.9941    71
37.0041    74
37.0141    77
37.0241    76
37.0341    81
37.0441    97
37.0541    72
37.0641    81
37.0741    74
37.0841    73
37.0941    79
37.1041    64
37.1141    59
37.1241    69
37.1341    77
37.1441    90
37.1541    68
37.1641    88
37.1741    78
37.1841    70
37.1941    79
37.2041    64
37.2141    62
37.2241    61
37.2341    71
37.2441    74
37.2541    86
37.2641    76
37.2741    72
37.2841    80
37.2941    69
37.3041    73
37.3141    73
37.3241    70
37.3341    64
37.3441    85
37.3541    69
37.3641    75
37.3741    64
37.3841    58
37.3941    80
37.4041    66
37.4141    65
37.4241    56
37.4341    79
37.4441    71
37.4541    74
37.4641    64
37.4741    66
37.4841    55
37.4941    67
37.5041    61
37.5141    62
37.5241    74
37.5341    65
37.5441    55
37.5541    59
37.5641    77
37.5741    87
37.5841    64
37.5941    71
37.6041    72
37.6141    79
37.6241    68
37.6341    83
37.6441    66
37.6541    66
37.6641    87
37.6741    68
37.6841    70
37.6941    72
37.7041    68
37.7141    66
37.7241    57
37.7341    80
37.7441    64
37.7541    60
37.7641    63
37.7741    58
37.7841    61
37.7941    66
37.8041    58
37.8141    65
37.8241    61
37.8341    56
37.8441    58
37.8541    57
37.8641    57
37.8741    78
37.8841    66
37.8941    65
37.9041    57
37.9141    62
37.9241    68
37.9341    66
37.9441    67
37.9541    61
37.9641    58
37.9741    70
37.9841    62
37.9941    70
38.0041    52
38.0141    54
38.0241    77
38.0341    61
38.0441    52
38.0541    56
38.0641    67
38.0741    64
38.0841    53
38.0941    57
38.1041    69
38.1141    60
38.1241    61
38.1341    64
38.1441    68
38.1541    59
38.1641    70
38.1741    58
38.1841    61
38.1941    55
38.2041    64
38.2141    58
38.2241    62
38.2341    56
38.2441    48
38.2541    60
38.2641    51
38.2741    53
38.2841    53
38.2941    63
38.3041    62
38.3141    50
38.3241    56
38.3341    68
38.3441    58
38.3541    63
38.3641    56
38.3741    68
38.3841    58
38.3941    63
38.4041    49
38.4141    46
38.4241    57
38.4341    56
38.4441    47
38.4541    54
38.4641    52
38.4741    45
38.4841    47
38.4941    50
38.5041    51
38.5141    54
38.5241    65
38.5341    70
38.5441    54
38.5541    55
38.5641    50
38.5741    51
38.5841    40
38.5941    49
38.6041    48
38.6141    53
38.6241    48
38.6341    56
38.6441    56
38.6541    52
38.6641    46
38.6741    45
38.6841    48
38.6941    57
38.7041    57
38.7141    54
38.7241    40
38.7341    46
38.7441    52
38.7541    36
38.7641    44
38.7741    56
38.7841    44
38.7941    58
38.8041    48
38.8141    47
38.8241    49
38.8341    52
38.8441    44
38.8541    49
38.8641    52
38.8741    33
38.8841    50
38.8941    47
38.9041    52
38.9141    35
38.9241    47
38.9341    39
38.9441    44
38.9541    46
38.9641    43
38.9741    41
38.9841    41
38.9941    49
39.0041    43
39.0141    49
39.0241    46
39.0341    40
39.0441    35
39.0541    43
39.0641    36
39.0741    47
39.0841    48
39.0941    48
39.1041    50
39.1141    47
39.1241    38
39.1341    47
39.1441    53
39.1541    39
39.1641    29
39.1741    41
39.1841    42
39.1941    44
39.2041    46
39.2141    40
39.2241    40
39.2341    42
39.2441    44
39.2541    38
39.2641    36
39.2741    38
39.2841    48
39.2941    36
39.3041    40
39.3141    40
39.3241    42
39.3341    44
39.3441    53
39.3541    43
39.3641    24
39.3741    39
39.3841    34
39.3941    41
39.4041    34
39.4141    37
39.4241    37
39.4341    28
39.4441    32
39.4541    36
39.4641    41
39.4741    41
39.4841    48
39.4941    35
39.5041    42
39.5141    46
39.5241    30
39.5341    46
39.5441    33
39.5541    27
39.5641    27
39.5741    37
39.5841    40
39.5941    31
39.6041    45
39.6141    33
39.6241    44
39.6341    29
39.6441    28
39.6541    32
39.6641    42
39.6741    37
39.6841    32
39.6941    39
39.7041    23
39.7141    41
39.7241    37
39.7341    45
39.7441    30
39.7541    30
39.7641    37
39.7741    31
39.7841    31
39.7941    30
39.8041    34
39.8141    30
39.8241    33
39.8341    31
39.8441    35
39.8541    43
39.8641    42
39.8741    39
39.8841    29
39.8941    35
39.9041    42
39.9141    45
39.9241    33
39.9341    26
39.9441    34
39.9541    28
39.9641    29
39.9741    23
39.9841    25
