Bruker Nano GmbH Berlin, Germany
Esprit 1.9

Date: 4/21/2021 1:41:18 PM
Real time: 26151
Life time: 24579
Pulse density: 87007


Detector type: XFlash 430
Window type: Custom type
Detector thickness: 0.45
Si dead layer:0.029

Calibration, lin.: 10
Calibration, abs.: -955.9
Mn FWHM: 137.05
Fano factor: 0.121
Channels: 4095

Energy Counts
-0.9559     0
-0.9459     0
-0.9359     0
-0.9259     0
-0.9159     0
-0.9059     0
-0.8959     0
-0.8859     0
-0.8759     0
-0.8659     0
-0.8559     0
-0.8459     0
-0.8359     0
-0.8259     0
-0.8159     0
-0.8059     0
-0.7959     0
-0.7859     0
-0.7759     0
-0.7659     0
-0.7559     0
-0.7459     0
-0.7359     0
-0.7259     0
-0.7159     0
-0.7059     0
-0.6959     0
-0.6859     0
-0.6759     0
-0.6659     0
-0.6559     0
-0.6459     0
-0.6359     0
-0.6259     0
-0.6159     0
-0.6059     0
-0.5959     0
-0.5859     0
-0.5759     0
-0.5659     0
-0.5559     0
-0.5459     0
-0.5359     0
-0.5259     0
-0.5159     0
-0.5059     0
-0.4959     0
-0.4859     0
-0.4759     0
-0.4659     0
-0.4559     0
-0.4459     0
-0.4359     0
-0.4259     0
-0.4159     0
-0.4059     0
-0.3959     0
-0.3859     0
-0.3759     0
-0.3659     0
-0.3559     0
-0.3459     0
-0.3359     0
-0.3259     0
-0.3159     0
-0.3059     0
-0.2959     0
-0.2859     0
-0.2759     0
-0.2659     0
-0.2559     0
-0.2459     0
-0.2359     0
-0.2259     0
-0.2159     0
-0.2059     0
-0.1959     0
-0.1859     0
-0.1759     0
-0.1659     0
-0.1559     0
-0.1459     0
-0.1359     0
-0.1259     0
-0.1159     5
-0.1059    13
-0.0959    76
-0.0859   281
-0.0759   967
-0.0659  2732
-0.0559  7185
-0.0459 15676
-0.0359 29162
-0.0259 46890
-0.0159 63954
-0.0059 75689
 0.0041 75929
 0.0141 64971
 0.0241 48308
 0.0341 30220
 0.0441 16425
 0.0541  7805
 0.0641  3080
 0.0741  1023
 0.0841   316
 0.0941   100
 0.1041    25
 0.1141    10
 0.1241    11
 0.1341    10
 0.1441     9
 0.1541     6
 0.1641     7
 0.1741     2
 0.1841   243
 0.1941   468
 0.2041   392
 0.2141   384
 0.2241   389
 0.2341   412
 0.2441   404
 0.2541   399
 0.2641   394
 0.2741   384
 0.2841   390
 0.2941   387
 0.3041   376
 0.3141   392
 0.3241   393
 0.3341   390
 0.3441   404
 0.3541   386
 0.3641   381
 0.3741   372
 0.3841   367
 0.3941   363
 0.4041   365
 0.4141   372
 0.4241   369
 0.4341   372
 0.4441   366
 0.4541   364
 0.4641   356
 0.4741   343
 0.4841   357
 0.4941   353
 0.5041   342
 0.5141   378
 0.5241   347
 0.5341   328
 0.5441   333
 0.5541   351
 0.5641   341
 0.5741   321
 0.5841   319
 0.5941   324
 0.6041   340
 0.6141   317
 0.6241   329
 0.6341   332
 0.6441   328
 0.6541   334
 0.6641   313
 0.6741   310
 0.6841   306
 0.6941   317
 0.7041   311
 0.7141   300
 0.7241   295
 0.7341   289
 0.7441   292
 0.7541   287
 0.7641   291
 0.7741   294
 0.7841   300
 0.7941   308
 0.8041   287
 0.8141   266
 0.8241   288
 0.8341   296
 0.8441   290
 0.8541   301
 0.8641   264
 0.8741   277
 0.8841   285
 0.8941   273
 0.9041   255
 0.9141   256
 0.9241   260
 0.9341   268
 0.9441   281
 0.9541   277
 0.9641   266
 0.9741   280
 0.9841   281
 0.9941   284
 1.0041   269
 1.0141   270
 1.0241   258
 1.0341   281
 1.0441   281
 1.0541   247
 1.0641   267
 1.0741   258
 1.0841   255
 1.0941   261
 1.1041   265
 1.1141   279
 1.1241   262
 1.1341   250
 1.1441   248
 1.1541   258
 1.1641   245
 1.1741   268
 1.1841   288
 1.1941   267
 1.2041   281
 1.2141   250
 1.2241   255
 1.2341   243
 1.2441   261
 1.2541   249
 1.2641   232
 1.2741   239
 1.2841   253
 1.2941   221
 1.3041   232
 1.3141   257
 1.3241   247
 1.3341   223
 1.3441   231
 1.3541   216
 1.3641   216
 1.3741   219
 1.3841   243
 1.3941   219
 1.4041   240
 1.4141   248
 1.4241   224
 1.4341   242
 1.4441   227
 1.4541   225
 1.4641   246
 1.4741   202
 1.4841   224
 1.4941   223
 1.5041   246
 1.5141   244
 1.5241   226
 1.5341   242
 1.5441   245
 1.5541   226
 1.5641   232
 1.5741   241
 1.5841   232
 1.5941   217
 1.6041   212
 1.6141   224
 1.6241   245
 1.6341   239
 1.6441   268
 1.6541   292
 1.6641   344
 1.6741   402
 1.6841   517
 1.6941   602
 1.7041   746
 1.7141   869
 1.7241   915
 1.7341  1003
 1.7441  1039
 1.7541   999
 1.7641   812
 1.7741   711
 1.7841   632
 1.7941   528
 1.8041   470
 1.8141   395
 1.8241   288
 1.8341   282
 1.8441   289
 1.8541   259
 1.8641   268
 1.8741   293
 1.8841   263
 1.8941   244
 1.9041   243
 1.9141   234
 1.9241   217
 1.9341   222
 1.9441   263
 1.9541   279
 1.9641   259
 1.9741   260
 1.9841   260
 1.9941   279
 2.0041   288
 2.0141   292
 2.0241   289
 2.0341   268
 2.0441   263
 2.0541   267
 2.0641   256
 2.0741   264
 2.0841   207
 2.0941   212
 2.1041   272
 2.1141   230
 2.1241   227
 2.1341   202
 2.1441   232
 2.1541   208
 2.1641   196
 2.1741   194
 2.1841   237
 2.1941   230
 2.2041   215
 2.2141   216
 2.2241   203
 2.2341   215
 2.2441   196
 2.2541   183
 2.2641   198
 2.2741   205
 2.2841   203
 2.2941   197
 2.3041   202
 2.3141   196
 2.3241   191
 2.3341   205
 2.3441   207
 2.3541   190
 2.3641   217
 2.3741   218
 2.3841   199
 2.3941   198
 2.4041   201
 2.4141   188
 2.4241   204
 2.4341   186
 2.4441   194
 2.4541   197
 2.4641   210
 2.4741   201
 2.4841   232
 2.4941   190
 2.5041   187
 2.5141   196
 2.5241   202
 2.5341   193
 2.5441   188
 2.5541   204
 2.5641   205
 2.5741   204
 2.5841   187
 2.5941   214
 2.6041   194
 2.6141   198
 2.6241   189
 2.6341   201
 2.6441   203
 2.6541   189
 2.6641   178
 2.6741   169
 2.6841   180
 2.6941   165
 2.7041   176
 2.7141   186
 2.7241   159
 2.7341   176
 2.7441   155
 2.7541   170
 2.7641   182
 2.7741   187
 2.7841   172
 2.7941   174
 2.8041   176
 2.8141   192
 2.8241   206
 2.8341   167
 2.8441   188
 2.8541   194
 2.8641   187
 2.8741   154
 2.8841   197
 2.8941   156
 2.9041   152
 2.9141   154
 2.9241   143
 2.9341   169
 2.9441   178
 2.9541   151
 2.9641   175
 2.9741   153
 2.9841   182
 2.9941   162
 3.0041   155
 3.0141   158
 3.0241   139
 3.0341   164
 3.0441   186
 3.0541   140
 3.0641   177
 3.0741   150
 3.0841   153
 3.0941   152
 3.1041   144
 3.1141   159
 3.1241   138
 3.1341   147
 3.1441   147
 3.1541   157
 3.1641   141
 3.1741   154
 3.1841   149
 3.1941   149
 3.2041   152
 3.2141   148
 3.2241   199
 3.2341   199
 3.2441   240
 3.2541   241
 3.2641   247
 3.2741   274
 3.2841   325
 3.2941   335
 3.3041   354
 3.3141   346
 3.3241   349
 3.3341   332
 3.3441   307
 3.3541   298
 3.3641   242
 3.3741   220
 3.3841   188
 3.3941   166
 3.4041   176
 3.4141   150
 3.4241   192
 3.4341   139
 3.4441   150
 3.4541   130
 3.4641   145
 3.4741   127
 3.4841   147
 3.4941   137
 3.5041   133
 3.5141   150
 3.5241   158
 3.5341   187
 3.5441   185
 3.5541   186
 3.5641   255
 3.5741   282
 3.5841   324
 3.5941   385
 3.6041   504
 3.6141   630
 3.6241   756
 3.6341   905
 3.6441  1124
 3.6541  1383
 3.6641  1496
 3.6741  1625
 3.6841  1666
 3.6941  1691
 3.7041  1594
 3.7141  1473
 3.7241  1326
 3.7341  1074
 3.7441   876
 3.7541   723
 3.7641   576
 3.7741   418
 3.7841   358
 3.7941   285
 3.8041   215
 3.8141   193
 3.8241   141
 3.8341   143
 3.8441   142
 3.8541   142
 3.8641   123
 3.8741   121
 3.8841   134
 3.8941   134
 3.9041   155
 3.9141   160
 3.9241   154
 3.9341   206
 3.9441   199
 3.9541   231
 3.9641   254
 3.9741   277
 3.9841   304
 3.9941   329
 4.0041   350
 4.0141   314
 4.0241   316
 4.0341   330
 4.0441   286
 4.0541   270
 4.0641   259
 4.0741   220
 4.0841   204
 4.0941   193
 4.1041   180
 4.1141   116
 4.1241   137
 4.1341   116
 4.1441   130
 4.1541   109
 4.1641   120
 4.1741   102
 4.1841   100
 4.1941   123
 4.2041    97
 4.2141    91
 4.2241   104
 4.2341   105
 4.2441   110
 4.2541   101
 4.2641   107
 4.2741   105
 4.2841    84
 4.2941   109
 4.3041   109
 4.3141   100
 4.3241   113
 4.3341    97
 4.3441    98
 4.3541   116
 4.3641   118
 4.3741   108
 4.3841   129
 4.3941   156
 4.4041   178
 4.4141   198
 4.4241   226
 4.4341   312
 4.4441   294
 4.4541   329
 4.4641   399
 4.4741   433
 4.4841   475
 4.4941   527
 4.5041   510
 4.5141   514
 4.5241   462
 4.5341   437
 4.5441   426
 4.5541   370
 4.5641   320
 4.5741   267
 4.5841   257
 4.5941   216
 4.6041   194
 4.6141   188
 4.6241   142
 4.6341   152
 4.6441   135
 4.6541   117
 4.6641   127
 4.6741   111
 4.6841   126
 4.6941   114
 4.7041   110
 4.7141   114
 4.7241   115
 4.7341   120
 4.7441   107
 4.7541   109
 4.7641   117
 4.7741   112
 4.7841   111
 4.7941   115
 4.8041   114
 4.8141   135
 4.8241   115
 4.8341   138
 4.8441   140
 4.8541   158
 4.8641   146
 4.8741   157
 4.8841   184
 4.8941   182
 4.9041   183
 4.9141   180
 4.9241   178
 4.9341   199
 4.9441   215
 4.9541   186
 4.9641   161
 4.9741   167
 4.9841   175
 4.9941   168
 5.0041   164
 5.0141   147
 5.0241   141
 5.0341   152
 5.0441   128
 5.0541   142
 5.0641   134
 5.0741   122
 5.0841   124
 5.0941   109
 5.1041   120
 5.1141    94
 5.1241   123
 5.1341   123
 5.1441   102
 5.1541   116
 5.1641   116
 5.1741   110
 5.1841   127
 5.1941   103
 5.2041   123
 5.2141   127
 5.2241   120
 5.2341   109
 5.2441   100
 5.2541   122
 5.2641   114
 5.2741   114
 5.2841   121
 5.2941   132
 5.3041   144
 5.3141   160
 5.3241   178
 5.3341   189
 5.3441   226
 5.3541   206
 5.3641   223
 5.3741   273
 5.3841   294
 5.3941   287
 5.4041   292
 5.4141   323
 5.4241   283
 5.4341   267
 5.4441   282
 5.4541   254
 5.4641   221
 5.4741   230
 5.4841   221
 5.4941   175
 5.5041   152
 5.5141   115
 5.5241   162
 5.5341   137
 5.5441   137
 5.5541   139
 5.5641   124
 5.5741   126
 5.5841   124
 5.5941   132
 5.6041   107
 5.6141   128
 5.6241   100
 5.6341   116
 5.6441   126
 5.6541   123
 5.6641   128
 5.6741   139
 5.6841   124
 5.6941   116
 5.7041   140
 5.7141   130
 5.7241   157
 5.7341   163
 5.7441   150
 5.7541   160
 5.7641   186
 5.7741   201
 5.7841   259
 5.7941   274
 5.8041   321
 5.8141   395
 5.8241   443
 5.8341   476
 5.8441   579
 5.8541   694
 5.8641   731
 5.8741   745
 5.8841   786
 5.8941   784
 5.9041   796
 5.9141   745
 5.9241   711
 5.9341   683
 5.9441   606
 5.9541   539
 5.9641   493
 5.9741   422
 5.9841   369
 5.9941   289
 6.0041   277
 6.0141   250
 6.0241   198
 6.0341   210
 6.0441   182
 6.0541   191
 6.0641   168
 6.0741   165
 6.0841   149
 6.0941   162
 6.1041   163
 6.1141   169
 6.1241   192
 6.1341   170
 6.1441   175
 6.1541   181
 6.1641   179
 6.1741   220
 6.1841   231
 6.1941   256
 6.2041   313
 6.2141   397
 6.2241   509
 6.2341   612
 6.2441   886
 6.2541  1231
 6.2641  1697
 6.2741  2223
 6.2841  3049
 6.2941  4012
 6.3041  5068
 6.3141  6475
 6.3241  8070
 6.3341  9569
 6.3441 11202
 6.3541 12985
 6.3641 14199
 6.3741 15282
 6.3841 16002
 6.3941 16563
 6.4041 16892
 6.4141 16272
 6.4241 15105
 6.4341 14272
 6.4441 12692
 6.4541 11021
 6.4641  9513
 6.4741  7808
 6.4841  6268
 6.4941  4854
 6.5041  3739
 6.5141  2959
 6.5241  2094
 6.5341  1575
 6.5441  1134
 6.5541   804
 6.5641   584
 6.5741   420
 6.5841   358
 6.5941   304
 6.6041   245
 6.6141   218
 6.6241   222
 6.6341   199
 6.6441   198
 6.6541   201
 6.6641   187
 6.6741   193
 6.6841   174
 6.6941   213
 6.7041   199
 6.7141   197
 6.7241   194
 6.7341   180
 6.7441   168
 6.7541   212
 6.7641   204
 6.7741   200
 6.7841   181
 6.7941   188
 6.8041   205
 6.8141   205
 6.8241   218
 6.8341   217
 6.8441   241
 6.8541   260
 6.8641   264
 6.8741   281
 6.8841   301
 6.8941   389
 6.9041   413
 6.9141   468
 6.9241   574
 6.9341   699
 6.9441   840
 6.9541  1037
 6.9641  1165
 6.9741  1377
 6.9841  1700
 6.9941  1819
 7.0041  2033
 7.0141  2347
 7.0241  2465
 7.0341  2588
 7.0441  2708
 7.0541  2688
 7.0641  2764
 7.0741  2609
 7.0841  2500
 7.0941  2253
 7.1041  1998
 7.1141  1758
 7.1241  1559
 7.1341  1269
 7.1441  1127
 7.1541   971
 7.1641   849
 7.1741   603
 7.1841   503
 7.1941   449
 7.2041   393
 7.2141   329
 7.2241   303
 7.2341   273
 7.2441   298
 7.2541   260
 7.2641   269
 7.2741   266
 7.2841   259
 7.2941   277
 7.3041   316
 7.3141   337
 7.3241   348
 7.3341   341
 7.3441   389
 7.3541   394
 7.3641   418
 7.3741   458
 7.3841   463
 7.3941   486
 7.4041   517
 7.4141   554
 7.4241   525
 7.4341   551
 7.4441   554
 7.4541   549
 7.4641   556
 7.4741   583
 7.4841   579
 7.4941   550
 7.5041   482
 7.5141   460
 7.5241   440
 7.5341   446
 7.5441   402
 7.5541   391
 7.5641   345
 7.5741   353
 7.5841   320
 7.5941   326
 7.6041   286
 7.6141   259
 7.6241   263
 7.6341   272
 7.6441   291
 7.6541   274
 7.6641   302
 7.6741   282
 7.6841   302
 7.6941   289
 7.7041   293
 7.7141   292
 7.7241   274
 7.7341   327
 7.7441   338
 7.7541   300
 7.7641   327
 7.7741   345
 7.7841   300
 7.7941   317
 7.8041   306
 7.8141   347
 7.8241   342
 7.8341   337
 7.8441   360
 7.8541   377
 7.8641   359
 7.8741   378
 7.8841   425
 7.8941   423
 7.9041   468
 7.9141   460
 7.9241   444
 7.9341   463
 7.9441   529
 7.9541   594
 7.9641   601
 7.9741   650
 7.9841   643
 7.9941   740
 8.0041   810
 8.0141   838
 8.0241   833
 8.0341   971
 8.0441  1018
 8.0541  1064
 8.0641  1224
 8.0741  1237
 8.0841  1291
 8.0941  1354
 8.1041  1453
 8.1141  1515
 8.1241  1563
 8.1341  1685
 8.1441  1652
 8.1541  1702
 8.1641  1730
 8.1741  1798
 8.1841  1791
 8.1941  1860
 8.2041  1924
 8.2141  1915
 8.2241  1866
 8.2341  1931
 8.2441  1936
 8.2541  2010
 8.2641  2155
 8.2741  2367
 8.2841  2381
 8.2941  2654
 8.3041  2882
 8.3141  3099
 8.3241  3432
 8.3341  3577
 8.3441  3830
 8.3541  4089
 8.3641  4303
 8.3741  4528
 8.3841  4558
 8.3941  4664
 8.4041  4540
 8.4141  4334
 8.4241  4169
 8.4341  3873
 8.4441  3502
 8.4541  3266
 8.4641  2853
 8.4741  2413
 8.4841  2147
 8.4941  1781
 8.5041  1519
 8.5141  1252
 8.5241  1082
 8.5341   929
 8.5441   786
 8.5541   684
 8.5641   604
 8.5741   490
 8.5841   511
 8.5941   464
 8.6041   478
 8.6141   485
 8.6241   477
 8.6341   459
 8.6441   454
 8.6541   469
 8.6641   471
 8.6741   434
 8.6841   457
 8.6941   455
 8.7041   462
 8.7141   504
 8.7241   481
 8.7341   465
 8.7441   432
 8.7541   423
 8.7641   439
 8.7741   428
 8.7841   439
 8.7941   425
 8.8041   420
 8.8141   474
 8.8241   450
 8.8341   413
 8.8441   421
 8.8541   412
 8.8641   459
 8.8741   441
 8.8841   424
 8.8941   455
 8.9041   417
 8.9141   415
 8.9241   444
 8.9341   477
 8.9441   456
 8.9541   452
 8.9641   458
 8.9741   424
 8.9841   442
 8.9941   448
 9.0041   472
 9.0141   448
 9.0241   458
 9.0341   494
 9.0441   481
 9.0541   513
 9.0641   539
 9.0741   554
 9.0841   593
 9.0941   588
 9.1041   621
 9.1141   670
 9.1241   652
 9.1341   703
 9.1441   703
 9.1541   756
 9.1641   770
 9.1741   819
 9.1841   884
 9.1941   928
 9.2041   939
 9.2141   960
 9.2241  1077
 9.2341  1152
 9.2441  1176
 9.2541  1197
 9.2641  1302
 9.2741  1338
 9.2841  1392
 9.2941  1412
 9.3041  1458
 9.3141  1557
 9.3241  1624
 9.3341  1652
 9.3441  1690
 9.3541  1740
 9.3641  1700
 9.3741  1792
 9.3841  1826
 9.3941  1880
 9.4041  1885
 9.4141  1919
 9.4241  1967
 9.4341  1936
 9.4441  1964
 9.4541  1950
 9.4641  1972
 9.4741  2020
 9.4841  1952
 9.4941  1981
 9.5041  2060
 9.5141  2102
 9.5241  2110
 9.5341  2128
 9.5441  2223
 9.5541  2368
 9.5641  2444
 9.5741  2633
 9.5841  2788
 9.5941  2903
 9.6041  3028
 9.6141  3224
 9.6241  3343
 9.6341  3551
 9.6441  3567
 9.6541  3707
 9.6641  3800
 9.6741  3747
 9.6841  3619
 9.6941  3646
 9.7041  3479
 9.7141  3305
 9.7241  3189
 9.7341  2934
 9.7441  2773
 9.7541  2518
 9.7641  2349
 9.7741  2213
 9.7841  2017
 9.7941  1876
 9.8041  1768
 9.8141  1691
 9.8241  1650
 9.8341  1570
 9.8441  1545
 9.8541  1560
 9.8641  1586
 9.8741  1507
 9.8841  1583
 9.8941  1632
 9.9041  1612
 9.9141  1597
 9.9241  1760
 9.9341  1720
 9.9441  1736
 9.9541  1715
 9.9641  1709
 9.9741  1750
 9.9841  1701
 9.9941  1583
10.0041  1534
10.0141  1380
10.0241  1323
10.0341  1205
10.0441  1082
10.0541   987
10.0641   887
10.0741   830
10.0841   728
10.0941   632
10.1041   574
10.1141   507
10.1241   487
10.1341   466
10.1441   416
10.1541   414
10.1641   377
10.1741   365
10.1841   341
10.1941   335
10.2041   321
10.2141   312
10.2241   296
10.2341   300
10.2441   249
10.2541   272
10.2641   285
10.2741   236
10.2841   268
10.2941   244
10.3041   210
10.3141   220
10.3241   226
10.3341   235
10.3441   239
10.3541   244
10.3641   238
10.3741   221
10.3841   236
10.3941   238
10.4041   219
10.4141   234
10.4241   245
10.4341   260
10.4441   268
10.4541   248
10.4641   262
10.4741   271
10.4841   274
10.4941   280
10.5041   297
10.5141   281
10.5241   247
10.5341   268
10.5441   277
10.5541   262
10.5641   296
10.5741   275
10.5841   263
10.5941   284
10.6041   270
10.6141   279
10.6241   280
10.6341   264
10.6441   274
10.6541   291
10.6641   281
10.6741   279
10.6841   279
10.6941   296
10.7041   299
10.7141   293
10.7241   280
10.7341   316
10.7441   328
10.7541   327
10.7641   307
10.7741   313
10.7841   341
10.7941   355
10.8041   365
10.8141   383
10.8241   368
10.8341   358
10.8441   390
10.8541   396
10.8641   394
10.8741   399
10.8841   404
10.8941   407
10.9041   421
10.9141   428
10.9241   410
10.9341   397
10.9441   390
10.9541   406
10.9641   409
10.9741   410
10.9841   402
10.9941   411
11.0041   392
11.0141   387
11.0241   384
11.0341   352
11.0441   354
11.0541   379
11.0641   380
11.0741   377
11.0841   365
11.0941   389
11.1041   362
11.1141   360
11.1241   385
11.1341   385
11.1441   406
11.1541   404
11.1641   432
11.1741   422
11.1841   436
11.1941   480
11.2041   499
11.2141   520
11.2241   542
11.2341   558
11.2441   577
11.2541   594
11.2641   601
11.2741   576
11.2841   609
11.2941   585
11.3041   570
11.3141   598
11.3241   573
11.3341   517
11.3441   463
11.3541   446
11.3641   466
11.3741   437
11.3841   405
11.3941   388
11.4041   357
11.4141   352
11.4241   347
11.4341   330
11.4441   335
11.4541   313
11.4641   295
11.4741   297
11.4841   292
11.4941   262
11.5041   282
11.5141   303
11.5241   301
11.5341   288
11.5441   284
11.5541   275
11.5641   291
11.5741   303
11.5841   297
11.5941   297
11.6041   320
11.6141   311
11.6241   334
11.6341   299
11.6441   295
11.6541   312
11.6641   293
11.6741   282
11.6841   302
11.6941   286
11.7041   279
11.7141   258
11.7241   269
11.7341   267
11.7441   258
11.7541   255
11.7641   253
11.7741   242
11.7841   229
11.7941   212
11.8041   208
11.8141   210
11.8241   227
11.8341   215
11.8441   219
11.8541   224
11.8641   224
11.8741   227
11.8841   224
11.8941   237
11.9041   232
11.9141   231
11.9241   238
11.9341   248
11.9441   260
11.9541   244
11.9641   230
11.9741   235
11.9841   219
11.9941   210
12.0041   229
12.0141   241
12.0241   241
12.0341   254
12.0441   229
12.0541   220
12.0641   235
12.0741   230
12.0841   231
12.0941   238
12.1041   235
12.1141   224
12.1241   224
12.1341   237
12.1441   234
12.1541   234
12.1641   204
12.1741   201
12.1841   227
12.1941   223
12.2041   222
12.2141   212
12.2241   211
12.2341   209
12.2441   200
12.2541   211
12.2641   215
12.2741   224
12.2841   230
12.2941   234
12.3041   219
12.3141   230
12.3241   215
12.3341   202
12.3441   217
12.3541   215
12.3641   222
12.3741   217
12.3841   202
12.3941   215
12.4041   221
12.4141   218
12.4241   196
12.4341   205
12.4441   227
12.4541   223
12.4641   227
12.4741   239
12.4841   229
12.4941   219
12.5041   217
12.5141   221
12.5241   224
12.5341   226
12.5441   231
12.5541   243
12.5641   238
12.5741   234
12.5841   223
12.5941   221
12.6041   244
12.6141   231
12.6241   218
12.6341   219
12.6441   224
12.6541   222
12.6641   217
12.6741   228
12.6841   241
12.6941   234
12.7041   228
12.7141   230
12.7241   223
12.7341   218
12.7441   220
12.7541   228
12.7641   227
12.7741   225
12.7841   237
12.7941   245
12.8041   233
12.8141   223
12.8241   233
12.8341   240
12.8441   239
12.8541   239
12.8641   236
12.8741   236
12.8841   239
12.8941   241
12.9041   238
12.9141   231
12.9241   230
12.9341   232
12.9441   230
12.9541   227
12.9641   223
12.9741   226
12.9841   218
12.9941   227
13.0041   238
13.0141   237
13.0241   234
13.0341   249
13.0441   252
13.0541   234
13.0641   240
13.0741   260
13.0841   263
13.0941   260
13.1041   262
13.1141   259
13.1241   252
13.1341   239
13.1441   246
13.1541   262
13.1641   260
13.1741   266
13.1841   270
13.1941   275
13.2041   287
13.2141   314
13.2241   322
13.2341   314
13.2441   318
13.2541   304
13.2641   338
13.2741   383
13.2841   401
13.2941   424
13.3041   431
13.3141   434
13.3241   460
13.3341   464
13.3441   436
13.3541   467
13.3641   495
13.3741   490
13.3841   505
13.3941   482
13.4041   464
13.4141   482
13.4241   475
13.4341   449
13.4441   442
13.4541   440
13.4641   432
13.4741   423
13.4841   396
13.4941   373
13.5041   371
13.5141   355
13.5241   331
13.5341   323
13.5441   319
13.5541   308
13.5641   296
13.5741   285
13.5841   282
13.5941   298
13.6041   289
13.6141   282
13.6241   296
13.6341   312
13.6441   306
13.6541   278
13.6641   285
13.6741   298
13.6841   288
13.6941   283
13.7041   305
13.7141   317
13.7241   303
13.7341   301
13.7441   312
13.7541   321
13.7641   319
13.7741   314
13.7841   310
13.7941   301
13.8041   292
13.8141   296
13.8241   299
13.8341   303
13.8441   302
13.8541   298
13.8641   307
13.8741   320
13.8841   329
13.8941   326
13.9041   314
13.9141   304
13.9241   311
13.9341   304
13.9441   310
13.9541   323
13.9641   322
13.9741   344
13.9841   357
13.9941   341
14.0041   334
14.0141   352
14.0241   374
14.0341   377
14.0441   373
14.0541   380
14.0641   397
14.0741   399
14.0841   409
14.0941   456
14.1041   456
14.1141   435
14.1241   447
14.1341   445
14.1441   452
14.1541   479
14.1641   455
14.1741   408
14.1841   404
14.1941   426
14.2041   434
14.2141   422
14.2241   416
14.2341   402
14.2441   384
14.2541   399
14.2641   396
14.2741   372
14.2841   368
14.2941   360
14.3041   355
14.3141   359
14.3241   361
14.3341   364
14.3441   361
14.3541   350
14.3641   336
14.3741   340
14.3841   343
14.3941   344
14.4041   360
14.4141   353
14.4241   347
14.4341   348
14.4441   347
14.4541   358
14.4641   348
14.4741   339
14.4841   332
14.4941   346
14.5041   354
14.5141   342
14.5241   336
14.5341   349
14.5441   356
14.5541   364
14.5641   357
14.5741   347
14.5841   359
14.5941   349
14.6041   353
14.6141   368
14.6241   350
14.6341   354
14.6441   376
14.6541   377
14.6641   369
14.6741   355
14.6841   342
14.6941   349
14.7041   368
14.7141   381
14.7241   355
14.7341   336
14.7441   353
14.7541   369
14.7641   376
14.7741   371
14.7841   385
14.7941   408
14.8041   391
14.8141   377
14.8241   401
14.8341   415
14.8441   424
14.8541   435
14.8641   421
14.8741   427
14.8841   416
14.8941   415
14.9041   445
14.9141   434
14.9241   412
14.9341   431
14.9441   445
14.9541   449
14.9641   445
14.9741   449
14.9841   444
14.9941   458
15.0041   462
15.0141   431
15.0241   421
15.0341   410
15.0441   414
15.0541   418
15.0641   404
15.0741   403
15.0841   391
15.0941   389
15.1041   414
15.1141   411
15.1241   400
15.1341   404
15.1441   396
15.1541   390
15.1641   387
15.1741   397
15.1841   390
15.1941   355
15.2041   359
15.2141   379
15.2241   398
15.2341   411
15.2441   400
15.2541   411
15.2641   398
15.2741   397
15.2841   387
15.2941   390
15.3041   399
15.3141   383
15.3241   383
15.3341   370
15.3441   393
15.3541   399
15.3641   401
15.3741   401
15.3841   404
15.3941   399
15.4041   383
15.4141   397
15.4241   412
15.4341   417
15.4441   427
15.4541   416
15.4641   392
15.4741   376
15.4841   382
15.4941   396
15.5041   394
15.5141   401
15.5241   417
15.5341   421
15.5441   426
15.5541   449
15.5641   449
15.5741   427
15.5841   424
15.5941   441
15.6041   466
15.6141   449
15.6241   467
15.6341   496
15.6441   487
15.6541   517
15.6641   522
15.6741   520
15.6841   530
15.6941   524
15.7041   559
15.7141   547
15.7241   535
15.7341   550
15.7441   563
15.7541   563
15.7641   560
15.7741   591
15.7841   584
15.7941   587
15.8041   569
15.8141   549
15.8241   556
15.8341   543
15.8441   535
15.8541   518
15.8641   488
15.8741   514
15.8841   519
15.8941   515
15.9041   495
15.9141   482
15.9241   472
15.9341   494
15.9441   479
15.9541   470
15.9641   449
15.9741   446
15.9841   446
15.9941   443
16.0041   463
16.0141   455
16.0241   444
16.0341   470
16.0441   456
16.0541   449
16.0641   467
16.0741   463
16.0841   467
16.0941   445
16.1041   459
16.1141   469
16.1241   442
16.1341   447
16.1441   452
16.1541   442
16.1641   453
16.1741   462
16.1841   468
16.1941   495
16.2041   470
16.2141   497
16.2241   492
16.2341   472
16.2441   472
16.2541   475
16.2641   477
16.2741   490
16.2841   454
16.2941   439
16.3041   475
16.3141   486
16.3241   463
16.3341   463
16.3441   472
16.3541   460
16.3641   478
16.3741   521
16.3841   487
16.3941   487
16.4041   503
16.4141   507
16.4241   491
16.4341   492
16.4441   469
16.4541   453
16.4641   470
16.4741   477
16.4841   488
16.4941   499
16.5041   508
16.5141   486
16.5241   475
16.5341   484
16.5441   491
16.5541   502
16.5641   512
16.5741   509
16.5841   504
16.5941   505
16.6041   504
16.6141   511
16.6241   514
16.6341   483
16.6441   487
16.6541   532
16.6641   512
16.6741   511
16.6841   519
16.6941   536
16.7041   555
16.7141   547
16.7241   552
16.7341   535
16.7441   528
16.7541   524
16.7641   545
16.7741   521
16.7841   527
16.7941   516
16.8041   521
16.8141   520
16.8241   498
16.8341   509
16.8441   518
16.8541   526
16.8641   535
16.8741   520
16.8841   522
16.8941   522
16.9041   524
16.9141   513
16.9241   503
16.9341   502
16.9441   531
16.9541   534
16.9641   506
16.9741   473
16.9841   525
16.9941   540
17.0041   507
17.0141   523
17.0241   568
17.0341   578
17.0441   559
17.0541   542
17.0641   546
17.0741   523
17.0841   534
17.0941   526
17.1041   536
17.1141   526
17.1241   544
17.1341   551
17.1441   543
17.1541   549
17.1641   541
17.1741   572
17.1841   582
17.1941   527
17.2041   546
17.2141   562
17.2241   566
17.2341   561
17.2441   539
17.2541   545
17.2641   544
17.2741   536
17.2841   532
17.2941   544
17.3041   554
17.3141   553
17.3241   553
17.3341   556
17.3441   553
17.3541   547
17.3641   579
17.3741   584
17.3841   592
17.3941   582
17.4041   575
17.4141   568
17.4241   559
17.4341   593
17.4441   587
17.4541   557
17.4641   560
17.4741   585
17.4841   572
17.4941   594
17.5041   601
17.5141   605
17.5241   592
17.5341   575
17.5441   587
17.5541   571
17.5641   580
17.5741   592
17.5841   600
17.5941   568
17.6041   560
17.6141   602
17.6241   618
17.6341   599
17.6441   589
17.6541   571
17.6641   623
17.6741   591
17.6841   587
17.6941   616
17.7041   599
17.7141   597
17.7241   591
17.7341   596
17.7441   647
17.7541   607
17.7641   608
17.7741   629
17.7841   602
17.7941   623
17.8041   611
17.8141   619
17.8241   621
17.8341   637
17.8441   595
17.8541   618
17.8641   602
17.8741   596
17.8841   634
17.8941   630
17.9041   602
17.9141   609
17.9241   549
17.9341   590
17.9441   615
17.9541   631
17.9641   582
17.9741   603
17.9841   610
17.9941   594
18.0041   589
18.0141   627
18.0241   641
18.0341   606
18.0441   596
18.0541   624
18.0641   642
18.0741   656
18.0841   631
18.0941   595
18.1041   626
18.1141   619
18.1241   642
18.1341   592
18.1441   607
18.1541   621
18.1641   601
18.1741   586
18.1841   612
18.1941   604
18.2041   643
18.2141   637
18.2241   632
18.2341   647
18.2441   628
18.2541   638
18.2641   644
18.2741   645
18.2841   652
18.2941   658
18.3041   657
18.3141   630
18.3241   605
18.3341   615
18.3441   665
18.3541   614
18.3641   606
18.3741   660
18.3841   640
18.3941   670
18.4041   648
18.4141   627
18.4241   618
18.4341   654
18.4441   632
18.4541   637
18.4641   652
18.4741   654
18.4841   638
18.4941   643
18.5041   643
18.5141   632
18.5241   626
18.5341   651
18.5441   648
18.5541   663
18.5641   643
18.5741   672
18.5841   643
18.5941   623
18.6041   658
18.6141   634
18.6241   628
18.6341   625
18.6441   619
18.6541   677
18.6641   656
18.6741   640
18.6841   666
18.6941   706
18.7041   653
18.7141   668
18.7241   671
18.7341   651
18.7441   628
18.7541   654
18.7641   676
18.7741   694
18.7841   638
18.7941   635
18.8041   624
18.8141   666
18.8241   680
18.8341   696
18.8441   650
18.8541   628
18.8641   645
18.8741   655
18.8841   688
18.8941   689
18.9041   644
18.9141   686
18.9241   674
18.9341   679
18.9441   668
18.9541   676
18.9641   687
18.9741   671
18.9841   687
18.9941   680
19.0041   644
19.0141   670
19.0241   638
19.0341   699
19.0441   710
19.0541   710
19.0641   710
19.0741   720
19.0841   672
19.0941   679
19.1041   636
19.1141   699
19.1241   721
19.1341   681
19.1441   702
19.1541   717
19.1641   691
19.1741   694
19.1841   686
19.1941   663
19.2041   686
19.2141   683
19.2241   707
19.2341   704
19.2441   731
19.2541   700
19.2641   686
19.2741   724
19.2841   698
19.2941   700
19.3041   688
19.3141   696
19.3241   683
19.3341   646
19.3441   713
19.3541   725
19.3641   689
19.3741   702
19.3841   683
19.3941   693
19.4041   670
19.4141   700
19.4241   687
19.4341   671
19.4441   685
19.4541   695
19.4641   739
19.4741   712
19.4841   705
19.4941   672
19.5041   748
19.5141   699
19.5241   720
19.5341   722
19.5441   728
19.5541   686
19.5641   710
19.5741   703
19.5841   711
19.5941   713
19.6041   724
19.6141   695
19.6241   696
19.6341   722
19.6441   702
19.6541   703
19.6641   702
19.6741   727
19.6841   692
19.6941   704
19.7041   720
19.7141   652
19.7241   726
19.7341   704
19.7441   710
19.7541   711
19.7641   762
19.7741   746
19.7841   741
19.7941   707
19.8041   723
19.8141   728
19.8241   697
19.8341   737
19.8441   749
19.8541   733
19.8641   733
19.8741   723
19.8841   725
19.8941   699
19.9041   719
19.9141   733
19.9241   711
19.9341   673
19.9441   689
19.9541   714
19.9641   729
19.9741   706
19.9841   717
19.9941   713
20.0041   732
20.0141   698
20.0241   731
20.0341   723
20.0441   750
20.0541   687
20.0641   709
20.0741   717
20.0841   731
20.0941   729
20.1041   720
20.1141   761
20.1241   713
20.1341   746
20.1441   718
20.1541   699
20.1641   708
20.1741   716
20.1841   731
20.1941   743
20.2041   717
20.2141   721
20.2241   726
20.2341   731
20.2441   731
20.2541   724
20.2641   733
20.2741   720
20.2841   709
20.2941   709
20.3041   724
20.3141   765
20.3241   705
20.3341   709
20.3441   758
20.3541   761
20.3641   766
20.3741   745
20.3841   767
20.3941   715
20.4041   707
20.4141   724
20.4241   733
20.4341   742
20.4441   761
20.4541   719
20.4641   758
20.4741   746
20.4841   752
20.4941   717
20.5041   729
20.5141   760
20.5241   759
20.5341   731
20.5441   749
20.5541   784
20.5641   739
20.5741   746
20.5841   740
20.5941   736
20.6041   762
20.6141   729
20.6241   749
20.6341   750
20.6441   703
20.6541   732
20.6641   690
20.6741   743
20.6841   805
20.6941   757
20.7041   702
20.7141   715
20.7241   729
20.7341   770
20.7441   742
20.7541   716
20.7641   731
20.7741   752
20.7841   745
20.7941   784
20.8041   766
20.8141   786
20.8241   796
20.8341   782
20.8441   799
20.8541   865
20.8641   803
20.8741   831
20.8841   813
20.8941   825
20.9041   893
20.9141   876
20.9241   874
20.9341   875
20.9441   901
20.9541   944
20.9641   965
20.9741   996
20.9841   998
20.9941   988
21.0041  1022
21.0141  1004
21.0241  1042
21.0341  1085
21.0441  1093
21.0541  1086
21.0641  1089
21.0741  1108
21.0841  1121
21.0941  1106
21.1041  1158
21.1141  1172
21.1241  1171
21.1341  1183
21.1441  1156
21.1541  1169
21.1641  1159
21.1741  1185
21.1841  1180
21.1941  1104
21.2041  1054
21.2141  1050
21.2241  1045
21.2341  1062
21.2441  1022
21.2541  1011
21.2641   999
21.2741   925
21.2841   913
21.2941   907
21.3041   840
21.3141   889
21.3241   870
21.3341   819
21.3441   849
21.3541   787
21.3641   841
21.3741   816
21.3841   813
21.3941   766
21.4041   791
21.4141   809
21.4241   748
21.4341   746
21.4441   755
21.4541   817
21.4641   808
21.4741   776
21.4841   755
21.4941   798
21.5041   732
21.5141   783
21.5241   774
21.5341   730
21.5441   776
21.5541   761
21.5641   768
21.5741   745
21.5841   755
21.5941   696
21.6041   679
21.6141   783
21.6241   759
21.6341   724
21.6441   749
21.6541   755
21.6641   768
21.6741   750
21.6841   774
21.6941   745
21.7041   729
21.7141   722
21.7241   727
21.7341   735
21.7441   739
21.7541   745
21.7641   747
21.7741   763
21.7841   738
21.7941   783
21.8041   766
21.8141   750
21.8241   773
21.8341   765
21.8441   752
21.8541   741
21.8641   719
21.8741   827
21.8841   823
21.8941   778
21.9041   766
21.9141   751
21.9241   736
21.9341   762
21.9441   782
21.9541   716
21.9641   746
21.9741   757
21.9841   770
21.9941   767
22.0041   757
22.0141   733
22.0241   738
22.0341   786
22.0441   731
22.0541   798
22.0641   750
22.0741   803
22.0841   721
22.0941   763
22.1041   782
22.1141   710
22.1241   766
22.1341   770
22.1441   751
22.1541   779
22.1641   760
22.1741   752
22.1841   770
22.1941   769
22.2041   739
22.2141   786
22.2241   806
22.2341   761
22.2441   717
22.2541   782
22.2641   751
22.2741   729
22.2841   742
22.2941   769
22.3041   808
22.3141   729
22.3241   745
22.3341   772
22.3441   757
22.3541   774
22.3641   714
22.3741   750
22.3841   735
22.3941   786
22.4041   717
22.4141   760
22.4241   795
22.4341   773
22.4441   727
22.4541   774
22.4641   743
22.4741   774
22.4841   794
22.4941   757
22.5041   714
22.5141   692
22.5241   741
22.5341   791
22.5441   815
22.5541   755
22.5641   730
22.5741   763
22.5841   774
22.5941   746
22.6041   718
22.6141   770
22.6241   724
22.6341   787
22.6441   750
22.6541   775
22.6641   754
22.6741   755
22.6841   751
22.6941   745
22.7041   756
22.7141   754
22.7241   748
22.7341   721
22.7441   790
22.7541   764
22.7641   748
22.7741   745
22.7841   747
22.7941   765
22.8041   705
22.8141   742
22.8241   761
22.8341   796
22.8441   765
22.8541   738
22.8641   762
22.8741   717
22.8841   767
22.8941   787
22.9041   702
22.9141   723
22.9241   696
22.9341   763
22.9441   695
22.9541   741
22.9641   732
22.9741   759
22.9841   739
22.9941   724
23.0041   742
23.0141   785
23.0241   763
23.0341   720
23.0441   748
23.0541   788
23.0641   710
23.0741   748
23.0841   768
23.0941   755
23.1041   733
23.1141   714
23.1241   751
23.1341   698
23.1441   729
23.1541   718
23.1641   716
23.1741   773
23.1841   756
23.1941   762
23.2041   747
23.2141   734
23.2241   766
23.2341   715
23.2441   748
23.2541   792
23.2641   718
23.2741   736
23.2841   720
23.2941   743
23.3041   737
23.3141   715
23.3241   724
23.3341   738
23.3441   718
23.3541   710
23.3641   673
23.3741   756
23.3841   736
23.3941   783
23.4041   712
23.4141   772
23.4241   756
23.4341   692
23.4441   778
23.4541   716
23.4641   725
23.4741   725
23.4841   747
23.4941   752
23.5041   754
23.5141   744
23.5241   755
23.5341   730
23.5441   745
23.5541   737
23.5641   796
23.5741   766
23.5841   716
23.5941   749
23.6041   717
23.6141   752
23.6241   733
23.6341   719
23.6441   762
23.6541   733
23.6641   801
23.6741   695
23.6841   789
23.6941   776
23.7041   808
23.7141   717
23.7241   755
23.7341   740
23.7441   815
23.7541   731
23.7641   782
23.7741   807
23.7841   752
23.7941   807
23.8041   792
23.8141   794
23.8241   793
23.8341   846
23.8441   785
23.8541   758
23.8641   773
23.8741   727
23.8841   759
23.8941   765
23.9041   764
23.9141   801
23.9241   717
23.9341   764
23.9441   773
23.9541   768
23.9641   747
23.9741   750
23.9841   740
23.9941   718
24.0041   711
24.0141   731
24.0241   758
24.0341   718
24.0441   779
24.0541   702
24.0641   747
24.0741   689
24.0841   728
24.0941   749
24.1041   744
24.1141   692
24.1241   722
24.1341   724
24.1441   743
24.1541   722
24.1641   755
24.1741   721
24.1841   718
24.1941   714
24.2041   727
24.2141   684
24.2241   687
24.2341   728
24.2441   697
24.2541   709
24.2641   714
24.2741   711
24.2841   734
24.2941   699
24.3041   756
24.3141   706
24.3241   740
24.3341   730
24.3441   737
24.3541   697
24.3641   722
24.3741   715
24.3841   707
24.3941   694
24.4041   708
24.4141   709
24.4241   684
24.4341   695
24.4441   660
24.4541   706
24.4641   719
24.4741   705
24.4841   731
24.4941   709
24.5041   690
24.5141   732
24.5241   715
24.5341   719
24.5441   708
24.5541   672
24.5641   703
24.5741   722
24.5841   717
24.5941   684
24.6041   659
24.6141   716
24.6241   635
24.6341   689
24.6441   704
24.6541   679
24.6641   679
24.6741   708
24.6841   667
24.6941   678
24.7041   648
24.7141   684
24.7241   667
24.7341   690
24.7441   698
24.7541   689
24.7641   697
24.7741   719
24.7841   701
24.7941   693
24.8041   695
24.8141   648
24.8241   719
24.8341   681
24.8441   692
24.8541   668
24.8641   694
24.8741   686
24.8841   687
24.8941   703
24.9041   676
24.9141   695
24.9241   695
24.9341   634
24.9441   677
24.9541   689
24.9641   686
24.9741   670
24.9841   696
24.9941   685
25.0041   696
25.0141   703
25.0241   726
25.0341   667
25.0441   641
25.0541   694
25.0641   692
25.0741   671
25.0841   659
25.0941   693
25.1041   724
25.1141   702
25.1241   745
25.1341   675
25.1441   664
25.1541   712
25.1641   715
25.1741   682
25.1841   711
25.1941   663
25.2041   690
25.2141   695
25.2241   670
25.2341   680
25.2441   712
25.2541   741
25.2641   692
25.2741   705
25.2841   706
25.2941   707
25.3041   671
25.3141   690
25.3241   701
25.3341   715
25.3441   690
25.3541   694
25.3641   666
25.3741   624
25.3841   653
25.3941   685
25.4041   660
25.4141   629
25.4241   682
25.4341   691
25.4441   640
25.4541   635
25.4641   682
25.4741   666
25.4841   634
25.4941   635
25.5041   637
25.5141   630
25.5241   650
25.5341   646
25.5441   673
25.5541   663
25.5641   658
25.5741   613
25.5841   634
25.5941   665
25.6041   640
25.6141   671
25.6241   697
25.6341   666
25.6441   695
25.6541   652
25.6641   616
25.6741   655
25.6841   648
25.6941   613
25.7041   657
25.7141   621
25.7241   629
25.7341   664
25.7441   633
25.7541   621
25.7641   617
25.7741   617
25.7841   609
25.7941   662
25.8041   611
25.8141   673
25.8241   647
25.8341   668
25.8441   635
25.8541   657
25.8641   619
25.8741   668
25.8841   623
25.8941   605
25.9041   655
25.9141   639
25.9241   600
25.9341   632
25.9441   636
25.9541   578
25.9641   607
25.9741   597
25.9841   627
25.9941   577
26.0041   643
26.0141   596
26.0241   628
26.0341   628
26.0441   595
26.0541   613
26.0641   614
26.0741   653
26.0841   640
26.0941   631
26.1041   599
26.1141   631
26.1241   596
26.1341   601
26.1441   620
26.1541   594
26.1641   608
26.1741   603
26.1841   581
26.1941   623
26.2041   615
26.2141   630
26.2241   639
26.2341   637
26.2441   634
26.2541   612
26.2641   624
26.2741   651
26.2841   617
26.2941   656
26.3041   614
26.3141   613
26.3241   590
26.3341   591
26.3441   597
26.3541   630
26.3641   601
26.3741   606
26.3841   600
26.3941   598
26.4041   617
26.4141   609
26.4241   626
26.4341   622
26.4441   600
26.4541   627
26.4641   599
26.4741   593
26.4841   592
26.4941   626
26.5041   614
26.5141   621
26.5241   604
26.5341   593
26.5441   592
26.5541   583
26.5641   568
26.5741   597
26.5841   654
26.5941   609
26.6041   574
26.6141   582
26.6241   584
26.6341   590
26.6441   587
26.6541   601
26.6641   588
26.6741   592
26.6841   558
26.6941   579
26.7041   614
26.7141   580
26.7241   587
26.7341   610
26.7441   578
26.7541   580
26.7641   592
26.7741   569
26.7841   588
26.7941   542
26.8041   552
26.8141   583
26.8241   549
26.8341   598
26.8441   577
26.8541   589
26.8641   600
26.8741   589
26.8841   596
26.8941   585
26.9041   557
26.9141   574
26.9241   527
26.9341   590
26.9441   539
26.9541   547
26.9641   591
26.9741   566
26.9841   563
26.9941   584
27.0041   591
27.0141   551
27.0241   552
27.0341   587
27.0441   593
27.0541   606
27.0641   553
27.0741   550
27.0841   563
27.0941   525
27.1041   546
27.1141   542
27.1241   606
27.1341   587
27.1441   594
27.1541   566
27.1641   555
27.1741   546
27.1841   585
27.1941   580
27.2041   570
27.2141   547
27.2241   559
27.2341   518
27.2441   594
27.2541   536
27.2641   566
27.2741   568
27.2841   597
27.2941   566
27.3041   579
27.3141   543
27.3241   531
27.3341   552
27.3441   555
27.3541   525
27.3641   540
27.3741   542
27.3841   554
27.3941   535
27.4041   582
27.4141   597
27.4241   554
27.4341   526
27.4441   545
27.4541   586
27.4641   530
27.4741   522
27.4841   561
27.4941   552
27.5041   531
27.5141   543
27.5241   528
27.5341   559
27.5441   548
27.5541   553
27.5641   536
27.5741   567
27.5841   521
27.5941   529
27.6041   561
27.6141   538
27.6241   538
27.6341   493
27.6441   511
27.6541   545
27.6641   540
27.6741   518
27.6841   556
27.6941   564
27.7041   526
27.7141   557
27.7241   528
27.7341   545
27.7441   518
27.7541   549
27.7641   536
27.7741   516
27.7841   490
27.7941   534
27.8041   505
27.8141   508
27.8241   523
27.8341   502
27.8441   528
27.8541   501
27.8641   480
27.8741   534
27.8841   505
27.8941   518
27.9041   502
27.9141   531
27.9241   504
27.9341   523
27.9441   535
27.9541   503
27.9641   494
27.9741   539
27.9841   520
27.9941   513
28.0041   501
28.0141   516
28.0241   512
28.0341   539
28.0441   516
28.0541   530
28.0641   506
28.0741   531
28.0841   532
28.0941   525
28.1041   519
28.1141   512
28.1241   490
28.1341   510
28.1441   472
28.1541   513
28.1641   471
28.1741   476
28.1841   486
28.1941   501
28.2041   486
28.2141   504
28.2241   501
28.2341   511
28.2441   485
28.2541   452
28.2641   462
28.2741   478
28.2841   481
28.2941   499
28.3041   523
28.3141   505
28.3241   475
28.3341   492
28.3441   493
28.3541   481
28.3641   489
28.3741   503
28.3841   488
28.3941   488
28.4041   516
28.4141   481
28.4241   489
28.4341   502
28.4441   486
28.4541   502
28.4641   499
28.4741   514
28.4841   512
28.4941   495
28.5041   475
28.5141   505
28.5241   501
28.5341   493
28.5441   499
28.5541   494
28.5641   507
28.5741   508
28.5841   489
28.5941   505
28.6041   503
28.6141   495
28.6241   477
28.6341   450
28.6441   463
28.6541   496
28.6641   531
28.6741   465
28.6841   461
28.6941   442
28.7041   488
28.7141   474
28.7241   483
28.7341   486
28.7441   477
28.7541   459
28.7641   432
28.7741   450
28.7841   487
28.7941   505
28.8041   478
28.8141   468
28.8241   482
28.8341   453
28.8441   432
28.8541   446
28.8641   441
28.8741   468
28.8841   479
28.8941   443
28.9041   452
28.9141   454
28.9241   467
28.9341   465
28.9441   458
28.9541   437
28.9641   463
28.9741   480
28.9841   439
28.9941   429
29.0041   461
29.0141   475
29.0241   474
29.0341   467
29.0441   461
29.0541   443
29.0641   461
29.0741   472
29.0841   456
29.0941   451
29.1041   420
29.1141   425
29.1241   453
29.1341   470
29.1441   453
29.1541   453
29.1641   473
29.1741   412
29.1841   446
29.1941   434
29.2041   459
29.2141   435
29.2241   438
29.2341   445
29.2441   457
29.2541   423
29.2641   431
29.2741   414
29.2841   445
29.2941   456
29.3041   422
29.3141   444
29.3241   443
29.3341   459
29.3441   442
29.3541   470
29.3641   432
29.3741   413
29.3841   461
29.3941   433
29.4041   387
29.4141   422
29.4241   426
29.4341   460
29.4441   442
29.4541   414
29.4641   444
29.4741   412
29.4841   429
29.4941   437
29.5041   414
29.5141   456
29.5241   440
29.5341   391
29.5441   405
29.5541   428
29.5641   418
29.5741   389
29.5841   422
29.5941   438
29.6041   432
29.6141   397
29.6241   430
29.6341   386
29.6441   422
29.6541   419
29.6641   415
29.6741   450
29.6841   425
29.6941   393
29.7041   382
29.7141   407
29.7241   430
29.7341   413
29.7441   390
29.7541   407
29.7641   382
29.7741   397
29.7841   405
29.7941   409
29.8041   417
29.8141   418
29.8241   392
29.8341   392
29.8441   425
29.8541   407
29.8641   386
29.8741   376
29.8841   420
29.8941   403
29.9041   400
29.9141   392
29.9241   412
29.9341   392
29.9441   439
29.9541   428
29.9641   397
29.9741   395
29.9841   384
29.9941   374
30.0041   411
30.0141   407
30.0241   391
30.0341   422
30.0441   400
30.0541   372
30.0641   393
30.0741   418
30.0841   389
30.0941   394
30.1041   446
30.1141   396
30.1241   389
30.1341   367
30.1441   427
30.1541   409
30.1641   368
30.1741   379
30.1841   393
30.1941   382
30.2041   383
30.2141   385
30.2241   387
30.2341   401
30.2441   382
30.2541   395
30.2641   400
30.2741   368
30.2841   413
30.2941   408
30.3041   382
30.3141   409
30.3241   436
30.3341   386
30.3441   378
30.3541   388
30.3641   380
30.3741   388
30.3841   373
30.3941   378
30.4041   358
30.4141   392
30.4241   364
30.4341   360
30.4441   387
30.4541   331
30.4641   369
30.4741   365
30.4841   373
30.4941   375
30.5041   360
30.5141   354
30.5241   393
30.5341   351
30.5441   335
30.5541   367
30.5641   359
30.5741   376
30.5841   352
30.5941   357
30.6041   351
30.6141   378
30.6241   355
30.6341   355
30.6441   352
30.6541   400
30.6641   378
30.6741   345
30.6841   332
30.6941   332
30.7041   363
30.7141   364
30.7241   383
30.7341   378
30.7441   369
30.7541   338
30.7641   360
30.7741   365
30.7841   352
30.7941   359
30.8041   363
30.8141   377
30.8241   342
30.8341   363
30.8441   335
30.8541   330
30.8641   334
30.8741   351
30.8841   352
30.8941   332
30.9041   326
30.9141   344
30.9241   365
30.9341   337
30.9441   364
30.9541   321
30.9641   356
30.9741   334
30.9841   375
30.9941   336
31.0041   371
31.0141   312
31.0241   327
31.0341   339
31.0441   345
31.0541   357
31.0641   365
31.0741   367
31.0841   339
31.0941   332
31.1041   367
31.1141   355
31.1241   321
31.1341   332
31.1441   353
31.1541   369
31.1641   314
31.1741   357
31.1841   350
31.1941   337
31.2041   327
31.2141   322
31.2241   325
31.2341   325
31.2441   359
31.2541   326
31.2641   335
31.2741   337
31.2841   343
31.2941   339
31.3041   317
31.3141   273
31.3241   297
31.3341   326
31.3441   319
31.3541   335
31.3641   342
31.3741   327
31.3841   329
31.3941   293
31.4041   315
31.4141   307
31.4241   335
31.4341   309
31.4441   306
31.4541   328
31.4641   336
31.4741   342
31.4841   343
31.4941   317
31.5041   317
31.5141   317
31.5241   325
31.5341   335
31.5441   345
31.5541   341
31.5641   329
31.5741   335
31.5841   315
31.5941   294
31.6041   287
31.6141   325
31.6241   339
31.6341   331
31.6441   311
31.6541   290
31.6641   325
31.6741   332
31.6841   296
31.6941   296
31.7041   316
31.7141   348
31.7241   323
31.7341   312
31.7441   310
31.7541   311
31.7641   317
31.7741   290
31.7841   323
31.7941   298
31.8041   303
31.8141   303
31.8241   310
31.8341   321
31.8441   315
31.8541   302
31.8641   325
31.8741   314
31.8841   330
31.8941   320
31.9041   319
31.9141   285
31.9241   286
31.9341   282
31.9441   326
31.9541   329
31.9641   327
31.9741   316
31.9841   286
31.9941   308
32.0041   287
32.0141   307
32.0241   318
32.0341   277
32.0441   277
32.0541   297
32.0641   316
32.0741   290
32.0841   270
32.0941   326
32.1041   297
32.1141   252
32.1241   310
32.1341   294
32.1441   307
32.1541   291
32.1641   285
32.1741   314
32.1841   292
32.1941   309
32.2041   292
32.2141   310
32.2241   271
32.2341   283
32.2441   292
32.2541   297
32.2641   295
32.2741   286
32.2841   280
32.2941   324
32.3041   279
32.3141   253
32.3241   282
32.3341   280
32.3441   290
32.3541   271
32.3641   257
32.3741   255
32.3841   281
32.3941   274
32.4041   279
32.4141   263
32.4241   241
32.4341   244
32.4441   307
32.4541   277
32.4641   268
32.4741   306
32.4841   269
32.4941   270
32.5041   292
32.5141   299
32.5241   295
32.5341   257
32.5441   263
32.5541   243
32.5641   283
32.5741   272
32.5841   292
32.5941   271
32.6041   272
32.6141   265
32.6241   243
32.6341   317
32.6441   259
32.6541   267
32.6641   233
32.6741   262
32.6841   273
32.6941   278
32.7041   290
32.7141   269
32.7241   268
32.7341   264
32.7441   282
32.7541   259
32.7641   285
32.7741   271
32.7841   265
32.7941   230
32.8041   283
32.8141   245
32.8241   250
32.8341   280
32.8441   215
32.8541   236
32.8641   256
32.8741   249
32.8841   268
32.8941   244
32.9041   263
32.9141   229
32.9241   253
32.9341   278
32.9441   234
32.9541   232
32.9641   232
32.9741   294
32.9841   261
32.9941   252
33.0041   257
33.0141   264
33.0241   244
33.0341   268
33.0441   237
33.0541   243
33.0641   233
33.0741   235
33.0841   265
33.0941   222
33.1041   256
33.1141   275
33.1241   274
33.1341   249
33.1441   277
33.1541   261
33.1641   233
33.1741   271
33.1841   246
33.1941   237
33.2041   222
33.2141   234
33.2241   252
33.2341   234
33.2441   224
33.2541   258
33.2641   245
33.2741   262
33.2841   273
33.2941   246
33.3041   244
33.3141   248
33.3241   234
33.3341   239
33.3441   239
33.3541   250
33.3641   265
33.3741   226
33.3841   212
33.3941   249
33.4041   243
33.4141   240
33.4241   225
33.4341   222
33.4441   218
33.4541   226
33.4641   266
33.4741   236
33.4841   220
33.4941   207
33.5041   232
33.5141   232
33.5241   252
33.5341   216
33.5441   245
33.5541   210
33.5641   232
33.5741   227
33.5841   238
33.5941   211
33.6041   234
33.6141   211
33.6241   196
33.6341   235
33.6441   202
33.6541   229
33.6641   213
33.6741   207
33.6841   217
33.6941   222
33.7041   234
33.7141   226
33.7241   215
33.7341   213
33.7441   211
33.7541   218
33.7641   212
33.7741   212
33.7841   217
33.7941   219
33.8041   216
33.8141   235
33.8241   232
33.8341   217
33.8441   214
33.8541   219
33.8641   195
33.8741   227
33.8841   221
33.8941   224
33.9041   199
33.9141   198
33.9241   209
33.9341   220
33.9441   206
33.9541   224
33.9641   203
33.9741   209
33.9841   222
33.9941   210
34.0041   209
34.0141   200
34.0241   214
34.0341   198
34.0441   229
34.0541   206
34.0641   220
34.0741   218
34.0841   210
34.0941   201
34.1041   216
34.1141   195
34.1241   193
34.1341   185
34.1441   214
34.1541   190
34.1641   194
34.1741   182
34.1841   202
34.1941   213
34.2041   222
34.2141   181
34.2241   216
34.2341   220
34.2441   227
34.2541   213
34.2641   210
34.2741   188
34.2841   195
34.2941   199
34.3041   202
34.3141   198
34.3241   204
34.3341   185
34.3441   206
34.3541   197
34.3641   192
34.3741   202
34.3841   210
34.3941   199
34.4041   186
34.4141   188
34.4241   198
34.4341   218
34.4441   192
34.4541   188
34.4641   194
34.4741   197
34.4841   199
34.4941   180
34.5041   181
34.5141   190
34.5241   204
34.5341   191
34.5441   164
34.5541   187
34.5641   173
34.5741   199
34.5841   198
34.5941   201
34.6041   179
34.6141   195
34.6241   193
34.6341   201
34.6441   190
34.6541   200
34.6641   189
34.6741   181
34.6841   173
34.6941   196
34.7041   169
34.7141   194
34.7241   195
34.7341   179
34.7441   201
34.7541   164
34.7641   178
34.7741   182
34.7841   191
34.7941   175
34.8041   187
34.8141   161
34.8241   204
34.8341   206
34.8441   156
34.8541   189
34.8641   194
34.8741   186
34.8841   182
34.8941   184
34.9041   158
34.9141   176
34.9241   165
34.9341   166
34.9441   173
34.9541   143
34.9641   168
34.9741   163
34.9841   157
34.9941   186
35.0041   173
35.0141   173
35.0241   174
35.0341   171
35.0441   158
35.0541   173
35.0641   200
35.0741   184
35.0841   157
35.0941   164
35.1041   181
35.1141   163
35.1241   169
35.1341   190
35.1441   157
35.1541   172
35.1641   159
35.1741   164
35.1841   176
35.1941   152
35.2041   171
35.2141   159
35.2241   185
35.2341   169
35.2441   167
35.2541   157
35.2641   159
35.2741   161
35.2841   155
35.2941   168
35.3041   170
35.3141   141
35.3241   163
35.3341   167
35.3441   161
35.3541   167
35.3641   160
35.3741   165
35.3841   172
35.3941   157
35.4041   169
35.4141   151
35.4241   153
35.4341   172
35.4441   150
35.4541   149
35.4641   152
35.4741   172
35.4841   161
35.4941   151
35.5041   179
35.5141   171
35.5241   139
35.5341   162
35.5441   155
35.5541   161
35.5641   179
35.5741   161
35.5841   147
35.5941   150
35.6041   167
35.6141   167
35.6241   137
35.6341   169
35.6441   132
35.6541   163
35.6641   145
35.6741   149
35.6841   139
35.6941   149
35.7041   142
35.7141   142
35.7241   131
35.7341   148
35.7441   142
35.7541   160
35.7641   145
35.7741   139
35.7841   151
35.7941   159
35.8041   153
35.8141   142
35.8241   151
35.8341   156
35.8441   138
35.8541   142
35.8641   132
35.8741   154
35.8841   144
35.8941   140
35.9041   123
35.9141   133
35.9241   145
35.9341   153
35.9441   154
35.9541   132
35.9641   133
35.9741   129
35.9841   132
35.9941   149
36.0041   144
36.0141   144
36.0241   137
36.0341   149
36.0441   159
36.0541   157
36.0641   135
36.0741   131
36.0841   144
36.0941   158
36.1041   140
36.1141   160
36.1241   158
36.1341   128
36.1441   134
36.1541   134
36.1641   152
36.1741   114
36.1841   128
36.1941   133
36.2041   135
36.2141   127
36.2241   133
36.2341   115
36.2441   146
36.2541   125
36.2641   136
36.2741   136
36.2841   118
36.2941   145
36.3041   136
36.3141   125
36.3241   126
36.3341   129
36.3441   149
36.3541   141
36.3641   135
36.3741   116
36.3841   127
36.3941   128
36.4041   121
36.4141   145
36.4241   115
36.4341   129
36.4441   149
36.4541   112
36.4641   128
36.4741   123
36.4841   111
36.4941   122
36.5041   131
36.5141   115
36.5241   123
36.5341   121
36.5441   117
36.5541   118
36.5641   107
36.5741   130
36.5841   117
36.5941   135
36.6041   143
36.6141   117
36.6241   116
36.6341   138
36.6441   116
36.6541   103
36.6641   115
36.6741   122
36.6841   120
36.6941   130
36.7041   129
36.7141   116
36.7241   127
36.7341   143
36.7441   126
36.7541   116
36.7641   111
36.7741   122
36.7841   119
36.7941   121
36.8041   123
36.8141   118
36.8241   113
36.8341   106
36.8441   117
36.8541   113
36.8641   119
36.8741   121
36.8841   103
36.8941   115
36.9041   120
36.9141   112
36.9241   115
36.9341   112
36.9441   102
36.9541   105
36.9641   122
36.9741   119
36.9841   112
36.9941   115
37.0041    96
37.0141   113
37.0241   105
37.0341   107
37.0441   115
37.0541   125
37.0641   107
37.0741   103
37.0841    98
37.0941   113
37.1041    96
37.1141   109
37.1241   105
37.1341    96
37.1441   103
37.1541   117
37.1641    95
37.1741   110
37.1841   114
37.1941   107
37.2041   107
37.2141    85
37.2241    98
37.2341   109
37.2441    98
37.2541   114
37.2641    82
37.2741   109
37.2841    89
37.2941   108
37.3041    99
37.3141   100
37.3241    99
37.3341   101
37.3441    98
37.3541   103
37.3641   110
37.3741    90
37.3841   107
37.3941    99
37.4041   106
37.4141   116
37.4241   104
37.4341   101
37.4441   113
37.4541   109
37.4641    96
37.4741    84
37.4841   104
37.4941   112
37.5041   104
37.5141    74
37.5241    85
37.5341   103
37.5441   100
37.5541    97
37.5641    84
37.5741    98
37.5841   106
37.5941   101
37.6041   104
37.6141    91
37.6241    88
37.6341    94
37.6441    96
37.6541   108
37.6641    97
37.6741   115
37.6841    88
37.6941    97
37.7041    89
37.7141    85
37.7241    89
37.7341    97
37.7441   106
37.7541    81
37.7641    87
37.7741    80
37.7841    86
37.7941    82
37.8041   104
37.8141    65
37.8241    82
37.8341    87
37.8441   100
37.8541    91
37.8641    85
37.8741    82
37.8841    73
37.8941    89
37.9041    83
37.9141    80
37.9241    79
37.9341    74
37.9441    82
37.9541    99
37.9641    80
37.9741    93
37.9841    74
37.9941    86
38.0041    89
38.0141    87
38.0241    84
38.0341    83
38.0441    79
38.0541    96
38.0641    79
38.0741    76
38.0841    97
38.0941    97
38.1041    74
38.1141    82
38.1241    83
38.1341    81
38.1441    85
38.1541    87
38.1641    73
38.1741    83
38.1841    85
38.1941    69
38.2041    78
38.2141    83
38.2241   101
38.2341    90
38.2441    64
38.2541    77
38.2641    85
38.2741    82
38.2841    94
38.2941    78
38.3041    85
38.3141    81
38.3241    85
38.3341    70
38.3441    71
38.3541    75
38.3641    79
38.3741    76
38.3841    83
38.3941    82
38.4041    73
38.4141    84
38.4241    78
38.4341    68
38.4441    77
38.4541    73
38.4641    65
38.4741    81
38.4841    78
38.4941    59
38.5041    72
38.5141    64
38.5241    73
38.5341    69
38.5441    70
38.5541    57
38.5641    63
38.5741    72
38.5841    69
38.5941    87
38.6041    78
38.6141    57
38.6241    64
38.6341    76
38.6441    80
38.6541    62
38.6641    79
38.6741    64
38.6841    58
38.6941    75
38.7041    75
38.7141    69
38.7241    51
38.7341    78
38.7441    67
38.7541    68
38.7641    67
38.7741    60
38.7841    72
38.7941    61
38.8041    66
38.8141    75
38.8241    69
38.8341    58
38.8441    62
38.8541    54
38.8641    73
38.8741    71
38.8841    69
38.8941    63
38.9041    72
38.9141    70
38.9241    71
38.9341    62
38.9441    70
38.9541    72
38.9641    53
38.9741    73
38.9841    63
38.9941    77
39.0041    48
39.0141    49
39.0241    71
39.0341    69
39.0441    57
39.0541    60
39.0641    72
39.0741    49
39.0841    57
39.0941    54
39.1041    66
39.1141    63
39.1241    60
39.1341    54
39.1441    59
39.1541    62
39.1641    61
39.1741    50
39.1841    61
39.1941    50
39.2041    50
39.2141    64
39.2241    51
39.2341    64
39.2441    60
39.2541    57
39.2641    61
39.2741    60
39.2841    55
39.2941    52
39.3041    54
39.3141    68
39.3241    58
39.3341    64
39.3441    47
39.3541    55
39.3641    54
39.3741    56
39.3841    46
39.3941    55
39.4041    58
39.4141    59
39.4241    53
39.4341    62
39.4441    48
39.4541    48
39.4641    60
39.4741    43
39.4841    52
39.4941    54
39.5041    53
39.5141    46
39.5241    49
39.5341    48
39.5441    39
39.5541    55
39.5641    60
39.5741    61
39.5841    53
39.5941    59
39.6041    54
39.6141    58
39.6241    38
39.6341    44
39.6441    41
39.6541    51
39.6641    42
39.6741    53
39.6841    44
39.6941    55
39.7041    53
39.7141    59
39.7241    40
39.7341    45
39.7441    62
39.7541    56
39.7641    47
39.7741    36
39.7841    49
39.7941    52
39.8041    50
39.8141    30
39.8241    32
39.8341    56
39.8441    48
39.8541    48
39.8641    56
39.8741    42
39.8841    43
39.8941    51
39.9041    42
39.9141    33
39.9241    52
39.9341    37
39.9441    46
39.9541    45
39.9641    51
39.9741    50
39.9841    42
