Bruker Nano GmbH Berlin, Germany
Esprit 1.9

Date: 4/21/2021 1:37:09 PM
Real time: 31445
Life time: 29718
Pulse density: 79384


Detector type: XFlash 430
Window type: Custom type
Detector thickness: 0.45
Si dead layer:0.029

Calibration, lin.: 10
Calibration, abs.: -955.9
Mn FWHM: 137.05
Fano factor: 0.121
Channels: 4096

Energy Counts
-0.9559     0
-0.9459     0
-0.9359     0
-0.9259     0
-0.9159     0
-0.9059     0
-0.8959     0
-0.8859     0
-0.8759     0
-0.8659     0
-0.8559     0
-0.8459     0
-0.8359     0
-0.8259     0
-0.8159     0
-0.8059     0
-0.7959     0
-0.7859     0
-0.7759     0
-0.7659     0
-0.7559     0
-0.7459     0
-0.7359     0
-0.7259     0
-0.7159     0
-0.7059     0
-0.6959     0
-0.6859     0
-0.6759     0
-0.6659     0
-0.6559     0
-0.6459     0
-0.6359     0
-0.6259     0
-0.6159     0
-0.6059     0
-0.5959     0
-0.5859     0
-0.5759     0
-0.5659     0
-0.5559     0
-0.5459     0
-0.5359     0
-0.5259     0
-0.5159     0
-0.5059     0
-0.4959     0
-0.4859     0
-0.4759     0
-0.4659     0
-0.4559     0
-0.4459     0
-0.4359     0
-0.4259     0
-0.4159     0
-0.4059     0
-0.3959     0
-0.3859     0
-0.3759     0
-0.3659     0
-0.3559     0
-0.3459     0
-0.3359     0
-0.3259     0
-0.3159     0
-0.3059     0
-0.2959     0
-0.2859     0
-0.2759     0
-0.2659     0
-0.2559     0
-0.2459     0
-0.2359     0
-0.2259     0
-0.2159     0
-0.2059     0
-0.1959     0
-0.1859     0
-0.1759     0
-0.1659     0
-0.1559     0
-0.1459     0
-0.1359     1
-0.1259     1
-0.1159     6
-0.1059    11
-0.0959    83
-0.0859   322
-0.0759  1141
-0.0659  3454
-0.0559  8705
-0.0459 18962
-0.0359 35461
-0.0259 56599
-0.0159 77398
-0.0059 91355
 0.0041 92157
 0.0141 78348
 0.0241 57934
 0.0341 36691
 0.0441 20063
 0.0541  9280
 0.0641  3674
 0.0741  1249
 0.0841   397
 0.0941   101
 0.1041    35
 0.1141    15
 0.1241     9
 0.1341     7
 0.1441    13
 0.1541     7
 0.1641     6
 0.1741    34
 0.1841   264
 0.1941   500
 0.2041   435
 0.2141   457
 0.2241   493
 0.2341   487
 0.2441   448
 0.2541   460
 0.2641   466
 0.2741   479
 0.2841   482
 0.2941   484
 0.3041   424
 0.3141   472
 0.3241   462
 0.3341   477
 0.3441   455
 0.3541   470
 0.3641   444
 0.3741   403
 0.3841   401
 0.3941   432
 0.4041   435
 0.4141   437
 0.4241   425
 0.4341   428
 0.4441   423
 0.4541   401
 0.4641   400
 0.4741   415
 0.4841   417
 0.4941   414
 0.5041   411
 0.5141   421
 0.5241   421
 0.5341   401
 0.5441   386
 0.5541   390
 0.5641   403
 0.5741   388
 0.5841   387
 0.5941   386
 0.6041   376
 0.6141   355
 0.6241   341
 0.6341   334
 0.6441   366
 0.6541   369
 0.6641   372
 0.6741   385
 0.6841   374
 0.6941   349
 0.7041   357
 0.7141   366
 0.7241   358
 0.7341   346
 0.7441   356
 0.7541   341
 0.7641   319
 0.7741   315
 0.7841   351
 0.7941   363
 0.8041   370
 0.8141   378
 0.8241   343
 0.8341   317
 0.8441   344
 0.8541   355
 0.8641   336
 0.8741   341
 0.8841   338
 0.8941   360
 0.9041   337
 0.9141   319
 0.9241   331
 0.9341   314
 0.9441   318
 0.9541   338
 0.9641   312
 0.9741   300
 0.9841   317
 0.9941   300
 1.0041   305
 1.0141   291
 1.0241   322
 1.0341   336
 1.0441   283
 1.0541   313
 1.0641   285
 1.0741   315
 1.0841   311
 1.0941   327
 1.1041   298
 1.1141   311
 1.1241   310
 1.1341   317
 1.1441   291
 1.1541   295
 1.1641   297
 1.1741   288
 1.1841   276
 1.1941   299
 1.2041   294
 1.2141   278
 1.2241   292
 1.2341   307
 1.2441   285
 1.2541   308
 1.2641   287
 1.2741   299
 1.2841   276
 1.2941   301
 1.3041   281
 1.3141   277
 1.3241   277
 1.3341   289
 1.3441   267
 1.3541   281
 1.3641   267
 1.3741   298
 1.3841   295
 1.3941   300
 1.4041   277
 1.4141   292
 1.4241   265
 1.4341   264
 1.4441   282
 1.4541   288
 1.4641   288
 1.4741   269
 1.4841   258
 1.4941   245
 1.5041   269
 1.5141   281
 1.5241   282
 1.5341   283
 1.5441   268
 1.5541   271
 1.5641   273
 1.5741   278
 1.5841   272
 1.5941   273
 1.6041   277
 1.6141   283
 1.6241   290
 1.6341   288
 1.6441   306
 1.6541   355
 1.6641   379
 1.6741   469
 1.6841   591
 1.6941   691
 1.7041   835
 1.7141   952
 1.7241  1087
 1.7341  1086
 1.7441  1141
 1.7541  1055
 1.7641   924
 1.7741   846
 1.7841   705
 1.7941   587
 1.8041   502
 1.8141   425
 1.8241   358
 1.8341   355
 1.8441   320
 1.8541   340
 1.8641   311
 1.8741   285
 1.8841   289
 1.8941   269
 1.9041   289
 1.9141   263
 1.9241   297
 1.9341   287
 1.9441   305
 1.9541   269
 1.9641   306
 1.9741   322
 1.9841   315
 1.9941   330
 2.0041   315
 2.0141   352
 2.0241   326
 2.0341   327
 2.0441   308
 2.0541   308
 2.0641   269
 2.0741   303
 2.0841   286
 2.0941   265
 2.1041   251
 2.1141   251
 2.1241   255
 2.1341   255
 2.1441   251
 2.1541   254
 2.1641   250
 2.1741   251
 2.1841   245
 2.1941   267
 2.2041   239
 2.2141   242
 2.2241   232
 2.2341   222
 2.2441   233
 2.2541   232
 2.2641   237
 2.2741   201
 2.2841   219
 2.2941   229
 2.3041   241
 2.3141   224
 2.3241   209
 2.3341   254
 2.3441   210
 2.3541   216
 2.3641   233
 2.3741   223
 2.3841   219
 2.3941   218
 2.4041   241
 2.4141   204
 2.4241   240
 2.4341   228
 2.4441   211
 2.4541   208
 2.4641   209
 2.4741   244
 2.4841   216
 2.4941   197
 2.5041   206
 2.5141   184
 2.5241   213
 2.5341   197
 2.5441   217
 2.5541   204
 2.5641   223
 2.5741   207
 2.5841   205
 2.5941   214
 2.6041   221
 2.6141   221
 2.6241   220
 2.6341   187
 2.6441   191
 2.6541   217
 2.6641   171
 2.6741   205
 2.6841   188
 2.6941   179
 2.7041   175
 2.7141   200
 2.7241   185
 2.7341   203
 2.7441   206
 2.7541   175
 2.7641   202
 2.7741   183
 2.7841   204
 2.7941   193
 2.8041   191
 2.8141   220
 2.8241   225
 2.8341   188
 2.8441   217
 2.8541   222
 2.8641   173
 2.8741   179
 2.8841   216
 2.8941   210
 2.9041   200
 2.9141   202
 2.9241   179
 2.9341   183
 2.9441   198
 2.9541   172
 2.9641   192
 2.9741   189
 2.9841   201
 2.9941   176
 3.0041   157
 3.0141   204
 3.0241   173
 3.0341   189
 3.0441   178
 3.0541   195
 3.0641   194
 3.0741   169
 3.0841   160
 3.0941   180
 3.1041   174
 3.1141   185
 3.1241   142
 3.1341   143
 3.1441   183
 3.1541   165
 3.1641   159
 3.1741   168
 3.1841   174
 3.1941   175
 3.2041   208
 3.2141   217
 3.2241   210
 3.2341   268
 3.2441   303
 3.2541   333
 3.2641   348
 3.2741   451
 3.2841   423
 3.2941   548
 3.3041   553
 3.3141   554
 3.3241   541
 3.3341   552
 3.3441   486
 3.3541   406
 3.3641   376
 3.3741   327
 3.3841   272
 3.3941   264
 3.4041   229
 3.4141   180
 3.4241   180
 3.4341   176
 3.4441   181
 3.4541   172
 3.4641   169
 3.4741   180
 3.4841   156
 3.4941   165
 3.5041   188
 3.5141   213
 3.5241   225
 3.5341   275
 3.5441   360
 3.5541   431
 3.5641   546
 3.5741   770
 3.5841   991
 3.5941  1342
 3.6041  1819
 3.6141  2563
 3.6241  3206
 3.6341  4176
 3.6441  5061
 3.6541  5988
 3.6641  6865
 3.6741  7368
 3.6841  7640
 3.6941  7759
 3.7041  7524
 3.7141  6979
 3.7241  6061
 3.7341  5059
 3.7441  4278
 3.7541  3375
 3.7641  2465
 3.7741  1852
 3.7841  1334
 3.7941   877
 3.8041   610
 3.8141   450
 3.8241   313
 3.8341   243
 3.8441   229
 3.8541   204
 3.8641   187
 3.8741   233
 3.8841   219
 3.8941   275
 3.9041   320
 3.9141   383
 3.9241   493
 3.9341   586
 3.9441   738
 3.9541   860
 3.9641  1025
 3.9741  1254
 3.9841  1452
 3.9941  1433
 4.0041  1537
 4.0141  1547
 4.0241  1508
 4.0341  1424
 4.0441  1292
 4.0541  1174
 4.0641  1031
 4.0741   843
 4.0841   637
 4.0941   485
 4.1041   404
 4.1141   334
 4.1241   255
 4.1341   190
 4.1441   159
 4.1541   154
 4.1641   133
 4.1741   123
 4.1841   136
 4.1941   118
 4.2041   115
 4.2141   104
 4.2241   118
 4.2341   109
 4.2441   111
 4.2541   116
 4.2641   113
 4.2741   121
 4.2841   112
 4.2941    98
 4.3041   119
 4.3141   111
 4.3241    96
 4.3341   117
 4.3441   117
 4.3541   135
 4.3641   110
 4.3741   147
 4.3841   125
 4.3941   132
 4.4041   169
 4.4141   167
 4.4241   173
 4.4341   210
 4.4441   203
 4.4541   236
 4.4641   272
 4.4741   272
 4.4841   267
 4.4941   285
 4.5041   309
 4.5141   280
 4.5241   276
 4.5341   279
 4.5441   231
 4.5541   215
 4.5641   199
 4.5741   174
 4.5841   178
 4.5941   198
 4.6041   162
 4.6141   158
 4.6241   134
 4.6341   140
 4.6441   117
 4.6541   125
 4.6641   141
 4.6741   138
 4.6841   142
 4.6941   128
 4.7041   109
 4.7141   119
 4.7241    95
 4.7341   151
 4.7441   134
 4.7541   123
 4.7641   136
 4.7741   132
 4.7841   128
 4.7941   142
 4.8041   142
 4.8141   157
 4.8241   148
 4.8341   161
 4.8441   136
 4.8541   154
 4.8641   149
 4.8741   150
 4.8841   184
 4.8941   169
 4.9041   156
 4.9141   142
 4.9241   145
 4.9341   142
 4.9441   152
 4.9541   146
 4.9641   140
 4.9741   147
 4.9841   136
 4.9941   138
 5.0041   139
 5.0141   136
 5.0241   143
 5.0341   136
 5.0441   119
 5.0541   130
 5.0641   138
 5.0741   119
 5.0841   130
 5.0941   123
 5.1041   118
 5.1141   112
 5.1241   146
 5.1341   125
 5.1441   110
 5.1541   114
 5.1641   144
 5.1741   121
 5.1841   130
 5.1941   113
 5.2041   122
 5.2141   122
 5.2241   134
 5.2341   129
 5.2441   131
 5.2541   136
 5.2641   116
 5.2741   112
 5.2841   126
 5.2941   115
 5.3041   128
 5.3141   131
 5.3241   144
 5.3341   157
 5.3441   158
 5.3541   159
 5.3641   165
 5.3741   166
 5.3841   152
 5.3941   152
 5.4041   181
 5.4141   171
 5.4241   160
 5.4341   175
 5.4441   169
 5.4541   174
 5.4641   146
 5.4741   137
 5.4841   154
 5.4941   149
 5.5041   122
 5.5141   140
 5.5241   136
 5.5341   142
 5.5441   126
 5.5541   147
 5.5641   139
 5.5741   123
 5.5841   127
 5.5941   142
 5.6041   131
 5.6141   130
 5.6241   144
 5.6341   142
 5.6441   125
 5.6541   126
 5.6641   132
 5.6741   141
 5.6841   146
 5.6941   123
 5.7041   133
 5.7141   149
 5.7241   129
 5.7341   145
 5.7441   144
 5.7541   161
 5.7641   152
 5.7741   149
 5.7841   178
 5.7941   172
 5.8041   193
 5.8141   203
 5.8241   213
 5.8341   203
 5.8441   246
 5.8541   293
 5.8641   283
 5.8741   298
 5.8841   283
 5.8941   260
 5.9041   309
 5.9141   285
 5.9241   285
 5.9341   264
 5.9441   251
 5.9541   234
 5.9641   199
 5.9741   194
 5.9841   203
 5.9941   192
 6.0041   190
 6.0141   197
 6.0241   179
 6.0341   170
 6.0441   161
 6.0541   166
 6.0641   153
 6.0741   157
 6.0841   153
 6.0941   164
 6.1041   168
 6.1141   153
 6.1241   198
 6.1341   168
 6.1441   166
 6.1541   180
 6.1641   196
 6.1741   201
 6.1841   211
 6.1941   211
 6.2041   243
 6.2141   271
 6.2241   306
 6.2341   369
 6.2441   538
 6.2541   681
 6.2641   870
 6.2741  1198
 6.2841  1574
 6.2941  2039
 6.3041  2652
 6.3141  3275
 6.3241  4116
 6.3341  4840
 6.3441  5572
 6.3541  6413
 6.3641  7000
 6.3741  7682
 6.3841  8273
 6.3941  8289
 6.4041  8322
 6.4141  8029
 6.4241  7596
 6.4341  7069
 6.4441  6289
 6.4541  5513
 6.4641  4705
 6.4741  3861
 6.4841  3157
 6.4941  2574
 6.5041  2026
 6.5141  1473
 6.5241  1131
 6.5341   840
 6.5441   652
 6.5541   464
 6.5641   370
 6.5741   314
 6.5841   265
 6.5941   268
 6.6041   183
 6.6141   208
 6.6241   183
 6.6341   215
 6.6441   190
 6.6541   146
 6.6641   163
 6.6741   200
 6.6841   166
 6.6941   180
 6.7041   210
 6.7141   180
 6.7241   208
 6.7341   192
 6.7441   213
 6.7541   196
 6.7641   189
 6.7741   233
 6.7841   197
 6.7941   214
 6.8041   187
 6.8141   243
 6.8241   206
 6.8341   195
 6.8441   233
 6.8541   249
 6.8641   229
 6.8741   241
 6.8841   252
 6.8941   284
 6.9041   336
 6.9141   349
 6.9241   366
 6.9341   438
 6.9441   596
 6.9541   634
 6.9641   737
 6.9741   894
 6.9841   944
 6.9941  1061
 7.0041  1260
 7.0141  1347
 7.0241  1440
 7.0341  1580
 7.0441  1522
 7.0541  1575
 7.0641  1530
 7.0741  1478
 7.0841  1396
 7.0941  1301
 7.1041  1212
 7.1141  1110
 7.1241   995
 7.1341   824
 7.1441   728
 7.1541   649
 7.1641   573
 7.1741   524
 7.1841   391
 7.1941   367
 7.2041   350
 7.2141   327
 7.2241   321
 7.2341   304
 7.2441   283
 7.2541   278
 7.2641   293
 7.2741   303
 7.2841   324
 7.2941   340
 7.3041   327
 7.3141   335
 7.3241   359
 7.3341   347
 7.3441   357
 7.3541   350
 7.3641   420
 7.3741   378
 7.3841   389
 7.3941   368
 7.4041   359
 7.4141   417
 7.4241   381
 7.4341   379
 7.4441   391
 7.4541   393
 7.4641   381
 7.4741   381
 7.4841   332
 7.4941   336
 7.5041   355
 7.5141   332
 7.5241   307
 7.5341   322
 7.5441   353
 7.5541   296
 7.5641   306
 7.5741   322
 7.5841   244
 7.5941   309
 7.6041   298
 7.6141   291
 7.6241   265
 7.6341   317
 7.6441   284
 7.6541   329
 7.6641   295
 7.6741   274
 7.6841   293
 7.6941   276
 7.7041   318
 7.7141   287
 7.7241   355
 7.7341   345
 7.7441   328
 7.7541   353
 7.7641   380
 7.7741   384
 7.7841   372
 7.7941   340
 7.8041   385
 7.8141   375
 7.8241   396
 7.8341   423
 7.8441   421
 7.8541   419
 7.8641   422
 7.8741   436
 7.8841   463
 7.8941   469
 7.9041   478
 7.9141   518
 7.9241   567
 7.9341   551
 7.9441   616
 7.9541   705
 7.9641   717
 7.9741   725
 7.9841   790
 7.9941   855
 8.0041   887
 8.0141   916
 8.0241  1051
 8.0341  1075
 8.0441  1183
 8.0541  1266
 8.0641  1326
 8.0741  1413
 8.0841  1444
 8.0941  1600
 8.1041  1629
 8.1141  1724
 8.1241  1794
 8.1341  1821
 8.1441  1953
 8.1541  1919
 8.1641  1960
 8.1741  1986
 8.1841  1983
 8.1941  2051
 8.2041  2081
 8.2141  2078
 8.2241  2068
 8.2341  2019
 8.2441  2166
 8.2541  2137
 8.2641  2204
 8.2741  2312
 8.2841  2459
 8.2941  2639
 8.3041  2900
 8.3141  3111
 8.3241  3339
 8.3341  3524
 8.3441  3818
 8.3541  4014
 8.3641  4174
 8.3741  4280
 8.3841  4278
 8.3941  4283
 8.4041  4246
 8.4141  4068
 8.4241  3969
 8.4341  3517
 8.4441  3307
 8.4541  3042
 8.4641  2621
 8.4741  2289
 8.4841  1958
 8.4941  1689
 8.5041  1452
 8.5141  1202
 8.5241   991
 8.5341   891
 8.5441   769
 8.5541   653
 8.5641   558
 8.5741   539
 8.5841   490
 8.5941   523
 8.6041   510
 8.6141   457
 8.6241   462
 8.6341   475
 8.6441   465
 8.6541   503
 8.6641   483
 8.6741   462
 8.6841   464
 8.6941   503
 8.7041   473
 8.7141   469
 8.7241   469
 8.7341   465
 8.7441   454
 8.7541   457
 8.7641   465
 8.7741   464
 8.7841   458
 8.7941   407
 8.8041   436
 8.8141   441
 8.8241   457
 8.8341   440
 8.8441   447
 8.8541   464
 8.8641   456
 8.8741   461
 8.8841   474
 8.8941   472
 8.9041   470
 8.9141   485
 8.9241   496
 8.9341   518
 8.9441   498
 8.9541   542
 8.9641   522
 8.9741   530
 8.9841   541
 8.9941   546
 9.0041   546
 9.0141   541
 9.0241   577
 9.0341   598
 9.0441   609
 9.0541   637
 9.0641   636
 9.0741   646
 9.0841   671
 9.0941   723
 9.1041   753
 9.1141   821
 9.1241   792
 9.1341   817
 9.1441   850
 9.1541   862
 9.1641   944
 9.1741   944
 9.1841   940
 9.1941  1005
 9.2041  1090
 9.2141  1128
 9.2241  1186
 9.2341  1209
 9.2441  1319
 9.2541  1321
 9.2641  1362
 9.2741  1418
 9.2841  1483
 9.2941  1542
 9.3041  1658
 9.3141  1658
 9.3241  1707
 9.3341  1779
 9.3441  1823
 9.3541  1837
 9.3641  1821
 9.3741  1912
 9.3841  2024
 9.3941  1943
 9.4041  2013
 9.4141  2018
 9.4241  2105
 9.4341  2073
 9.4441  2094
 9.4541  2168
 9.4641  2142
 9.4741  2191
 9.4841  2259
 9.4941  2273
 9.5041  2263
 9.5141  2404
 9.5241  2503
 9.5341  2581
 9.5441  2731
 9.5541  2824
 9.5641  2993
 9.5741  3151
 9.5841  3374
 9.5941  3509
 9.6041  3702
 9.6141  3903
 9.6241  4038
 9.6341  4254
 9.6441  4354
 9.6541  4360
 9.6641  4412
 9.6741  4372
 9.6841  4342
 9.6941  4159
 9.7041  3982
 9.7141  3819
 9.7241  3510
 9.7341  3334
 9.7441  3119
 9.7541  2860
 9.7641  2627
 9.7741  2387
 9.7841  2239
 9.7941  2081
 9.8041  1907
 9.8141  1871
 9.8241  1761
 9.8341  1731
 9.8441  1666
 9.8541  1648
 9.8641  1679
 9.8741  1661
 9.8841  1705
 9.8941  1724
 9.9041  1814
 9.9141  1831
 9.9241  1909
 9.9341  1877
 9.9441  1883
 9.9541  1949
 9.9641  1947
 9.9741  1837
 9.9841  1791
 9.9941  1722
10.0041  1624
10.0141  1493
10.0241  1374
10.0341  1245
10.0441  1154
10.0541  1044
10.0641   917
10.0741   799
10.0841   736
10.0941   638
10.1041   575
10.1141   528
10.1241   530
10.1341   487
10.1441   448
10.1541   446
10.1641   390
10.1741   380
10.1841   371
10.1941   371
10.2041   342
10.2141   317
10.2241   306
10.2341   302
10.2441   308
10.2541   298
10.2641   282
10.2741   293
10.2841   307
10.2941   285
10.3041   260
10.3141   244
10.3241   270
10.3341   254
10.3441   269
10.3541   270
10.3641   255
10.3741   236
10.3841   259
10.3941   251
10.4041   250
10.4141   261
10.4241   260
10.4341   267
10.4441   260
10.4541   259
10.4641   239
10.4741   258
10.4841   274
10.4941   253
10.5041   250
10.5141   261
10.5241   287
10.5341   281
10.5441   273
10.5541   289
10.5641   280
10.5741   302
10.5841   305
10.5941   295
10.6041   320
10.6141   310
10.6241   284
10.6341   286
10.6441   276
10.6541   306
10.6641   318
10.6741   348
10.6841   341
10.6941   340
10.7041   351
10.7141   349
10.7241   332
10.7341   332
10.7441   362
10.7541   360
10.7641   383
10.7741   404
10.7841   401
10.7941   386
10.8041   381
10.8141   400
10.8241   439
10.8341   446
10.8441   433
10.8541   407
10.8641   418
10.8741   443
10.8841   445
10.8941   436
10.9041   437
10.9141   449
10.9241   469
10.9341   445
10.9441   442
10.9541   442
10.9641   444
10.9741   432
10.9841   465
10.9941   448
11.0041   437
11.0141   420
11.0241   401
11.0341   410
11.0441   402
11.0541   380
11.0641   374
11.0741   397
11.0841   391
11.0941   359
11.1041   380
11.1141   365
11.1241   393
11.1341   395
11.1441   401
11.1541   409
11.1641   439
11.1741   442
11.1841   479
11.1941   483
11.2041   497
11.2141   495
11.2241   531
11.2341   578
11.2441   589
11.2541   603
11.2641   622
11.2741   626
11.2841   604
11.2941   659
11.3041   606
11.3141   561
11.3241   528
11.3341   520
11.3441   527
11.3541   505
11.3641   494
11.3741   449
11.3841   440
11.3941   418
11.4041   390
11.4141   380
11.4241   368
11.4341   356
11.4441   345
11.4541   326
11.4641   330
11.4741   316
11.4841   321
11.4941   351
11.5041   320
11.5141   309
11.5241   314
11.5341   299
11.5441   314
11.5541   326
11.5641   328
11.5741   335
11.5841   327
11.5941   366
11.6041   384
11.6141   373
11.6241   366
11.6341   336
11.6441   344
11.6541   336
11.6641   345
11.6741   347
11.6841   337
11.6941   322
11.7041   335
11.7141   333
11.7241   324
11.7341   301
11.7441   270
11.7541   278
11.7641   288
11.7741   276
11.7841   278
11.7941   262
11.8041   257
11.8141   256
11.8241   237
11.8341   218
11.8441   232
11.8541   237
11.8641   252
11.8741   250
11.8841   223
11.8941   228
11.9041   241
11.9141   235
11.9241   233
11.9341   250
11.9441   258
11.9541   254
11.9641   240
11.9741   241
11.9841   246
11.9941   253
12.0041   271
12.0141   266
12.0241   249
12.0341   263
12.0441   255
12.0541   238
12.0641   247
12.0741   255
12.0841   259
12.0941   263
12.1041   258
12.1141   244
12.1241   266
12.1341   260
12.1441   242
12.1541   242
12.1641   249
12.1741   256
12.1841   240
12.1941   217
12.2041   230
12.2141   243
12.2241   240
12.2341   254
12.2441   235
12.2541   219
12.2641   228
12.2741   242
12.2841   237
12.2941   216
12.3041   214
12.3141   236
12.3241   245
12.3341   244
12.3441   244
12.3541   245
12.3641   247
12.3741   245
12.3841   227
12.3941   225
12.4041   244
12.4141   242
12.4241   247
12.4341   253
12.4441   239
12.4541   244
12.4641   256
12.4741   260
12.4841   262
12.4941   256
12.5041   245
12.5141   243
12.5241   251
12.5341   269
12.5441   260
12.5541   244
12.5641   263
12.5741   270
12.5841   257
12.5941   264
12.6041   282
12.6141   272
12.6241   276
12.6341   259
12.6441   247
12.6541   267
12.6641   257
12.6741   268
12.6841   275
12.6941   273
12.7041   274
12.7141   264
12.7241   251
12.7341   264
12.7441   257
12.7541   252
12.7641   260
12.7741   273
12.7841   271
12.7941   263
12.8041   261
12.8141   261
12.8241   260
12.8341   264
12.8441   259
12.8541   275
12.8641   280
12.8741   271
12.8841   273
12.8941   272
12.9041   263
12.9141   273
12.9241   282
12.9341   300
12.9441   304
12.9541   311
12.9641   295
12.9741   286
12.9841   297
12.9941   296
13.0041   285
13.0141   278
13.0241   275
13.0341   283
13.0441   304
13.0541   295
13.0641   288
13.0741   289
13.0841   292
13.0941   310
13.1041   320
13.1141   312
13.1241   302
13.1341   303
13.1441   310
13.1541   304
13.1641   303
13.1741   305
13.1841   308
13.1941   317
13.2041   314
13.2141   331
13.2241   346
13.2341   353
13.2441   371
13.2541   376
13.2641   366
13.2741   402
13.2841   430
13.2941   418
13.3041   416
13.3141   411
13.3241   393
13.3341   420
13.3441   427
13.3541   424
13.3641   449
13.3741   424
13.3841   438
13.3941   473
13.4041   465
13.4141   460
13.4241   451
13.4341   436
13.4441   413
13.4541   410
13.4641   412
13.4741   409
13.4841   409
13.4941   401
13.5041   411
13.5141   381
13.5241   353
13.5341   360
13.5441   359
13.5541   343
13.5641   342
13.5741   341
13.5841   339
13.5941   330
13.6041   348
13.6141   348
13.6241   328
13.6341   344
13.6441   334
13.6541   310
13.6641   319
13.6741   352
13.6841   362
13.6941   355
13.7041   362
13.7141   356
13.7241   352
13.7341   350
13.7441   342
13.7541   362
13.7641   379
13.7741   382
13.7841   365
13.7941   351
13.8041   352
13.8141   358
13.8241   358
13.8341   361
13.8441   367
13.8541   400
13.8641   412
13.8741   370
13.8841   355
13.8941   371
13.9041   401
13.9141   406
13.9241   409
13.9341   415
13.9441   429
13.9541   470
13.9641   499
13.9741   491
13.9841   495
13.9941   522
14.0041   550
14.0141   596
14.0241   618
14.0341   662
14.0441   695
14.0541   708
14.0641   758
14.0741   798
14.0841   817
14.0941   831
14.1041   889
14.1141   904
14.1241   894
14.1341   907
14.1441   919
14.1541   928
14.1641   884
14.1741   852
14.1841   861
14.1941   876
14.2041   832
14.2141   758
14.2241   750
14.2341   706
14.2441   651
14.2541   658
14.2641   626
14.2741   580
14.2841   561
14.2941   546
14.3041   538
14.3141   503
14.3241   474
14.3341   443
14.3441   434
14.3541   456
14.3641   427
14.3741   419
14.3841   419
14.3941   417
14.4041   413
14.4141   399
14.4241   398
14.4341   402
14.4441   406
14.4541   404
14.4641   400
14.4741   404
14.4841   405
14.4941   427
14.5041   426
14.5141   422
14.5241   456
14.5341   443
14.5441   426
14.5541   432
14.5641   419
14.5741   416
14.5841   431
14.5941   435
14.6041   427
14.6141   433
14.6241   429
14.6341   429
14.6441   442
14.6541   427
14.6641   413
14.6741   431
14.6841   470
14.6941   440
14.7041   408
14.7141   432
14.7241   444
14.7341   457
14.7441   436
14.7541   430
14.7641   434
14.7741   423
14.7841   437
14.7941   426
14.8041   410
14.8141   441
14.8241   462
14.8341   456
14.8441   455
14.8541   471
14.8641   469
14.8741   464
14.8841   460
14.8941   486
14.9041   482
14.9141   483
14.9241   483
14.9341   484
14.9441   483
14.9541   481
14.9641   535
14.9741   521
14.9841   501
14.9941   514
15.0041   505
15.0141   485
15.0241   486
15.0341   476
15.0441   471
15.0541   506
15.0641   497
15.0741   497
15.0841   509
15.0941   502
15.1041   482
15.1141   475
15.1241   466
15.1341   457
15.1441   457
15.1541   471
15.1641   499
15.1741   468
15.1841   456
15.1941   459
15.2041   472
15.2141   495
15.2241   498
15.2341   484
15.2441   465
15.2541   465
15.2641   480
15.2741   482
15.2841   496
15.2941   490
15.3041   496
15.3141   498
15.3241   509
15.3341   507
15.3441   486
15.3541   493
15.3641   495
15.3741   514
15.3841   520
15.3941   500
15.4041   506
15.4141   496
15.4241   510
15.4341   490
15.4441   490
15.4541   506
15.4641   487
15.4741   489
15.4841   507
15.4941   518
15.5041   537
15.5141   511
15.5241   526
15.5341   534
15.5441   545
15.5541   542
15.5641   539
15.5741   534
15.5841   531
15.5941   549
15.6041   565
15.6141   577
15.6241   593
15.6341   610
15.6441   631
15.6541   595
15.6641   629
15.6741   654
15.6841   694
15.6941   642
15.7041   670
15.7141   714
15.7241   663
15.7341   706
15.7441   703
15.7541   721
15.7641   750
15.7741   773
15.7841   793
15.7941   764
15.8041   717
15.8141   738
15.8241   716
15.8341   706
15.8441   722
15.8541   718
15.8641   702
15.8741   692
15.8841   643
15.8941   644
15.9041   654
15.9141   643
15.9241   654
15.9341   636
15.9441   616
15.9541   614
15.9641   589
15.9741   568
15.9841   594
15.9941   596
16.0041   581
16.0141   602
16.0241   614
16.0341   611
16.0441   566
16.0541   588
16.0641   595
16.0741   585
16.0841   580
16.0941   587
16.1041   592
16.1141   606
16.1241   585
16.1341   589
16.1441   619
16.1541   596
16.1641   614
16.1741   589
16.1841   568
16.1941   585
16.2041   611
16.2141   591
16.2241   567
16.2341   577
16.2441   606
16.2541   574
16.2641   585
16.2741   624
16.2841   609
16.2941   586
16.3041   610
16.3141   652
16.3241   625
16.3341   630
16.3441   639
16.3541   598
16.3641   593
16.3741   620
16.3841   609
16.3941   613
16.4041   617
16.4141   598
16.4241   596
16.4341   633
16.4441   640
16.4541   640
16.4641   646
16.4741   607
16.4841   589
16.4941   615
16.5041   619
16.5141   634
16.5241   592
16.5341   603
16.5441   641
16.5541   621
16.5641   658
16.5741   652
16.5841   648
16.5941   645
16.6041   665
16.6141   633
16.6241   638
16.6341   669
16.6441   663
16.6541   660
16.6641   633
16.6741   618
16.6841   619
16.6941   628
16.7041   652
16.7141   628
16.7241   657
16.7341   663
16.7441   672
16.7541   661
16.7641   654
16.7741   657
16.7841   673
16.7941   691
16.8041   653
16.8141   649
16.8241   637
16.8341   693
16.8441   686
16.8541   644
16.8641   634
16.8741   656
16.8841   665
16.8941   653
16.9041   658
16.9141   667
16.9241   646
16.9341   663
16.9441   644
16.9541   681
16.9641   672
16.9741   657
16.9841   683
16.9941   689
17.0041   691
17.0141   695
17.0241   691
17.0341   717
17.0441   739
17.0541   732
17.0641   687
17.0741   662
17.0841   664
17.0941   665
17.1041   669
17.1141   702
17.1241   710
17.1341   688
17.1441   717
17.1541   703
17.1641   708
17.1741   711
17.1841   658
17.1941   684
17.2041   707
17.2141   729
17.2241   725
17.2341   721
17.2441   696
17.2541   711
17.2641   727
17.2741   708
17.2841   715
17.2941   714
17.3041   726
17.3141   710
17.3241   701
17.3341   716
17.3441   717
17.3541   720
17.3641   718
17.3741   726
17.3841   743
17.3941   740
17.4041   744
17.4141   746
17.4241   712
17.4341   707
17.4441   746
17.4541   742
17.4641   762
17.4741   726
17.4841   744
17.4941   743
17.5041   747
17.5141   718
17.5241   710
17.5341   738
17.5441   738
17.5541   760
17.5641   739
17.5741   744
17.5841   810
17.5941   779
17.6041   787
17.6141   810
17.6241   767
17.6341   745
17.6441   774
17.6541   774
17.6641   759
17.6741   777
17.6841   777
17.6941   761
17.7041   763
17.7141   739
17.7241   790
17.7341   777
17.7441   788
17.7541   769
17.7641   792
17.7741   798
17.7841   781
17.7941   743
17.8041   791
17.8141   805
17.8241   791
17.8341   760
17.8441   758
17.8541   742
17.8641   802
17.8741   774
17.8841   800
17.8941   780
17.9041   762
17.9141   768
17.9241   756
17.9341   729
17.9441   763
17.9541   771
17.9641   787
17.9741   771
17.9841   776
17.9941   771
18.0041   791
18.0141   759
18.0241   817
18.0341   809
18.0441   776
18.0541   781
18.0641   769
18.0741   809
18.0841   781
18.0941   805
18.1041   809
18.1141   816
18.1241   822
18.1341   771
18.1441   806
18.1541   797
18.1641   780
18.1741   797
18.1841   817
18.1941   800
18.2041   850
18.2141   803
18.2241   810
18.2341   820
18.2441   810
18.2541   813
18.2641   828
18.2741   789
18.2841   801
18.2941   885
18.3041   842
18.3141   796
18.3241   847
18.3341   822
18.3441   812
18.3541   770
18.3641   778
18.3741   837
18.3841   796
18.3941   799
18.4041   823
18.4141   872
18.4241   842
18.4341   822
18.4441   848
18.4541   793
18.4641   818
18.4741   800
18.4841   810
18.4941   799
18.5041   774
18.5141   836
18.5241   824
18.5341   847
18.5441   871
18.5541   854
18.5641   804
18.5741   862
18.5841   845
18.5941   820
18.6041   831
18.6141   827
18.6241   828
18.6341   805
18.6441   858
18.6541   825
18.6641   834
18.6741   847
18.6841   851
18.6941   831
18.7041   841
18.7141   856
18.7241   844
18.7341   908
18.7441   892
18.7541   882
18.7641   836
18.7741   857
18.7841   830
18.7941   840
18.8041   858
18.8141   907
18.8241   870
18.8341   814
18.8441   826
18.8541   865
18.8641   847
18.8741   827
18.8841   857
18.8941   819
18.9041   803
18.9141   831
18.9241   801
18.9341   820
18.9441   863
18.9541   872
18.9641   867
18.9741   843
18.9841   889
18.9941   915
19.0041   865
19.0141   823
19.0241   836
19.0341   872
19.0441   877
19.0541   902
19.0641   917
19.0741   872
19.0841   909
19.0941   835
19.1041   844
19.1141   894
19.1241   898
19.1341   869
19.1441   873
19.1541   874
19.1641   861
19.1741   864
19.1841   840
19.1941   876
19.2041   903
19.2141   947
19.2241   891
19.2341   846
19.2441   913
19.2541   876
19.2641   904
19.2741   895
19.2841   864
19.2941   905
19.3041   914
19.3141   887
19.3241   867
19.3341   909
19.3441   927
19.3541   885
19.3641   891
19.3741   868
19.3841   865
19.3941   895
19.4041   845
19.4141   868
19.4241   891
19.4341   893
19.4441   865
19.4541   911
19.4641   874
19.4741   865
19.4841   941
19.4941   909
19.5041   913
19.5141   916
19.5241   918
19.5341   905
19.5441   870
19.5541   901
19.5641   868
19.5741   886
19.5841   916
19.5941   897
19.6041   893
19.6141   878
19.6241   880
19.6341   838
19.6441   876
19.6541   882
19.6641   872
19.6741   878
19.6841   872
19.6941   869
19.7041   893
19.7141   909
19.7241   919
19.7341   931
19.7441   954
19.7541   906
19.7641   900
19.7741   909
19.7841   883
19.7941   905
19.8041   905
19.8141   927
19.8241   925
19.8341   856
19.8441   884
19.8541   927
19.8641   922
19.8741   889
19.8841   931
19.8941   873
19.9041   888
19.9141   909
19.9241   931
19.9341   922
19.9441   953
19.9541   943
19.9641   890
19.9741   910
19.9841   911
19.9941   933
20.0041   897
20.0141   937
20.0241   907
20.0341   920
20.0441   925
20.0541   974
20.0641   920
20.0741   927
20.0841   905
20.0941   898
20.1041   900
20.1141   918
20.1241   891
20.1341   900
20.1441   925
20.1541   959
20.1641   911
20.1741   880
20.1841   870
20.1941   884
20.2041   930
20.2141   904
20.2241   897
20.2341   956
20.2441   943
20.2541   957
20.2641   897
20.2741   920
20.2841   920
20.2941   907
20.3041   884
20.3141   912
20.3241   920
20.3341   975
20.3441  1008
20.3541   956
20.3641   925
20.3741   915
20.3841   865
20.3941   912
20.4041   914
20.4141   958
20.4241   967
20.4341   918
20.4441   933
20.4541   915
20.4641   935
20.4741   955
20.4841  1006
20.4941   896
20.5041   962
20.5141   932
20.5241   931
20.5341   989
20.5441   915
20.5541   953
20.5641   926
20.5741   934
20.5841   912
20.5941   899
20.6041   913
20.6141   900
20.6241   947
20.6341   970
20.6441   914
20.6541   882
20.6641   924
20.6741   917
20.6841   961
20.6941   979
20.7041   933
20.7141   936
20.7241   925
20.7341   920
20.7441   909
20.7541   982
20.7641   980
20.7741   976
20.7841   968
20.7941   960
20.8041   930
20.8141   912
20.8241   965
20.8341   993
20.8441  1028
20.8541  1037
20.8641   957
20.8741  1030
20.8841  1069
20.8941  1092
20.9041  1075
20.9141  1041
20.9241  1074
20.9341  1164
20.9441  1149
20.9541  1157
20.9641  1171
20.9741  1169
20.9841  1170
20.9941  1191
21.0041  1279
21.0141  1266
21.0241  1323
21.0341  1282
21.0441  1249
21.0541  1301
21.0641  1298
21.0741  1295
21.0841  1357
21.0941  1402
21.1041  1404
21.1141  1374
21.1241  1440
21.1341  1368
21.1441  1386
21.1541  1381
21.1641  1400
21.1741  1364
21.1841  1386
21.1941  1335
21.2041  1358
21.2141  1319
21.2241  1258
21.2341  1277
21.2441  1221
21.2541  1179
21.2641  1237
21.2741  1216
21.2841  1177
21.2941  1167
21.3041  1083
21.3141  1109
21.3241  1093
21.3341  1046
21.3441  1064
21.3541  1043
21.3641   997
21.3741   948
21.3841   984
21.3941   932
21.4041   927
21.4141  1001
21.4241   984
21.4341   976
21.4441   963
21.4541   993
21.4641   956
21.4741   984
21.4841  1006
21.4941   965
21.5041   963
21.5141   959
21.5241   932
21.5341   937
21.5441   940
21.5541   988
21.5641   957
21.5741   962
21.5841   939
21.5941   945
21.6041   932
21.6141   955
21.6241   930
21.6341   938
21.6441   989
21.6541   983
21.6641   941
21.6741   899
21.6841  1004
21.6941   959
21.7041   945
21.7141   970
21.7241   965
21.7341   952
21.7441   940
21.7541   966
21.7641   941
21.7741   938
21.7841   909
21.7941   911
21.8041   941
21.8141   963
21.8241   871
21.8341   916
21.8441   917
21.8541   893
21.8641   946
21.8741   922
21.8841   966
21.8941   978
21.9041   950
21.9141   921
21.9241   925
21.9341   963
21.9441   974
21.9541   985
21.9641   976
21.9741   893
21.9841   950
21.9941   938
22.0041   957
22.0141   940
22.0241   953
22.0341   955
22.0441   923
22.0541   948
22.0641   938
22.0741   939
22.0841   909
22.0941   910
22.1041   941
22.1141   975
22.1241   987
22.1341   964
22.1441   905
22.1541   957
22.1641   933
22.1741   930
22.1841  1006
22.1941   927
22.2041   947
22.2141   898
22.2241   938
22.2341   964
22.2441   979
22.2541   971
22.2641   923
22.2741   941
22.2841   975
22.2941   973
22.3041   920
22.3141   923
22.3241   946
22.3341   922
22.3441   874
22.3541   975
22.3641   889
22.3741   903
22.3841   945
22.3941   886
22.4041   919
22.4141   953
22.4241   905
22.4341   901
22.4441   960
22.4541   922
22.4641   929
22.4741   936
22.4841   951
22.4941   945
22.5041   896
22.5141   920
22.5241   943
22.5341   931
22.5441   907
22.5541   934
22.5641   885
22.5741   908
22.5841   885
22.5941   918
22.6041   910
22.6141   928
22.6241   918
22.6341   932
22.6441   862
22.6541   919
22.6641   934
22.6741   954
22.6841   923
22.6941   890
22.7041   891
22.7141   967
22.7241   902
22.7341   960
22.7441   917
22.7541   865
22.7641   926
22.7741   959
22.7841   909
22.7941   941
22.8041   933
22.8141   921
22.8241   859
22.8341   892
22.8441   905
22.8541   881
22.8641   871
22.8741   886
22.8841   915
22.8941   863
22.9041   952
22.9141   895
22.9241   888
22.9341   959
22.9441   865
22.9541   887
22.9641   921
22.9741   906
22.9841   893
22.9941   924
23.0041   869
23.0141   843
23.0241   912
23.0341   920
23.0441   862
23.0541   908
23.0641   964
23.0741   877
23.0841   936
23.0941   907
23.1041   904
23.1141   905
23.1241   929
23.1341   910
23.1441   909
23.1541   911
23.1641   906
23.1741   898
23.1841   922
23.1941   933
23.2041   869
23.2141   944
23.2241   896
23.2341   928
23.2441   877
23.2541   986
23.2641   844
23.2741   936
23.2841   866
23.2941   897
23.3041   888
23.3141   862
23.3241   880
23.3341   861
23.3441   922
23.3541   873
23.3641   898
23.3741   855
23.3841   915
23.3941   880
23.4041   890
23.4141   871
23.4241   892
23.4341   879
23.4441   886
23.4541   908
23.4641   822
23.4741   891
23.4841   889
23.4941   891
23.5041   897
23.5141   831
23.5241   918
23.5341   838
23.5441   931
23.5541   841
23.5641   861
23.5741   880
23.5841   934
23.5941   883
23.6041   872
23.6141   942
23.6241   893
23.6341   918
23.6441   965
23.6541   930
23.6641   948
23.6741   897
23.6841   923
23.6941   925
23.7041   934
23.7141   959
23.7241  1009
23.7341   980
23.7441   963
23.7541   966
23.7641   949
23.7741   966
23.7841   964
23.7941   918
23.8041   981
23.8141   884
23.8241   906
23.8341   967
23.8441   945
23.8541   984
23.8641   943
23.8741   922
23.8841   910
23.8941   926
23.9041   879
23.9141   952
23.9241   953
23.9341   931
23.9441   868
23.9541   852
23.9641   839
23.9741   862
23.9841   918
23.9941   843
24.0041   886
24.0141   826
24.0241   888
24.0341   845
24.0441   910
24.0541   820
24.0641   846
24.0741   833
24.0841   852
24.0941   826
24.1041   852
24.1141   856
24.1241   890
24.1341   849
24.1441   854
24.1541   857
24.1641   828
24.1741   877
24.1841   913
24.1941   853
24.2041   852
24.2141   892
24.2241   872
24.2341   856
24.2441   877
24.2541   916
24.2641   898
24.2741   852
24.2841   855
24.2941   903
24.3041   861
24.3141   831
24.3241   834
24.3341   876
24.3441   882
24.3541   863
24.3641   877
24.3741   820
24.3841   824
24.3941   876
24.4041   832
24.4141   792
24.4241   815
24.4341   814
24.4441   751
24.4541   854
24.4641   869
24.4741   773
24.4841   808
24.4941   851
24.5041   855
24.5141   843
24.5241   821
24.5341   878
24.5441   841
24.5541   807
24.5641   816
24.5741   820
24.5841   801
24.5941   806
24.6041   802
24.6141   876
24.6241   825
24.6341   775
24.6441   815
24.6541   837
24.6641   851
24.6741   849
24.6841   849
24.6941   787
24.7041   835
24.7141   809
24.7241   827
24.7341   804
24.7441   830
24.7541   835
24.7641   790
24.7741   832
24.7841   811
24.7941   819
24.8041   785
24.8141   798
24.8241   820
24.8341   806
24.8441   813
24.8541   851
24.8641   819
24.8741   787
24.8841   808
24.8941   814
24.9041   797
24.9141   836
24.9241   798
24.9341   798
24.9441   807
24.9541   841
24.9641   807
24.9741   827
24.9841   836
24.9941   812
25.0041   808
25.0141   826
25.0241   808
25.0341   797
25.0441   823
25.0541   786
25.0641   814
25.0741   877
25.0841   787
25.0941   792
25.1041   790
25.1141   776
25.1241   794
25.1341   812
25.1441   865
25.1541   834
25.1641   804
25.1741   830
25.1841   792
25.1941   829
25.2041   819
25.2141   817
25.2241   822
25.2341   800
25.2441   745
25.2541   783
25.2641   818
25.2741   813
25.2841   810
25.2941   799
25.3041   824
25.3141   807
25.3241   796
25.3341   784
25.3441   803
25.3541   812
25.3641   781
25.3741   842
25.3841   854
25.3941   782
25.4041   769
25.4141   773
25.4241   752
25.4341   771
25.4441   776
25.4541   764
25.4641   789
25.4741   793
25.4841   759
25.4941   728
25.5041   775
25.5141   773
25.5241   809
25.5341   713
25.5441   763
25.5541   770
25.5641   776
25.5741   738
25.5841   741
25.5941   727
25.6041   743
25.6141   790
25.6241   775
25.6341   800
25.6441   732
25.6541   737
25.6641   725
25.6741   766
25.6841   706
25.6941   742
25.7041   736
25.7141   754
25.7241   757
25.7341   736
25.7441   738
25.7541   746
25.7641   737
25.7741   728
25.7841   767
25.7941   749
25.8041   749
25.8141   728
25.8241   686
25.8341   712
25.8441   757
25.8541   788
25.8641   740
25.8741   810
25.8841   747
25.8941   771
25.9041   734
25.9141   742
25.9241   756
25.9341   753
25.9441   766
25.9541   724
25.9641   761
25.9741   740
25.9841   744
25.9941   706
26.0041   729
26.0141   720
26.0241   646
26.0341   773
26.0441   779
26.0541   741
26.0641   767
26.0741   739
26.0841   740
26.0941   707
26.1041   700
26.1141   750
26.1241   704
26.1341   732
26.1441   734
26.1541   722
26.1641   708
26.1741   705
26.1841   721
26.1941   716
26.2041   714
26.2141   695
26.2241   744
26.2341   699
26.2441   713
26.2541   713
26.2641   727
26.2741   714
26.2841   700
26.2941   712
26.3041   702
26.3141   736
26.3241   698
26.3341   684
26.3441   699
26.3541   703
26.3641   701
26.3741   697
26.3841   704
26.3941   681
26.4041   667
26.4141   709
26.4241   694
26.4341   679
26.4441   691
26.4541   711
26.4641   644
26.4741   677
26.4841   713
26.4941   675
26.5041   698
26.5141   651
26.5241   715
26.5341   699
26.5441   689
26.5541   714
26.5641   629
26.5741   646
26.5841   684
26.5941   669
26.6041   704
26.6141   700
26.6241   691
26.6341   723
26.6441   697
26.6541   724
26.6641   715
26.6741   672
26.6841   711
26.6941   685
26.7041   646
26.7141   672
26.7241   658
26.7341   653
26.7441   698
26.7541   699
26.7641   662
26.7741   680
26.7841   668
26.7941   686
26.8041   662
26.8141   654
26.8241   638
26.8341   644
26.8441   655
26.8541   656
26.8641   653
26.8741   713
26.8841   676
26.8941   668
26.9041   669
26.9141   687
26.9241   667
26.9341   652
26.9441   661
26.9541   608
26.9641   656
26.9741   687
26.9841   652
26.9941   664
27.0041   685
27.0141   660
27.0241   635
27.0341   632
27.0441   660
27.0541   661
27.0641   676
27.0741   619
27.0841   636
27.0941   657
27.1041   675
27.1141   673
27.1241   662
27.1341   649
27.1441   636
27.1541   621
27.1641   657
27.1741   624
27.1841   676
27.1941   688
27.2041   618
27.2141   628
27.2241   629
27.2341   648
27.2441   669
27.2541   646
27.2641   627
27.2741   586
27.2841   606
27.2941   608
27.3041   685
27.3141   652
27.3241   610
27.3341   669
27.3441   652
27.3541   626
27.3641   662
27.3741   599
27.3841   618
27.3941   617
27.4041   657
27.4141   634
27.4241   596
27.4341   617
27.4441   672
27.4541   685
27.4641   622
27.4741   646
27.4841   626
27.4941   656
27.5041   616
27.5141   650
27.5241   641
27.5341   646
27.5441   600
27.5541   656
27.5641   637
27.5741   627
27.5841   667
27.5941   628
27.6041   612
27.6141   614
27.6241   612
27.6341   621
27.6441   639
27.6541   668
27.6641   602
27.6741   576
27.6841   635
27.6941   638
27.7041   590
27.7141   623
27.7241   601
27.7341   625
27.7441   572
27.7541   560
27.7641   646
27.7741   647
27.7841   626
27.7941   591
27.8041   621
27.8141   606
27.8241   580
27.8341   584
27.8441   581
27.8541   575
27.8641   565
27.8741   576
27.8841   625
27.8941   577
27.9041   633
27.9141   619
27.9241   566
27.9341   574
27.9441   586
27.9541   610
27.9641   567
27.9741   598
27.9841   599
27.9941   606
28.0041   569
28.0141   560
28.0241   565
28.0341   586
28.0441   512
28.0541   607
28.0641   566
28.0741   584
28.0841   574
28.0941   567
28.1041   560
28.1141   546
28.1241   587
28.1341   586
28.1441   553
28.1541   561
28.1641   549
28.1741   587
28.1841   582
28.1941   566
28.2041   558
28.2141   575
28.2241   554
28.2341   540
28.2441   546
28.2541   562
28.2641   543
28.2741   537
28.2841   542
28.2941   587
28.3041   543
28.3141   570
28.3241   603
28.3341   549
28.3441   593
28.3541   554
28.3641   542
28.3741   578
28.3841   582
28.3941   576
28.4041   525
28.4141   527
28.4241   564
28.4341   568
28.4441   562
28.4541   541
28.4641   520
28.4741   557
28.4841   576
28.4941   538
28.5041   566
28.5141   553
28.5241   570
28.5341   515
28.5441   603
28.5541   555
28.5641   533
28.5741   515
28.5841   510
28.5941   535
28.6041   523
28.6141   534
28.6241   504
28.6341   543
28.6441   570
28.6541   561
28.6641   512
28.6741   548
28.6841   553
28.6941   531
28.7041   537
28.7141   549
28.7241   491
28.7341   510
28.7441   561
28.7541   537
28.7641   556
28.7741   504
28.7841   533
28.7941   516
28.8041   516
28.8141   488
28.8241   526
28.8341   550
28.8441   509
28.8541   559
28.8641   557
28.8741   508
28.8841   537
28.8941   518
28.9041   510
28.9141   506
28.9241   506
28.9341   501
28.9441   517
28.9541   537
28.9641   510
28.9741   471
28.9841   504
28.9941   504
29.0041   465
29.0141   511
29.0241   502
29.0341   513
29.0441   518
29.0541   510
29.0641   575
29.0741   513
29.0841   503
29.0941   532
29.1041   505
29.1141   510
29.1241   502
29.1341   481
29.1441   548
29.1541   521
29.1641   480
29.1741   546
29.1841   494
29.1941   473
29.2041   503
29.2141   484
29.2241   488
29.2341   515
29.2441   506
29.2541   500
29.2641   529
29.2741   534
29.2841   541
29.2941   475
29.3041   479
29.3141   493
29.3241   520
29.3341   500
29.3441   474
29.3541   473
29.3641   483
29.3741   500
29.3841   479
29.3941   493
29.4041   519
29.4141   499
29.4241   498
29.4341   478
29.4441   477
29.4541   456
29.4641   508
29.4741   491
29.4841   507
29.4941   470
29.5041   455
29.5141   504
29.5241   498
29.5341   487
29.5441   456
29.5541   450
29.5641   500
29.5741   496
29.5841   507
29.5941   494
29.6041   479
29.6141   457
29.6241   475
29.6341   485
29.6441   504
29.6541   479
29.6641   466
29.6741   501
29.6841   471
29.6941   476
29.7041   465
29.7141   463
29.7241   445
29.7341   501
29.7441   468
29.7541   430
29.7641   484
29.7741   479
29.7841   497
29.7941   448
29.8041   473
29.8141   467
29.8241   443
29.8341   463
29.8441   462
29.8541   434
29.8641   434
29.8741   437
29.8841   443
29.8941   456
29.9041   466
29.9141   452
29.9241   459
29.9341   443
29.9441   446
29.9541   438
29.9641   424
29.9741   453
29.9841   475
29.9941   420
30.0041   445
30.0141   441
30.0241   459
30.0341   478
30.0441   436
30.0541   477
30.0641   414
30.0741   432
30.0841   449
30.0941   445
30.1041   431
30.1141   445
30.1241   447
30.1341   407
30.1441   432
30.1541   428
30.1641   451
30.1741   430
30.1841   442
30.1941   416
30.2041   461
30.2141   399
30.2241   449
30.2341   433
30.2441   427
30.2541   416
30.2641   410
30.2741   399
30.2841   438
30.2941   420
30.3041   435
30.3141   444
30.3241   445
30.3341   467
30.3441   420
30.3541   435
30.3641   427
30.3741   396
30.3841   417
30.3941   420
30.4041   449
30.4141   443
30.4241   410
30.4341   450
30.4441   439
30.4541   420
30.4641   454
30.4741   430
30.4841   408
30.4941   430
30.5041   463
30.5141   434
30.5241   407
30.5341   449
30.5441   434
30.5541   363
30.5641   414
30.5741   424
30.5841   420
30.5941   402
30.6041   431
30.6141   379
30.6241   425
30.6341   420
30.6441   413
30.6541   401
30.6641   374
30.6741   408
30.6841   370
30.6941   421
30.7041   421
30.7141   399
30.7241   383
30.7341   396
30.7441   401
30.7541   424
30.7641   410
30.7741   393
30.7841   387
30.7941   369
30.8041   422
30.8141   384
30.8241   388
30.8341   396
30.8441   393
30.8541   394
30.8641   397
30.8741   385
30.8841   363
30.8941   356
30.9041   392
30.9141   388
30.9241   409
30.9341   403
30.9441   430
30.9541   393
30.9641   370
30.9741   402
30.9841   382
30.9941   397
31.0041   392
31.0141   375
31.0241   394
31.0341   405
31.0441   379
31.0541   381
31.0641   409
31.0741   363
31.0841   354
31.0941   386
31.1041   360
31.1141   375
31.1241   370
31.1341   365
31.1441   384
31.1541   347
31.1641   360
31.1741   387
31.1841   407
31.1941   378
31.2041   384
31.2141   363
31.2241   344
31.2341   348
31.2441   393
31.2541   376
31.2641   412
31.2741   371
31.2841   407
31.2941   364
31.3041   374
31.3141   365
31.3241   372
31.3341   372
31.3441   364
31.3541   361
31.3641   366
31.3741   397
31.3841   370
31.3941   372
31.4041   367
31.4141   363
31.4241   354
31.4341   339
31.4441   332
31.4541   351
31.4641   360
31.4741   359
31.4841   349
31.4941   397
31.5041   385
31.5141   342
31.5241   372
31.5341   359
31.5441   341
31.5541   335
31.5641   332
31.5741   349
31.5841   361
31.5941   360
31.6041   387
31.6141   358
31.6241   367
31.6341   361
31.6441   357
31.6541   333
31.6641   371
31.6741   344
31.6841   371
31.6941   347
31.7041   318
31.7141   330
31.7241   333
31.7341   320
31.7441   328
31.7541   352
31.7641   361
31.7741   383
31.7841   337
31.7941   354
31.8041   348
31.8141   317
31.8241   346
31.8341   361
31.8441   355
31.8541   376
31.8641   335
31.8741   381
31.8841   344
31.8941   339
31.9041   335
31.9141   335
31.9241   358
31.9341   308
31.9441   329
31.9541   326
31.9641   333
31.9741   350
31.9841   336
31.9941   331
32.0041   367
32.0141   364
32.0241   345
32.0341   316
32.0441   331
32.0541   323
32.0641   329
32.0741   336
32.0841   370
32.0941   325
32.1041   320
32.1141   354
32.1241   336
32.1341   333
32.1441   303
32.1541   341
32.1641   333
32.1741   337
32.1841   298
32.1941   321
32.2041   303
32.2141   343
32.2241   339
32.2341   325
32.2441   332
32.2541   327
32.2641   328
32.2741   321
32.2841   341
32.2941   322
32.3041   296
32.3141   300
32.3241   304
32.3341   299
32.3441   324
32.3541   354
32.3641   320
32.3741   333
32.3841   290
32.3941   302
32.4041   312
32.4141   327
32.4241   327
32.4341   303
32.4441   311
32.4541   278
32.4641   327
32.4741   298
32.4841   301
32.4941   299
32.5041   316
32.5141   309
32.5241   271
32.5341   292
32.5441   270
32.5541   323
32.5641   336
32.5741   265
32.5841   283
32.5941   288
32.6041   312
32.6141   278
32.6241   285
32.6341   314
32.6441   305
32.6541   334
32.6641   307
32.6741   309
32.6841   284
32.6941   317
32.7041   272
32.7141   294
32.7241   309
32.7341   285
32.7441   300
32.7541   294
32.7641   285
32.7741   289
32.7841   272
32.7941   259
32.8041   300
32.8141   305
32.8241   297
32.8341   280
32.8441   292
32.8541   267
32.8641   301
32.8741   287
32.8841   260
32.8941   286
32.9041   292
32.9141   304
32.9241   289
32.9341   265
32.9441   249
32.9541   264
32.9641   259
32.9741   288
32.9841   276
32.9941   282
33.0041   292
33.0141   274
33.0241   269
33.0341   257
33.0441   275
33.0541   265
33.0641   254
33.0741   271
33.0841   259
33.0941   271
33.1041   268
33.1141   261
33.1241   260
33.1341   269
33.1441   266
33.1541   245
33.1641   275
33.1741   266
33.1841   286
33.1941   266
33.2041   269
33.2141   250
33.2241   260
33.2341   266
33.2441   273
33.2541   273
33.2641   281
33.2741   272
33.2841   239
33.2941   259
33.3041   276
33.3141   292
33.3241   275
33.3341   271
33.3441   260
33.3541   254
33.3641   263
33.3741   249
33.3841   242
33.3941   247
33.4041   251
33.4141   254
33.4241   251
33.4341   277
33.4441   248
33.4541   226
33.4641   244
33.4741   247
33.4841   258
33.4941   278
33.5041   288
33.5141   278
33.5241   230
33.5341   251
33.5441   247
33.5541   242
33.5641   271
33.5741   250
33.5841   259
33.5941   216
33.6041   253
33.6141   245
33.6241   240
33.6341   242
33.6441   239
33.6541   222
33.6641   243
33.6741   240
33.6841   230
33.6941   238
33.7041   251
33.7141   239
33.7241   264
33.7341   236
33.7441   263
33.7541   233
33.7641   218
33.7741   235
33.7841   231
33.7941   239
33.8041   264
33.8141   233
33.8241   246
33.8341   217
33.8441   230
33.8541   249
33.8641   246
33.8741   225
33.8841   225
33.8941   233
33.9041   244
33.9141   220
33.9241   216
33.9341   239
33.9441   245
33.9541   215
33.9641   229
33.9741   216
33.9841   251
33.9941   231
34.0041   228
34.0141   217
34.0241   239
34.0341   231
34.0441   237
34.0541   226
34.0641   226
34.0741   230
34.0841   253
34.0941   189
34.1041   244
34.1141   213
34.1241   218
34.1341   219
34.1441   214
34.1541   202
34.1641   231
34.1741   226
34.1841   235
34.1941   205
34.2041   221
34.2141   217
34.2241   236
34.2341   216
34.2441   228
34.2541   230
34.2641   237
34.2741   218
34.2841   189
34.2941   205
34.3041   199
34.3141   198
34.3241   226
34.3341   218
34.3441   209
34.3541   247
34.3641   226
34.3741   195
34.3841   203
34.3941   213
34.4041   222
34.4141   214
34.4241   212
34.4341   223
34.4441   234
34.4541   187
34.4641   217
34.4741   210
34.4841   211
34.4941   183
34.5041   207
34.5141   215
34.5241   209
34.5341   203
34.5441   220
34.5541   211
34.5641   185
34.5741   195
34.5841   212
34.5941   236
34.6041   194
34.6141   176
34.6241   213
34.6341   208
34.6441   213
34.6541   208
34.6641   192
34.6741   220
34.6841   200
34.6941   201
34.7041   197
34.7141   205
34.7241   207
34.7341   194
34.7441   193
34.7541   210
34.7641   193
34.7741   192
34.7841   188
34.7941   170
34.8041   195
34.8141   179
34.8241   179
34.8341   198
34.8441   212
34.8541   187
34.8641   196
34.8741   206
34.8841   191
34.8941   195
34.9041   202
34.9141   208
34.9241   199
34.9341   202
34.9441   175
34.9541   199
34.9641   203
34.9741   192
34.9841   169
34.9941   175
35.0041   170
35.0141   180
35.0241   199
35.0341   190
35.0441   184
35.0541   197
35.0641   190
35.0741   187
35.0841   197
35.0941   178
35.1041   173
35.1141   180
35.1241   194
35.1341   172
35.1441   180
35.1541   203
35.1641   182
35.1741   176
35.1841   193
35.1941   173
35.2041   184
35.2141   182
35.2241   185
35.2341   174
35.2441   160
35.2541   163
35.2641   170
35.2741   173
35.2841   168
35.2941   177
35.3041   175
35.3141   186
35.3241   179
35.3341   157
35.3441   166
35.3541   186
35.3641   188
35.3741   202
35.3841   177
35.3941   183
35.4041   178
35.4141   158
35.4241   175
35.4341   185
35.4441   163
35.4541   174
35.4641   167
35.4741   184
35.4841   181
35.4941   158
35.5041   156
35.5141   170
35.5241   164
35.5341   195
35.5441   180
35.5541   181
35.5641   162
35.5741   168
35.5841   177
35.5941   154
35.6041   164
35.6141   157
35.6241   191
35.6341   147
35.6441   177
35.6541   175
35.6641   174
35.6741   175
35.6841   147
35.6941   145
35.7041   138
35.7141   144
35.7241   152
35.7341   145
35.7441   146
35.7541   181
35.7641   164
35.7741   159
35.7841   152
35.7941   181
35.8041   156
35.8141   160
35.8241   153
35.8341   160
35.8441   175
35.8541   184
35.8641   157
35.8741   156
35.8841   154
35.8941   141
35.9041   165
35.9141   176
35.9241   153
35.9341   144
35.9441   154
35.9541   148
35.9641   152
35.9741   161
35.9841   154
35.9941   162
36.0041   150
36.0141   138
36.0241   167
36.0341   145
36.0441   135
36.0541   166
36.0641   159
36.0741   162
36.0841   135
36.0941   158
36.1041   154
36.1141   141
36.1241   160
36.1341   163
36.1441   144
36.1541   145
36.1641   114
36.1741   139
36.1841   124
36.1941   131
36.2041   133
36.2141   129
36.2241   156
36.2341   126
36.2441   134
36.2541   149
36.2641   148
36.2741   147
36.2841   127
36.2941   134
36.3041   148
36.3141   137
36.3241   154
36.3341   148
36.3441   149
36.3541   143
36.3641   145
36.3741   150
36.3841   133
36.3941   157
36.4041   141
36.4141   146
36.4241   143
36.4341   128
36.4441   139
36.4541   125
36.4641   143
36.4741   119
36.4841   163
36.4941   136
36.5041   127
36.5141   123
36.5241   139
36.5341   123
36.5441   133
36.5541   138
36.5641   137
36.5741   122
36.5841   148
36.5941   143
36.6041   156
36.6141   132
36.6241   140
36.6341   146
36.6441   125
36.6541   130
36.6641   142
36.6741   140
36.6841   149
36.6941   121
36.7041   134
36.7141   133
36.7241   120
36.7341   127
36.7441   119
36.7541   127
36.7641   120
36.7741   120
36.7841   156
36.7941   127
36.8041   129
36.8141   124
36.8241   128
36.8341   129
36.8441   122
36.8541   147
36.8641   122
36.8741   139
36.8841   139
36.8941   123
36.9041   119
36.9141   126
36.9241   131
36.9341   138
36.9441   129
36.9541   103
36.9641    98
36.9741   115
36.9841   130
36.9941   123
37.0041   134
37.0141   112
37.0241   126
37.0341   140
37.0441   110
37.0541   133
37.0641   116
37.0741   110
37.0841   106
37.0941   108
37.1041   135
37.1141   124
37.1241   131
37.1341   111
37.1441   127
37.1541    92
37.1641   118
37.1741   154
37.1841   119
37.1941   119
37.2041   112
37.2141   115
37.2241   123
37.2341   113
37.2441   117
37.2541   127
37.2641   107
37.2741    99
37.2841   120
37.2941   118
37.3041   124
37.3141   123
37.3241   113
37.3341   119
37.3441   113
37.3541   119
37.3641   107
37.3741   106
37.3841   107
37.3941    98
37.4041   108
37.4141   114
37.4241   110
37.4341    96
37.4441   121
37.4541    99
37.4641   100
37.4741   107
37.4841   115
37.4941   120
37.5041   125
37.5141   106
37.5241   106
37.5341   112
37.5441    94
37.5541   113
37.5641    85
37.5741    95
37.5841   111
37.5941   101
37.6041   104
37.6141    99
37.6241    90
37.6341    99
37.6441    95
37.6541   110
37.6641   116
37.6741   100
37.6841   109
37.6941    96
37.7041    89
37.7141    87
37.7241   115
37.7341   110
37.7441   114
37.7541   110
37.7641   108
37.7741    90
37.7841    97
37.7941   112
37.8041   110
37.8141    93
37.8241    98
37.8341   110
37.8441   109
37.8541    92
37.8641   113
37.8741   115
37.8841    91
37.8941    82
37.9041   101
37.9141    93
37.9241   102
37.9341   101
37.9441    94
37.9541    90
37.9641    95
37.9741   106
37.9841    80
37.9941    91
38.0041    92
38.0141   108
38.0241    90
38.0341    86
38.0441   109
38.0541   103
38.0641    94
38.0741   102
38.0841    92
38.0941    88
38.1041    85
38.1141    78
38.1241    89
38.1341    88
38.1441    97
38.1541    89
38.1641    91
38.1741    91
38.1841    86
38.1941    95
38.2041    92
38.2141    91
38.2241    93
38.2341    87
38.2441    97
38.2541    84
38.2641    76
38.2741    71
38.2841    84
38.2941    92
38.3041    92
38.3141    81
38.3241    91
38.3341    90
38.3441    92
38.3541    85
38.3641    81
38.3741    96
38.3841    98
38.3941    99
38.4041    74
38.4141    85
38.4241    86
38.4341    78
38.4441    72
38.4541    84
38.4641    70
38.4741    89
38.4841    80
38.4941    74
38.5041    77
38.5141    89
38.5241    85
38.5341    61
38.5441    86
38.5541    64
38.5641    86
38.5741    72
38.5841    64
38.5941    80
38.6041    64
38.6141    80
38.6241    68
38.6341    87
38.6441    81
38.6541    72
38.6641    75
38.6741    69
38.6841    80
38.6941    63
38.7041    72
38.7141    61
38.7241    78
38.7341    79
38.7441    82
38.7541    71
38.7641    73
38.7741    83
38.7841    72
38.7941    83
38.8041    69
38.8141    70
38.8241    52
38.8341    68
38.8441    78
38.8541    74
38.8641    62
38.8741    73
38.8841    65
38.8941    60
38.9041    69
38.9141    73
38.9241    55
38.9341    78
38.9441    69
38.9541    62
38.9641    73
38.9741    69
38.9841    77
38.9941    62
39.0041    51
39.0141    64
39.0241    73
39.0341    64
39.0441    61
39.0541    60
39.0641    59
39.0741    52
39.0841    60
39.0941    75
39.1041    66
39.1141    65
39.1241    61
39.1341    68
39.1441    68
39.1541    75
39.1641    62
39.1741    73
39.1841    54
39.1941    67
39.2041    57
39.2141    68
39.2241    70
39.2341    54
39.2441    67
39.2541    53
39.2641    76
39.2741    52
39.2841    57
39.2941    65
39.3041    60
39.3141    60
39.3241    43
39.3341    67
39.3441    61
39.3541    50
39.3641    59
39.3741    68
39.3841    49
39.3941    60
39.4041    70
39.4141    63
39.4241    58
39.4341    77
39.4441    76
39.4541    56
39.4641    44
39.4741    58
39.4841    55
39.4941    49
39.5041    57
39.5141    58
39.5241    59
39.5341    38
39.5441    63
39.5541    64
39.5641    54
39.5741    54
39.5841    46
39.5941    61
39.6041    60
39.6141    52
39.6241    52
39.6341    47
39.6441    73
39.6541    58
39.6641    51
39.6741    62
39.6841    57
39.6941    53
39.7041    59
39.7141    60
39.7241    59
39.7341    62
39.7441    65
39.7541    45
39.7641    49
39.7741    52
39.7841    65
39.7941    59
39.8041    53
39.8141    46
39.8241    52
39.8341    58
39.8441    54
39.8541    51
39.8641    63
39.8741    61
39.8841    55
39.8941    52
39.9041    65
39.9141    53
39.9241    43
39.9341    51
39.9441    59
39.9541    56
39.9641    48
39.9741    56
39.9841    47
39.9941    60
