Bruker Nano GmbH Berlin, Germany
Esprit 1.9

Date: 5/14/2021 3:52:56 PM
Real time: 14903
Life time: 13826
Pulse density: 108559


Detector type: XFlash 430
Window type: Custom type
Detector thickness: 0.45
Si dead layer:0.029

Calibration, lin.: 10
Calibration, abs.: -955.9
Mn FWHM: 137.05
Fano factor: 0.121
Channels: 4095

Energy Counts
-0.9559     0
-0.9459     0
-0.9359     0
-0.9259     0
-0.9159     0
-0.9059     0
-0.8959     0
-0.8859     0
-0.8759     0
-0.8659     0
-0.8559     0
-0.8459     0
-0.8359     0
-0.8259     0
-0.8159     0
-0.8059     0
-0.7959     0
-0.7859     0
-0.7759     0
-0.7659     0
-0.7559     0
-0.7459     0
-0.7359     0
-0.7259     0
-0.7159     0
-0.7059     0
-0.6959     0
-0.6859     0
-0.6759     0
-0.6659     0
-0.6559     0
-0.6459     0
-0.6359     0
-0.6259     0
-0.6159     0
-0.6059     0
-0.5959     0
-0.5859     0
-0.5759     0
-0.5659     0
-0.5559     0
-0.5459     0
-0.5359     0
-0.5259     0
-0.5159     0
-0.5059     0
-0.4959     0
-0.4859     0
-0.4759     0
-0.4659     0
-0.4559     0
-0.4459     0
-0.4359     0
-0.4259     0
-0.4159     0
-0.4059     0
-0.3959     0
-0.3859     0
-0.3759     0
-0.3659     0
-0.3559     0
-0.3459     0
-0.3359     0
-0.3259     0
-0.3159     0
-0.3059     0
-0.2959     0
-0.2859     0
-0.2759     0
-0.2659     0
-0.2559     0
-0.2459     0
-0.2359     0
-0.2259     0
-0.2159     0
-0.2059     0
-0.1959     0
-0.1859     0
-0.1759     0
-0.1659     0
-0.1559     0
-0.1459     0
-0.1359     0
-0.1259     0
-0.1159     0
-0.1059    12
-0.0959    42
-0.0859   181
-0.0759   496
-0.0659  1594
-0.0559  4094
-0.0459  8820
-0.0359 16450
-0.0259 26371
-0.0159 36316
-0.0059 42124
 0.0041 42346
 0.0141 36702
 0.0241 27129
 0.0341 17091
 0.0441  9375
 0.0541  4392
 0.0641  1679
 0.0741   569
 0.0841   189
 0.0941    45
 0.1041    17
 0.1141     6
 0.1241     5
 0.1341     7
 0.1441     5
 0.1541    10
 0.1641     2
 0.1741     0
 0.1841   122
 0.1941   244
 0.2041   231
 0.2141   224
 0.2241   234
 0.2341   204
 0.2441   227
 0.2541   254
 0.2641   236
 0.2741   259
 0.2841   238
 0.2941   232
 0.3041   233
 0.3141   227
 0.3241   243
 0.3341   235
 0.3441   231
 0.3541   236
 0.3641   241
 0.3741   223
 0.3841   191
 0.3941   199
 0.4041   206
 0.4141   204
 0.4241   223
 0.4341   212
 0.4441   194
 0.4541   187
 0.4641   222
 0.4741   245
 0.4841   210
 0.4941   192
 0.5041   185
 0.5141   208
 0.5241   213
 0.5341   195
 0.5441   200
 0.5541   182
 0.5641   160
 0.5741   182
 0.5841   183
 0.5941   170
 0.6041   169
 0.6141   173
 0.6241   187
 0.6341   195
 0.6441   174
 0.6541   174
 0.6641   183
 0.6741   183
 0.6841   175
 0.6941   181
 0.7041   164
 0.7141   172
 0.7241   166
 0.7341   151
 0.7441   174
 0.7541   174
 0.7641   172
 0.7741   165
 0.7841   166
 0.7941   169
 0.8041   168
 0.8141   180
 0.8241   171
 0.8341   156
 0.8441   156
 0.8541   170
 0.8641   164
 0.8741   175
 0.8841   173
 0.8941   169
 0.9041   166
 0.9141   175
 0.9241   170
 0.9341   164
 0.9441   152
 0.9541   161
 0.9641   148
 0.9741   157
 0.9841   157
 0.9941   177
 1.0041   171
 1.0141   158
 1.0241   157
 1.0341   168
 1.0441   149
 1.0541   147
 1.0641   154
 1.0741   173
 1.0841   158
 1.0941   156
 1.1041   160
 1.1141   144
 1.1241   141
 1.1341   151
 1.1441   159
 1.1541   149
 1.1641   147
 1.1741   159
 1.1841   164
 1.1941   129
 1.2041   146
 1.2141   151
 1.2241   155
 1.2341   148
 1.2441   139
 1.2541   152
 1.2641   146
 1.2741   137
 1.2841   118
 1.2941   139
 1.3041   146
 1.3141   156
 1.3241   137
 1.3341   139
 1.3441   145
 1.3541   148
 1.3641   149
 1.3741   142
 1.3841   133
 1.3941   123
 1.4041   128
 1.4141   146
 1.4241   148
 1.4341   127
 1.4441   132
 1.4541   147
 1.4641   138
 1.4741   149
 1.4841   122
 1.4941   134
 1.5041   144
 1.5141   134
 1.5241   123
 1.5341   140
 1.5441   128
 1.5541   135
 1.5641   129
 1.5741   142
 1.5841   125
 1.5941   127
 1.6041   111
 1.6141   119
 1.6241   127
 1.6341   133
 1.6441   147
 1.6541   177
 1.6641   203
 1.6741   231
 1.6841   305
 1.6941   379
 1.7041   435
 1.7141   504
 1.7241   510
 1.7341   578
 1.7441   572
 1.7541   491
 1.7641   491
 1.7741   426
 1.7841   355
 1.7941   275
 1.8041   222
 1.8141   188
 1.8241   193
 1.8341   181
 1.8441   170
 1.8541   153
 1.8641   171
 1.8741   154
 1.8841   147
 1.8941   159
 1.9041   147
 1.9141   152
 1.9241   132
 1.9341   125
 1.9441   143
 1.9541   140
 1.9641   159
 1.9741   163
 1.9841   169
 1.9941   173
 2.0041   188
 2.0141   170
 2.0241   136
 2.0341   156
 2.0441   142
 2.0541   143
 2.0641   142
 2.0741   131
 2.0841   128
 2.0941   121
 2.1041   129
 2.1141   131
 2.1241   112
 2.1341   114
 2.1441   127
 2.1541   106
 2.1641   109
 2.1741   127
 2.1841   139
 2.1941   113
 2.2041   103
 2.2141   117
 2.2241   127
 2.2341   135
 2.2441   123
 2.2541   102
 2.2641   123
 2.2741   108
 2.2841   111
 2.2941   109
 2.3041   120
 2.3141    82
 2.3241   113
 2.3341    99
 2.3441   109
 2.3541   113
 2.3641   118
 2.3741   107
 2.3841   107
 2.3941   104
 2.4041   110
 2.4141   112
 2.4241   111
 2.4341   119
 2.4441   118
 2.4541   120
 2.4641    96
 2.4741   105
 2.4841   106
 2.4941   111
 2.5041   105
 2.5141   117
 2.5241   100
 2.5341   128
 2.5441   104
 2.5541    81
 2.5641   103
 2.5741    86
 2.5841   126
 2.5941   101
 2.6041    86
 2.6141   100
 2.6241   100
 2.6341   103
 2.6441    91
 2.6541   109
 2.6641    91
 2.6741   114
 2.6841   107
 2.6941   100
 2.7041    79
 2.7141   106
 2.7241    98
 2.7341    97
 2.7441    98
 2.7541   104
 2.7641   108
 2.7741    91
 2.7841    97
 2.7941    89
 2.8041    98
 2.8141   111
 2.8241    95
 2.8341   102
 2.8441   120
 2.8541   114
 2.8641   114
 2.8741   104
 2.8841    97
 2.8941    74
 2.9041    80
 2.9141    98
 2.9241    87
 2.9341   110
 2.9441    97
 2.9541    98
 2.9641    96
 2.9741    88
 2.9841    80
 2.9941   105
 3.0041    86
 3.0141    98
 3.0241    87
 3.0341    94
 3.0441    77
 3.0541    91
 3.0641    88
 3.0741    85
 3.0841    85
 3.0941    77
 3.1041    90
 3.1141    74
 3.1241    88
 3.1341    80
 3.1441    81
 3.1541    94
 3.1641    91
 3.1741    77
 3.1841    78
 3.1941    92
 3.2041    74
 3.2141    92
 3.2241   107
 3.2341   116
 3.2441   125
 3.2541   125
 3.2641   174
 3.2741   197
 3.2841   199
 3.2941   228
 3.3041   243
 3.3141   230
 3.3241   210
 3.3341   210
 3.3441   179
 3.3541   192
 3.3641   160
 3.3741   156
 3.3841   124
 3.3941   126
 3.4041   108
 3.4141    97
 3.4241    87
 3.4341    74
 3.4441    79
 3.4541    85
 3.4641    80
 3.4741    71
 3.4841    76
 3.4941    69
 3.5041    88
 3.5141    83
 3.5241   106
 3.5341   104
 3.5441   119
 3.5541   142
 3.5641   160
 3.5741   216
 3.5841   233
 3.5941   288
 3.6041   382
 3.6141   500
 3.6241   629
 3.6341   767
 3.6441   949
 3.6541  1093
 3.6641  1173
 3.6741  1328
 3.6841  1438
 3.6941  1363
 3.7041  1417
 3.7141  1261
 3.7241  1081
 3.7341   956
 3.7441   750
 3.7541   597
 3.7641   476
 3.7741   348
 3.7841   260
 3.7941   195
 3.8041   158
 3.8141   120
 3.8241   105
 3.8341    85
 3.8441   101
 3.8541    75
 3.8641    77
 3.8741    81
 3.8841    86
 3.8941    85
 3.9041   104
 3.9141    96
 3.9241   115
 3.9341   118
 3.9441   143
 3.9541   170
 3.9641   199
 3.9741   223
 3.9841   269
 3.9941   285
 4.0041   282
 4.0141   281
 4.0241   265
 4.0341   268
 4.0441   216
 4.0541   198
 4.0641   197
 4.0741   178
 4.0841   179
 4.0941   131
 4.1041   102
 4.1141    83
 4.1241    78
 4.1341    73
 4.1441    65
 4.1541    56
 4.1641    60
 4.1741    72
 4.1841    64
 4.1941    57
 4.2041    58
 4.2141    55
 4.2241    62
 4.2341    75
 4.2441    64
 4.2541    59
 4.2641    62
 4.2741    59
 4.2841    56
 4.2941    56
 4.3041    55
 4.3141    52
 4.3241    60
 4.3341    63
 4.3441    68
 4.3541    52
 4.3641    60
 4.3741    86
 4.3841    92
 4.3941    81
 4.4041   123
 4.4141   139
 4.4241   162
 4.4341   201
 4.4441   224
 4.4541   260
 4.4641   291
 4.4741   355
 4.4841   395
 4.4941   413
 4.5041   403
 4.5141   410
 4.5241   404
 4.5341   371
 4.5441   337
 4.5541   282
 4.5641   268
 4.5741   211
 4.5841   203
 4.5941   166
 4.6041   125
 4.6141   105
 4.6241    80
 4.6341    99
 4.6441    93
 4.6541    85
 4.6641    66
 4.6741    66
 4.6841    65
 4.6941    74
 4.7041    76
 4.7141    62
 4.7241    50
 4.7341    73
 4.7441    62
 4.7541    81
 4.7641    59
 4.7741    73
 4.7841    75
 4.7941    72
 4.8041    86
 4.8141    79
 4.8241    79
 4.8341   103
 4.8441   102
 4.8541    98
 4.8641   103
 4.8741   108
 4.8841   137
 4.8941   135
 4.9041   161
 4.9141   137
 4.9241   142
 4.9341   131
 4.9441   145
 4.9541   137
 4.9641   128
 4.9741   118
 4.9841   119
 4.9941   101
 5.0041   123
 5.0141   102
 5.0241    85
 5.0341    75
 5.0441    68
 5.0541    82
 5.0641    80
 5.0741    63
 5.0841    58
 5.0941    69
 5.1041    77
 5.1141    74
 5.1241    68
 5.1341    68
 5.1441    63
 5.1541    77
 5.1641    65
 5.1741    76
 5.1841    77
 5.1941    84
 5.2041    63
 5.2141    69
 5.2241    56
 5.2341    68
 5.2441    62
 5.2541    83
 5.2641    81
 5.2741    60
 5.2841    65
 5.2941    81
 5.3041    68
 5.3141    89
 5.3241    92
 5.3341    87
 5.3441    95
 5.3541   102
 5.3641   111
 5.3741   120
 5.3841   107
 5.3941   140
 5.4041   122
 5.4141   108
 5.4241   120
 5.4341   115
 5.4441   136
 5.4541   112
 5.4641    89
 5.4741    91
 5.4841   106
 5.4941    82
 5.5041    84
 5.5141    71
 5.5241    86
 5.5341    81
 5.5441    79
 5.5541    81
 5.5641    73
 5.5741    67
 5.5841    70
 5.5941    71
 5.6041    64
 5.6141    73
 5.6241    82
 5.6341    72
 5.6441    71
 5.6541    77
 5.6641    76
 5.6741    72
 5.6841    68
 5.6941    74
 5.7041    88
 5.7141    81
 5.7241    90
 5.7341    89
 5.7441    95
 5.7541   108
 5.7641   107
 5.7741   147
 5.7841   172
 5.7941   199
 5.8041   238
 5.8141   284
 5.8241   373
 5.8341   443
 5.8441   457
 5.8541   513
 5.8641   549
 5.8741   623
 5.8841   661
 5.8941   647
 5.9041   621
 5.9141   571
 5.9241   592
 5.9341   521
 5.9441   474
 5.9541   411
 5.9641   369
 5.9741   290
 5.9841   246
 5.9941   206
 6.0041   173
 6.0141   174
 6.0241   144
 6.0341   128
 6.0441   124
 6.0541   129
 6.0641   131
 6.0741    97
 6.0841   120
 6.0941   112
 6.1041   127
 6.1141   115
 6.1241   150
 6.1341   124
 6.1441   161
 6.1541   164
 6.1641   155
 6.1741   179
 6.1841   195
 6.1941   290
 6.2041   348
 6.2141   388
 6.2241   544
 6.2341   780
 6.2441  1068
 6.2541  1519
 6.2641  2135
 6.2741  2793
 6.2841  3853
 6.2941  5198
 6.3041  6783
 6.3141  8303
 6.3241 10301
 6.3341 12271
 6.3441 14375
 6.3541 16571
 6.3641 18243
 6.3741 19927
 6.3841 20569
 6.3941 21381
 6.4041 21491
 6.4141 20816
 6.4241 19259
 6.4341 17809
 6.4441 16190
 6.4541 14107
 6.4641 11860
 6.4741  9856
 6.4841  7952
 6.4941  6222
 6.5041  4593
 6.5141  3388
 6.5241  2463
 6.5341  1844
 6.5441  1249
 6.5541   903
 6.5641   614
 6.5741   444
 6.5841   321
 6.5941   247
 6.6041   200
 6.6141   169
 6.6241   175
 6.6341   121
 6.6441   145
 6.6541   143
 6.6641   121
 6.6741   127
 6.6841   121
 6.6941   130
 6.7041   144
 6.7141   146
 6.7241   141
 6.7341   138
 6.7441   145
 6.7541   160
 6.7641   137
 6.7741   144
 6.7841   150
 6.7941   160
 6.8041   162
 6.8141   158
 6.8241   164
 6.8341   193
 6.8441   217
 6.8541   227
 6.8641   240
 6.8741   262
 6.8841   364
 6.8941   380
 6.9041   462
 6.9141   563
 6.9241   650
 6.9341   871
 6.9441  1088
 6.9541  1243
 6.9641  1536
 6.9741  1836
 6.9841  2182
 6.9941  2582
 7.0041  2734
 7.0141  3226
 7.0241  3334
 7.0341  3525
 7.0441  3735
 7.0541  3725
 7.0641  3579
 7.0741  3532
 7.0841  3289
 7.0941  3114
 7.1041  2695
 7.1141  2355
 7.1241  2120
 7.1341  1736
 7.1441  1420
 7.1541  1235
 7.1641   948
 7.1741   731
 7.1841   537
 7.1941   480
 7.2041   320
 7.2141   292
 7.2241   256
 7.2341   227
 7.2441   192
 7.2541   168
 7.2641   156
 7.2741   169
 7.2841   157
 7.2941   150
 7.3041   184
 7.3141   192
 7.3241   186
 7.3341   177
 7.3441   167
 7.3541   197
 7.3641   210
 7.3741   252
 7.3841   227
 7.3941   234
 7.4041   246
 7.4141   256
 7.4241   256
 7.4341   257
 7.4441   271
 7.4541   252
 7.4641   236
 7.4741   263
 7.4841   258
 7.4941   244
 7.5041   232
 7.5141   193
 7.5241   189
 7.5341   192
 7.5441   194
 7.5541   203
 7.5641   167
 7.5741   169
 7.5841   148
 7.5941   171
 7.6041   146
 7.6141   163
 7.6241   149
 7.6341   143
 7.6441   156
 7.6541   144
 7.6641   150
 7.6741   135
 7.6841   141
 7.6941   163
 7.7041   165
 7.7141   167
 7.7241   161
 7.7341   177
 7.7441   166
 7.7541   175
 7.7641   164
 7.7741   173
 7.7841   181
 7.7941   226
 7.8041   179
 7.8141   188
 7.8241   195
 7.8341   215
 7.8441   187
 7.8541   220
 7.8641   203
 7.8741   253
 7.8841   228
 7.8941   223
 7.9041   250
 7.9141   250
 7.9241   283
 7.9341   293
 7.9441   321
 7.9541   311
 7.9641   357
 7.9741   359
 7.9841   416
 7.9941   404
 8.0041   448
 8.0141   497
 8.0241   550
 8.0341   556
 8.0441   604
 8.0541   605
 8.0641   657
 8.0741   702
 8.0841   769
 8.0941   794
 8.1041   808
 8.1141   855
 8.1241   856
 8.1341   923
 8.1441   897
 8.1541   963
 8.1641   987
 8.1741  1005
 8.1841  1015
 8.1941  1071
 8.2041  1008
 8.2141  1049
 8.2241  1107
 8.2341  1051
 8.2441  1143
 8.2541  1216
 8.2641  1236
 8.2741  1278
 8.2841  1363
 8.2941  1437
 8.3041  1558
 8.3141  1628
 8.3241  1901
 8.3341  1984
 8.3441  2106
 8.3541  2230
 8.3641  2323
 8.3741  2332
 8.3841  2426
 8.3941  2463
 8.4041  2354
 8.4141  2269
 8.4241  2120
 8.4341  2009
 8.4441  1810
 8.4541  1709
 8.4641  1432
 8.4741  1259
 8.4841  1094
 8.4941   949
 8.5041   805
 8.5141   686
 8.5241   604
 8.5341   501
 8.5441   449
 8.5541   429
 8.5641   365
 8.5741   388
 8.5841   374
 8.5941   345
 8.6041   394
 8.6141   324
 8.6241   349
 8.6341   351
 8.6441   340
 8.6541   326
 8.6641   333
 8.6741   314
 8.6841   320
 8.6941   304
 8.7041   281
 8.7141   261
 8.7241   282
 8.7341   279
 8.7441   246
 8.7541   273
 8.7641   248
 8.7741   237
 8.7841   221
 8.7941   222
 8.8041   243
 8.8141   228
 8.8241   217
 8.8341   247
 8.8441   219
 8.8541   235
 8.8641   199
 8.8741   224
 8.8841   224
 8.8941   211
 8.9041   233
 8.9141   233
 8.9241   237
 8.9341   258
 8.9441   245
 8.9541   263
 8.9641   228
 8.9741   242
 8.9841   239
 8.9941   247
 9.0041   251
 9.0141   267
 9.0241   261
 9.0341   283
 9.0441   289
 9.0541   319
 9.0641   297
 9.0741   315
 9.0841   314
 9.0941   336
 9.1041   376
 9.1141   378
 9.1241   387
 9.1341   414
 9.1441   458
 9.1541   432
 9.1641   440
 9.1741   462
 9.1841   489
 9.1941   481
 9.2041   532
 9.2141   589
 9.2241   584
 9.2341   621
 9.2441   630
 9.2541   672
 9.2641   746
 9.2741   722
 9.2841   743
 9.2941   780
 9.3041   825
 9.3141   821
 9.3241   836
 9.3341   868
 9.3441   940
 9.3541   986
 9.3641   973
 9.3741  1032
 9.3841  1017
 9.3941   993
 9.4041   986
 9.4141  1032
 9.4241  1041
 9.4341  1080
 9.4441  1086
 9.4541  1059
 9.4641  1095
 9.4741  1104
 9.4841  1109
 9.4941  1159
 9.5041  1114
 9.5141  1226
 9.5241  1189
 9.5341  1225
 9.5441  1281
 9.5541  1385
 9.5641  1474
 9.5741  1543
 9.5841  1701
 9.5941  1729
 9.6041  1790
 9.6141  1890
 9.6241  1996
 9.6341  2027
 9.6441  2203
 9.6541  2147
 9.6641  2182
 9.6741  2177
 9.6841  2124
 9.6941  2061
 9.7041  1949
 9.7141  1886
 9.7241  1751
 9.7341  1679
 9.7441  1581
 9.7541  1413
 9.7641  1344
 9.7741  1206
 9.7841  1169
 9.7941  1061
 9.8041   974
 9.8141   935
 9.8241   836
 9.8341   839
 9.8441   866
 9.8541   870
 9.8641   836
 9.8741   840
 9.8841   846
 9.8941   872
 9.9041   905
 9.9141   912
 9.9241   969
 9.9341   968
 9.9441   903
 9.9541   995
 9.9641   965
 9.9741   866
 9.9841   861
 9.9941   865
10.0041   802
10.0141   748
10.0241   699
10.0341   604
10.0441   556
10.0541   468
10.0641   440
10.0741   415
10.0841   372
10.0941   332
10.1041   277
10.1141   264
10.1241   247
10.1341   252
10.1441   232
10.1541   190
10.1641   174
10.1741   172
10.1841   169
10.1941   179
10.2041   171
10.2141   167
10.2241   161
10.2341   158
10.2441   141
10.2541   149
10.2641   146
10.2741   133
10.2841   149
10.2941   138
10.3041   124
10.3141   133
10.3241   130
10.3341   109
10.3441   120
10.3541   118
10.3641   129
10.3741   126
10.3841   113
10.3941   122
10.4041   130
10.4141   132
10.4241   120
10.4341   122
10.4441   126
10.4541   127
10.4641   144
10.4741   150
10.4841   148
10.4941   137
10.5041   137
10.5141   136
10.5241   136
10.5341   146
10.5441   146
10.5541   149
10.5641   162
10.5741   146
10.5841   158
10.5941   139
10.6041   139
10.6141   152
10.6241   145
10.6341   147
10.6441   156
10.6541   145
10.6641   144
10.6741   158
10.6841   152
10.6941   163
10.7041   171
10.7141   178
10.7241   160
10.7341   180
10.7441   165
10.7541   181
10.7641   183
10.7741   177
10.7841   200
10.7941   184
10.8041   218
10.8141   205
10.8241   204
10.8341   176
10.8441   207
10.8541   217
10.8641   226
10.8741   219
10.8841   212
10.8941   221
10.9041   232
10.9141   214
10.9241   220
10.9341   223
10.9441   228
10.9541   210
10.9641   216
10.9741   220
10.9841   208
10.9941   206
11.0041   208
11.0141   204
11.0241   216
11.0341   202
11.0441   189
11.0541   195
11.0641   189
11.0741   198
11.0841   212
11.0941   204
11.1041   192
11.1141   187
11.1241   170
11.1341   195
11.1441   203
11.1541   208
11.1641   223
11.1741   238
11.1841   227
11.1941   244
11.2041   257
11.2141   258
11.2241   283
11.2341   286
11.2441   292
11.2541   303
11.2641   298
11.2741   315
11.2841   313
11.2941   305
11.3041   287
11.3141   276
11.3241   299
11.3341   285
11.3441   269
11.3541   254
11.3641   234
11.3741   222
11.3841   209
11.3941   199
11.4041   208
11.4141   190
11.4241   179
11.4341   166
11.4441   166
11.4541   163
11.4641   169
11.4741   181
11.4841   171
11.4941   160
11.5041   154
11.5141   142
11.5241   142
11.5341   171
11.5441   165
11.5541   169
11.5641   164
11.5741   161
11.5841   165
11.5941   170
11.6041   167
11.6141   172
11.6241   167
11.6341   180
11.6441   181
11.6541   141
11.6641   137
11.6741   152
11.6841   171
11.6941   170
11.7041   155
11.7141   158
11.7241   150
11.7341   151
11.7441   139
11.7541   132
11.7641   128
11.7741   127
11.7841   119
11.7941   124
11.8041   123
11.8141   130
11.8241   133
11.8341   120
11.8441   102
11.8541   104
11.8641   120
11.8741   120
11.8841   116
11.8941   108
11.9041   113
11.9141   123
11.9241   127
11.9341   119
11.9441   122
11.9541   115
11.9641   118
11.9741   125
11.9841   119
11.9941   122
12.0041   132
12.0141   130
12.0241   136
12.0341   134
12.0441   119
12.0541   117
12.0641   131
12.0741   129
12.0841   124
12.0941   126
12.1041   113
12.1141   122
12.1241   125
12.1341   127
12.1441   126
12.1541   126
12.1641   120
12.1741   124
12.1841   127
12.1941   125
12.2041   115
12.2141   118
12.2241   126
12.2341   126
12.2441   119
12.2541   120
12.2641   118
12.2741   111
12.2841   106
12.2941   115
12.3041   125
12.3141   134
12.3241   133
12.3341   126
12.3441   116
12.3541    95
12.3641   113
12.3741   125
12.3841   123
12.3941   119
12.4041   105
12.4141   115
12.4241   114
12.4341   125
12.4441   119
12.4541   131
12.4641   141
12.4741   131
12.4841   132
12.4941   144
12.5041   143
12.5141   140
12.5241   120
12.5341   122
12.5441   117
12.5541   123
12.5641   129
12.5741   126
12.5841   142
12.5941   149
12.6041   142
12.6141   131
12.6241   137
12.6341   148
12.6441   142
12.6541   137
12.6641   134
12.6741   129
12.6841   125
12.6941   123
12.7041   123
12.7141   127
12.7241   128
12.7341   127
12.7441   133
12.7541   135
12.7641   133
12.7741   136
12.7841   144
12.7941   147
12.8041   144
12.8141   138
12.8241   139
12.8341   149
12.8441   156
12.8541   153
12.8641   145
12.8741   135
12.8841   132
12.8941   132
12.9041   131
12.9141   130
12.9241   131
12.9341   131
12.9441   134
12.9541   139
12.9641   140
12.9741   137
12.9841   129
12.9941   140
13.0041   139
13.0141   148
13.0241   149
13.0341   153
13.0441   162
13.0541   153
13.0641   130
13.0741   124
13.0841   138
13.0941   145
13.1041   159
13.1141   170
13.1241   173
13.1341   159
13.1441   165
13.1541   175
13.1641   168
13.1741   160
13.1841   168
13.1941   174
13.2041   172
13.2141   192
13.2241   193
13.2341   171
13.2441   181
13.2541   198
13.2641   213
13.2741   219
13.2841   215
13.2941   230
13.3041   254
13.3141   253
13.3241   230
13.3341   242
13.3441   250
13.3541   239
13.3641   243
13.3741   254
13.3841   260
13.3941   255
13.4041   246
13.4141   241
13.4241   241
13.4341   239
13.4441   233
13.4541   230
13.4641   230
13.4741   226
13.4841   219
13.4941   214
13.5041   213
13.5141   214
13.5241   213
13.5341   209
13.5441   201
13.5541   193
13.5641   189
13.5741   188
13.5841   184
13.5941   185
13.6041   191
13.6141   191
13.6241   188
13.6341   184
13.6441   192
13.6541   200
13.6641   188
13.6741   176
13.6841   183
13.6941   186
13.7041   183
13.7141   183
13.7241   186
13.7341   188
13.7441   182
13.7541   182
13.7641   186
13.7741   185
13.7841   191
13.7941   200
13.8041   189
13.8141   176
13.8241   177
13.8341   180
13.8441   182
13.8541   188
13.8641   193
13.8741   193
13.8841   193
13.8941   198
13.9041   203
13.9141   206
13.9241   209
13.9341   211
13.9441   213
13.9541   216
13.9641   221
13.9741   228
13.9841   236
13.9941   238
14.0041   236
14.0141   242
14.0241   253
14.0341   256
14.0441   251
14.0541   254
14.0641   265
14.0741   277
14.0841   288
14.0941   298
14.1041   308
14.1141   315
14.1241   317
14.1341   316
14.1441   316
14.1541   318
14.1641   323
14.1741   324
14.1841   314
14.1941   303
14.2041   291
14.2141   283
14.2241   277
14.2341   270
14.2441   260
14.2541   254
14.2641   253
14.2741   249
14.2841   243
14.2941   220
14.3041   213
14.3141   238
14.3241   269
14.3341   254
14.3441   221
14.3541   217
14.3641   218
14.3741   232
14.3841   235
14.3941   226
14.4041   228
14.4141   196
14.4241   196
14.4341   226
14.4441   223
14.4541   216
14.4641   227
14.4741   229
14.4841   222
14.4941   233
14.5041   236
14.5141   234
14.5241   235
14.5341   238
14.5441   235
14.5541   221
14.5641   230
14.5741   215
14.5841   215
14.5941   233
14.6041   236
14.6141   232
14.6241   228
14.6341   233
14.6441   246
14.6541   256
14.6641   249
14.6741   245
14.6841   248
14.6941   239
14.7041   227
14.7141   237
14.7241   243
14.7341   244
14.7441   231
14.7541   219
14.7641   231
14.7741   242
14.7841   245
14.7941   270
14.8041   258
14.8141   254
14.8241   262
14.8341   244
14.8441   257
14.8541   291
14.8641   300
14.8741   298
14.8841   283
14.8941   265
14.9041   276
14.9141   276
14.9241   268
14.9341   272
14.9441   280
14.9541   284
14.9641   276
14.9741   285
14.9841   302
14.9941   283
15.0041   264
15.0141   285
15.0241   293
15.0341   277
15.0441   285
15.0541   299
15.0641   276
15.0741   259
15.0841   256
15.0941   265
15.1041   258
15.1141   248
15.1241   258
15.1341   279
15.1441   289
15.1541   270
15.1641   257
15.1741   269
15.1841   275
15.1941   269
15.2041   253
15.2141   259
15.2241   271
15.2341   266
15.2441   262
15.2541   262
15.2641   269
15.2741   266
15.2841   266
15.2941   262
15.3041   266
15.3141   256
15.3241   257
15.3341   256
15.3441   270
15.3541   283
15.3641   283
15.3741   278
15.3841   287
15.3941   288
15.4041   288
15.4141   274
15.4241   266
15.4341   272
15.4441   262
15.4541   265
15.4641   265
15.4741   262
15.4841   265
15.4941   295
15.5041   311
15.5141   296
15.5241   287
15.5341   302
15.5441   326
15.5541   324
15.5641   317
15.5741   348
15.5841   341
15.5941   333
15.6041   333
15.6141   351
15.6241   358
15.6341   360
15.6441   386
15.6541   410
15.6641   421
15.6741   433
15.6841   431
15.6941   444
15.7041   476
15.7141   468
15.7241   481
15.7341   469
15.7441   460
15.7541   465
15.7641   479
15.7741   492
15.7841   502
15.7941   495
15.8041   509
15.8141   483
15.8241   438
15.8341   425
15.8441   419
15.8541   410
15.8641   402
15.8741   424
15.8841   404
15.8941   392
15.9041   366
15.9141   351
15.9241   346
15.9341   321
15.9441   338
15.9541   338
15.9641   336
15.9741   331
15.9841   318
15.9941   323
16.0041   328
16.0141   327
16.0241   314
16.0341   313
16.0441   324
16.0541   313
16.0641   318
16.0741   316
16.0841   332
16.0941   337
16.1041   325
16.1141   325
16.1241   325
16.1341   344
16.1441   310
16.1541   327
16.1641   341
16.1741   332
16.1841   321
16.1941   325
16.2041   329
16.2141   333
16.2241   338
16.2341   316
16.2441   328
16.2541   334
16.2641   329
16.2741   319
16.2841   322
16.2941   317
16.3041   333
16.3141   361
16.3241   357
16.3341   348
16.3441   379
16.3541   374
16.3641   329
16.3741   331
16.3841   330
16.3941   349
16.4041   342
16.4141   330
16.4241   355
16.4341   364
16.4441   349
16.4541   330
16.4641   335
16.4741   345
16.4841   354
16.4941   344
16.5041   338
16.5141   349
16.5241   379
16.5341   370
16.5441   362
16.5541   365
16.5641   360
16.5741   361
16.5841   352
16.5941   361
16.6041   379
16.6141   356
16.6241   373
16.6341   358
16.6441   372
16.6541   378
16.6641   360
16.6741   348
16.6841   370
16.6941   379
16.7041   365
16.7141   352
16.7241   362
16.7341   370
16.7441   352
16.7541   387
16.7641   393
16.7741   400
16.7841   368
16.7941   368
16.8041   382
16.8141   376
16.8241   355
16.8341   343
16.8441   388
16.8541   368
16.8641   374
16.8741   384
16.8841   387
16.8941   380
16.9041   362
16.9141   362
16.9241   351
16.9341   360
16.9441   382
16.9541   381
16.9641   391
16.9741   398
16.9841   364
16.9941   372
17.0041   383
17.0141   378
17.0241   370
17.0341   365
17.0441   360
17.0541   359
17.0641   390
17.0741   409
17.0841   380
17.0941   366
17.1041   359
17.1141   392
17.1241   400
17.1341   391
17.1441   389
17.1541   384
17.1641   389
17.1741   392
17.1841   386
17.1941   370
17.2041   380
17.2141   402
17.2241   409
17.2341   404
17.2441   394
17.2541   400
17.2641   392
17.2741   390
17.2841   384
17.2941   375
17.3041   382
17.3141   413
17.3241   380
17.3341   408
17.3441   403
17.3541   381
17.3641   409
17.3741   406
17.3841   380
17.3941   389
17.4041   375
17.4141   397
17.4241   418
17.4341   422
17.4441   413
17.4541   379
17.4641   383
17.4741   421
17.4841   405
17.4941   409
17.5041   410
17.5141   403
17.5241   414
17.5341   421
17.5441   435
17.5541   394
17.5641   402
17.5741   420
17.5841   430
17.5941   395
17.6041   404
17.6141   414
17.6241   392
17.6341   421
17.6441   409
17.6541   421
17.6641   436
17.6741   441
17.6841   431
17.6941   448
17.7041   452
17.7141   457
17.7241   446
17.7341   444
17.7441   447
17.7541   432
17.7641   433
17.7741   401
17.7841   394
17.7941   389
17.8041   426
17.8141   420
17.8241   447
17.8341   419
17.8441   405
17.8541   415
17.8641   439
17.8741   429
17.8841   412
17.8941   427
17.9041   435
17.9141   430
17.9241   424
17.9341   428
17.9441   427
17.9541   427
17.9641   419
17.9741   424
17.9841   424
17.9941   420
18.0041   420
18.0141   419
18.0241   434
18.0341   462
18.0441   443
18.0541   405
18.0641   439
18.0741   396
18.0841   404
18.0941   425
18.1041   422
18.1141   423
18.1241   440
18.1341   429
18.1441   453
18.1541   441
18.1641   421
18.1741   450
18.1841   436
18.1941   444
18.2041   434
18.2141   442
18.2241   449
18.2341   441
18.2441   446
18.2541   460
18.2641   429
18.2741   433
18.2841   439
18.2941   457
18.3041   433
18.3141   436
18.3241   409
18.3341   451
18.3441   446
18.3541   447
18.3641   450
18.3741   441
18.3841   429
18.3941   426
18.4041   444
18.4141   434
18.4241   423
18.4341   451
18.4441   430
18.4541   411
18.4641   456
18.4741   456
18.4841   439
18.4941   436
18.5041   464
18.5141   467
18.5241   466
18.5341   429
18.5441   423
18.5541   425
18.5641   449
18.5741   447
18.5841   443
18.5941   450
18.6041   466
18.6141   483
18.6241   453
18.6341   464
18.6441   473
18.6541   456
18.6641   429
18.6741   449
18.6841   462
18.6941   448
18.7041   445
18.7141   437
18.7241   431
18.7341   428
18.7441   452
18.7541   478
18.7641   485
18.7741   474
18.7841   467
18.7941   450
18.8041   465
18.8141   452
18.8241   455
18.8341   453
18.8441   470
18.8541   494
18.8641   475
18.8741   479
18.8841   472
18.8941   474
18.9041   450
18.9141   471
18.9241   455
18.9341   414
18.9441   467
18.9541   454
18.9641   451
18.9741   461
18.9841   482
18.9941   440
19.0041   473
19.0141   456
19.0241   458
19.0341   452
19.0441   465
19.0541   490
19.0641   473
19.0741   481
19.0841   452
19.0941   466
19.1041   492
19.1141   491
19.1241   504
19.1341   487
19.1441   474
19.1541   484
19.1641   459
19.1741   463
19.1841   489
19.1941   475
19.2041   483
19.2141   489
19.2241   478
19.2341   451
19.2441   470
19.2541   472
19.2641   459
19.2741   478
19.2841   480
19.2941   508
19.3041   451
19.3141   490
19.3241   491
19.3341   471
19.3441   460
19.3541   488
19.3641   462
19.3741   467
19.3841   464
19.3941   499
19.4041   485
19.4141   475
19.4241   482
19.4341   504
19.4441   477
19.4541   456
19.4641   482
19.4741   486
19.4841   491
19.4941   482
19.5041   523
19.5141   476
19.5241   465
19.5341   452
19.5441   490
19.5541   482
19.5641   463
19.5741   462
19.5841   459
19.5941   466
19.6041   490
19.6141   487
19.6241   459
19.6341   458
19.6441   511
19.6541   503
19.6641   477
19.6741   486
19.6841   512
19.6941   527
19.7041   470
19.7141   473
19.7241   471
19.7341   496
19.7441   471
19.7541   494
19.7641   461
19.7741   464
19.7841   481
19.7941   495
19.8041   483
19.8141   498
19.8241   510
19.8341   472
19.8441   453
19.8541   494
19.8641   470
19.8741   484
19.8841   500
19.8941   473
19.9041   471
19.9141   488
19.9241   488
19.9341   498
19.9441   440
19.9541   491
19.9641   516
19.9741   477
19.9841   475
19.9941   458
20.0041   438
20.0141   481
20.0241   515
20.0341   493
20.0441   468
20.0541   482
20.0641   506
20.0741   476
20.0841   475
20.0941   494
20.1041   489
20.1141   477
20.1241   474
20.1341   490
20.1441   484
20.1541   509
20.1641   519
20.1741   486
20.1841   516
20.1941   483
20.2041   521
20.2141   487
20.2241   491
20.2341   482
20.2441   493
20.2541   540
20.2641   478
20.2741   477
20.2841   485
20.2941   477
20.3041   500
20.3141   483
20.3241   493
20.3341   502
20.3441   477
20.3541   477
20.3641   495
20.3741   444
20.3841   516
20.3941   479
20.4041   466
20.4141   485
20.4241   474
20.4341   512
20.4441   503
20.4541   502
20.4641   498
20.4741   500
20.4841   504
20.4941   472
20.5041   473
20.5141   472
20.5241   466
20.5341   505
20.5441   520
20.5541   515
20.5641   518
20.5741   514
20.5841   509
20.5941   481
20.6041   474
20.6141   518
20.6241   493
20.6341   499
20.6441   512
20.6541   459
20.6641   516
20.6741   481
20.6841   477
20.6941   518
20.7041   495
20.7141   488
20.7241   505
20.7341   491
20.7441   463
20.7541   465
20.7641   472
20.7741   508
20.7841   515
20.7941   513
20.8041   498
20.8141   499
20.8241   513
20.8341   492
20.8441   550
20.8541   530
20.8641   538
20.8741   551
20.8841   559
20.8941   552
20.9041   537
20.9141   558
20.9241   580
20.9341   575
20.9441   593
20.9541   541
20.9641   567
20.9741   609
20.9841   636
20.9941   616
21.0041   637
21.0141   659
21.0241   641
21.0341   656
21.0441   655
21.0541   740
21.0641   694
21.0741   706
21.0841   678
21.0941   657
21.1041   689
21.1141   696
21.1241   721
21.1341   725
21.1441   733
21.1541   731
21.1641   696
21.1741   678
21.1841   721
21.1941   691
21.2041   674
21.2141   695
21.2241   641
21.2341   643
21.2441   596
21.2541   678
21.2641   648
21.2741   624
21.2841   574
21.2941   553
21.3041   551
21.3141   577
21.3241   540
21.3341   559
21.3441   537
21.3541   539
21.3641   523
21.3741   538
21.3841   512
21.3941   530
21.4041   530
21.4141   502
21.4241   471
21.4341   480
21.4441   518
21.4541   487
21.4641   464
21.4741   502
21.4841   466
21.4941   507
21.5041   492
21.5141   509
21.5241   475
21.5341   480
21.5441   469
21.5541   504
21.5641   505
21.5741   519
21.5841   495
21.5941   523
21.6041   506
21.6141   465
21.6241   465
21.6341   517
21.6441   491
21.6541   478
21.6641   465
21.6741   483
21.6841   461
21.6941   448
21.7041   503
21.7141   477
21.7241   476
21.7341   472
21.7441   506
21.7541   483
21.7641   479
21.7741   514
21.7841   519
21.7941   520
21.8041   458
21.8141   500
21.8241   496
21.8341   504
21.8441   443
21.8541   487
21.8641   500
21.8741   473
21.8841   477
21.8941   508
21.9041   495
21.9141   495
21.9241   482
21.9341   522
21.9441   483
21.9541   491
21.9641   492
21.9741   470
21.9841   501
21.9941   488
22.0041   503
22.0141   459
22.0241   494
22.0341   493
22.0441   493
22.0541   465
22.0641   448
22.0741   477
22.0841   442
22.0941   489
22.1041   436
22.1141   463
22.1241   470
22.1341   492
22.1441   515
22.1541   495
22.1641   473
22.1741   476
22.1841   458
22.1941   499
22.2041   487
22.2141   485
22.2241   467
22.2341   471
22.2441   476
22.2541   463
22.2641   465
22.2741   429
22.2841   475
22.2941   492
22.3041   465
22.3141   528
22.3241   502
22.3341   497
22.3441   496
22.3541   500
22.3641   462
22.3741   463
22.3841   508
22.3941   462
22.4041   432
22.4141   512
22.4241   482
22.4341   472
22.4441   483
22.4541   454
22.4641   464
22.4741   449
22.4841   496
22.4941   488
22.5041   469
22.5141   463
22.5241   471
22.5341   478
22.5441   453
22.5541   483
22.5641   507
22.5741   477
22.5841   488
22.5941   454
22.6041   510
22.6141   457
22.6241   468
22.6341   478
22.6441   491
22.6541   448
22.6641   469
22.6741   483
22.6841   515
22.6941   465
22.7041   488
22.7141   460
22.7241   441
22.7341   450
22.7441   477
22.7541   511
22.7641   500
22.7741   477
22.7841   467
22.7941   518
22.8041   492
22.8141   481
22.8241   464
22.8341   482
22.8441   467
22.8541   458
22.8641   476
22.8741   455
22.8841   462
22.8941   466
22.9041   423
22.9141   432
22.9241   497
22.9341   496
22.9441   483
22.9541   477
22.9641   497
22.9741   445
22.9841   463
22.9941   478
23.0041   477
23.0141   447
23.0241   464
23.0341   487
23.0441   474
23.0541   471
23.0641   463
23.0741   454
23.0841   450
23.0941   446
23.1041   449
23.1141   478
23.1241   464
23.1341   458
23.1441   476
23.1541   417
23.1641   438
23.1741   460
23.1841   450
23.1941   462
23.2041   474
23.2141   448
23.2241   492
23.2341   501
23.2441   482
23.2541   462
23.2641   472
23.2741   466
23.2841   431
23.2941   461
23.3041   455
23.3141   451
23.3241   463
23.3341   460
23.3441   444
23.3541   464
23.3641   439
23.3741   453
23.3841   468
23.3941   464
23.4041   463
23.4141   427
23.4241   446
23.4341   450
23.4441   417
23.4541   480
23.4641   484
23.4741   439
23.4841   489
23.4941   432
23.5041   470
23.5141   460
23.5241   434
23.5341   486
23.5441   424
23.5541   454
23.5641   456
23.5741   492
23.5841   457
23.5941   486
23.6041   445
23.6141   444
23.6241   457
23.6341   428
23.6441   472
23.6541   482
23.6641   493
23.6741   466
23.6841   486
23.6941   485
23.7041   484
23.7141   470
23.7241   444
23.7341   480
23.7441   502
23.7541   470
23.7641   467
23.7741   505
23.7841   511
23.7941   489
23.8041   518
23.8141   474
23.8241   476
23.8341   482
23.8441   459
23.8541   477
23.8641   464
23.8741   472
23.8841   460
23.8941   488
23.9041   441
23.9141   489
23.9241   467
23.9341   461
23.9441   420
23.9541   483
23.9641   442
23.9741   469
23.9841   443
23.9941   414
24.0041   401
24.0141   468
24.0241   478
24.0341   415
24.0441   454
24.0541   431
24.0641   424
24.0741   434
24.0841   428
24.0941   440
24.1041   455
24.1141   442
24.1241   441
24.1341   410
24.1441   403
24.1541   459
24.1641   435
24.1741   417
24.1841   452
24.1941   419
24.2041   426
24.2141   452
24.2241   450
24.2341   434
24.2441   428
24.2541   433
24.2641   428
24.2741   429
24.2841   433
24.2941   438
24.3041   431
24.3141   422
24.3241   435
24.3341   409
24.3441   381
24.3541   436
24.3641   429
24.3741   439
24.3841   405
24.3941   433
24.4041   427
24.4141   440
24.4241   449
24.4341   383
24.4441   429
24.4541   418
24.4641   409
24.4741   424
24.4841   417
24.4941   433
24.5041   421
24.5141   432
24.5241   376
24.5341   420
24.5441   402
24.5541   444
24.5641   435
24.5741   401
24.5841   425
24.5941   385
24.6041   436
24.6141   425
24.6241   426
24.6341   415
24.6441   434
24.6541   440
24.6641   407
24.6741   429
24.6841   425
24.6941   403
24.7041   432
24.7141   418
24.7241   400
24.7341   379
24.7441   429
24.7541   384
24.7641   408
24.7741   431
24.7841   390
24.7941   392
24.8041   440
24.8141   413
24.8241   380
24.8341   403
24.8441   399
24.8541   400
24.8641   398
24.8741   422
24.8841   364
24.8941   409
24.9041   418
24.9141   428
24.9241   423
24.9341   439
24.9441   422
24.9541   397
24.9641   372
24.9741   408
24.9841   405
24.9941   399
25.0041   400
25.0141   409
25.0241   390
25.0341   432
25.0441   409
25.0541   399
25.0641   395
25.0741   421
25.0841   402
25.0941   375
25.1041   402
25.1141   382
25.1241   400
25.1341   416
25.1441   371
25.1541   423
25.1641   421
25.1741   411
25.1841   415
25.1941   408
25.2041   415
25.2141   431
25.2241   432
25.2341   411
25.2441   413
25.2541   415
25.2641   401
25.2741   403
25.2841   403
25.2941   423
25.3041   377
25.3141   406
25.3241   453
25.3341   414
25.3441   382
25.3541   431
25.3641   407
25.3741   377
25.3841   388
25.3941   397
25.4041   400
25.4141   375
25.4241   381
25.4341   408
25.4441   357
25.4541   401
25.4641   390
25.4741   388
25.4841   371
25.4941   362
25.5041   382
25.5141   379
25.5241   376
25.5341   379
25.5441   386
25.5541   372
25.5641   361
25.5741   383
25.5841   400
25.5941   407
25.6041   395
25.6141   388
25.6241   372
25.6341   396
25.6441   364
25.6541   346
25.6641   390
25.6741   385
25.6841   362
25.6941   386
25.7041   399
25.7141   387
25.7241   339
25.7341   336
25.7441   355
25.7541   374
25.7641   357
25.7741   394
25.7841   362
25.7941   363
25.8041   362
25.8141   373
25.8241   378
25.8341   366
25.8441   360
25.8541   367
25.8641   369
25.8741   384
25.8841   355
25.8941   376
25.9041   393
25.9141   363
25.9241   386
25.9341   378
25.9441   360
25.9541   374
25.9641   388
25.9741   390
25.9841   375
25.9941   336
26.0041   374
26.0141   400
26.0241   379
26.0341   378
26.0441   393
26.0541   374
26.0641   385
26.0741   359
26.0841   368
26.0941   379
26.1041   356
26.1141   362
26.1241   383
26.1341   358
26.1441   375
26.1541   354
26.1641   379
26.1741   362
26.1841   357
26.1941   339
26.2041   357
26.2141   340
26.2241   362
26.2341   368
26.2441   377
26.2541   346
26.2641   357
26.2741   364
26.2841   342
26.2941   343
26.3041   390
26.3141   341
26.3241   318
26.3341   373
26.3441   334
26.3541   358
26.3641   371
26.3741   319
26.3841   353
26.3941   388
26.4041   359
26.4141   345
26.4241   346
26.4341   369
26.4441   348
26.4541   353
26.4641   340
26.4741   350
26.4841   311
26.4941   364
26.5041   345
26.5141   332
26.5241   319
26.5341   362
26.5441   379
26.5541   333
26.5641   339
26.5741   321
26.5841   359
26.5941   347
26.6041   322
26.6141   326
26.6241   342
26.6341   340
26.6441   334
26.6541   328
26.6641   355
26.6741   366
26.6841   330
26.6941   319
26.7041   362
26.7141   325
26.7241   350
26.7341   329
26.7441   305
26.7541   300
26.7641   339
26.7741   324
26.7841   357
26.7941   311
26.8041   319
26.8141   339
26.8241   376
26.8341   309
26.8441   324
26.8541   374
26.8641   308
26.8741   334
26.8841   334
26.8941   347
26.9041   315
26.9141   346
26.9241   305
26.9341   329
26.9441   307
26.9541   342
26.9641   326
26.9741   336
26.9841   312
26.9941   317
27.0041   295
27.0141   337
27.0241   322
27.0341   295
27.0441   329
27.0541   287
27.0641   334
27.0741   330
27.0841   325
27.0941   325
27.1041   324
27.1141   339
27.1241   380
27.1341   340
27.1441   300
27.1541   324
27.1641   292
27.1741   327
27.1841   316
27.1941   294
27.2041   301
27.2141   343
27.2241   291
27.2341   319
27.2441   315
27.2541   306
27.2641   318
27.2741   352
27.2841   313
27.2941   318
27.3041   313
27.3141   339
27.3241   314
27.3341   290
27.3441   326
27.3541   311
27.3641   309
27.3741   317
27.3841   309
27.3941   310
27.4041   298
27.4141   319
27.4241   332
27.4341   320
27.4441   309
27.4541   336
27.4641   337
27.4741   308
27.4841   306
27.4941   324
27.5041   321
27.5141   310
27.5241   322
27.5341   315
27.5441   296
27.5541   301
27.5641   312
27.5741   304
27.5841   320
27.5941   303
27.6041   328
27.6141   307
27.6241   323
27.6341   277
27.6441   294
27.6541   295
27.6641   318
27.6741   307
27.6841   271
27.6941   251
27.7041   273
27.7141   305
27.7241   311
27.7341   301
27.7441   327
27.7541   322
27.7641   308
27.7741   322
27.7841   320
27.7941   295
27.8041   285
27.8141   278
27.8241   303
27.8341   292
27.8441   283
27.8541   298
27.8641   284
27.8741   293
27.8841   299
27.8941   305
27.9041   272
27.9141   261
27.9241   290
27.9341   286
27.9441   282
27.9541   292
27.9641   290
27.9741   274
27.9841   262
27.9941   270
28.0041   289
28.0141   272
28.0241   286
28.0341   293
28.0441   280
28.0541   265
28.0641   278
28.0741   261
28.0841   283
28.0941   270
28.1041   273
28.1141   294
28.1241   263
28.1341   274
28.1441   291
28.1541   255
28.1641   266
28.1741   293
28.1841   278
28.1941   286
28.2041   284
28.2141   295
28.2241   300
28.2341   264
28.2441   273
28.2541   278
28.2641   288
28.2741   257
28.2841   258
28.2941   263
28.3041   276
28.3141   267
28.3241   265
28.3341   244
28.3441   263
28.3541   279
28.3641   260
28.3741   261
28.3841   297
28.3941   264
28.4041   267
28.4141   290
28.4241   268
28.4341   265
28.4441   281
28.4541   251
28.4641   258
28.4741   284
28.4841   283
28.4941   288
28.5041   273
28.5141   265
28.5241   306
28.5341   280
28.5441   292
28.5541   266
28.5641   247
28.5741   272
28.5841   290
28.5941   284
28.6041   268
28.6141   274
28.6241   270
28.6341   272
28.6441   273
28.6541   235
28.6641   258
28.6741   279
28.6841   289
28.6941   245
28.7041   266
28.7141   271
28.7241   263
28.7341   273
28.7441   268
28.7541   273
28.7641   272
28.7741   292
28.7841   253
28.7941   275
28.8041   286
28.8141   271
28.8241   244
28.8341   263
28.8441   259
28.8541   275
28.8641   236
28.8741   260
28.8841   257
28.8941   237
28.9041   258
28.9141   256
28.9241   281
28.9341   251
28.9441   254
28.9541   260
28.9641   231
28.9741   260
28.9841   263
28.9941   248
29.0041   263
29.0141   221
29.0241   279
29.0341   246
29.0441   259
29.0541   237
29.0641   231
29.0741   229
29.0841   245
29.0941   235
29.1041   232
29.1141   264
29.1241   261
29.1341   232
29.1441   245
29.1541   244
29.1641   254
29.1741   248
29.1841   241
29.1941   253
29.2041   228
29.2141   231
29.2241   218
29.2341   233
29.2441   236
29.2541   263
29.2641   224
29.2741   237
29.2841   243
29.2941   229
29.3041   257
29.3141   244
29.3241   239
29.3341   266
29.3441   241
29.3541   240
29.3641   231
29.3741   243
29.3841   234
29.3941   240
29.4041   263
29.4141   214
29.4241   204
29.4341   216
29.4441   252
29.4541   260
29.4641   229
29.4741   242
29.4841   243
29.4941   234
29.5041   213
29.5141   226
29.5241   238
29.5341   245
29.5441   248
29.5541   244
29.5641   217
29.5741   217
29.5841   257
29.5941   219
29.6041   218
29.6141   210
29.6241   223
29.6341   218
29.6441   207
29.6541   232
29.6641   229
29.6741   200
29.6841   237
29.6941   244
29.7041   235
29.7141   234
29.7241   221
29.7341   242
29.7441   224
29.7541   222
29.7641   238
29.7741   224
29.7841   236
29.7941   234
29.8041   231
29.8141   236
29.8241   213
29.8341   207
29.8441   210
29.8541   246
29.8641   213
29.8741   232
29.8841   227
29.8941   240
29.9041   200
29.9141   224
29.9241   198
29.9341   230
29.9441   189
29.9541   231
29.9641   217
29.9741   211
29.9841   229
29.9941   228
30.0041   248
30.0141   246
30.0241   205
30.0341   222
30.0441   210
30.0541   230
30.0641   219
30.0741   240
30.0841   214
30.0941   211
30.1041   213
30.1141   214
30.1241   210
30.1341   221
30.1441   220
30.1541   194
30.1641   206
30.1741   190
30.1841   217
30.1941   225
30.2041   237
30.2141   213
30.2241   194
30.2341   232
30.2441   197
30.2541   189
30.2641   217
30.2741   192
30.2841   195
30.2941   216
30.3041   213
30.3141   224
30.3241   223
30.3341   197
30.3441   208
30.3541   233
30.3641   221
30.3741   202
30.3841   204
30.3941   221
30.4041   189
30.4141   204
30.4241   201
30.4341   190
30.4441   207
30.4541   212
30.4641   229
30.4741   207
30.4841   202
30.4941   184
30.5041   214
30.5141   199
30.5241   180
30.5341   186
30.5441   180
30.5541   197
30.5641   189
30.5741   205
30.5841   199
30.5941   181
30.6041   228
30.6141   218
30.6241   198
30.6341   185
30.6441   191
30.6541   192
30.6641   191
30.6741   178
30.6841   194
30.6941   190
30.7041   191
30.7141   220
30.7241   201
30.7341   204
30.7441   198
30.7541   222
30.7641   204
30.7741   199
30.7841   213
30.7941   188
30.8041   165
30.8141   192
30.8241   197
30.8341   200
30.8441   177
30.8541   196
30.8641   199
30.8741   171
30.8841   199
30.8941   179
30.9041   182
30.9141   185
30.9241   219
30.9341   188
30.9441   196
30.9541   179
30.9641   196
30.9741   183
30.9841   184
30.9941   176
31.0041   180
31.0141   168
31.0241   186
31.0341   190
31.0441   193
31.0541   192
31.0641   169
31.0741   197
31.0841   185
31.0941   197
31.1041   177
31.1141   197
31.1241   161
31.1341   169
31.1441   163
31.1541   180
31.1641   191
31.1741   193
31.1841   173
31.1941   172
31.2041   187
31.2141   201
31.2241   199
31.2341   199
31.2441   183
31.2541   189
31.2641   189
31.2741   208
31.2841   174
31.2941   165
31.3041   149
31.3141   174
31.3241   174
31.3341   185
31.3441   193
31.3541   186
31.3641   180
31.3741   164
31.3841   192
31.3941   174
31.4041   203
31.4141   174
31.4241   180
31.4341   188
31.4441   181
31.4541   166
31.4641   177
31.4741   185
31.4841   173
31.4941   182
31.5041   183
31.5141   173
31.5241   167
31.5341   178
31.5441   181
31.5541   183
31.5641   178
31.5741   183
31.5841   159
31.5941   158
31.6041   155
31.6141   183
31.6241   158
31.6341   174
31.6441   195
31.6541   168
31.6641   165
31.6741   158
31.6841   163
31.6941   139
31.7041   154
31.7141   144
31.7241   175
31.7341   150
31.7441   156
31.7541   143
31.7641   135
31.7741   177
31.7841   152
31.7941   172
31.8041   162
31.8141   169
31.8241   143
31.8341   162
31.8441   178
31.8541   182
31.8641   171
31.8741   167
31.8841   162
31.8941   170
31.9041   167
31.9141   166
31.9241   152
31.9341   181
31.9441   178
31.9541   168
31.9641   186
31.9741   156
31.9841   161
31.9941   166
32.0041   152
32.0141   166
32.0241   165
32.0341   164
32.0441   148
32.0541   141
32.0641   166
32.0741   151
32.0841   165
32.0941   166
32.1041   166
32.1141   166
32.1241   160
32.1341   177
32.1441   144
32.1541   144
32.1641   169
32.1741   140
32.1841   153
32.1941   161
32.2041   158
32.2141   141
32.2241   157
32.2341   161
32.2441   154
32.2541   184
32.2641   146
32.2741   164
32.2841   159
32.2941   144
32.3041   140
32.3141   145
32.3241   148
32.3341   154
32.3441   150
32.3541   164
32.3641   159
32.3741   147
32.3841   149
32.3941   130
32.4041   159
32.4141   156
32.4241   154
32.4341   152
32.4441   153
32.4541   146
32.4641   129
32.4741   146
32.4841   130
32.4941   135
32.5041   140
32.5141   136
32.5241   140
32.5341   136
32.5441   161
32.5541   150
32.5641   141
32.5741   142
32.5841   144
32.5941   130
32.6041   142
32.6141   132
32.6241   117
32.6341   129
32.6441   139
32.6541   150
32.6641   147
32.6741   153
32.6841   162
32.6941   142
32.7041   136
32.7141   141
32.7241   153
32.7341   127
32.7441   159
32.7541   163
32.7641   148
32.7741   130
32.7841   139
32.7941   140
32.8041   124
32.8141   126
32.8241   129
32.8341   143
32.8441   145
32.8541   135
32.8641   138
32.8741   137
32.8841   141
32.8941   123
32.9041   118
32.9141   127
32.9241   129
32.9341   132
32.9441   145
32.9541   143
32.9641   136
32.9741   130
32.9841   147
32.9941   122
33.0041   122
33.0141   132
33.0241   136
33.0341   139
33.0441   130
33.0541   156
33.0641   129
33.0741   119
33.0841   125
33.0941   153
33.1041   146
33.1141   133
33.1241   137
33.1341   133
33.1441   142
33.1541   137
33.1641   114
33.1741   136
33.1841   118
33.1941   122
33.2041   141
33.2141   134
33.2241   105
33.2341   121
33.2441   129
33.2541   115
33.2641   108
33.2741   114
33.2841   129
33.2941   125
33.3041   100
33.3141   128
33.3241   132
33.3341   121
33.3441   114
33.3541   118
33.3641   116
33.3741   115
33.3841   128
33.3941   114
33.4041   115
33.4141   126
33.4241   118
33.4341   133
33.4441   113
33.4541   148
33.4641   141
33.4741   128
33.4841   114
33.4941   110
33.5041   107
33.5141   128
33.5241   118
33.5341   123
33.5441   116
33.5541   104
33.5641   139
33.5741   102
33.5841   123
33.5941   120
33.6041   120
33.6141   131
33.6241   125
33.6341   119
33.6441   117
33.6541    96
33.6641   114
33.6741   113
33.6841   128
33.6941   118
33.7041   111
33.7141   133
33.7241   125
33.7341   125
33.7441   118
33.7541   100
33.7641   112
33.7741   117
33.7841   114
33.7941    96
33.8041   100
33.8141   111
33.8241   109
33.8341   109
33.8441    98
33.8541   112
33.8641   117
33.8741   116
33.8841   107
33.8941   105
33.9041   107
33.9141    95
33.9241   120
33.9341   124
33.9441   108
33.9541   112
33.9641   124
33.9741   112
33.9841   110
33.9941   127
34.0041   120
34.0141   118
34.0241   118
34.0341   101
34.0441    99
34.0541   105
34.0641    88
34.0741   103
34.0841   110
34.0941    93
34.1041    94
34.1141    93
34.1241   125
34.1341   113
34.1441    95
34.1541    94
34.1641   121
34.1741   111
34.1841    95
34.1941    93
34.2041    95
34.2141    91
34.2241    92
34.2341   114
34.2441   100
34.2541    99
34.2641   104
34.2741    99
34.2841    97
34.2941   110
34.3041   106
34.3141   101
34.3241   110
34.3341    87
34.3441    99
34.3541   113
34.3641   118
34.3741   116
34.3841   104
34.3941   107
34.4041    93
34.4141    96
34.4241   103
34.4341   117
34.4441   101
34.4541   106
34.4641    94
34.4741   110
34.4841   103
34.4941    84
34.5041    95
34.5141   100
34.5241    89
34.5341    90
34.5441   103
34.5541    93
34.5641   113
34.5741    98
34.5841    99
34.5941   103
34.6041    91
34.6141   105
34.6241    97
34.6341    88
34.6441   101
34.6541   102
34.6641    94
34.6741    94
34.6841    97
34.6941   105
34.7041   109
34.7141   105
34.7241   100
34.7341    85
34.7441    73
34.7541   105
34.7641    91
34.7741   104
34.7841    77
34.7941    84
34.8041    93
34.8141    98
34.8241   102
34.8341    84
34.8441   108
34.8541    99
34.8641    90
34.8741    72
34.8841    89
34.8941    98
34.9041   111
34.9141   107
34.9241    70
34.9341   104
34.9441    94
34.9541   104
34.9641    94
34.9741    95
34.9841    91
34.9941    84
35.0041    82
35.0141    90
35.0241    81
35.0341    86
35.0441    97
35.0541    91
35.0641    92
35.0741    81
35.0841    93
35.0941    91
35.1041    85
35.1141    92
35.1241    89
35.1341    86
35.1441    90
35.1541    87
35.1641    96
35.1741    91
35.1841    74
35.1941    95
35.2041    74
35.2141    87
35.2241    84
35.2341    88
35.2441    94
35.2541   101
35.2641    81
35.2741    85
35.2841    78
35.2941    74
35.3041    85
35.3141    99
35.3241    77
35.3341    87
35.3441    89
35.3541    86
35.3641    90
35.3741    79
35.3841    78
35.3941    81
35.4041   100
35.4141    88
35.4241    71
35.4341    67
35.4441    77
35.4541    85
35.4641    71
35.4741    85
35.4841    95
35.4941    95
35.5041    75
35.5141    80
35.5241    83
35.5341    70
35.5441    91
35.5541    83
35.5641    88
35.5741    84
35.5841    68
35.5941    80
35.6041    93
35.6141    87
35.6241    74
35.6341    73
35.6441    80
35.6541    96
35.6641    74
35.6741    89
35.6841    69
35.6941    79
35.7041    77
35.7141    75
35.7241    81
35.7341    73
35.7441    72
35.7541    95
35.7641    69
35.7741    78
35.7841    71
35.7941    70
35.8041    67
35.8141    73
35.8241    70
35.8341    83
35.8441    75
35.8541    61
35.8641    83
35.8741    77
35.8841    78
35.8941    69
35.9041    66
35.9141    68
35.9241    60
35.9341    74
35.9441    75
35.9541    78
35.9641    79
35.9741    69
35.9841    73
35.9941    60
36.0041    73
36.0141    70
36.0241    65
36.0341    58
36.0441    66
36.0541    70
36.0641    71
36.0741    81
36.0841    82
36.0941    77
36.1041    77
36.1141    62
36.1241    70
36.1341    71
36.1441    69
36.1541    60
36.1641    71
36.1741    63
36.1841    66
36.1941    67
36.2041    70
36.2141    62
36.2241    60
36.2341    65
36.2441    60
36.2541    72
36.2641    63
36.2741    77
36.2841    64
36.2941    75
36.3041    86
36.3141    64
36.3241    71
36.3341    63
36.3441    66
36.3541    66
36.3641    65
36.3741    75
36.3841    58
36.3941    70
36.4041    73
36.4141    59
36.4241    76
36.4341    65
36.4441    63
36.4541    69
36.4641    72
36.4741    57
36.4841    57
36.4941    48
36.5041    61
36.5141    62
36.5241    65
36.5341    75
36.5441    79
36.5541    69
36.5641    64
36.5741    70
36.5841    65
36.5941    64
36.6041    60
36.6141    69
36.6241    66
36.6341    52
36.6441    70
36.6541    66
36.6641    65
36.6741    57
36.6841    63
36.6941    80
36.7041    61
36.7141    53
36.7241    60
36.7341    65
36.7441    63
36.7541    53
36.7641    56
36.7741    58
36.7841    68
36.7941    53
36.8041    58
36.8141    60
36.8241    75
36.8341    56
36.8441    55
36.8541    55
36.8641    63
36.8741    63
36.8841    64
36.8941    67
36.9041    70
36.9141    57
36.9241    52
36.9341    55
36.9441    55
36.9541    56
36.9641    57
36.9741    43
36.9841    56
36.9941    58
37.0041    46
37.0141    63
37.0241    58
37.0341    47
37.0441    58
37.0541    64
37.0641    60
37.0741    58
37.0841    51
37.0941    48
37.1041    56
37.1141    72
37.1241    52
37.1341    54
37.1441    49
37.1541    52
37.1641    62
37.1741    61
37.1841    57
37.1941    60
37.2041    63
37.2141    61
37.2241    47
37.2341    66
37.2441    59
37.2541    51
37.2641    58
37.2741    61
37.2841    61
37.2941    68
37.3041    55
37.3141    72
37.3241    40
37.3341    44
37.3441    43
37.3541    64
37.3641    63
37.3741    45
37.3841    59
37.3941    58
37.4041    44
37.4141    49
37.4241    41
37.4341    59
37.4441    57
37.4541    61
37.4641    45
37.4741    50
37.4841    42
37.4941    50
37.5041    45
37.5141    45
37.5241    50
37.5341    58
37.5441    46
37.5541    40
37.5641    51
37.5741    51
37.5841    51
37.5941    62
37.6041    52
37.6141    48
37.6241    51
37.6341    46
37.6441    53
37.6541    46
37.6641    52
37.6741    66
37.6841    56
37.6941    34
37.7041    50
37.7141    44
37.7241    56
37.7341    57
37.7441    60
37.7541    57
37.7641    41
37.7741    50
37.7841    43
37.7941    41
37.8041    47
37.8141    35
37.8241    53
37.8341    49
37.8441    52
37.8541    41
37.8641    35
37.8741    44
37.8841    37
37.8941    50
37.9041    44
37.9141    38
37.9241    32
37.9341    56
37.9441    45
37.9541    47
37.9641    41
37.9741    37
37.9841    43
37.9941    42
38.0041    42
38.0141    37
38.0241    59
38.0341    44
38.0441    41
38.0541    35
38.0641    29
38.0741    48
38.0841    34
38.0941    37
38.1041    41
38.1141    47
38.1241    52
38.1341    42
38.1441    41
38.1541    36
38.1641    37
38.1741    41
38.1841    40
38.1941    38
38.2041    42
38.2141    40
38.2241    43
38.2341    46
38.2441    34
38.2541    43
38.2641    39
38.2741    47
38.2841    51
38.2941    50
38.3041    36
38.3141    44
38.3241    46
38.3341    47
38.3441    32
38.3541    51
38.3641    33
38.3741    41
38.3841    28
38.3941    25
38.4041    37
38.4141    50
38.4241    45
38.4341    43
38.4441    42
38.4541    43
38.4641    37
38.4741    40
38.4841    38
38.4941    42
38.5041    32
38.5141    41
38.5241    41
38.5341    30
38.5441    37
38.5541    38
38.5641    32
38.5741    28
38.5841    33
38.5941    31
38.6041    28
38.6141    33
38.6241    38
38.6341    22
38.6441    32
38.6541    33
38.6641    34
38.6741    42
38.6841    38
38.6941    43
38.7041    35
38.7141    36
38.7241    36
38.7341    32
38.7441    41
38.7541    38
38.7641    34
38.7741    33
38.7841    39
38.7941    30
38.8041    45
38.8141    35
38.8241    38
38.8341    39
38.8441    36
38.8541    39
38.8641    30
38.8741    32
38.8841    33
38.8941    43
38.9041    31
38.9141    36
38.9241    49
38.9341    34
38.9441    27
38.9541    25
38.9641    44
38.9741    36
38.9841    29
38.9941    27
39.0041    35
39.0141    35
39.0241    25
39.0341    32
39.0441    25
39.0541    28
39.0641    35
39.0741    40
39.0841    35
39.0941    37
39.1041    33
39.1141    31
39.1241    37
39.1341    29
39.1441    31
39.1541    27
39.1641    26
39.1741    33
39.1841    31
39.1941    33
39.2041    40
39.2141    24
39.2241    19
39.2341    22
39.2441    19
39.2541    25
39.2641    23
39.2741    26
39.2841    29
39.2941    28
39.3041    29
39.3141    31
39.3241    45
39.3341    21
39.3441    27
39.3541    30
39.3641    25
39.3741    30
39.3841    18
39.3941    24
39.4041    26
39.4141    32
39.4241    23
39.4341    21
39.4441    25
39.4541    26
39.4641    21
39.4741    28
39.4841    28
39.4941    23
39.5041    25
39.5141    25
39.5241    28
39.5341    32
39.5441    20
39.5541    27
39.5641    32
39.5741    34
39.5841    28
39.5941    40
39.6041    21
39.6141    26
39.6241    25
39.6341    25
39.6441    24
39.6541    27
39.6641    21
39.6741    31
39.6841    16
39.6941    25
39.7041    21
39.7141    22
39.7241    30
39.7341    17
39.7441    23
39.7541    21
39.7641    21
39.7741    20
39.7841    30
39.7941    27
39.8041    24
39.8141    20
39.8241    30
39.8341    26
39.8441    23
39.8541    29
39.8641    24
39.8741    28
39.8841    32
39.8941    18
39.9041    18
39.9141    29
39.9241    23
39.9341    29
39.9441    22
39.9541    27
39.9641    28
39.9741    18
39.9841    28
