Bruker Nano GmbH Berlin, Germany
Esprit 1.9

Date: 4/1/2021 4:21:59 PM
Real time: 28713
Life time: 27113
Pulse density: 81610


Detector type: XFlash 430
Window type: Custom type
Detector thickness: 0.45
Si dead layer:0.029

Calibration, lin.: 10
Calibration, abs.: -955.9
Mn FWHM: 137.05
Fano factor: 0.121
Channels: 4096

Energy Counts
-0.9559     0
-0.9459     0
-0.9359     0
-0.9259     0
-0.9159     0
-0.9059     0
-0.8959     0
-0.8859     0
-0.8759     0
-0.8659     0
-0.8559     0
-0.8459     0
-0.8359     0
-0.8259     0
-0.8159     0
-0.8059     0
-0.7959     0
-0.7859     0
-0.7759     0
-0.7659     0
-0.7559     0
-0.7459     0
-0.7359     0
-0.7259     0
-0.7159     0
-0.7059     0
-0.6959     0
-0.6859     0
-0.6759     0
-0.6659     0
-0.6559     0
-0.6459     0
-0.6359     0
-0.6259     0
-0.6159     0
-0.6059     0
-0.5959     0
-0.5859     0
-0.5759     0
-0.5659     0
-0.5559     0
-0.5459     0
-0.5359     0
-0.5259     0
-0.5159     0
-0.5059     0
-0.4959     0
-0.4859     0
-0.4759     0
-0.4659     0
-0.4559     0
-0.4459     0
-0.4359     0
-0.4259     0
-0.4159     0
-0.4059     0
-0.3959     0
-0.3859     0
-0.3759     0
-0.3659     0
-0.3559     0
-0.3459     0
-0.3359     0
-0.3259     0
-0.3159     0
-0.3059     0
-0.2959     0
-0.2859     0
-0.2759     0
-0.2659     0
-0.2559     0
-0.2459     0
-0.2359     0
-0.2259     0
-0.2159     0
-0.2059     0
-0.1959     0
-0.1859     0
-0.1759     0
-0.1659     0
-0.1559     0
-0.1459     0
-0.1359     0
-0.1259     1
-0.1159     3
-0.1059    19
-0.0959    71
-0.0859   306
-0.0759  1058
-0.0659  3103
-0.0559  7932
-0.0459 17036
-0.0359 32405
-0.0259 51737
-0.0159 71051
-0.0059 83457
 0.0041 83595
 0.0141 71672
 0.0241 53309
 0.0341 33203
 0.0441 18021
 0.0541  8454
 0.0641  3282
 0.0741  1170
 0.0841   374
 0.0941    98
 0.1041    37
 0.1141    13
 0.1241    10
 0.1341     8
 0.1441     9
 0.1541     6
 0.1641     6
 0.1741    30
 0.1841   241
 0.1941   483
 0.2041   413
 0.2141   449
 0.2241   440
 0.2341   414
 0.2441   427
 0.2541   418
 0.2641   418
 0.2741   398
 0.2841   429
 0.2941   407
 0.3041   379
 0.3141   377
 0.3241   406
 0.3341   392
 0.3441   388
 0.3541   404
 0.3641   386
 0.3741   374
 0.3841   379
 0.3941   368
 0.4041   360
 0.4141   391
 0.4241   383
 0.4341   361
 0.4441   351
 0.4541   350
 0.4641   349
 0.4741   378
 0.4841   369
 0.4941   378
 0.5041   374
 0.5141   359
 0.5241   348
 0.5341   352
 0.5441   349
 0.5541   350
 0.5641   334
 0.5741   347
 0.5841   337
 0.5941   313
 0.6041   343
 0.6141   344
 0.6241   324
 0.6341   329
 0.6441   326
 0.6541   313
 0.6641   308
 0.6741   321
 0.6841   320
 0.6941   329
 0.7041   327
 0.7141   308
 0.7241   291
 0.7341   300
 0.7441   316
 0.7541   315
 0.7641   298
 0.7741   272
 0.7841   298
 0.7941   315
 0.8041   300
 0.8141   297
 0.8241   297
 0.8341   303
 0.8441   288
 0.8541   275
 0.8641   279
 0.8741   283
 0.8841   272
 0.8941   288
 0.9041   271
 0.9141   276
 0.9241   289
 0.9341   279
 0.9441   280
 0.9541   311
 0.9641   285
 0.9741   288
 0.9841   293
 0.9941   283
 1.0041   261
 1.0141   271
 1.0241   257
 1.0341   259
 1.0441   266
 1.0541   260
 1.0641   247
 1.0741   270
 1.0841   271
 1.0941   265
 1.1041   235
 1.1141   259
 1.1241   283
 1.1341   245
 1.1441   257
 1.1541   262
 1.1641   266
 1.1741   242
 1.1841   256
 1.1941   265
 1.2041   266
 1.2141   258
 1.2241   248
 1.2341   252
 1.2441   241
 1.2541   245
 1.2641   248
 1.2741   230
 1.2841   245
 1.2941   260
 1.3041   243
 1.3141   248
 1.3241   251
 1.3341   246
 1.3441   243
 1.3541   246
 1.3641   252
 1.3741   260
 1.3841   248
 1.3941   250
 1.4041   220
 1.4141   225
 1.4241   250
 1.4341   255
 1.4441   250
 1.4541   255
 1.4641   253
 1.4741   239
 1.4841   246
 1.4941   247
 1.5041   220
 1.5141   243
 1.5241   246
 1.5341   230
 1.5441   243
 1.5541   253
 1.5641   220
 1.5741   207
 1.5841   240
 1.5941   248
 1.6041   254
 1.6141   247
 1.6241   242
 1.6341   249
 1.6441   270
 1.6541   308
 1.6641   338
 1.6741   416
 1.6841   519
 1.6941   640
 1.7041   765
 1.7141   812
 1.7241   995
 1.7341   992
 1.7441  1048
 1.7541  1000
 1.7641   858
 1.7741   753
 1.7841   631
 1.7941   552
 1.8041   439
 1.8141   403
 1.8241   353
 1.8341   326
 1.8441   317
 1.8541   265
 1.8641   259
 1.8741   266
 1.8841   259
 1.8941   233
 1.9041   254
 1.9141   218
 1.9241   246
 1.9341   247
 1.9441   254
 1.9541   242
 1.9641   276
 1.9741   294
 1.9841   296
 1.9941   294
 2.0041   291
 2.0141   295
 2.0241   272
 2.0341   296
 2.0441   298
 2.0541   272
 2.0641   254
 2.0741   266
 2.0841   237
 2.0941   214
 2.1041   199
 2.1141   230
 2.1241   222
 2.1341   213
 2.1441   236
 2.1541   199
 2.1641   227
 2.1741   235
 2.1841   223
 2.1941   212
 2.2041   215
 2.2141   195
 2.2241   193
 2.2341   210
 2.2441   198
 2.2541   210
 2.2641   192
 2.2741   192
 2.2841   201
 2.2941   219
 2.3041   209
 2.3141   174
 2.3241   204
 2.3341   183
 2.3441   188
 2.3541   221
 2.3641   205
 2.3741   195
 2.3841   200
 2.3941   187
 2.4041   205
 2.4141   178
 2.4241   209
 2.4341   212
 2.4441   200
 2.4541   174
 2.4641   198
 2.4741   198
 2.4841   212
 2.4941   184
 2.5041   178
 2.5141   186
 2.5241   196
 2.5341   181
 2.5441   192
 2.5541   215
 2.5641   191
 2.5741   209
 2.5841   188
 2.5941   193
 2.6041   186
 2.6141   196
 2.6241   182
 2.6341   217
 2.6441   192
 2.6541   162
 2.6641   175
 2.6741   184
 2.6841   199
 2.6941   179
 2.7041   174
 2.7141   185
 2.7241   179
 2.7341   165
 2.7441   203
 2.7541   183
 2.7641   181
 2.7741   174
 2.7841   151
 2.7941   181
 2.8041   177
 2.8141   159
 2.8241   197
 2.8341   193
 2.8441   197
 2.8541   186
 2.8641   172
 2.8741   171
 2.8841   168
 2.8941   196
 2.9041   160
 2.9141   161
 2.9241   165
 2.9341   160
 2.9441   180
 2.9541   173
 2.9641   176
 2.9741   172
 2.9841   156
 2.9941   165
 3.0041   182
 3.0141   173
 3.0241   182
 3.0341   151
 3.0441   158
 3.0541   160
 3.0641   153
 3.0741   158
 3.0841   166
 3.0941   177
 3.1041   151
 3.1141   139
 3.1241   132
 3.1341   146
 3.1441   149
 3.1541   147
 3.1641   149
 3.1741   158
 3.1841   178
 3.1941   146
 3.2041   118
 3.2141   169
 3.2241   175
 3.2341   181
 3.2441   184
 3.2541   216
 3.2641   208
 3.2741   244
 3.2841   284
 3.2941   287
 3.3041   275
 3.3141   283
 3.3241   303
 3.3341   265
 3.3441   280
 3.3541   261
 3.3641   232
 3.3741   211
 3.3841   198
 3.3941   170
 3.4041   148
 3.4141   151
 3.4241   153
 3.4341   126
 3.4441   131
 3.4541   141
 3.4641   158
 3.4741   151
 3.4841   160
 3.4941   140
 3.5041   160
 3.5141   188
 3.5241   181
 3.5341   195
 3.5441   214
 3.5541   258
 3.5641   333
 3.5741   410
 3.5841   577
 3.5941   826
 3.6041  1046
 3.6141  1358
 3.6241  1798
 3.6341  2340
 3.6441  2781
 3.6541  3302
 3.6641  3805
 3.6741  4042
 3.6841  4255
 3.6941  4267
 3.7041  4175
 3.7141  3746
 3.7241  3439
 3.7341  2917
 3.7441  2367
 3.7541  1897
 3.7641  1378
 3.7741  1032
 3.7841   729
 3.7941   530
 3.8041   351
 3.8141   272
 3.8241   215
 3.8341   190
 3.8441   171
 3.8541   167
 3.8641   152
 3.8741   147
 3.8841   163
 3.8941   182
 3.9041   218
 3.9141   252
 3.9241   301
 3.9341   338
 3.9441   405
 3.9541   541
 3.9641   644
 3.9741   681
 3.9841   760
 3.9941   843
 4.0041   850
 4.0141   852
 4.0241   807
 4.0341   812
 4.0441   724
 4.0541   663
 4.0641   565
 4.0741   478
 4.0841   372
 4.0941   317
 4.1041   245
 4.1141   177
 4.1241   186
 4.1341   155
 4.1441   134
 4.1541   123
 4.1641   103
 4.1741   121
 4.1841    99
 4.1941   109
 4.2041   115
 4.2141    97
 4.2241   100
 4.2341    84
 4.2441    82
 4.2541    93
 4.2641   117
 4.2741    89
 4.2841   120
 4.2941   126
 4.3041   111
 4.3141   113
 4.3241   117
 4.3341   104
 4.3441   115
 4.3541   129
 4.3641    99
 4.3741   132
 4.3841   143
 4.3941   163
 4.4041   177
 4.4141   200
 4.4241   251
 4.4341   273
 4.4441   323
 4.4541   333
 4.4641   419
 4.4741   491
 4.4841   498
 4.4941   524
 4.5041   522
 4.5141   499
 4.5241   478
 4.5341   461
 4.5441   442
 4.5541   369
 4.5641   335
 4.5741   295
 4.5841   239
 4.5941   211
 4.6041   181
 4.6141   184
 4.6241   164
 4.6341   145
 4.6441   121
 4.6541   130
 4.6641   151
 4.6741   132
 4.6841   129
 4.6941   110
 4.7041    90
 4.7141   112
 4.7241   130
 4.7341   123
 4.7441   133
 4.7541    99
 4.7641   134
 4.7741   118
 4.7841   115
 4.7941   109
 4.8041   135
 4.8141   134
 4.8241   141
 4.8341   134
 4.8441   134
 4.8541   150
 4.8641   180
 4.8741   172
 4.8841   169
 4.8941   197
 4.9041   192
 4.9141   185
 4.9241   187
 4.9341   199
 4.9441   191
 4.9541   205
 4.9641   186
 4.9741   186
 4.9841   171
 4.9941   171
 5.0041   162
 5.0141   154
 5.0241   141
 5.0341   110
 5.0441   121
 5.0541   119
 5.0641   113
 5.0741   121
 5.0841   113
 5.0941   125
 5.1041   153
 5.1141   129
 5.1241   124
 5.1341   123
 5.1441   118
 5.1541   111
 5.1641   111
 5.1741   114
 5.1841   101
 5.1941   116
 5.2041   110
 5.2141   104
 5.2241   138
 5.2341   119
 5.2441   125
 5.2541   142
 5.2641   130
 5.2741   131
 5.2841   135
 5.2941   117
 5.3041   148
 5.3141   127
 5.3241   116
 5.3341   131
 5.3441   135
 5.3541   141
 5.3641   142
 5.3741   137
 5.3841   139
 5.3941   172
 5.4041   154
 5.4141   153
 5.4241   128
 5.4341   156
 5.4441   159
 5.4541   141
 5.4641   132
 5.4741   141
 5.4841   131
 5.4941   143
 5.5041   127
 5.5141   138
 5.5241   133
 5.5341   126
 5.5441   129
 5.5541   126
 5.5641   121
 5.5741   127
 5.5841   134
 5.5941   141
 5.6041   117
 5.6141   144
 5.6241   117
 5.6341   120
 5.6441   102
 5.6541   124
 5.6641   139
 5.6741   127
 5.6841   131
 5.6941   131
 5.7041   128
 5.7141   135
 5.7241   137
 5.7341   149
 5.7441   147
 5.7541   156
 5.7641   185
 5.7741   185
 5.7841   212
 5.7941   252
 5.8041   251
 5.8141   279
 5.8241   335
 5.8341   414
 5.8441   437
 5.8541   450
 5.8641   479
 5.8741   484
 5.8841   519
 5.8941   511
 5.9041   552
 5.9141   535
 5.9241   512
 5.9341   481
 5.9441   414
 5.9541   388
 5.9641   312
 5.9741   293
 5.9841   255
 5.9941   223
 6.0041   190
 6.0141   201
 6.0241   178
 6.0341   195
 6.0441   167
 6.0541   137
 6.0641   148
 6.0741   171
 6.0841   157
 6.0941   163
 6.1041   159
 6.1141   174
 6.1241   164
 6.1341   176
 6.1441   179
 6.1541   175
 6.1641   172
 6.1741   204
 6.1841   229
 6.1941   255
 6.2041   277
 6.2141   319
 6.2241   396
 6.2341   479
 6.2441   668
 6.2541   904
 6.2641  1250
 6.2741  1719
 6.2841  2274
 6.2941  2925
 6.3041  3794
 6.3141  4774
 6.3241  5729
 6.3341  6932
 6.3441  8173
 6.3541  9296
 6.3641 10382
 6.3741 10986
 6.3841 11873
 6.3941 12009
 6.4041 11973
 6.4141 11475
 6.4241 11017
 6.4341 10014
 6.4441  8960
 6.4541  7740
 6.4641  6676
 6.4741  5327
 6.4841  4314
 6.4941  3414
 6.5041  2743
 6.5141  2034
 6.5241  1523
 6.5341  1085
 6.5441   833
 6.5541   598
 6.5641   440
 6.5741   363
 6.5841   309
 6.5941   275
 6.6041   233
 6.6141   218
 6.6241   214
 6.6341   205
 6.6441   234
 6.6541   228
 6.6641   208
 6.6741   190
 6.6841   217
 6.6941   213
 6.7041   223
 6.7141   204
 6.7241   211
 6.7341   192
 6.7441   203
 6.7541   205
 6.7641   214
 6.7741   217
 6.7841   221
 6.7941   204
 6.8041   211
 6.8141   231
 6.8241   249
 6.8341   226
 6.8441   227
 6.8541   237
 6.8641   265
 6.8741   280
 6.8841   290
 6.8941   335
 6.9041   360
 6.9141   464
 6.9241   534
 6.9341   595
 6.9441   691
 6.9541   893
 6.9641   938
 6.9741  1096
 6.9841  1346
 6.9941  1474
 7.0041  1679
 7.0141  1806
 7.0241  1900
 7.0341  2041
 7.0441  2156
 7.0541  2191
 7.0641  2142
 7.0741  2038
 7.0841  1914
 7.0941  1753
 7.1041  1649
 7.1141  1452
 7.1241  1229
 7.1341  1114
 7.1441   985
 7.1541   790
 7.1641   668
 7.1741   577
 7.1841   474
 7.1941   467
 7.2041   359
 7.2141   345
 7.2241   327
 7.2341   293
 7.2441   293
 7.2541   271
 7.2641   316
 7.2741   275
 7.2841   285
 7.2941   286
 7.3041   325
 7.3141   319
 7.3241   311
 7.3341   361
 7.3441   395
 7.3541   367
 7.3641   371
 7.3741   396
 7.3841   395
 7.3941   392
 7.4041   347
 7.4141   391
 7.4241   389
 7.4341   381
 7.4441   347
 7.4541   352
 7.4641   359
 7.4741   348
 7.4841   315
 7.4941   339
 7.5041   321
 7.5141   306
 7.5241   278
 7.5341   289
 7.5441   306
 7.5541   288
 7.5641   280
 7.5741   284
 7.5841   301
 7.5941   266
 7.6041   296
 7.6141   284
 7.6241   280
 7.6341   308
 7.6441   292
 7.6541   278
 7.6641   324
 7.6741   315
 7.6841   284
 7.6941   299
 7.7041   327
 7.7141   346
 7.7241   320
 7.7341   334
 7.7441   317
 7.7541   338
 7.7641   350
 7.7741   365
 7.7841   376
 7.7941   359
 7.8041   419
 7.8141   418
 7.8241   398
 7.8341   398
 7.8441   403
 7.8541   425
 7.8641   418
 7.8741   466
 7.8841   466
 7.8941   525
 7.9041   511
 7.9141   527
 7.9241   556
 7.9341   544
 7.9441   563
 7.9541   599
 7.9641   662
 7.9741   708
 7.9841   804
 7.9941   815
 8.0041   895
 8.0141   973
 8.0241  1054
 8.0341  1131
 8.0441  1166
 8.0541  1214
 8.0641  1338
 8.0741  1343
 8.0841  1497
 8.0941  1584
 8.1041  1629
 8.1141  1695
 8.1241  1793
 8.1341  1795
 8.1441  1873
 8.1541  1934
 8.1641  2017
 8.1741  1970
 8.1841  2065
 8.1941  2027
 8.2041  2137
 8.2141  2100
 8.2241  2224
 8.2341  2165
 8.2441  2186
 8.2541  2180
 8.2641  2313
 8.2741  2489
 8.2841  2687
 8.2941  2804
 8.3041  2942
 8.3141  3165
 8.3241  3398
 8.3341  3547
 8.3441  3858
 8.3541  3983
 8.3641  4159
 8.3741  4230
 8.3841  4282
 8.3941  4283
 8.4041  4304
 8.4141  4035
 8.4241  3787
 8.4341  3452
 8.4441  3274
 8.4541  2979
 8.4641  2608
 8.4741  2277
 8.4841  1962
 8.4941  1635
 8.5041  1432
 8.5141  1255
 8.5241  1013
 8.5341   907
 8.5441   779
 8.5541   714
 8.5641   637
 8.5741   592
 8.5841   561
 8.5941   597
 8.6041   544
 8.6141   574
 8.6241   554
 8.6341   574
 8.6441   566
 8.6541   555
 8.6641   530
 8.6741   524
 8.6841   571
 8.6941   578
 8.7041   510
 8.7141   553
 8.7241   509
 8.7341   522
 8.7441   519
 8.7541   534
 8.7641   473
 8.7741   474
 8.7841   494
 8.7941   508
 8.8041   456
 8.8141   484
 8.8241   451
 8.8341   460
 8.8441   461
 8.8541   451
 8.8641   440
 8.8741   462
 8.8841   469
 8.8941   476
 8.9041   489
 8.9141   488
 8.9241   469
 8.9341   464
 8.9441   459
 8.9541   478
 8.9641   496
 8.9741   530
 8.9841   509
 8.9941   508
 9.0041   563
 9.0141   566
 9.0241   551
 9.0341   589
 9.0441   618
 9.0541   639
 9.0641   634
 9.0741   661
 9.0841   663
 9.0941   666
 9.1041   697
 9.1141   695
 9.1241   757
 9.1341   802
 9.1441   791
 9.1541   821
 9.1641   895
 9.1741   924
 9.1841  1014
 9.1941   993
 9.2041   994
 9.2141  1104
 9.2241  1177
 9.2341  1270
 9.2441  1297
 9.2541  1393
 9.2641  1375
 9.2741  1488
 9.2841  1546
 9.2941  1585
 9.3041  1639
 9.3141  1664
 9.3241  1717
 9.3341  1783
 9.3441  1876
 9.3541  1871
 9.3641  1962
 9.3741  1992
 9.3841  2018
 9.3941  2025
 9.4041  2051
 9.4141  2065
 9.4241  2094
 9.4341  2151
 9.4441  2178
 9.4541  2229
 9.4641  2318
 9.4741  2292
 9.4841  2359
 9.4941  2342
 9.5041  2408
 9.5141  2466
 9.5241  2570
 9.5341  2732
 9.5441  2824
 9.5541  2830
 9.5641  2912
 9.5741  3142
 9.5841  3293
 9.5941  3486
 9.6041  3607
 9.6141  3852
 9.6241  4116
 9.6341  4132
 9.6441  4189
 9.6541  4271
 9.6641  4226
 9.6741  4243
 9.6841  4261
 9.6941  4227
 9.7041  4057
 9.7141  3788
 9.7241  3471
 9.7341  3277
 9.7441  3093
 9.7541  2847
 9.7641  2696
 9.7741  2556
 9.7841  2339
 9.7941  2205
 9.8041  2048
 9.8141  1935
 9.8241  1898
 9.8341  1844
 9.8441  1777
 9.8541  1866
 9.8641  1870
 9.8741  1769
 9.8841  1883
 9.8941  1945
 9.9041  2040
 9.9141  2079
 9.9241  2130
 9.9341  2171
 9.9441  2184
 9.9541  2240
 9.9641  2116
 9.9741  2012
 9.9841  1982
 9.9941  1848
10.0041  1794
10.0141  1648
10.0241  1511
10.0341  1424
10.0441  1284
10.0541  1080
10.0641   968
10.0741   866
10.0841   799
10.0941   740
10.1041   652
10.1141   585
10.1241   554
10.1341   484
10.1441   455
10.1541   429
10.1641   428
10.1741   428
10.1841   405
10.1941   356
10.2041   341
10.2141   338
10.2241   356
10.2341   326
10.2441   314
10.2541   322
10.2641   321
10.2741   305
10.2841   282
10.2941   289
10.3041   291
10.3141   271
10.3241   280
10.3341   258
10.3441   270
10.3541   278
10.3641   260
10.3741   246
10.3841   259
10.3941   247
10.4041   252
10.4141   257
10.4241   263
10.4341   256
10.4441   281
10.4541   279
10.4641   261
10.4741   259
10.4841   288
10.4941   282
10.5041   259
10.5141   264
10.5241   286
10.5341   290
10.5441   281
10.5541   285
10.5641   301
10.5741   298
10.5841   283
10.5941   300
10.6041   325
10.6141   332
10.6241   319
10.6341   298
10.6441   299
10.6541   316
10.6641   306
10.6741   319
10.6841   331
10.6941   330
10.7041   319
10.7141   322
10.7241   339
10.7341   346
10.7441   361
10.7541   360
10.7641   362
10.7741   359
10.7841   389
10.7941   399
10.8041   401
10.8141   401
10.8241   404
10.8341   434
10.8441   438
10.8541   436
10.8641   444
10.8741   453
10.8841   469
10.8941   502
10.9041   475
10.9141   465
10.9241   471
10.9341   468
10.9441   457
10.9541   468
10.9641   441
10.9741   463
10.9841   487
10.9941   454
11.0041   445
11.0141   461
11.0241   417
11.0341   412
11.0441   429
11.0541   445
11.0641   436
11.0741   413
11.0841   402
11.0941   424
11.1041   419
11.1141   411
11.1241   401
11.1341   415
11.1441   441
11.1541   451
11.1641   468
11.1741   467
11.1841   489
11.1941   496
11.2041   559
11.2141   587
11.2241   586
11.2341   611
11.2441   604
11.2541   635
11.2641   678
11.2741   674
11.2841   669
11.2941   622
11.3041   619
11.3141   643
11.3241   607
11.3341   587
11.3441   559
11.3541   527
11.3641   496
11.3741   486
11.3841   469
11.3941   426
11.4041   411
11.4141   407
11.4241   367
11.4341   364
11.4441   351
11.4541   336
11.4641   343
11.4741   360
11.4841   319
11.4941   311
11.5041   337
11.5141   323
11.5241   307
11.5341   319
11.5441   310
11.5541   323
11.5641   345
11.5741   335
11.5841   355
11.5941   365
11.6041   342
11.6141   350
11.6241   373
11.6341   338
11.6441   340
11.6541   361
11.6641   354
11.6741   341
11.6841   351
11.6941   323
11.7041   348
11.7141   311
11.7241   291
11.7341   293
11.7441   277
11.7541   270
11.7641   264
11.7741   262
11.7841   263
11.7941   257
11.8041   264
11.8141   241
11.8241   234
11.8341   254
11.8441   263
11.8541   248
11.8641   253
11.8741   246
11.8841   234
11.8941   248
11.9041   258
11.9141   260
11.9241   248
11.9341   260
11.9441   249
11.9541   255
11.9641   261
11.9741   267
11.9841   272
11.9941   259
12.0041   267
12.0141   272
12.0241   268
12.0341   276
12.0441   258
12.0541   256
12.0641   256
12.0741   257
12.0841   252
12.0941   270
12.1041   264
12.1141   259
12.1241   257
12.1341   242
12.1441   236
12.1541   235
12.1641   245
12.1741   248
12.1841   259
12.1941   257
12.2041   229
12.2141   227
12.2241   238
12.2341   227
12.2441   248
12.2541   241
12.2641   237
12.2741   231
12.2841   227
12.2941   248
12.3041   247
12.3141   236
12.3241   240
12.3341   240
12.3441   238
12.3541   245
12.3641   252
12.3741   233
12.3841   231
12.3941   241
12.4041   230
12.4141   222
12.4241   260
12.4341   260
12.4441   227
12.4541   222
12.4641   225
12.4741   244
12.4841   238
12.4941   240
12.5041   244
12.5141   242
12.5241   247
12.5341   254
12.5441   246
12.5541   224
12.5641   232
12.5741   257
12.5841   263
12.5941   254
12.6041   264
12.6141   262
12.6241   250
12.6341   266
12.6441   273
12.6541   274
12.6641   286
12.6741   273
12.6841   261
12.6941   263
12.7041   279
12.7141   276
12.7241   263
12.7341   236
12.7441   243
12.7541   257
12.7641   257
12.7741   246
12.7841   244
12.7941   258
12.8041   279
12.8141   273
12.8241   258
12.8341   271
12.8441   266
12.8541   257
12.8641   272
12.8741   281
12.8841   263
12.8941   266
12.9041   292
12.9141   288
12.9241   281
12.9341   276
12.9441   268
12.9541   274
12.9641   276
12.9741   272
12.9841   286
12.9941   304
13.0041   298
13.0141   302
13.0241   284
13.0341   266
13.0441   276
13.0541   279
13.0641   270
13.0741   275
13.0841   297
13.0941   298
13.1041   284
13.1141   284
13.1241   279
13.1341   266
13.1441   265
13.1541   289
13.1641   304
13.1741   305
13.1841   305
13.1941   297
13.2041   285
13.2141   306
13.2241   322
13.2341   318
13.2441   335
13.2541   353
13.2641   356
13.2741   359
13.2841   361
13.2941   373
13.3041   387
13.3141   392
13.3241   400
13.3341   396
13.3441   402
13.3541   409
13.3641   413
13.3741   408
13.3841   389
13.3941   390
13.4041   403
13.4141   396
13.4241   383
13.4341   365
13.4441   376
13.4541   397
13.4641   391
13.4741   371
13.4841   358
13.4941   360
13.5041   359
13.5141   336
13.5241   348
13.5341   361
13.5441   338
13.5541   327
13.5641   335
13.5741   333
13.5841   341
13.5941   340
13.6041   310
13.6141   308
13.6241   327
13.6341   339
13.6441   337
13.6541   337
13.6641   339
13.6741   343
13.6841   329
13.6941   329
13.7041   353
13.7141   341
13.7241   339
13.7341   348
13.7441   357
13.7541   348
13.7641   344
13.7741   350
13.7841   325
13.7941   316
13.8041   312
13.8141   312
13.8241   328
13.8341   333
13.8441   343
13.8541   350
13.8641   333
13.8741   338
13.8841   345
13.8941   334
13.9041   334
13.9141   357
13.9241   366
13.9341   365
13.9441   364
13.9541   357
13.9641   376
13.9741   369
13.9841   373
13.9941   404
14.0041   440
14.0141   434
14.0241   406
14.0341   417
14.0441   421
14.0541   428
14.0641   452
14.0741   462
14.0841   472
14.0941   495
14.1041   496
14.1141   487
14.1241   471
14.1341   482
14.1441   506
14.1541   472
14.1641   460
14.1741   488
14.1841   483
14.1941   477
14.2041   483
14.2141   477
14.2241   447
14.2341   432
14.2441   446
14.2541   454
14.2641   429
14.2741   404
14.2841   413
14.2941   408
14.3041   407
14.3141   396
14.3241   391
14.3341   396
14.3441   387
14.3541   388
14.3641   391
14.3741   388
14.3841   374
14.3941   377
14.4041   388
14.4141   392
14.4241   378
14.4341   386
14.4441   393
14.4541   391
14.4641   403
14.4741   383
14.4841   373
14.4941   390
14.5041   404
14.5141   407
14.5241   398
14.5341   388
14.5441   380
14.5541   354
14.5641   386
14.5741   408
14.5841   387
14.5941   376
14.6041   393
14.6141   383
14.6241   382
14.6341   411
14.6441   413
14.6541   414
14.6641   419
14.6741   410
14.6841   373
14.6941   407
14.7041   433
14.7141   455
14.7241   449
14.7341   424
14.7441   406
14.7541   402
14.7641   424
14.7741   435
14.7841   435
14.7941   446
14.8041   461
14.8141   451
14.8241   455
14.8341   452
14.8441   451
14.8541   451
14.8641   452
14.8741   486
14.8841   497
14.8941   498
14.9041   506
14.9141   491
14.9241   484
14.9341   474
14.9441   471
14.9541   489
14.9641   493
14.9741   499
14.9841   492
14.9941   495
15.0041   471
15.0141   462
15.0241   490
15.0341   493
15.0441   486
15.0541   456
15.0641   436
15.0741   436
15.0841   425
15.0941   449
15.1041   452
15.1141   458
15.1241   465
15.1341   429
15.1441   412
15.1541   429
15.1641   459
15.1741   476
15.1841   461
15.1941   486
15.2041   464
15.2141   467
15.2241   473
15.2341   438
15.2441   431
15.2541   435
15.2641   436
15.2741   439
15.2841   430
15.2941   428
15.3041   432
15.3141   464
15.3241   446
15.3341   424
15.3441   437
15.3541   454
15.3641   469
15.3741   442
15.3841   454
15.3941   471
15.4041   451
15.4141   448
15.4241   458
15.4341   449
15.4441   464
15.4541   499
15.4641   520
15.4741   515
15.4841   512
15.4941   529
15.5041   521
15.5141   516
15.5241   524
15.5341   526
15.5441   566
15.5541   609
15.5641   630
15.5741   655
15.5841   678
15.5941   696
15.6041   745
15.6141   775
15.6241   833
15.6341   880
15.6441   911
15.6541   982
15.6641  1038
15.6741  1068
15.6841  1134
15.6941  1177
15.7041  1199
15.7141  1235
15.7241  1243
15.7341  1242
15.7441  1281
15.7541  1309
15.7641  1279
15.7741  1266
15.7841  1263
15.7941  1215
15.8041  1166
15.8141  1146
15.8241  1097
15.8341  1042
15.8441  1004
15.8541   993
15.8641   915
15.8741   858
15.8841   767
15.8941   759
15.9041   748
15.9141   708
15.9241   696
15.9341   666
15.9441   631
15.9541   605
15.9641   580
15.9741   554
15.9841   554
15.9941   550
16.0041   547
16.0141   521
16.0241   508
16.0341   510
16.0441   540
16.0541   554
16.0641   590
16.0741   541
16.0841   505
16.0941   519
16.1041   527
16.1141   531
16.1241   520
16.1341   516
16.1441   519
16.1541   530
16.1641   514
16.1741   512
16.1841   550
16.1941   551
16.2041   550
16.2141   523
16.2241   549
16.2341   552
16.2441   534
16.2541   558
16.2641   543
16.2741   552
16.2841   554
16.2941   525
16.3041   527
16.3141   550
16.3241   572
16.3341   577
16.3441   530
16.3541   521
16.3641   577
16.3741   568
16.3841   534
16.3941   525
16.4041   538
16.4141   537
16.4241   547
16.4341   557
16.4441   562
16.4541   554
16.4641   582
16.4741   563
16.4841   565
16.4941   601
16.5041   604
16.5141   622
16.5241   623
16.5341   601
16.5441   595
16.5541   577
16.5641   592
16.5741   620
16.5841   571
16.5941   584
16.6041   586
16.6141   577
16.6241   578
16.6341   571
16.6441   572
16.6541   575
16.6641   595
16.6741   597
16.6841   580
16.6941   588
16.7041   581
16.7141   596
16.7241   590
16.7341   583
16.7441   540
16.7541   569
16.7641   638
16.7741   641
16.7841   619
16.7941   611
16.8041   576
16.8141   574
16.8241   598
16.8341   613
16.8441   624
16.8541   598
16.8641   607
16.8741   617
16.8841   624
16.8941   612
16.9041   573
16.9141   581
16.9241   585
16.9341   616
16.9441   587
16.9541   631
16.9641   637
16.9741   624
16.9841   593
16.9941   588
17.0041   633
17.0141   624
17.0241   592
17.0341   603
17.0441   596
17.0541   619
17.0641   617
17.0741   598
17.0841   582
17.0941   618
17.1041   615
17.1141   612
17.1241   621
17.1341   624
17.1441   640
17.1541   636
17.1641   636
17.1741   635
17.1841   636
17.1941   619
17.2041   614
17.2141   622
17.2241   661
17.2341   652
17.2441   628
17.2541   610
17.2641   612
17.2741   637
17.2841   613
17.2941   636
17.3041   631
17.3141   640
17.3241   632
17.3341   632
17.3441   616
17.3541   653
17.3641   667
17.3741   657
17.3841   666
17.3941   659
17.4041   626
17.4141   641
17.4241   639
17.4341   666
17.4441   668
17.4541   690
17.4641   679
17.4741   658
17.4841   674
17.4941   690
17.5041   710
17.5141   693
17.5241   732
17.5341   720
17.5441   716
17.5541   754
17.5641   779
17.5741   757
17.5841   769
17.5941   807
17.6041   779
17.6141   803
17.6241   789
17.6341   809
17.6441   815
17.6541   789
17.6641   794
17.6741   790
17.6841   815
17.6941   778
17.7041   794
17.7141   790
17.7241   789
17.7341   774
17.7441   753
17.7541   755
17.7641   754
17.7741   748
17.7841   702
17.7941   720
17.8041   725
17.8141   735
17.8241   742
17.8341   683
17.8441   688
17.8541   695
17.8641   713
17.8741   713
17.8841   741
17.8941   724
17.9041   712
17.9141   703
17.9241   719
17.9341   710
17.9441   694
17.9541   716
17.9641   731
17.9741   728
17.9841   699
17.9941   716
18.0041   702
18.0141   726
18.0241   722
18.0341   697
18.0441   687
18.0541   672
18.0641   726
18.0741   706
18.0841   706
18.0941   720
18.1041   671
18.1141   703
18.1241   741
18.1341   733
18.1441   745
18.1541   727
18.1641   683
18.1741   680
18.1841   732
18.1941   703
18.2041   667
18.2141   691
18.2241   720
18.2341   708
18.2441   751
18.2541   721
18.2641   700
18.2741   702
18.2841   682
18.2941   744
18.3041   758
18.3141   734
18.3241   728
18.3341   738
18.3441   728
18.3541   730
18.3641   731
18.3741   709
18.3841   730
18.3941   718
18.4041   745
18.4141   765
18.4241   778
18.4341   760
18.4441   699
18.4541   713
18.4641   725
18.4741   719
18.4841   756
18.4941   703
18.5041   739
18.5141   732
18.5241   758
18.5341   709
18.5441   700
18.5541   694
18.5641   715
18.5741   738
18.5841   698
18.5941   714
18.6041   728
18.6141   740
18.6241   743
18.6341   756
18.6441   748
18.6541   731
18.6641   722
18.6741   712
18.6841   723
18.6941   723
18.7041   784
18.7141   751
18.7241   773
18.7341   739
18.7441   733
18.7541   740
18.7641   755
18.7741   732
18.7841   725
18.7941   760
18.8041   743
18.8141   732
18.8241   753
18.8341   782
18.8441   743
18.8541   754
18.8641   760
18.8741   729
18.8841   791
18.8941   768
18.9041   751
18.9141   757
18.9241   743
18.9341   734
18.9441   733
18.9541   724
18.9641   757
18.9741   788
18.9841   740
18.9941   733
19.0041   784
19.0141   804
19.0241   808
19.0341   775
19.0441   771
19.0541   765
19.0641   781
19.0741   801
19.0841   747
19.0941   754
19.1041   784
19.1141   761
19.1241   804
19.1341   782
19.1441   771
19.1541   767
19.1641   758
19.1741   786
19.1841   785
19.1941   724
19.2041   752
19.2141   777
19.2241   769
19.2341   794
19.2441   792
19.2541   767
19.2641   750
19.2741   790
19.2841   751
19.2941   784
19.3041   763
19.3141   793
19.3241   756
19.3341   773
19.3441   764
19.3541   771
19.3641   772
19.3741   807
19.3841   773
19.3941   782
19.4041   806
19.4141   807
19.4241   783
19.4341   828
19.4441   779
19.4541   770
19.4641   743
19.4741   757
19.4841   761
19.4941   742
19.5041   767
19.5141   817
19.5241   804
19.5341   787
19.5441   792
19.5541   769
19.5641   778
19.5741   773
19.5841   830
19.5941   813
19.6041   814
19.6141   768
19.6241   776
19.6341   811
19.6441   828
19.6541   845
19.6641   787
19.6741   800
19.6841   759
19.6941   751
19.7041   790
19.7141   786
19.7241   788
19.7341   797
19.7441   832
19.7541   830
19.7641   762
19.7741   796
19.7841   795
19.7941   778
19.8041   782
19.8141   798
19.8241   821
19.8341   850
19.8441   804
19.8541   824
19.8641   804
19.8741   780
19.8841   785
19.8941   795
19.9041   804
19.9141   785
19.9241   828
19.9341   862
19.9441   803
19.9541   859
19.9641   782
19.9741   810
19.9841   772
19.9941   833
20.0041   816
20.0141   786
20.0241   798
20.0341   822
20.0441   841
20.0541   799
20.0641   781
20.0741   805
20.0841   817
20.0941   775
20.1041   807
20.1141   786
20.1241   795
20.1341   801
20.1441   818
20.1541   848
20.1641   815
20.1741   784
20.1841   760
20.1941   777
20.2041   810
20.2141   835
20.2241   819
20.2341   823
20.2441   789
20.2541   829
20.2641   830
20.2741   824
20.2841   823
20.2941   819
20.3041   791
20.3141   811
20.3241   797
20.3341   787
20.3441   796
20.3541   782
20.3641   824
20.3741   867
20.3841   820
20.3941   823
20.4041   772
20.4141   778
20.4241   783
20.4341   791
20.4441   787
20.4541   846
20.4641   817
20.4741   853
20.4841   808
20.4941   786
20.5041   773
20.5141   789
20.5241   875
20.5341   813
20.5441   819
20.5541   843
20.5641   834
20.5741   799
20.5841   800
20.5941   802
20.6041   823
20.6141   835
20.6241   821
20.6341   857
20.6441   841
20.6541   848
20.6641   833
20.6741   812
20.6841   801
20.6941   789
20.7041   830
20.7141   815
20.7241   787
20.7341   846
20.7441   865
20.7541   845
20.7641   819
20.7741   794
20.7841   827
20.7941   832
20.8041   822
20.8141   817
20.8241   876
20.8341   888
20.8441   841
20.8541   935
20.8641   955
20.8741   908
20.8841   911
20.8941   903
20.9041   934
20.9141   952
20.9241   974
20.9341  1030
20.9441  1006
20.9541  1039
20.9641  1037
20.9741  1076
20.9841  1006
20.9941  1047
21.0041  1090
21.0141  1124
21.0241  1133
21.0341  1144
21.0441  1181
21.0541  1088
21.0641  1158
21.0741  1148
21.0841  1163
21.0941  1228
21.1041  1258
21.1141  1166
21.1241  1217
21.1341  1151
21.1441  1195
21.1541  1215
21.1641  1199
21.1741  1173
21.1841  1222
21.1941  1198
21.2041  1169
21.2141  1092
21.2241  1115
21.2341  1110
21.2441  1091
21.2541  1074
21.2641  1029
21.2741  1053
21.2841   985
21.2941  1015
21.3041   964
21.3141   935
21.3241   876
21.3341   899
21.3441   967
21.3541   901
21.3641   897
21.3741   877
21.3841   822
21.3941   817
21.4041   837
21.4141   849
21.4241   880
21.4341   821
21.4441   867
21.4541   838
21.4641   825
21.4741   815
21.4841   855
21.4941   822
21.5041   812
21.5141   831
21.5241   839
21.5341   848
21.5441   814
21.5541   778
21.5641   859
21.5741   800
21.5841   835
21.5941   784
21.6041   819
21.6141   829
21.6241   825
21.6341   816
21.6441   846
21.6541   804
21.6641   826
21.6741   829
21.6841   821
21.6941   799
21.7041   852
21.7141   832
21.7241   815
21.7341   823
21.7441   876
21.7541   772
21.7641   845
21.7741   834
21.7841   772
21.7941   840
21.8041   822
21.8141   779
21.8241   878
21.8341   823
21.8441   802
21.8541   812
21.8641   814
21.8741   825
21.8841   811
21.8941   833
21.9041   820
21.9141   827
21.9241   798
21.9341   791
21.9441   845
21.9541   829
21.9641   864
21.9741   821
21.9841   784
21.9941   791
22.0041   810
22.0141   728
22.0241   835
22.0341   800
22.0441   809
22.0541   880
22.0641   844
22.0741   830
22.0841   822
22.0941   847
22.1041   848
22.1141   805
22.1241   823
22.1341   853
22.1441   849
22.1541   838
22.1641   836
22.1741   838
22.1841   839
22.1941   815
22.2041   798
22.2141   817
22.2241   809
22.2341   806
22.2441   846
22.2541   820
22.2641   783
22.2741   769
22.2841   834
22.2941   782
22.3041   845
22.3141   881
22.3241   785
22.3341   841
22.3441   810
22.3541   808
22.3641   846
22.3741   836
22.3841   798
22.3941   855
22.4041   825
22.4141   796
22.4241   785
22.4341   826
22.4441   806
22.4541   798
22.4641   784
22.4741   796
22.4841   810
22.4941   749
22.5041   830
22.5141   808
22.5241   816
22.5341   793
22.5441   831
22.5541   796
22.5641   790
22.5741   788
22.5841   853
22.5941   781
22.6041   826
22.6141   807
22.6241   798
22.6341   832
22.6441   807
22.6541   781
22.6641   769
22.6741   796
22.6841   829
22.6941   834
22.7041   788
22.7141   811
22.7241   788
22.7341   814
22.7441   832
22.7541   766
22.7641   797
22.7741   782
22.7841   753
22.7941   813
22.8041   783
22.8141   790
22.8241   799
22.8341   806
22.8441   789
22.8541   804
22.8641   773
22.8741   760
22.8841   747
22.8941   786
22.9041   766
22.9141   798
22.9241   815
22.9341   806
22.9441   846
22.9541   780
22.9641   805
22.9741   801
22.9841   739
22.9941   789
23.0041   786
23.0141   785
23.0241   805
23.0341   801
23.0441   778
23.0541   799
23.0641   772
23.0741   786
23.0841   792
23.0941   772
23.1041   784
23.1141   805
23.1241   793
23.1341   786
23.1441   802
23.1541   791
23.1641   743
23.1741   777
23.1841   768
23.1941   773
23.2041   809
23.2141   819
23.2241   792
23.2341   804
23.2441   771
23.2541   832
23.2641   778
23.2741   830
23.2841   742
23.2941   784
23.3041   743
23.3141   757
23.3241   783
23.3341   735
23.3441   796
23.3541   848
23.3641   797
23.3741   775
23.3841   742
23.3941   792
23.4041   767
23.4141   798
23.4241   731
23.4341   745
23.4441   746
23.4541   788
23.4641   791
23.4741   812
23.4841   772
23.4941   767
23.5041   771
23.5141   772
23.5241   781
23.5341   769
23.5441   766
23.5541   779
23.5641   760
23.5741   764
23.5841   773
23.5941   805
23.6041   790
23.6141   807
23.6241   787
23.6341   825
23.6441   777
23.6541   784
23.6641   756
23.6741   840
23.6841   819
23.6941   824
23.7041   827
23.7141   809
23.7241   802
23.7341   835
23.7441   810
23.7541   815
23.7641   787
23.7741   795
23.7841   814
23.7941   825
23.8041   841
23.8141   794
23.8241   803
23.8341   814
23.8441   838
23.8541   796
23.8641   808
23.8741   827
23.8841   761
23.8941   811
23.9041   789
23.9141   781
23.9241   786
23.9341   765
23.9441   767
23.9541   757
23.9641   749
23.9741   783
23.9841   741
23.9941   741
24.0041   750
24.0141   784
24.0241   754
24.0341   764
24.0441   735
24.0541   750
24.0641   742
24.0741   717
24.0841   791
24.0941   732
24.1041   732
24.1141   781
24.1241   748
24.1341   754
24.1441   694
24.1541   714
24.1641   732
24.1741   743
24.1841   743
24.1941   725
24.2041   749
24.2141   774
24.2241   817
24.2341   786
24.2441   726
24.2541   726
24.2641   796
24.2741   737
24.2841   764
24.2941   782
24.3041   742
24.3141   709
24.3241   728
24.3341   792
24.3441   764
24.3541   735
24.3641   757
24.3741   691
24.3841   780
24.3941   772
24.4041   745
24.4141   745
24.4241   770
24.4341   739
24.4441   714
24.4541   727
24.4641   780
24.4741   685
24.4841   717
24.4941   728
24.5041   733
24.5141   735
24.5241   753
24.5341   733
24.5441   692
24.5541   706
24.5641   736
24.5741   724
24.5841   768
24.5941   703
24.6041   702
24.6141   717
24.6241   689
24.6341   730
24.6441   727
24.6541   741
24.6641   729
24.6741   717
24.6841   735
24.6941   699
24.7041   721
24.7141   683
24.7241   742
24.7341   715
24.7441   683
24.7541   678
24.7641   688
24.7741   722
24.7841   743
24.7941   720
24.8041   698
24.8141   688
24.8241   683
24.8341   737
24.8441   680
24.8541   722
24.8641   733
24.8741   712
24.8841   726
24.8941   715
24.9041   705
24.9141   650
24.9241   722
24.9341   697
24.9441   729
24.9541   753
24.9641   716
24.9741   719
24.9841   692
24.9941   729
25.0041   731
25.0141   725
25.0241   703
25.0341   746
25.0441   716
25.0541   695
25.0641   721
25.0741   727
25.0841   711
25.0941   725
25.1041   703
25.1141   732
25.1241   714
25.1341   724
25.1441   728
25.1541   679
25.1641   737
25.1741   686
25.1841   706
25.1941   733
25.2041   698
25.2141   696
25.2241   776
25.2341   726
25.2441   702
25.2541   731
25.2641   721
25.2741   700
25.2841   697
25.2941   703
25.3041   669
25.3141   671
25.3241   715
25.3341   700
25.3441   665
25.3541   692
25.3641   713
25.3741   736
25.3841   698
25.3941   672
25.4041   677
25.4141   675
25.4241   707
25.4341   662
25.4441   686
25.4541   694
25.4641   693
25.4741   668
25.4841   694
25.4941   700
25.5041   642
25.5141   646
25.5241   686
25.5341   678
25.5441   691
25.5541   705
25.5641   676
25.5741   647
25.5841   660
25.5941   694
25.6041   621
25.6141   625
25.6241   619
25.6341   661
25.6441   642
25.6541   680
25.6641   632
25.6741   677
25.6841   638
25.6941   630
25.7041   655
25.7141   655
25.7241   654
25.7341   645
25.7441   649
25.7541   636
25.7641   643
25.7741   673
25.7841   647
25.7941   657
25.8041   629
25.8141   624
25.8241   650
25.8341   589
25.8441   645
25.8541   589
25.8641   615
25.8741   638
25.8841   647
25.8941   638
25.9041   604
25.9141   629
25.9241   618
25.9341   665
25.9441   643
25.9541   636
25.9641   632
25.9741   637
25.9841   581
25.9941   612
26.0041   632
26.0141   633
26.0241   644
26.0341   621
26.0441   628
26.0541   607
26.0641   616
26.0741   640
26.0841   620
26.0941   613
26.1041   628
26.1141   608
26.1241   609
26.1341   587
26.1441   631
26.1541   603
26.1641   584
26.1741   666
26.1841   658
26.1941   616
26.2041   600
26.2141   653
26.2241   657
26.2341   626
26.2441   614
26.2541   645
26.2641   608
26.2741   625
26.2841   615
26.2941   664
26.3041   631
26.3141   607
26.3241   662
26.3341   628
26.3441   639
26.3541   643
26.3641   619
26.3741   597
26.3841   638
26.3941   617
26.4041   606
26.4141   623
26.4241   624
26.4341   628
26.4441   606
26.4541   572
26.4641   602
26.4741   627
26.4841   623
26.4941   603
26.5041   589
26.5141   591
26.5241   634
26.5341   620
26.5441   669
26.5541   607
26.5641   604
26.5741   601
26.5841   595
26.5941   638
26.6041   596
26.6141   625
26.6241   610
26.6341   574
26.6441   584
26.6541   614
26.6641   599
26.6741   572
26.6841   587
26.6941   625
26.7041   601
26.7141   570
26.7241   585
26.7341   592
26.7441   618
26.7541   595
26.7641   598
26.7741   588
26.7841   579
26.7941   584
26.8041   610
26.8141   568
26.8241   589
26.8341   536
26.8441   595
26.8541   581
26.8641   595
26.8741   593
26.8841   550
26.8941   530
26.9041   601
26.9141   619
26.9241   616
26.9341   579
26.9441   627
26.9541   596
26.9641   561
26.9741   546
26.9841   572
26.9941   588
27.0041   559
27.0141   569
27.0241   522
27.0341   561
27.0441   603
27.0541   584
27.0641   592
27.0741   573
27.0841   571
27.0941   595
27.1041   566
27.1141   581
27.1241   580
27.1341   591
27.1441   552
27.1541   535
27.1641   588
27.1741   553
27.1841   546
27.1941   548
27.2041   596
27.2141   558
27.2241   576
27.2341   536
27.2441   542
27.2541   567
27.2641   586
27.2741   567
27.2841   571
27.2941   568
27.3041   560
27.3141   535
27.3241   555
27.3341   576
27.3441   533
27.3541   548
27.3641   532
27.3741   547
27.3841   572
27.3941   555
27.4041   595
27.4141   546
27.4241   558
27.4341   536
27.4441   539
27.4541   556
27.4641   552
27.4741   590
27.4841   562
27.4941   536
27.5041   520
27.5141   548
27.5241   577
27.5341   550
27.5441   611
27.5541   542
27.5641   561
27.5741   551
27.5841   510
27.5941   558
27.6041   536
27.6141   538
27.6241   541
27.6341   533
27.6441   536
27.6541   554
27.6641   522
27.6741   497
27.6841   571
27.6941   537
27.7041   595
27.7141   539
27.7241   524
27.7341   509
27.7441   510
27.7541   515
27.7641   544
27.7741   534
27.7841   477
27.7941   542
27.8041   533
27.8141   536
27.8241   537
27.8341   518
27.8441   513
27.8541   518
27.8641   486
27.8741   504
27.8841   497
27.8941   510
27.9041   534
27.9141   521
27.9241   507
27.9341   488
27.9441   486
27.9541   485
27.9641   527
27.9741   477
27.9841   475
27.9941   497
28.0041   525
28.0141   552
28.0241   506
28.0341   498
28.0441   497
28.0541   572
28.0641   515
28.0741   498
28.0841   485
28.0941   472
28.1041   501
28.1141   512
28.1241   500
28.1341   495
28.1441   489
28.1541   505
28.1641   493
28.1741   476
28.1841   517
28.1941   500
28.2041   497
28.2141   513
28.2241   488
28.2341   514
28.2441   480
28.2541   519
28.2641   512
28.2741   467
28.2841   480
28.2941   516
28.3041   489
28.3141   513
28.3241   480
28.3341   529
28.3441   445
28.3541   480
28.3641   484
28.3741   510
28.3841   501
28.3941   512
28.4041   502
28.4141   480
28.4241   488
28.4341   496
28.4441   493
28.4541   462
28.4641   490
28.4741   484
28.4841   496
28.4941   463
28.5041   465
28.5141   501
28.5241   480
28.5341   460
28.5441   477
28.5541   482
28.5641   489
28.5741   498
28.5841   504
28.5941   514
28.6041   497
28.6141   504
28.6241   505
28.6341   438
28.6441   449
28.6541   473
28.6641   471
28.6741   452
28.6841   439
28.6941   453
28.7041   462
28.7141   480
28.7241   470
28.7341   444
28.7441   444
28.7541   460
28.7641   458
28.7741   468
28.7841   482
28.7941   444
28.8041   422
28.8141   474
28.8241   460
28.8341   432
28.8441   425
28.8541   430
28.8641   448
28.8741   465
28.8841   469
28.8941   466
28.9041   485
28.9141   456
28.9241   442
28.9341   447
28.9441   463
28.9541   451
28.9641   421
28.9741   457
28.9841   468
28.9941   498
29.0041   442
29.0141   427
29.0241   455
29.0341   454
29.0441   429
29.0541   432
29.0641   454
29.0741   478
29.0841   463
29.0941   472
29.1041   434
29.1141   447
29.1241   433
29.1341   442
29.1441   443
29.1541   417
29.1641   421
29.1741   444
29.1841   433
29.1941   444
29.2041   455
29.2141   433
29.2241   444
29.2341   409
29.2441   441
29.2541   469
29.2641   477
29.2741   427
29.2841   446
29.2941   406
29.3041   418
29.3141   400
29.3241   413
29.3341   421
29.3441   438
29.3541   439
29.3641   411
29.3741   404
29.3841   413
29.3941   427
29.4041   459
29.4141   448
29.4241   421
29.4341   433
29.4441   390
29.4541   426
29.4641   414
29.4741   426
29.4841   418
29.4941   412
29.5041   429
29.5141   436
29.5241   387
29.5341   397
29.5441   432
29.5541   414
29.5641   412
29.5741   421
29.5841   400
29.5941   408
29.6041   401
29.6141   373
29.6241   400
29.6341   409
29.6441   421
29.6541   411
29.6641   435
29.6741   411
29.6841   409
29.6941   405
29.7041   437
29.7141   402
29.7241   407
29.7341   423
29.7441   419
29.7541   391
29.7641   384
29.7741   392
29.7841   417
29.7941   375
29.8041   392
29.8141   437
29.8241   395
29.8341   395
29.8441   421
29.8541   380
29.8641   405
29.8741   392
29.8841   418
29.8941   405
29.9041   365
29.9141   399
29.9241   422
29.9341   382
29.9441   357
29.9541   380
29.9641   392
29.9741   390
29.9841   365
29.9941   373
30.0041   398
30.0141   376
30.0241   364
30.0341   401
30.0441   430
30.0541   400
30.0641   359
30.0741   381
30.0841   393
30.0941   349
30.1041   355
30.1141   381
30.1241   369
30.1341   415
30.1441   414
30.1541   405
30.1641   389
30.1741   390
30.1841   380
30.1941   374
30.2041   373
30.2141   413
30.2241   399
30.2341   366
30.2441   345
30.2541   363
30.2641   379
30.2741   367
30.2841   407
30.2941   343
30.3041   374
30.3141   340
30.3241   381
30.3341   387
30.3441   370
30.3541   376
30.3641   353
30.3741   382
30.3841   353
30.3941   373
30.4041   371
30.4141   379
30.4241   367
30.4341   385
30.4441   360
30.4541   343
30.4641   329
30.4741   362
30.4841   375
30.4941   384
30.5041   368
30.5141   348
30.5241   333
30.5341   373
30.5441   379
30.5541   337
30.5641   401
30.5741   395
30.5841   377
30.5941   389
30.6041   338
30.6141   349
30.6241   359
30.6341   345
30.6441   359
30.6541   344
30.6641   350
30.6741   378
30.6841   378
30.6941   359
30.7041   366
30.7141   337
30.7241   341
30.7341   328
30.7441   362
30.7541   343
30.7641   336
30.7741   346
30.7841   355
30.7941   359
30.8041   370
30.8141   336
30.8241   358
30.8341   342
30.8441   342
30.8541   353
30.8641   331
30.8741   356
30.8841   329
30.8941   338
30.9041   347
30.9141   356
30.9241   350
30.9341   323
30.9441   356
30.9541   339
30.9641   357
30.9741   330
30.9841   342
30.9941   352
31.0041   339
31.0141   364
31.0241   355
31.0341   345
31.0441   340
31.0541   347
31.0641   329
31.0741   329
31.0841   314
31.0941   345
31.1041   315
31.1141   313
31.1241   338
31.1341   336
31.1441   310
31.1541   319
31.1641   307
31.1741   317
31.1841   311
31.1941   323
31.2041   330
31.2141   330
31.2241   334
31.2341   289
31.2441   348
31.2541   312
31.2641   329
31.2741   333
31.2841   319
31.2941   332
31.3041   307
31.3141   305
31.3241   313
31.3341   329
31.3441   315
31.3541   318
31.3641   325
31.3741   311
31.3841   289
31.3941   293
31.4041   307
31.4141   303
31.4241   291
31.4341   310
31.4441   327
31.4541   321
31.4641   320
31.4741   296
31.4841   299
31.4941   337
31.5041   317
31.5141   292
31.5241   301
31.5341   347
31.5441   303
31.5541   300
31.5641   326
31.5741   304
31.5841   313
31.5941   328
31.6041   307
31.6141   320
31.6241   304
31.6341   287
31.6441   318
31.6541   334
31.6641   328
31.6741   297
31.6841   314
31.6941   347
31.7041   314
31.7141   292
31.7241   289
31.7341   291
31.7441   316
31.7541   321
31.7641   298
31.7741   302
31.7841   282
31.7941   340
31.8041   299
31.8141   287
31.8241   319
31.8341   317
31.8441   307
31.8541   277
31.8641   319
31.8741   327
31.8841   271
31.8941   323
31.9041   310
31.9141   283
31.9241   291
31.9341   303
31.9441   286
31.9541   329
31.9641   304
31.9741   296
31.9841   302
31.9941   297
32.0041   297
32.0141   290
32.0241   284
32.0341   304
32.0441   285
32.0541   289
32.0641   278
32.0741   281
32.0841   302
32.0941   279
32.1041   273
32.1141   273
32.1241   279
32.1341   300
32.1441   288
32.1541   302
32.1641   293
32.1741   309
32.1841   272
32.1941   264
32.2041   297
32.2141   303
32.2241   287
32.2341   276
32.2441   270
32.2541   304
32.2641   273
32.2741   268
32.2841   266
32.2941   268
32.3041   276
32.3141   289
32.3241   297
32.3341   286
32.3441   287
32.3541   293
32.3641   275
32.3741   273
32.3841   277
32.3941   266
32.4041   246
32.4141   245
32.4241   296
32.4341   247
32.4441   251
32.4541   270
32.4641   290
32.4741   267
32.4841   257
32.4941   283
32.5041   295
32.5141   264
32.5241   258
32.5341   253
32.5441   270
32.5541   239
32.5641   278
32.5741   251
32.5841   275
32.5941   245
32.6041   275
32.6141   278
32.6241   258
32.6341   264
32.6441   259
32.6541   256
32.6641   264
32.6741   277
32.6841   258
32.6941   238
32.7041   269
32.7141   249
32.7241   250
32.7341   243
32.7441   285
32.7541   256
32.7641   265
32.7741   267
32.7841   262
32.7941   241
32.8041   252
32.8141   246
32.8241   271
32.8341   249
32.8441   224
32.8541   235
32.8641   252
32.8741   266
32.8841   258
32.8941   246
32.9041   247
32.9141   268
32.9241   254
32.9341   224
32.9441   231
32.9541   253
32.9641   244
32.9741   231
32.9841   244
32.9941   240
33.0041   278
33.0141   246
33.0241   248
33.0341   225
33.0441   207
33.0541   228
33.0641   252
33.0741   235
33.0841   249
33.0941   239
33.1041   219
33.1141   225
33.1241   226
33.1341   230
33.1441   259
33.1541   247
33.1641   225
33.1741   226
33.1841   264
33.1941   226
33.2041   235
33.2141   239
33.2241   225
33.2341   235
33.2441   241
33.2541   226
33.2641   219
33.2741   246
33.2841   212
33.2941   231
33.3041   239
33.3141   218
33.3241   222
33.3341   224
33.3441   229
33.3541   256
33.3641   220
33.3741   202
33.3841   237
33.3941   220
33.4041   221
33.4141   247
33.4241   201
33.4341   234
33.4441   216
33.4541   199
33.4641   209
33.4741   219
33.4841   219
33.4941   235
33.5041   205
33.5141   217
33.5241   221
33.5341   206
33.5441   228
33.5541   211
33.5641   215
33.5741   216
33.5841   231
33.5941   220
33.6041   207
33.6141   239
33.6241   183
33.6341   225
33.6441   221
33.6541   202
33.6641   207
33.6741   208
33.6841   201
33.6941   219
33.7041   209
33.7141   194
33.7241   226
33.7341   207
33.7441   216
33.7541   192
33.7641   210
33.7741   199
33.7841   232
33.7941   193
33.8041   223
33.8141   209
33.8241   217
33.8341   222
33.8441   200
33.8541   200
33.8641   208
33.8741   231
33.8841   231
33.8941   222
33.9041   194
33.9141   210
33.9241   219
33.9341   196
33.9441   198
33.9541   210
33.9641   176
33.9741   222
33.9841   199
33.9941   201
34.0041   206
34.0141   188
34.0241   194
34.0341   209
34.0441   189
34.0541   222
34.0641   195
34.0741   207
34.0841   193
34.0941   205
34.1041   174
34.1141   177
34.1241   187
34.1341   200
34.1441   195
34.1541   202
34.1641   212
34.1741   201
34.1841   196
34.1941   198
34.2041   176
34.2141   188
34.2241   187
34.2341   194
34.2441   197
34.2541   186
34.2641   199
34.2741   178
34.2841   204
34.2941   192
34.3041   201
34.3141   205
34.3241   186
34.3341   189
34.3441   184
34.3541   187
34.3641   190
34.3741   163
34.3841   229
34.3941   197
34.4041   212
34.4141   176
34.4241   163
34.4341   204
34.4441   205
34.4541   164
34.4641   184
34.4741   185
34.4841   217
34.4941   170
34.5041   159
34.5141   174
34.5241   200
34.5341   180
34.5441   178
34.5541   180
34.5641   193
34.5741   175
34.5841   200
34.5941   196
34.6041   181
34.6141   176
34.6241   176
34.6341   158
34.6441   168
34.6541   189
34.6641   165
34.6741   180
34.6841   157
34.6941   178
34.7041   193
34.7141   172
34.7241   184
34.7341   179
34.7441   165
34.7541   188
34.7641   173
34.7741   185
34.7841   170
34.7941   162
34.8041   176
34.8141   179
34.8241   158
34.8341   166
34.8441   184
34.8541   168
34.8641   170
34.8741   154
34.8841   177
34.8941   176
34.9041   175
34.9141   176
34.9241   172
34.9341   149
34.9441   176
34.9541   178
34.9641   132
34.9741   165
34.9841   176
34.9941   179
35.0041   153
35.0141   170
35.0241   157
35.0341   166
35.0441   176
35.0541   149
35.0641   165
35.0741   172
35.0841   154
35.0941   186
35.1041   170
35.1141   168
35.1241   166
35.1341   151
35.1441   180
35.1541   150
35.1641   163
35.1741   148
35.1841   152
35.1941   154
35.2041   155
35.2141   145
35.2241   160
35.2341   146
35.2441   163
35.2541   163
35.2641   169
35.2741   146
35.2841   166
35.2941   147
35.3041   149
35.3141   160
35.3241   170
35.3341   147
35.3441   154
35.3541   156
35.3641   163
35.3741   145
35.3841   137
35.3941   155
35.4041   160
35.4141   144
35.4241   147
35.4341   161
35.4441   150
35.4541   153
35.4641   133
35.4741   162
35.4841   159
35.4941   161
35.5041   150
35.5141   128
35.5241   129
35.5341   144
35.5441   139
35.5541   132
35.5641   145
35.5741   158
35.5841   149
35.5941   137
35.6041   120
35.6141   125
35.6241   137
35.6341   131
35.6441   140
35.6541   126
35.6641   142
35.6741   143
35.6841   141
35.6941   130
35.7041   138
35.7141   152
35.7241   142
35.7341   149
35.7441   139
35.7541   147
35.7641   137
35.7741   141
35.7841   134
35.7941   131
35.8041   150
35.8141   132
35.8241   147
35.8341   131
35.8441   145
35.8541   104
35.8641   143
35.8741   133
35.8841   159
35.8941   153
35.9041   161
35.9141   149
35.9241   130
35.9341   138
35.9441   144
35.9541   126
35.9641   143
35.9741   132
35.9841   133
35.9941   126
36.0041    98
36.0141   152
36.0241   131
36.0341   136
36.0441   147
36.0541   143
36.0641   127
36.0741   118
36.0841   119
36.0941   136
36.1041   113
36.1141   126
36.1241   112
36.1341   125
36.1441   117
36.1541   121
36.1641   130
36.1741   128
36.1841   121
36.1941   130
36.2041   143
36.2141   131
36.2241   122
36.2341   137
36.2441   119
36.2541   127
36.2641   159
36.2741   135
36.2841   134
36.2941   128
36.3041   114
36.3141   137
36.3241   119
36.3341   135
36.3441   115
36.3541   142
36.3641   137
36.3741   125
36.3841   116
36.3941   120
36.4041   112
36.4141   114
36.4241   112
36.4341   136
36.4441   139
36.4541   127
36.4641   136
36.4741   126
36.4841   124
36.4941   125
36.5041   119
36.5141   127
36.5241   117
36.5341   135
36.5441   120
36.5541   107
36.5641   121
36.5741   108
36.5841    96
36.5941   118
36.6041   132
36.6141   115
36.6241   121
36.6341   120
36.6441   105
36.6541   112
36.6641   121
36.6741   150
36.6841   120
36.6941   115
36.7041   113
36.7141   138
36.7241   125
36.7341   109
36.7441    97
36.7541    99
36.7641    96
36.7741   104
36.7841   115
36.7941   114
36.8041   111
36.8141   111
36.8241   103
36.8341   109
36.8441   100
36.8541   110
36.8641   106
36.8741   102
36.8841   109
36.8941   115
36.9041   110
36.9141   107
36.9241   106
36.9341   108
36.9441    91
36.9541   101
36.9641   104
36.9741   101
36.9841   110
36.9941    87
37.0041   106
37.0141   106
37.0241   100
37.0341   125
37.0441   104
37.0541    91
37.0641    93
37.0741   130
37.0841   115
37.0941   127
37.1041   102
37.1141    95
37.1241   112
37.1341   100
37.1441   107
37.1541    93
37.1641   106
37.1741   105
37.1841   107
37.1941    99
37.2041   106
37.2141    97
37.2241   107
37.2341   110
37.2441    87
37.2541   100
37.2641   103
37.2741    95
37.2841   114
37.2941   107
37.3041    90
37.3141   107
37.3241   117
37.3341    95
37.3441   101
37.3541    96
37.3641    98
37.3741    82
37.3841    83
37.3941   103
37.4041    91
37.4141   112
37.4241   114
37.4341    97
37.4441    89
37.4541    85
37.4641    97
37.4741    96
37.4841    96
37.4941    92
37.5041   109
37.5141    91
37.5241    85
37.5341    90
37.5441    93
37.5541    84
37.5641    94
37.5741    92
37.5841    70
37.5941    92
37.6041    73
37.6141    73
37.6241    83
37.6341    90
37.6441    93
37.6541    85
37.6641    93
37.6741    90
37.6841    85
37.6941    79
37.7041    84
37.7141    93
37.7241   104
37.7341    94
37.7441    82
37.7541    78
37.7641    79
37.7741   101
37.7841    87
37.7941    83
37.8041    85
37.8141    88
37.8241   113
37.8341    86
37.8441    82
37.8541    86
37.8641    77
37.8741    86
37.8841    69
37.8941    80
37.9041    82
37.9141    93
37.9241    84
37.9341    79
37.9441    87
37.9541    83
37.9641    94
37.9741    77
37.9841    85
37.9941    96
38.0041    80
38.0141    79
38.0241   100
38.0341    73
38.0441    77
38.0541    74
38.0641    79
38.0741    76
38.0841    77
38.0941    75
38.1041    80
38.1141    82
38.1241    73
38.1341    76
38.1441    67
38.1541    66
38.1641    73
38.1741    90
38.1841    84
38.1941    67
38.2041    62
38.2141    72
38.2241    70
38.2341    84
38.2441    69
38.2541    65
38.2641    76
38.2741    67
38.2841    80
38.2941    87
38.3041    71
38.3141    57
38.3241    87
38.3341    84
38.3441    84
38.3541    64
38.3641    70
38.3741    79
38.3841    56
38.3941    61
38.4041    77
38.4141    65
38.4241    80
38.4341    72
38.4441    62
38.4541    75
38.4641    73
38.4741    82
38.4841    73
38.4941    63
38.5041    92
38.5141    88
38.5241    75
38.5341    74
38.5441    68
38.5541    76
38.5641    91
38.5741    73
38.5841    71
38.5941    70
38.6041    72
38.6141    63
38.6241    60
38.6341    64
38.6441    60
38.6541    59
38.6641    75
38.6741    69
38.6841    63
38.6941    76
38.7041    68
38.7141    83
38.7241    63
38.7341    60
38.7441    67
38.7541    66
38.7641    51
38.7741    52
38.7841    81
38.7941    63
38.8041    64
38.8141    54
38.8241    63
38.8341    61
38.8441    77
38.8541    70
38.8641    49
38.8741    73
38.8841    53
38.8941    68
38.9041    79
38.9141    59
38.9241    70
38.9341    50
38.9441    73
38.9541    71
38.9641    57
38.9741    65
38.9841    56
38.9941    57
39.0041    64
39.0141    58
39.0241    78
39.0341    51
39.0441    70
39.0541    54
39.0641    69
39.0741    65
39.0841    50
39.0941    49
39.1041    63
39.1141    51
39.1241    62
39.1341    72
39.1441    63
39.1541    52
39.1641    66
39.1741    56
39.1841    52
39.1941    55
39.2041    49
39.2141    61
39.2241    63
39.2341    69
39.2441    63
39.2541    53
39.2641    59
39.2741    55
39.2841    59
39.2941    62
39.3041    54
39.3141    55
39.3241    56
39.3341    63
39.3441    62
39.3541    58
39.3641    64
39.3741    61
39.3841    53
39.3941    63
39.4041    59
39.4141    53
39.4241    59
39.4341    59
39.4441    55
39.4541    47
39.4641    52
39.4741    43
39.4841    39
39.4941    52
39.5041    47
39.5141    47
39.5241    39
39.5341    46
39.5441    45
39.5541    54
39.5641    47
39.5741    41
39.5841    50
39.5941    41
39.6041    55
39.6141    47
39.6241    49
39.6341    50
39.6441    49
39.6541    39
39.6641    54
39.6741    43
39.6841    55
39.6941    43
39.7041    57
39.7141    50
39.7241    54
39.7341    58
39.7441    48
39.7541    44
39.7641    53
39.7741    55
39.7841    41
39.7941    42
39.8041    46
39.8141    60
39.8241    50
39.8341    41
39.8441    38
39.8541    54
39.8641    44
39.8741    55
39.8841    44
39.8941    44
39.9041    36
39.9141    51
39.9241    38
39.9341    49
39.9441    34
39.9541    46
39.9641    47
39.9741    60
39.9841    41
39.9941    42
