Bruker Nano GmbH Berlin, Germany
Esprit 1.9

Date: 4/1/2021 4:20:48 PM
Real time: 30836
Life time: 29039
Pulse density: 83637


Detector type: XFlash 430
Window type: Custom type
Detector thickness: 0.45
Si dead layer:0.029

Calibration, lin.: 10
Calibration, abs.: -955.9
Mn FWHM: 137.05
Fano factor: 0.121
Channels: 4096

Energy Counts
-0.9559     0
-0.9459     0
-0.9359     0
-0.9259     0
-0.9159     0
-0.9059     0
-0.8959     0
-0.8859     0
-0.8759     0
-0.8659     0
-0.8559     0
-0.8459     0
-0.8359     0
-0.8259     0
-0.8159     0
-0.8059     0
-0.7959     0
-0.7859     0
-0.7759     0
-0.7659     0
-0.7559     0
-0.7459     0
-0.7359     0
-0.7259     0
-0.7159     0
-0.7059     0
-0.6959     0
-0.6859     0
-0.6759     0
-0.6659     0
-0.6559     0
-0.6459     0
-0.6359     0
-0.6259     0
-0.6159     0
-0.6059     0
-0.5959     0
-0.5859     0
-0.5759     0
-0.5659     0
-0.5559     0
-0.5459     0
-0.5359     0
-0.5259     0
-0.5159     0
-0.5059     0
-0.4959     0
-0.4859     0
-0.4759     0
-0.4659     0
-0.4559     0
-0.4459     0
-0.4359     0
-0.4259     0
-0.4159     0
-0.4059     0
-0.3959     0
-0.3859     0
-0.3759     0
-0.3659     0
-0.3559     0
-0.3459     0
-0.3359     0
-0.3259     0
-0.3159     0
-0.3059     0
-0.2959     0
-0.2859     0
-0.2759     0
-0.2659     0
-0.2559     0
-0.2459     0
-0.2359     0
-0.2259     0
-0.2159     0
-0.2059     0
-0.1959     0
-0.1859     0
-0.1759     0
-0.1659     0
-0.1559     0
-0.1459     0
-0.1359     1
-0.1259     3
-0.1159     7
-0.1059    19
-0.0959    86
-0.0859   312
-0.0759  1175
-0.0659  3195
-0.0559  8563
-0.0459 18622
-0.0359 34630
-0.0259 55386
-0.0159 76149
-0.0059 88969
 0.0041 89594
 0.0141 77105
 0.0241 56614
 0.0341 35764
 0.0441 19433
 0.0541  8896
 0.0641  3515
 0.0741  1287
 0.0841   392
 0.0941    98
 0.1041    27
 0.1141    14
 0.1241    16
 0.1341    13
 0.1441    10
 0.1541    12
 0.1641     4
 0.1741    37
 0.1841   279
 0.1941   528
 0.2041   504
 0.2141   467
 0.2241   481
 0.2341   509
 0.2441   461
 0.2541   473
 0.2641   471
 0.2741   476
 0.2841   450
 0.2941   482
 0.3041   479
 0.3141   462
 0.3241   460
 0.3341   482
 0.3441   478
 0.3541   452
 0.3641   479
 0.3741   440
 0.3841   440
 0.3941   457
 0.4041   443
 0.4141   424
 0.4241   429
 0.4341   422
 0.4441   411
 0.4541   420
 0.4641   432
 0.4741   400
 0.4841   404
 0.4941   412
 0.5041   425
 0.5141   394
 0.5241   403
 0.5341   426
 0.5441   419
 0.5541   412
 0.5641   403
 0.5741   392
 0.5841   392
 0.5941   392
 0.6041   386
 0.6141   373
 0.6241   364
 0.6341   369
 0.6441   366
 0.6541   365
 0.6641   382
 0.6741   387
 0.6841   386
 0.6941   375
 0.7041   353
 0.7141   360
 0.7241   366
 0.7341   346
 0.7441   369
 0.7541   374
 0.7641   359
 0.7741   355
 0.7841   354
 0.7941   340
 0.8041   315
 0.8141   353
 0.8241   359
 0.8341   342
 0.8441   350
 0.8541   370
 0.8641   367
 0.8741   348
 0.8841   329
 0.8941   337
 0.9041   336
 0.9141   347
 0.9241   327
 0.9341   334
 0.9441   344
 0.9541   344
 0.9641   353
 0.9741   306
 0.9841   312
 0.9941   316
 1.0041   333
 1.0141   366
 1.0241   342
 1.0341   333
 1.0441   327
 1.0541   322
 1.0641   298
 1.0741   299
 1.0841   320
 1.0941   301
 1.1041   309
 1.1141   305
 1.1241   296
 1.1341   313
 1.1441   298
 1.1541   296
 1.1641   306
 1.1741   315
 1.1841   313
 1.1941   321
 1.2041   266
 1.2141   293
 1.2241   320
 1.2341   307
 1.2441   284
 1.2541   297
 1.2641   304
 1.2741   322
 1.2841   300
 1.2941   299
 1.3041   295
 1.3141   278
 1.3241   310
 1.3341   323
 1.3441   270
 1.3541   282
 1.3641   293
 1.3741   289
 1.3841   274
 1.3941   260
 1.4041   276
 1.4141   267
 1.4241   265
 1.4341   293
 1.4441   302
 1.4541   271
 1.4641   258
 1.4741   302
 1.4841   294
 1.4941   317
 1.5041   285
 1.5141   286
 1.5241   283
 1.5341   283
 1.5441   273
 1.5541   282
 1.5641   257
 1.5741   287
 1.5841   273
 1.5941   247
 1.6041   282
 1.6141   247
 1.6241   290
 1.6341   298
 1.6441   317
 1.6541   339
 1.6641   405
 1.6741   465
 1.6841   572
 1.6941   732
 1.7041   870
 1.7141   964
 1.7241  1057
 1.7341  1136
 1.7441  1140
 1.7541  1050
 1.7641   988
 1.7741   866
 1.7841   680
 1.7941   615
 1.8041   510
 1.8141   435
 1.8241   393
 1.8341   373
 1.8441   315
 1.8541   301
 1.8641   306
 1.8741   305
 1.8841   296
 1.8941   293
 1.9041   272
 1.9141   280
 1.9241   299
 1.9341   303
 1.9441   305
 1.9541   306
 1.9641   322
 1.9741   327
 1.9841   332
 1.9941   332
 2.0041   340
 2.0141   326
 2.0241   350
 2.0341   340
 2.0441   360
 2.0541   332
 2.0641   289
 2.0741   276
 2.0841   281
 2.0941   267
 2.1041   233
 2.1141   262
 2.1241   255
 2.1341   258
 2.1441   261
 2.1541   245
 2.1641   247
 2.1741   245
 2.1841   231
 2.1941   237
 2.2041   222
 2.2141   259
 2.2241   230
 2.2341   235
 2.2441   261
 2.2541   247
 2.2641   196
 2.2741   242
 2.2841   223
 2.2941   222
 2.3041   242
 2.3141   249
 2.3241   248
 2.3341   209
 2.3441   234
 2.3541   238
 2.3641   221
 2.3741   239
 2.3841   241
 2.3941   211
 2.4041   216
 2.4141   221
 2.4241   233
 2.4341   222
 2.4441   224
 2.4541   229
 2.4641   233
 2.4741   228
 2.4841   219
 2.4941   219
 2.5041   227
 2.5141   224
 2.5241   203
 2.5341   216
 2.5441   210
 2.5541   227
 2.5641   204
 2.5741   224
 2.5841   196
 2.5941   201
 2.6041   210
 2.6141   213
 2.6241   196
 2.6341   222
 2.6441   214
 2.6541   208
 2.6641   221
 2.6741   202
 2.6841   173
 2.6941   190
 2.7041   193
 2.7141   210
 2.7241   182
 2.7341   183
 2.7441   189
 2.7541   207
 2.7641   187
 2.7741   185
 2.7841   188
 2.7941   178
 2.8041   217
 2.8141   233
 2.8241   222
 2.8341   215
 2.8441   216
 2.8541   204
 2.8641   233
 2.8741   215
 2.8841   201
 2.8941   185
 2.9041   209
 2.9141   151
 2.9241   162
 2.9341   188
 2.9441   178
 2.9541   180
 2.9641   215
 2.9741   193
 2.9841   212
 2.9941   165
 3.0041   198
 3.0141   172
 3.0241   196
 3.0341   180
 3.0441   181
 3.0541   158
 3.0641   176
 3.0741   164
 3.0841   181
 3.0941   180
 3.1041   161
 3.1141   174
 3.1241   183
 3.1341   203
 3.1441   192
 3.1541   182
 3.1641   199
 3.1741   191
 3.1841   171
 3.1941   169
 3.2041   163
 3.2141   173
 3.2241   188
 3.2341   178
 3.2441   180
 3.2541   193
 3.2641   187
 3.2741   223
 3.2841   227
 3.2941   205
 3.3041   229
 3.3141   229
 3.3241   230
 3.3341   207
 3.3441   250
 3.3541   217
 3.3641   205
 3.3741   188
 3.3841   161
 3.3941   179
 3.4041   150
 3.4141   175
 3.4241   170
 3.4341   148
 3.4441   151
 3.4541   152
 3.4641   137
 3.4741   171
 3.4841   151
 3.4941   157
 3.5041   154
 3.5141   167
 3.5241   174
 3.5341   157
 3.5441   180
 3.5541   218
 3.5641   214
 3.5741   255
 3.5841   322
 3.5941   391
 3.6041   496
 3.6141   616
 3.6241   802
 3.6341   952
 3.6441  1127
 3.6541  1335
 3.6641  1357
 3.6741  1582
 3.6841  1622
 3.6941  1705
 3.7041  1608
 3.7141  1532
 3.7241  1292
 3.7341  1134
 3.7441   943
 3.7541   721
 3.7641   584
 3.7741   450
 3.7841   344
 3.7941   264
 3.8041   234
 3.8141   186
 3.8241   169
 3.8341   147
 3.8441   143
 3.8541   157
 3.8641   130
 3.8741   123
 3.8841   146
 3.8941   153
 3.9041   151
 3.9141   176
 3.9241   183
 3.9341   195
 3.9441   228
 3.9541   229
 3.9641   265
 3.9741   294
 3.9841   308
 3.9941   308
 4.0041   324
 4.0141   316
 4.0241   305
 4.0341   303
 4.0441   280
 4.0541   269
 4.0641   273
 4.0741   222
 4.0841   197
 4.0941   154
 4.1041   148
 4.1141   135
 4.1241   132
 4.1341   131
 4.1441   108
 4.1541   116
 4.1641   126
 4.1741   107
 4.1841   129
 4.1941   130
 4.2041   127
 4.2141   113
 4.2241   119
 4.2341   124
 4.2441   127
 4.2541   106
 4.2641   105
 4.2741   117
 4.2841   101
 4.2941    99
 4.3041   105
 4.3141   112
 4.3241   117
 4.3341   129
 4.3441   112
 4.3541   111
 4.3641   121
 4.3741   120
 4.3841   120
 4.3941   130
 4.4041   152
 4.4141   158
 4.4241   163
 4.4341   202
 4.4441   224
 4.4541   214
 4.4641   257
 4.4741   304
 4.4841   291
 4.4941   291
 4.5041   290
 4.5141   318
 4.5241   282
 4.5341   259
 4.5441   283
 4.5541   220
 4.5641   220
 4.5741   187
 4.5841   181
 4.5941   174
 4.6041   151
 4.6141   148
 4.6241   154
 4.6341   135
 4.6441   117
 4.6541   112
 4.6641   127
 4.6741   132
 4.6841   137
 4.6941   122
 4.7041   134
 4.7141   105
 4.7241   114
 4.7341   108
 4.7441   136
 4.7541   129
 4.7641   120
 4.7741   105
 4.7841   124
 4.7941   137
 4.8041   135
 4.8141   142
 4.8241   109
 4.8341   124
 4.8441   138
 4.8541   139
 4.8641   121
 4.8741   130
 4.8841   148
 4.8941   147
 4.9041   127
 4.9141   128
 4.9241   157
 4.9341   152
 4.9441   167
 4.9541   171
 4.9641   177
 4.9741   171
 4.9841   157
 4.9941   149
 5.0041   131
 5.0141   139
 5.0241   152
 5.0341   158
 5.0441   160
 5.0541   125
 5.0641   129
 5.0741   149
 5.0841   144
 5.0941   138
 5.1041   112
 5.1141   133
 5.1241   128
 5.1341   132
 5.1441   140
 5.1541   136
 5.1641   118
 5.1741   135
 5.1841   127
 5.1941   147
 5.2041   123
 5.2141   142
 5.2241   144
 5.2341   141
 5.2441   126
 5.2541   144
 5.2641   131
 5.2741   133
 5.2841   131
 5.2941   118
 5.3041   115
 5.3141   120
 5.3241   140
 5.3341   151
 5.3441   164
 5.3541   134
 5.3641   145
 5.3741   156
 5.3841   157
 5.3941   156
 5.4041   167
 5.4141   153
 5.4241   158
 5.4341   165
 5.4441   155
 5.4541   133
 5.4641   147
 5.4741   145
 5.4841   134
 5.4941   116
 5.5041   113
 5.5141   137
 5.5241   139
 5.5341   136
 5.5441   133
 5.5541   132
 5.5641   126
 5.5741   139
 5.5841   124
 5.5941   140
 5.6041   142
 5.6141   137
 5.6241   155
 5.6341   139
 5.6441   142
 5.6541   116
 5.6641   130
 5.6741   145
 5.6841   155
 5.6941   157
 5.7041   135
 5.7141   149
 5.7241   156
 5.7341   159
 5.7441   155
 5.7541   152
 5.7641   159
 5.7741   159
 5.7841   172
 5.7941   142
 5.8041   153
 5.8141   195
 5.8241   178
 5.8341   189
 5.8441   230
 5.8541   221
 5.8641   233
 5.8741   240
 5.8841   231
 5.8941   200
 5.9041   270
 5.9141   236
 5.9241   240
 5.9341   227
 5.9441   212
 5.9541   203
 5.9641   212
 5.9741   220
 5.9841   214
 5.9941   197
 6.0041   169
 6.0141   180
 6.0241   163
 6.0341   167
 6.0441   199
 6.0541   189
 6.0641   167
 6.0741   182
 6.0841   162
 6.0941   169
 6.1041   154
 6.1141   152
 6.1241   169
 6.1341   188
 6.1441   163
 6.1541   178
 6.1641   189
 6.1741   176
 6.1841   213
 6.1941   201
 6.2041   241
 6.2141   260
 6.2241   292
 6.2341   374
 6.2441   414
 6.2541   525
 6.2641   705
 6.2741   943
 6.2841  1237
 6.2941  1570
 6.3041  1953
 6.3141  2555
 6.3241  2955
 6.3341  3607
 6.3441  4206
 6.3541  4763
 6.3641  5336
 6.3741  5635
 6.3841  6040
 6.3941  6255
 6.4041  6102
 6.4141  5936
 6.4241  5615
 6.4341  5062
 6.4441  4504
 6.4541  4067
 6.4641  3464
 6.4741  2882
 6.4841  2318
 6.4941  1846
 6.5041  1475
 6.5141  1032
 6.5241   827
 6.5341   587
 6.5441   484
 6.5541   388
 6.5641   325
 6.5741   267
 6.5841   249
 6.5941   197
 6.6041   214
 6.6141   207
 6.6241   205
 6.6341   189
 6.6441   216
 6.6541   173
 6.6641   196
 6.6741   179
 6.6841   196
 6.6941   192
 6.7041   210
 6.7141   193
 6.7241   208
 6.7341   211
 6.7441   223
 6.7541   203
 6.7641   219
 6.7741   202
 6.7841   190
 6.7941   187
 6.8041   245
 6.8141   209
 6.8241   228
 6.8341   221
 6.8441   223
 6.8541   212
 6.8641   225
 6.8741   275
 6.8841   261
 6.8941   275
 6.9041   302
 6.9141   343
 6.9241   368
 6.9341   380
 6.9441   451
 6.9541   538
 6.9641   592
 6.9741   658
 6.9841   735
 6.9941   820
 7.0041   863
 7.0141  1022
 7.0241  1101
 7.0341  1091
 7.0441  1144
 7.0541  1141
 7.0641  1138
 7.0741  1034
 7.0841  1008
 7.0941   952
 7.1041   904
 7.1141   788
 7.1241   760
 7.1341   639
 7.1441   596
 7.1541   534
 7.1641   469
 7.1741   430
 7.1841   423
 7.1941   391
 7.2041   346
 7.2141   376
 7.2241   316
 7.2341   311
 7.2441   306
 7.2541   294
 7.2641   312
 7.2741   322
 7.2841   354
 7.2941   332
 7.3041   338
 7.3141   333
 7.3241   331
 7.3341   393
 7.3441   393
 7.3541   417
 7.3641   437
 7.3741   435
 7.3841   408
 7.3941   423
 7.4041   429
 7.4141   461
 7.4241   450
 7.4341   381
 7.4441   397
 7.4541   367
 7.4641   400
 7.4741   358
 7.4841   386
 7.4941   345
 7.5041   346
 7.5141   309
 7.5241   346
 7.5341   297
 7.5441   307
 7.5541   334
 7.5641   339
 7.5741   333
 7.5841   321
 7.5941   341
 7.6041   351
 7.6141   326
 7.6241   331
 7.6341   345
 7.6441   356
 7.6541   354
 7.6641   318
 7.6741   351
 7.6841   376
 7.6941   391
 7.7041   378
 7.7141   332
 7.7241   369
 7.7341   438
 7.7441   382
 7.7541   402
 7.7641   388
 7.7741   426
 7.7841   430
 7.7941   447
 7.8041   439
 7.8141   461
 7.8241   488
 7.8341   488
 7.8441   503
 7.8541   482
 7.8641   477
 7.8741   487
 7.8841   545
 7.8941   528
 7.9041   542
 7.9141   617
 7.9241   641
 7.9341   600
 7.9441   701
 7.9541   710
 7.9641   750
 7.9741   800
 7.9841   900
 7.9941   973
 8.0041   974
 8.0141  1061
 8.0241  1144
 8.0341  1197
 8.0441  1331
 8.0541  1398
 8.0641  1499
 8.0741  1548
 8.0841  1633
 8.0941  1762
 8.1041  1790
 8.1141  1994
 8.1241  2010
 8.1341  2118
 8.1441  2208
 8.1541  2226
 8.1641  2315
 8.1741  2333
 8.1841  2321
 8.1941  2410
 8.2041  2420
 8.2141  2549
 8.2241  2557
 8.2341  2571
 8.2441  2650
 8.2541  2829
 8.2641  2863
 8.2741  3112
 8.2841  3341
 8.2941  3634
 8.3041  3954
 8.3141  4145
 8.3241  4444
 8.3341  4906
 8.3441  5193
 8.3541  5468
 8.3641  5745
 8.3741  5954
 8.3841  6010
 8.3941  5950
 8.4041  5915
 8.4141  5728
 8.4241  5442
 8.4341  5179
 8.4441  4623
 8.4541  4329
 8.4641  3627
 8.4741  3197
 8.4841  2732
 8.4941  2323
 8.5041  1932
 8.5141  1642
 8.5241  1348
 8.5341  1172
 8.5441   954
 8.5541   834
 8.5641   744
 8.5741   665
 8.5841   614
 8.5941   582
 8.6041   555
 8.6141   586
 8.6241   589
 8.6341   527
 8.6441   574
 8.6541   554
 8.6641   603
 8.6741   594
 8.6841   633
 8.6941   622
 8.7041   574
 8.7141   595
 8.7241   589
 8.7341   578
 8.7441   641
 8.7541   601
 8.7641   602
 8.7741   622
 8.7841   609
 8.7941   610
 8.8041   630
 8.8141   653
 8.8241   596
 8.8341   602
 8.8441   588
 8.8541   572
 8.8641   604
 8.8741   647
 8.8841   636
 8.8941   628
 8.9041   620
 8.9141   579
 8.9241   598
 8.9341   612
 8.9441   606
 8.9541   641
 8.9641   649
 8.9741   639
 8.9841   622
 8.9941   635
 9.0041   628
 9.0141   671
 9.0241   658
 9.0341   698
 9.0441   679
 9.0541   702
 9.0641   704
 9.0741   728
 9.0841   780
 9.0941   790
 9.1041   795
 9.1141   812
 9.1241   883
 9.1341   917
 9.1441   954
 9.1541   953
 9.1641  1028
 9.1741  1056
 9.1841  1160
 9.1941  1157
 9.2041  1242
 9.2141  1330
 9.2241  1359
 9.2341  1445
 9.2441  1423
 9.2541  1574
 9.2641  1692
 9.2741  1725
 9.2841  1763
 9.2941  1841
 9.3041  1939
 9.3141  2038
 9.3241  2008
 9.3341  2071
 9.3441  2197
 9.3541  2246
 9.3641  2278
 9.3741  2319
 9.3841  2417
 9.3941  2508
 9.4041  2471
 9.4141  2528
 9.4241  2619
 9.4341  2559
 9.4441  2470
 9.4541  2614
 9.4641  2678
 9.4741  2714
 9.4841  2750
 9.4941  2764
 9.5041  2783
 9.5141  2944
 9.5241  2955
 9.5341  3108
 9.5441  3233
 9.5541  3452
 9.5641  3632
 9.5741  3887
 9.5841  4127
 9.5941  4324
 9.6041  4597
 9.6141  4875
 9.6241  5071
 9.6341  5300
 9.6441  5396
 9.6541  5462
 9.6641  5536
 9.6741  5577
 9.6841  5375
 9.6941  5352
 9.7041  5109
 9.7141  4899
 9.7241  4569
 9.7341  4351
 9.7441  4007
 9.7541  3700
 9.7641  3374
 9.7741  3191
 9.7841  2953
 9.7941  2728
 9.8041  2636
 9.8141  2483
 9.8241  2368
 9.8341  2320
 9.8441  2334
 9.8541  2297
 9.8641  2272
 9.8741  2332
 9.8841  2433
 9.8941  2541
 9.9041  2510
 9.9141  2546
 9.9241  2648
 9.9341  2705
 9.9441  2708
 9.9541  2704
 9.9641  2594
 9.9741  2503
 9.9841  2462
 9.9941  2359
10.0041  2276
10.0141  2081
10.0241  1971
10.0341  1803
10.0441  1574
10.0541  1423
10.0641  1286
10.0741  1165
10.0841   996
10.0941   925
10.1041   841
10.1141   755
10.1241   698
10.1341   657
10.1441   592
10.1541   520
10.1641   542
10.1741   527
10.1841   461
10.1941   445
10.2041   427
10.2141   410
10.2241   378
10.2341   363
10.2441   371
10.2541   370
10.2641   355
10.2741   365
10.2841   360
10.2941   337
10.3041   332
10.3141   350
10.3241   340
10.3341   325
10.3441   311
10.3541   318
10.3641   318
10.3741   327
10.3841   322
10.3941   305
10.4041   306
10.4141   312
10.4241   299
10.4341   291
10.4441   318
10.4541   317
10.4641   323
10.4741   307
10.4841   333
10.4941   349
10.5041   334
10.5141   364
10.5241   345
10.5341   327
10.5441   346
10.5541   336
10.5641   351
10.5741   358
10.5841   366
10.5941   351
10.6041   350
10.6141   370
10.6241   377
10.6341   373
10.6441   387
10.6541   381
10.6641   383
10.6741   385
10.6841   393
10.6941   419
10.7041   420
10.7141   418
10.7241   433
10.7341   430
10.7441   436
10.7541   454
10.7641   466
10.7741   480
10.7841   481
10.7941   489
10.8041   491
10.8141   499
10.8241   536
10.8341   519
10.8441   536
10.8541   560
10.8641   565
10.8741   579
10.8841   586
10.8941   525
10.9041   537
10.9141   551
10.9241   578
10.9341   584
10.9441   552
10.9541   547
10.9641   557
10.9741   535
10.9841   548
10.9941   545
11.0041   537
11.0141   539
11.0241   547
11.0341   539
11.0441   498
11.0541   520
11.0641   503
11.0741   473
11.0841   493
11.0941   531
11.1041   526
11.1141   511
11.1241   508
11.1341   527
11.1441   526
11.1541   542
11.1641   598
11.1741   595
11.1841   588
11.1941   619
11.2041   642
11.2141   663
11.2241   718
11.2341   722
11.2441   767
11.2541   795
11.2641   779
11.2741   770
11.2841   790
11.2941   773
11.3041   749
11.3141   773
11.3241   730
11.3341   729
11.3441   673
11.3541   645
11.3641   631
11.3741   584
11.3841   542
11.3941   502
11.4041   492
11.4141   473
11.4241   430
11.4341   408
11.4441   382
11.4541   380
11.4641   406
11.4741   398
11.4841   399
11.4941   407
11.5041   405
11.5141   386
11.5241   378
11.5341   377
11.5441   392
11.5541   408
11.5641   420
11.5741   412
11.5841   384
11.5941   391
11.6041   436
11.6141   437
11.6241   415
11.6341   424
11.6441   421
11.6541   422
11.6641   393
11.6741   379
11.6841   396
11.6941   396
11.7041   379
11.7141   383
11.7241   378
11.7341   335
11.7441   332
11.7541   360
11.7641   349
11.7741   315
11.7841   301
11.7941   304
11.8041   308
11.8141   310
11.8241   300
11.8341   290
11.8441   305
11.8541   319
11.8641   309
11.8741   312
11.8841   288
11.8941   290
11.9041   291
11.9141   282
11.9241   272
11.9341   283
11.9441   290
11.9541   289
11.9641   289
11.9741   303
11.9841   292
11.9941   293
12.0041   296
12.0141   295
12.0241   304
12.0341   326
12.0441   315
12.0541   295
12.0641   316
12.0741   312
12.0841   295
12.0941   294
12.1041   307
12.1141   289
12.1241   289
12.1341   313
12.1441   302
12.1541   280
12.1641   264
12.1741   260
12.1841   275
12.1941   284
12.2041   292
12.2141   290
12.2241   278
12.2341   286
12.2441   274
12.2541   253
12.2641   251
12.2741   265
12.2841   291
12.2941   283
12.3041   286
12.3141   272
12.3241   284
12.3341   275
12.3441   285
12.3541   291
12.3641   303
12.3741   299
12.3841   262
12.3941   266
12.4041   271
12.4141   267
12.4241   272
12.4341   274
12.4441   296
12.4541   307
12.4641   294
12.4741   291
12.4841   307
12.4941   326
12.5041   308
12.5141   300
12.5241   310
12.5341   310
12.5441   292
12.5541   296
12.5641   318
12.5741   302
12.5841   317
12.5941   321
12.6041   329
12.6141   329
12.6241   328
12.6341   312
12.6441   308
12.6541   303
12.6641   308
12.6741   313
12.6841   317
12.6941   321
12.7041   340
12.7141   327
12.7241   331
12.7341   341
12.7441   318
12.7541   327
12.7641   339
12.7741   317
12.7841   310
12.7941   315
12.8041   331
12.8141   345
12.8241   320
12.8341   312
12.8441   302
12.8541   292
12.8641   318
12.8741   320
12.8841   314
12.8941   318
12.9041   325
12.9141   306
12.9241   310
12.9341   337
12.9441   351
12.9541   331
12.9641   328
12.9741   357
12.9841   356
12.9941   327
13.0041   322
13.0141   350
13.0241   342
13.0341   338
13.0441   340
13.0541   342
13.0641   351
13.0741   338
13.0841   324
13.0941   335
13.1041   357
13.1141   356
13.1241   347
13.1341   363
13.1441   367
13.1541   362
13.1641   355
13.1741   349
13.1841   345
13.1941   362
13.2041   375
13.2141   360
13.2241   366
13.2341   391
13.2441   388
13.2541   391
13.2641   394
13.2741   392
13.2841   427
13.2941   412
13.3041   435
13.3141   467
13.3241   450
13.3341   448
13.3441   463
13.3541   464
13.3641   476
13.3741   457
13.3841   429
13.3941   446
13.4041   468
13.4141   466
13.4241   463
13.4341   459
13.4441   458
13.4541   438
13.4641   437
13.4741   441
13.4841   431
13.4941   433
13.5041   403
13.5141   402
13.5241   423
13.5341   412
13.5441   406
13.5541   427
13.5641   409
13.5741   392
13.5841   411
13.5941   415
13.6041   404
13.6141   416
13.6241   432
13.6341   427
13.6441   402
13.6541   373
13.6641   405
13.6741   414
13.6841   394
13.6941   406
13.7041   419
13.7141   425
13.7241   425
13.7341   430
13.7441   436
13.7541   443
13.7641   439
13.7741   418
13.7841   398
13.7941   405
13.8041   406
13.8141   413
13.8241   440
13.8341   437
13.8441   427
13.8541   436
13.8641   441
13.8741   451
13.8841   433
13.8941   444
13.9041   462
13.9141   454
13.9241   455
13.9341   461
13.9441   471
13.9541   480
13.9641   487
13.9741   484
13.9841   510
13.9941   532
14.0041   552
14.0141   580
14.0241   589
14.0341   601
14.0441   623
14.0541   648
14.0641   681
14.0741   698
14.0841   734
14.0941   755
14.1041   773
14.1141   807
14.1241   809
14.1341   813
14.1441   795
14.1541   783
14.1641   786
14.1741   796
14.1841   805
14.1941   768
14.2041   712
14.2141   683
14.2241   706
14.2341   698
14.2441   658
14.2541   636
14.2641   617
14.2741   611
14.2841   589
14.2941   570
14.3041   546
14.3141   531
14.3241   545
14.3341   520
14.3441   489
14.3541   488
14.3641   507
14.3741   512
14.3841   488
14.3941   482
14.4041   494
14.4141   503
14.4241   490
14.4341   456
14.4441   464
14.4541   508
14.4641   505
14.4741   494
14.4841   479
14.4941   480
14.5041   492
14.5141   485
14.5241   504
14.5341   497
14.5441   502
14.5541   518
14.5641   506
14.5741   515
14.5841   489
14.5941   491
14.6041   516
14.6141   522
14.6241   514
14.6341   507
14.6441   520
14.6541   520
14.6641   509
14.6741   504
14.6841   488
14.6941   486
14.7041   506
14.7141   524
14.7241   514
14.7341   480
14.7441   488
14.7541   530
14.7641   557
14.7741   564
14.7841   535
14.7941   524
14.8041   545
14.8141   552
14.8241   566
14.8341   556
14.8441   539
14.8541   545
14.8641   526
14.8741   517
14.8841   559
14.8941   579
14.9041   552
14.9141   524
14.9241   539
14.9341   549
14.9441   578
14.9541   570
14.9641   568
14.9741   570
14.9841   574
14.9941   566
15.0041   540
15.0141   569
15.0241   572
15.0341   549
15.0441   533
15.0541   544
15.0641   562
15.0741   567
15.0841   564
15.0941   574
15.1041   550
15.1141   570
15.1241   553
15.1341   549
15.1441   571
15.1541   571
15.1641   556
15.1741   549
15.1841   554
15.1941   552
15.2041   562
15.2141   549
15.2241   551
15.2341   563
15.2441   559
15.2541   574
15.2641   566
15.2741   561
15.2841   572
15.2941   560
15.3041   567
15.3141   552
15.3241   552
15.3341   559
15.3441   532
15.3541   568
15.3641   587
15.3741   569
15.3841   593
15.3941   606
15.4041   599
15.4141   591
15.4241   590
15.4341   562
15.4441   604
15.4541   608
15.4641   567
15.4741   581
15.4841   593
15.4941   588
15.5041   600
15.5141   620
15.5241   600
15.5341   611
15.5441   623
15.5541   631
15.5641   678
15.5741   688
15.5841   636
15.5941   641
15.6041   692
15.6141   705
15.6241   700
15.6341   725
15.6441   738
15.6541   746
15.6641   758
15.6741   796
15.6841   794
15.6941   799
15.7041   818
15.7141   845
15.7241   855
15.7341   851
15.7441   835
15.7541   881
15.7641   878
15.7741   873
15.7841   887
15.7941   878
15.8041   850
15.8141   840
15.8241   828
15.8341   842
15.8441   815
15.8541   812
15.8641   786
15.8741   763
15.8841   753
15.8941   746
15.9041   717
15.9141   720
15.9241   739
15.9341   721
15.9441   688
15.9541   679
15.9641   674
15.9741   651
15.9841   668
15.9941   644
16.0041   654
16.0141   648
16.0241   659
16.0341   673
16.0441   683
16.0541   666
16.0641   647
16.0741   664
16.0841   693
16.0941   664
16.1041   646
16.1141   657
16.1241   629
16.1341   654
16.1441   656
16.1541   642
16.1641   659
16.1741   682
16.1841   656
16.1941   675
16.2041   675
16.2141   661
16.2241   683
16.2341   708
16.2441   702
16.2541   724
16.2641   712
16.2741   647
16.2841   658
16.2941   674
16.3041   690
16.3141   705
16.3241   692
16.3341   676
16.3441   694
16.3541   696
16.3641   695
16.3741   710
16.3841   700
16.3941   699
16.4041   710
16.4141   702
16.4241   677
16.4341   714
16.4441   724
16.4541   703
16.4641   691
16.4741   676
16.4841   723
16.4941   769
16.5041   701
16.5141   716
16.5241   732
16.5341   709
16.5441   703
16.5541   714
16.5641   746
16.5741   740
16.5841   763
16.5941   762
16.6041   728
16.6141   692
16.6241   712
16.6341   719
16.6441   730
16.6541   728
16.6641   735
16.6741   724
16.6841   728
16.6941   743
16.7041   728
16.7141   708
16.7241   751
16.7341   739
16.7441   737
16.7541   721
16.7641   724
16.7741   721
16.7841   716
16.7941   722
16.8041   725
16.8141   794
16.8241   745
16.8341   682
16.8441   738
16.8541   767
16.8641   772
16.8741   777
16.8841   770
16.8941   775
16.9041   811
16.9141   767
16.9241   754
16.9341   755
16.9441   741
16.9541   757
16.9641   770
16.9741   793
16.9841   769
16.9941   772
17.0041   773
17.0141   772
17.0241   765
17.0341   776
17.0441   756
17.0541   738
17.0641   779
17.0741   770
17.0841   784
17.0941   779
17.1041   799
17.1141   787
17.1241   783
17.1341   780
17.1441   775
17.1541   777
17.1641   767
17.1741   801
17.1841   788
17.1941   803
17.2041   821
17.2141   771
17.2241   805
17.2341   806
17.2441   796
17.2541   757
17.2641   781
17.2741   803
17.2841   820
17.2941   830
17.3041   831
17.3141   800
17.3241   796
17.3341   813
17.3441   808
17.3541   812
17.3641   811
17.3741   845
17.3841   853
17.3941   819
17.4041   793
17.4141   828
17.4241   835
17.4341   815
17.4441   799
17.4541   825
17.4641   808
17.4741   819
17.4841   817
17.4941   848
17.5041   816
17.5141   848
17.5241   822
17.5341   850
17.5441   806
17.5541   883
17.5641   887
17.5741   880
17.5841   858
17.5941   871
17.6041   852
17.6141   834
17.6241   845
17.6341   856
17.6441   848
17.6541   846
17.6641   873
17.6741   882
17.6841   887
17.6941   911
17.7041   903
17.7141   875
17.7241   884
17.7341   898
17.7441   855
17.7541   875
17.7641   896
17.7741   847
17.7841   843
17.7941   868
17.8041   886
17.8141   877
17.8241   889
17.8341   854
17.8441   841
17.8541   877
17.8641   866
17.8741   881
17.8841   837
17.8941   843
17.9041   863
17.9141   881
17.9241   877
17.9341   910
17.9441   850
17.9541   838
17.9641   872
17.9741   875
17.9841   902
17.9941   891
18.0041   923
18.0141   921
18.0241   905
18.0341   898
18.0441   907
18.0541   892
18.0641   865
18.0741   865
18.0841   856
18.0941   879
18.1041   903
18.1141   867
18.1241   918
18.1341   882
18.1441   880
18.1541   903
18.1641   892
18.1741   888
18.1841   864
18.1941   858
18.2041   842
18.2141   825
18.2241   844
18.2341   875
18.2441   885
18.2541   862
18.2641   899
18.2741   883
18.2841   860
18.2941   868
18.3041   877
18.3141   935
18.3241   865
18.3341   905
18.3441   943
18.3541   925
18.3641   882
18.3741   891
18.3841   903
18.3941   889
18.4041   896
18.4141   919
18.4241   911
18.4341   913
18.4441   906
18.4541   893
18.4641   900
18.4741   873
18.4841   909
18.4941   895
18.5041   906
18.5141   894
18.5241   895
18.5341   912
18.5441   893
18.5541   905
18.5641   926
18.5741   948
18.5841   892
18.5941   866
18.6041   915
18.6141   865
18.6241   924
18.6341   984
18.6441   913
18.6541   887
18.6641   917
18.6741   897
18.6841   912
18.6941   914
18.7041   949
18.7141   918
18.7241   935
18.7341   968
18.7441   982
18.7541   913
18.7641   954
18.7741   928
18.7841   975
18.7941   890
18.8041   864
18.8141   924
18.8241   965
18.8341   927
18.8441   916
18.8541   933
18.8641   903
18.8741   957
18.8841   921
18.8941   894
18.9041   904
18.9141   921
18.9241   923
18.9341   944
18.9441   961
18.9541   952
18.9641   943
18.9741   946
18.9841   927
18.9941   957
19.0041   922
19.0141   911
19.0241   931
19.0341   940
19.0441   958
19.0541   962
19.0641   972
19.0741   936
19.0841   924
19.0941   953
19.1041   956
19.1141   957
19.1241   969
19.1341   988
19.1441   962
19.1541   965
19.1641   965
19.1741   987
19.1841  1005
19.1941   980
19.2041   989
19.2141   976
19.2241   964
19.2341   947
19.2441   941
19.2541   930
19.2641   946
19.2741   954
19.2841   913
19.2941   933
19.3041   914
19.3141   964
19.3241   949
19.3341   962
19.3441   926
19.3541   972
19.3641   958
19.3741   916
19.3841   936
19.3941   934
19.4041   912
19.4141   949
19.4241   902
19.4341  1006
19.4441   989
19.4541   930
19.4641   939
19.4741   934
19.4841   967
19.4941   984
19.5041   953
19.5141   944
19.5241   956
19.5341   990
19.5441   953
19.5541   958
19.5641  1002
19.5741   980
19.5841   974
19.5941   958
19.6041   984
19.6141   973
19.6241   981
19.6341   974
19.6441   983
19.6541   967
19.6641   997
19.6741  1030
19.6841   961
19.6941   934
19.7041   967
19.7141   921
19.7241   982
19.7341   958
19.7441   942
19.7541   981
19.7641   990
19.7741  1016
19.7841   956
19.7941   973
19.8041   979
19.8141   968
19.8241  1025
19.8341   977
19.8441  1002
19.8541  1005
19.8641   980
19.8741   949
19.8841  1030
19.8941   981
19.9041   919
19.9141   911
19.9241  1035
19.9341   989
19.9441  1008
19.9541   973
19.9641   989
19.9741   967
19.9841   985
19.9941   992
20.0041   982
20.0141   982
20.0241   974
20.0341   966
20.0441   963
20.0541   925
20.0641   953
20.0741   981
20.0841  1011
20.0941   985
20.1041  1007
20.1141  1054
20.1241   979
20.1341   981
20.1441  1005
20.1541  1012
20.1641   985
20.1741   980
20.1841  1016
20.1941   990
20.2041   947
20.2141   981
20.2241   962
20.2341   977
20.2441   932
20.2541   999
20.2641   972
20.2741   987
20.2841   956
20.2941   971
20.3041   958
20.3141   989
20.3241   993
20.3341   996
20.3441   985
20.3541   964
20.3641   994
20.3741   988
20.3841  1001
20.3941  1050
20.4041   986
20.4141   956
20.4241   979
20.4341  1005
20.4441   950
20.4541   968
20.4641   972
20.4741  1002
20.4841  1011
20.4941  1000
20.5041   986
20.5141   974
20.5241   983
20.5341  1001
20.5441   996
20.5541   965
20.5641   954
20.5741   970
20.5841   959
20.5941   992
20.6041   967
20.6141   987
20.6241   992
20.6341   991
20.6441   979
20.6541   936
20.6641   975
20.6741   984
20.6841   961
20.6941   988
20.7041   958
20.7141  1025
20.7241  1029
20.7341   977
20.7441   975
20.7541  1017
20.7641  1021
20.7741  1007
20.7841  1010
20.7941  1033
20.8041  1014
20.8141  1070
20.8241  1081
20.8341  1087
20.8441  1028
20.8541  1007
20.8641  1070
20.8741  1075
20.8841  1114
20.8941  1100
20.9041  1109
20.9141  1156
20.9241  1189
20.9341  1192
20.9441  1262
20.9541  1264
20.9641  1228
20.9741  1264
20.9841  1228
20.9941  1327
21.0041  1363
21.0141  1356
21.0241  1297
21.0341  1411
21.0441  1403
21.0541  1364
21.0641  1357
21.0741  1398
21.0841  1403
21.0941  1406
21.1041  1391
21.1141  1494
21.1241  1409
21.1341  1452
21.1441  1400
21.1541  1361
21.1641  1423
21.1741  1458
21.1841  1420
21.1941  1371
21.2041  1323
21.2141  1393
21.2241  1403
21.2341  1306
21.2441  1268
21.2541  1265
21.2641  1295
21.2741  1255
21.2841  1169
21.2941  1165
21.3041  1181
21.3141  1165
21.3241  1089
21.3341  1131
21.3441  1088
21.3541  1077
21.3641   997
21.3741  1046
21.3841  1054
21.3941  1111
21.4041  1068
21.4141  1046
21.4241  1078
21.4341  1009
21.4441  1016
21.4541  1040
21.4641   958
21.4741  1025
21.4841  1018
21.4941  1021
21.5041  1041
21.5141  1051
21.5241  1044
21.5341   948
21.5441   979
21.5541   969
21.5641   986
21.5741  1046
21.5841   980
21.5941   979
21.6041  1018
21.6141  1043
21.6241   976
21.6341  1031
21.6441   965
21.6541   996
21.6641  1014
21.6741  1028
21.6841   988
21.6941   978
21.7041  1050
21.7141  1044
21.7241  1029
21.7341  1028
21.7441   908
21.7541  1007
21.7641  1006
21.7741   985
21.7841  1027
21.7941  1015
21.8041   970
21.8141  1021
21.8241   939
21.8341  1006
21.8441   986
21.8541  1012
21.8641  1063
21.8741  1074
21.8841   991
21.8941  1045
21.9041   989
21.9141  1037
21.9241   961
21.9341   929
21.9441   975
21.9541   932
21.9641  1021
21.9741   979
21.9841   976
21.9941   990
22.0041  1007
22.0141   971
22.0241   982
22.0341  1008
22.0441   998
22.0541  1013
22.0641  1015
22.0741   992
22.0841   952
22.0941   999
22.1041   987
22.1141   997
22.1241  1001
22.1341  1034
22.1441  1012
22.1541  1017
22.1641  1010
22.1741   939
22.1841   923
22.1941  1018
22.2041   971
22.2141  1032
22.2241   948
22.2341   973
22.2441   939
22.2541   963
22.2641   951
22.2741   979
22.2841   997
22.2941   979
22.3041   989
22.3141   951
22.3241   909
22.3341   973
22.3441   965
22.3541   948
22.3641   967
22.3741   976
22.3841   968
22.3941   924
22.4041   969
22.4141   998
22.4241   995
22.4341   949
22.4441  1002
22.4541   943
22.4641   971
22.4741   995
22.4841   960
22.4941   948
22.5041   922
22.5141   918
22.5241   954
22.5341   933
22.5441   965
22.5541   951
22.5641   972
22.5741   954
22.5841   919
22.5941  1028
22.6041   984
22.6141   981
22.6241  1006
22.6341   990
22.6441   922
22.6541   988
22.6641   966
22.6741   916
22.6841   971
22.6941   933
22.7041   950
22.7141   945
22.7241   975
22.7341   928
22.7441   970
22.7541   942
22.7641   945
22.7741   962
22.7841   915
22.7941  1014
22.8041  1041
22.8141   978
22.8241   898
22.8341   943
22.8441   944
22.8541   945
22.8641   964
22.8741   953
22.8841   918
22.8941   960
22.9041   943
22.9141   926
22.9241   996
22.9341   986
22.9441   964
22.9541   906
22.9641   945
22.9741   924
22.9841   966
22.9941   947
23.0041   949
23.0141  1013
23.0241   926
23.0341   957
23.0441   973
23.0541   884
23.0641   981
23.0741   907
23.0841   923
23.0941   915
23.1041   888
23.1141   932
23.1241   907
23.1341   978
23.1441   925
23.1541   890
23.1641   981
23.1741   953
23.1841   893
23.1941   946
23.2041   939
23.2141   924
23.2241   901
23.2341   926
23.2441   921
23.2541   946
23.2641   942
23.2741   920
23.2841   921
23.2941   898
23.3041   943
23.3141   923
23.3241   888
23.3341   925
23.3441   895
23.3541   894
23.3641   889
23.3741   977
23.3841   946
23.3941   925
23.4041   906
23.4141   926
23.4241   954
23.4341   916
23.4441   932
23.4541   956
23.4641   882
23.4741   880
23.4841   932
23.4941   942
23.5041   925
23.5141   907
23.5241   971
23.5341   879
23.5441   966
23.5541   937
23.5641   909
23.5741   920
23.5841   891
23.5941   902
23.6041   917
23.6141   942
23.6241   964
23.6341   955
23.6441   913
23.6541   981
23.6641   951
23.6741   981
23.6841   926
23.6941   948
23.7041   884
23.7141   989
23.7241   952
23.7341   939
23.7441   971
23.7541   983
23.7641   996
23.7741  1024
23.7841   982
23.7941   976
23.8041   993
23.8141  1042
23.8241   957
23.8341   968
23.8441   974
23.8541   950
23.8641   961
23.8741   878
23.8841   937
23.8941   929
23.9041   936
23.9141   940
23.9241   971
23.9341   922
23.9441   972
23.9541   914
23.9641   899
23.9741   957
23.9841   920
23.9941   910
24.0041   928
24.0141   895
24.0241   903
24.0341   868
24.0441   887
24.0541   893
24.0641   877
24.0741   909
24.0841   957
24.0941   882
24.1041   886
24.1141   928
24.1241   889
24.1341   909
24.1441   920
24.1541   883
24.1641   896
24.1741   856
24.1841   900
24.1941   877
24.2041   856
24.2141   916
24.2241   890
24.2341   826
24.2441   888
24.2541   905
24.2641   909
24.2741   893
24.2841   891
24.2941   894
24.3041   864
24.3141   829
24.3241   889
24.3341   862
24.3441   851
24.3541   903
24.3641   841
24.3741   855
24.3841   846
24.3941   889
24.4041   869
24.4141   887
24.4241   841
24.4341   826
24.4441   879
24.4541   862
24.4641   855
24.4741   864
24.4841   935
24.4941   819
24.5041   825
24.5141   891
24.5241   857
24.5341   878
24.5441   842
24.5541   854
24.5641   820
24.5741   821
24.5841   837
24.5941   850
24.6041   821
24.6141   814
24.6241   804
24.6341   873
24.6441   862
24.6541   811
24.6641   846
24.6741   809
24.6841   867
24.6941   863
24.7041   816
24.7141   829
24.7241   808
24.7341   823
24.7441   834
24.7541   794
24.7641   814
24.7741   822
24.7841   805
24.7941   868
24.8041   847
24.8141   842
24.8241   864
24.8341   887
24.8441   873
24.8541   837
24.8641   808
24.8741   880
24.8841   846
24.8941   841
24.9041   851
24.9141   852
24.9241   830
24.9341   823
24.9441   803
24.9541   854
24.9641   871
24.9741   851
24.9841   825
24.9941   815
25.0041   873
25.0141   807
25.0241   887
25.0341   850
25.0441   767
25.0541   825
25.0641   858
25.0741   835
25.0841   852
25.0941   849
25.1041   854
25.1141   865
25.1241   809
25.1341   833
25.1441   795
25.1541   851
25.1641   868
25.1741   770
25.1841   833
25.1941   855
25.2041   821
25.2141   807
25.2241   834
25.2341   872
25.2441   879
25.2541   834
25.2641   821
25.2741   841
25.2841   804
25.2941   884
25.3041   866
25.3141   853
25.3241   841
25.3341   864
25.3441   853
25.3541   781
25.3641   767
25.3741   800
25.3841   810
25.3941   824
25.4041   795
25.4141   806
25.4241   808
25.4341   766
25.4441   794
25.4541   728
25.4641   800
25.4741   795
25.4841   757
25.4941   775
25.5041   760
25.5141   827
25.5241   745
25.5341   779
25.5441   796
25.5541   756
25.5641   768
25.5741   815
25.5841   752
25.5941   747
25.6041   755
25.6141   779
25.6241   744
25.6341   712
25.6441   715
25.6541   775
25.6641   751
25.6741   750
25.6841   766
25.6941   815
25.7041   748
25.7141   748
25.7241   806
25.7341   737
25.7441   729
25.7541   770
25.7641   799
25.7741   736
25.7841   765
25.7941   748
25.8041   717
25.8141   725
25.8241   806
25.8341   756
25.8441   718
25.8541   757
25.8641   802
25.8741   733
25.8841   745
25.8941   749
25.9041   747
25.9141   735
25.9241   778
25.9341   766
25.9441   747
25.9541   742
25.9641   733
25.9741   722
25.9841   761
25.9941   755
26.0041   734
26.0141   706
26.0241   710
26.0341   732
26.0441   710
26.0541   721
26.0641   767
26.0741   753
26.0841   730
26.0941   729
26.1041   704
26.1141   722
26.1241   748
26.1341   777
26.1441   738
26.1541   723
26.1641   724
26.1741   731
26.1841   729
26.1941   710
26.2041   725
26.2141   762
26.2241   735
26.2341   681
26.2441   751
26.2541   731
26.2641   726
26.2741   746
26.2841   757
26.2941   768
26.3041   719
26.3141   699
26.3241   743
26.3341   743
26.3441   731
26.3541   725
26.3641   732
26.3741   716
26.3841   675
26.3941   677
26.4041   680
26.4141   728
26.4241   768
26.4341   717
26.4441   671
26.4541   693
26.4641   699
26.4741   745
26.4841   682
26.4941   693
26.5041   733
26.5141   706
26.5241   730
26.5341   704
26.5441   717
26.5541   697
26.5641   672
26.5741   707
26.5841   674
26.5941   691
26.6041   718
26.6141   697
26.6241   675
26.6341   719
26.6441   709
26.6541   711
26.6641   707
26.6741   688
26.6841   683
26.6941   714
26.7041   696
26.7141   695
26.7241   701
26.7341   656
26.7441   649
26.7541   729
26.7641   695
26.7741   646
26.7841   687
26.7941   695
26.8041   659
26.8141   664
26.8241   662
26.8341   642
26.8441   675
26.8541   647
26.8641   698
26.8741   699
26.8841   675
26.8941   697
26.9041   656
26.9141   697
26.9241   715
26.9341   734
26.9441   683
26.9541   698
26.9641   671
26.9741   695
26.9841   655
26.9941   658
27.0041   700
27.0141   636
27.0241   685
27.0341   660
27.0441   654
27.0541   648
27.0641   636
27.0741   646
27.0841   698
27.0941   676
27.1041   674
27.1141   693
27.1241   668
27.1341   656
27.1441   704
27.1541   646
27.1641   663
27.1741   680
27.1841   605
27.1941   716
27.2041   610
27.2141   665
27.2241   683
27.2341   667
27.2441   684
27.2541   655
27.2641   718
27.2741   655
27.2841   671
27.2941   690
27.3041   634
27.3141   644
27.3241   647
27.3341   679
27.3441   657
27.3541   652
27.3641   649
27.3741   655
27.3841   609
27.3941   641
27.4041   643
27.4141   599
27.4241   640
27.4341   684
27.4441   629
27.4541   650
27.4641   633
27.4741   638
27.4841   617
27.4941   653
27.5041   607
27.5141   635
27.5241   655
27.5341   631
27.5441   649
27.5541   680
27.5641   642
27.5741   643
27.5841   601
27.5941   626
27.6041   652
27.6141   606
27.6241   584
27.6341   606
27.6441   646
27.6541   603
27.6641   617
27.6741   619
27.6841   632
27.6941   640
27.7041   649
27.7141   567
27.7241   643
27.7341   626
27.7441   617
27.7541   635
27.7641   620
27.7741   615
27.7841   603
27.7941   591
27.8041   581
27.8141   599
27.8241   585
27.8341   574
27.8441   559
27.8541   561
27.8641   599
27.8741   610
27.8841   599
27.8941   597
27.9041   628
27.9141   609
27.9241   595
27.9341   623
27.9441   543
27.9541   604
27.9641   632
27.9741   622
27.9841   587
27.9941   628
28.0041   588
28.0141   591
28.0241   573
28.0341   551
28.0441   618
28.0541   565
28.0641   596
28.0741   614
28.0841   566
28.0941   601
28.1041   585
28.1141   593
28.1241   624
28.1341   595
28.1441   591
28.1541   580
28.1641   584
28.1741   577
28.1841   563
28.1941   586
28.2041   573
28.2141   564
28.2241   568
28.2341   575
28.2441   605
28.2541   556
28.2641   553
28.2741   566
28.2841   626
28.2941   597
28.3041   571
28.3141   543
28.3241   597
28.3341   573
28.3441   589
28.3541   599
28.3641   566
28.3741   518
28.3841   551
28.3941   572
28.4041   533
28.4141   561
28.4241   549
28.4341   567
28.4441   560
28.4541   559
28.4641   579
28.4741   577
28.4841   611
28.4941   574
28.5041   577
28.5141   593
28.5241   553
28.5341   516
28.5441   587
28.5541   527
28.5641   508
28.5741   565
28.5841   579
28.5941   557
28.6041   530
28.6141   532
28.6241   561
28.6341   590
28.6441   561
28.6541   570
28.6641   516
28.6741   586
28.6841   563
28.6941   547
28.7041   542
28.7141   518
28.7241   567
28.7341   546
28.7441   545
28.7541   509
28.7641   522
28.7741   541
28.7841   517
28.7941   531
28.8041   559
28.8141   519
28.8241   538
28.8341   533
28.8441   493
28.8541   496
28.8641   516
28.8741   541
28.8841   534
28.8941   573
28.9041   516
28.9141   534
28.9241   577
28.9341   478
28.9441   548
28.9541   511
28.9641   518
28.9741   495
28.9841   500
28.9941   496
29.0041   537
29.0141   518
29.0241   511
29.0341   539
29.0441   555
29.0541   520
29.0641   488
29.0741   522
29.0841   513
29.0941   563
29.1041   526
29.1141   522
29.1241   530
29.1341   525
29.1441   513
29.1541   476
29.1641   491
29.1741   525
29.1841   505
29.1941   495
29.2041   507
29.2141   470
29.2241   474
29.2341   505
29.2441   499
29.2541   530
29.2641   527
29.2741   528
29.2841   496
29.2941   489
29.3041   517
29.3141   495
29.3241   503
29.3341   517
29.3441   447
29.3541   505
29.3641   484
29.3741   514
29.3841   486
29.3941   476
29.4041   451
29.4141   461
29.4241   500
29.4341   468
29.4441   506
29.4541   517
29.4641   506
29.4741   495
29.4841   484
29.4941   495
29.5041   479
29.5141   442
29.5241   485
29.5341   485
29.5441   459
29.5541   476
29.5641   482
29.5741   474
29.5841   484
29.5941   450
29.6041   467
29.6141   477
29.6241   477
29.6341   464
29.6441   490
29.6541   485
29.6641   503
29.6741   462
29.6841   437
29.6941   502
29.7041   446
29.7141   460
29.7241   474
29.7341   490
29.7441   453
29.7541   501
29.7641   466
29.7741   492
29.7841   462
29.7941   456
29.8041   430
29.8141   468
29.8241   485
29.8341   483
29.8441   445
29.8541   428
29.8641   476
29.8741   460
29.8841   414
29.8941   440
29.9041   460
29.9141   480
29.9241   469
29.9341   461
29.9441   453
29.9541   483
29.9641   435
29.9741   440
29.9841   462
29.9941   421
30.0041   444
30.0141   453
30.0241   459
30.0341   488
30.0441   460
30.0541   457
30.0641   463
30.0741   400
30.0841   457
30.0941   460
30.1041   423
30.1141   439
30.1241   408
30.1341   429
30.1441   425
30.1541   448
30.1641   431
30.1741   440
30.1841   431
30.1941   420
30.2041   419
30.2141   437
30.2241   434
30.2341   409
30.2441   428
30.2541   442
30.2641   435
30.2741   426
30.2841   414
30.2941   432
30.3041   441
30.3141   418
30.3241   404
30.3341   410
30.3441   429
30.3541   426
30.3641   446
30.3741   439
30.3841   405
30.3941   425
30.4041   440
30.4141   425
30.4241   449
30.4341   434
30.4441   442
30.4541   405
30.4641   433
30.4741   406
30.4841   400
30.4941   446
30.5041   417
30.5141   409
30.5241   443
30.5341   430
30.5441   412
30.5541   430
30.5641   405
30.5741   403
30.5841   423
30.5941   395
30.6041   387
30.6141   400
30.6241   438
30.6341   429
30.6441   433
30.6541   387
30.6641   416
30.6741   425
30.6841   400
30.6941   433
30.7041   384
30.7141   383
30.7241   383
30.7341   408
30.7441   417
30.7541   388
30.7641   390
30.7741   385
30.7841   395
30.7941   395
30.8041   400
30.8141   421
30.8241   393
30.8341   379
30.8441   387
30.8541   379
30.8641   394
30.8741   420
30.8841   402
30.8941   422
30.9041   387
30.9141   422
30.9241   379
30.9341   408
30.9441   380
30.9541   393
30.9641   417
30.9741   403
30.9841   378
30.9941   389
31.0041   406
31.0141   396
31.0241   390
31.0341   375
31.0441   393
31.0541   384
31.0641   363
31.0741   373
31.0841   363
31.0941   387
31.1041   388
31.1141   396
31.1241   370
31.1341   381
31.1441   387
31.1541   387
31.1641   339
31.1741   374
31.1841   335
31.1941   370
31.2041   369
31.2141   408
31.2241   382
31.2341   404
31.2441   382
31.2541   400
31.2641   374
31.2741   395
31.2841   387
31.2941   400
31.3041   366
31.3141   377
31.3241   378
31.3341   362
31.3441   356
31.3541   375
31.3641   359
31.3741   360
31.3841   390
31.3941   384
31.4041   374
31.4141   355
31.4241   384
31.4341   346
31.4441   342
31.4541   340
31.4641   374
31.4741   369
31.4841   359
31.4941   360
31.5041   357
31.5141   369
31.5241   361
31.5341   337
31.5441   328
31.5541   335
31.5641   343
31.5741   340
31.5841   341
31.5941   338
31.6041   347
31.6141   356
31.6241   331
31.6341   362
31.6441   375
31.6541   385
31.6641   332
31.6741   367
31.6841   367
31.6941   354
31.7041   373
31.7141   369
31.7241   345
31.7341   369
31.7441   330
31.7541   331
31.7641   319
31.7741   382
31.7841   331
31.7941   358
31.8041   334
31.8141   353
31.8241   377
31.8341   350
31.8441   351
31.8541   350
31.8641   375
31.8741   370
31.8841   317
31.8941   375
31.9041   363
31.9141   359
31.9241   345
31.9341   354
31.9441   347
31.9541   362
31.9641   340
31.9741   318
31.9841   341
31.9941   324
32.0041   356
32.0141   339
32.0241   348
32.0341   358
32.0441   350
32.0541   355
32.0641   345
32.0741   314
32.0841   321
32.0941   329
32.1041   309
32.1141   313
32.1241   329
32.1341   339
32.1441   361
32.1541   323
32.1641   380
32.1741   325
32.1841   362
32.1941   376
32.2041   328
32.2141   328
32.2241   338
32.2341   346
32.2441   351
32.2541   346
32.2641   377
32.2741   312
32.2841   316
32.2941   312
32.3041   308
32.3141   319
32.3241   330
32.3341   325
32.3441   312
32.3541   328
32.3641   339
32.3741   309
32.3841   307
32.3941   271
32.4041   334
32.4141   332
32.4241   346
32.4341   321
32.4441   301
32.4541   302
32.4641   314
32.4741   326
32.4841   318
32.4941   310
32.5041   288
32.5141   297
32.5241   333
32.5341   325
32.5441   307
32.5541   305
32.5641   288
32.5741   291
32.5841   286
32.5941   293
32.6041   288
32.6141   309
32.6241   313
32.6341   281
32.6441   288
32.6541   280
32.6641   300
32.6741   310
32.6841   297
32.6941   291
32.7041   282
32.7141   289
32.7241   278
32.7341   311
32.7441   308
32.7541   287
32.7641   305
32.7741   265
32.7841   281
32.7941   269
32.8041   292
32.8141   286
32.8241   274
32.8341   297
32.8441   302
32.8541   279
32.8641   295
32.8741   275
32.8841   264
32.8941   306
32.9041   281
32.9141   251
32.9241   292
32.9341   300
32.9441   284
32.9541   265
32.9641   277
32.9741   273
32.9841   262
32.9941   289
33.0041   280
33.0141   262
33.0241   272
33.0341   280
33.0441   289
33.0541   280
33.0641   276
33.0741   247
33.0841   278
33.0941   285
33.1041   291
33.1141   277
33.1241   272
33.1341   243
33.1441   268
33.1541   228
33.1641   255
33.1741   244
33.1841   246
33.1941   248
33.2041   275
33.2141   263
33.2241   253
33.2341   247
33.2441   301
33.2541   258
33.2641   264
33.2741   268
33.2841   263
33.2941   249
33.3041   260
33.3141   254
33.3241   259
33.3341   249
33.3441   292
33.3541   274
33.3641   236
33.3741   265
33.3841   262
33.3941   265
33.4041   242
33.4141   254
33.4241   248
33.4341   266
33.4441   279
33.4541   286
33.4641   274
33.4741   266
33.4841   255
33.4941   263
33.5041   269
33.5141   242
33.5241   243
33.5341   237
33.5441   242
33.5541   250
33.5641   254
33.5741   236
33.5841   242
33.5941   247
33.6041   221
33.6141   259
33.6241   280
33.6341   253
33.6441   234
33.6541   256
33.6641   229
33.6741   228
33.6841   234
33.6941   273
33.7041   258
33.7141   245
33.7241   252
33.7341   222
33.7441   254
33.7541   234
33.7641   238
33.7741   242
33.7841   242
33.7941   241
33.8041   242
33.8141   226
33.8241   235
33.8341   247
33.8441   252
33.8541   251
33.8641   237
33.8741   257
33.8841   238
33.8941   244
33.9041   215
33.9141   235
33.9241   246
33.9341   223
33.9441   207
33.9541   235
33.9641   230
33.9741   262
33.9841   226
33.9941   242
34.0041   217
34.0141   207
34.0241   205
34.0341   212
34.0441   214
34.0541   221
34.0641   237
34.0741   235
34.0841   249
34.0941   232
34.1041   255
34.1141   244
34.1241   204
34.1341   248
34.1441   201
34.1541   227
34.1641   230
34.1741   230
34.1841   216
34.1941   230
34.2041   213
34.2141   210
34.2241   232
34.2341   231
34.2441   198
34.2541   246
34.2641   213
34.2741   214
34.2841   234
34.2941   205
34.3041   210
34.3141   236
34.3241   207
34.3341   216
34.3441   225
34.3541   231
34.3641   222
34.3741   229
34.3841   233
34.3941   227
34.4041   209
34.4141   203
34.4241   186
34.4341   210
34.4441   207
34.4541   196
34.4641   204
34.4741   214
34.4841   203
34.4941   199
34.5041   210
34.5141   199
34.5241   190
34.5341   196
34.5441   186
34.5541   207
34.5641   173
34.5741   198
34.5841   193
34.5941   206
34.6041   201
34.6141   205
34.6241   196
34.6341   209
34.6441   203
34.6541   218
34.6641   188
34.6741   207
34.6841   202
34.6941   212
34.7041   207
34.7141   196
34.7241   189
34.7341   180
34.7441   202
34.7541   184
34.7641   208
34.7741   193
34.7841   229
34.7941   180
34.8041   173
34.8141   178
34.8241   201
34.8341   181
34.8441   191
34.8541   212
34.8641   188
34.8741   197
34.8841   197
34.8941   205
34.9041   200
34.9141   157
34.9241   208
34.9341   189
34.9441   200
34.9541   181
34.9641   198
34.9741   203
34.9841   219
34.9941   202
35.0041   205
35.0141   190
35.0241   171
35.0341   193
35.0441   179
35.0541   191
35.0641   198
35.0741   162
35.0841   179
35.0941   178
35.1041   189
35.1141   167
35.1241   195
35.1341   178
35.1441   175
35.1541   187
35.1641   191
35.1741   170
35.1841   175
35.1941   193
35.2041   215
35.2141   178
35.2241   178
35.2341   200
35.2441   180
35.2541   188
35.2641   177
35.2741   191
35.2841   169
35.2941   179
35.3041   158
35.3141   184
35.3241   168
35.3341   197
35.3441   183
35.3541   186
35.3641   177
35.3741   165
35.3841   176
35.3941   159
35.4041   174
35.4141   186
35.4241   184
35.4341   177
35.4441   177
35.4541   147
35.4641   174
35.4741   187
35.4841   174
35.4941   194
35.5041   163
35.5141   177
35.5241   158
35.5341   166
35.5441   149
35.5541   166
35.5641   160
35.5741   160
35.5841   179
35.5941   167
35.6041   190
35.6141   169
35.6241   158
35.6341   151
35.6441   174
35.6541   155
35.6641   167
35.6741   178
35.6841   170
35.6941   160
35.7041   162
35.7141   171
35.7241   164
35.7341   166
35.7441   182
35.7541   165
35.7641   151
35.7741   171
35.7841   179
35.7941   179
35.8041   163
35.8141   172
35.8241   155
35.8341   159
35.8441   169
35.8541   158
35.8641   183
35.8741   177
35.8841   163
35.8941   158
35.9041   151
35.9141   160
35.9241   136
35.9341   160
35.9441   141
35.9541   152
35.9641   132
35.9741   154
35.9841   168
35.9941   148
36.0041   161
36.0141   148
36.0241   147
36.0341   154
36.0441   170
36.0541   157
36.0641   146
36.0741   148
36.0841   139
36.0941   149
36.1041   157
36.1141   148
36.1241   131
36.1341   162
36.1441   133
36.1541   146
36.1641   134
36.1741   140
36.1841   149
36.1941   156
36.2041   137
36.2141   141
36.2241   144
36.2341   143
36.2441   146
36.2541   159
36.2641   158
36.2741   147
36.2841   156
36.2941   153
36.3041   159
36.3141   146
36.3241   132
36.3341   123
36.3441   134
36.3541   129
36.3641   142
36.3741   140
36.3841   150
36.3941   154
36.4041   134
36.4141   167
36.4241   145
36.4341   150
36.4441   138
36.4541   133
36.4641   160
36.4741   148
36.4841   134
36.4941   136
36.5041   120
36.5141   157
36.5241   120
36.5341   145
36.5441   163
36.5541   127
36.5641   135
36.5741   119
36.5841   136
36.5941   129
36.6041   132
36.6141   122
36.6241   138
36.6341   134
36.6441   134
36.6541   128
36.6641   139
36.6741   138
36.6841   127
36.6941   135
36.7041   119
36.7141   125
36.7241   126
36.7341   111
36.7441   119
36.7541   129
36.7641   124
36.7741   134
36.7841   118
36.7941   126
36.8041   134
36.8141   127
36.8241   121
36.8341   143
36.8441   125
36.8541   143
36.8641   130
36.8741   150
36.8841   122
36.8941   114
36.9041   135
36.9141   141
36.9241   131
36.9341   139
36.9441   110
36.9541   130
36.9641   136
36.9741   151
36.9841   126
36.9941   135
37.0041   138
37.0141   124
37.0241   118
37.0341   108
37.0441   126
37.0541   110
37.0641   123
37.0741   133
37.0841   105
37.0941   118
37.1041   122
37.1141   113
37.1241   108
37.1341   120
37.1441   114
37.1541   126
37.1641   119
37.1741   129
37.1841   128
37.1941   117
37.2041   137
37.2141   132
37.2241   117
37.2341   118
37.2441   116
37.2541   118
37.2641   111
37.2741   115
37.2841   119
37.2941   128
37.3041   112
37.3141   124
37.3241    96
37.3341   102
37.3441   115
37.3541   112
37.3641   103
37.3741   124
37.3841   107
37.3941    99
37.4041   113
37.4141   125
37.4241   123
37.4341   108
37.4441   114
37.4541   123
37.4641   109
37.4741   119
37.4841   103
37.4941    93
37.5041    97
37.5141   105
37.5241    95
37.5341    99
37.5441   109
37.5541   112
37.5641   101
37.5741    90
37.5841   100
37.5941    93
37.6041   104
37.6141   104
37.6241    87
37.6341   107
37.6441   106
37.6541   101
37.6641    95
37.6741   105
37.6841   112
37.6941   109
37.7041    89
37.7141    82
37.7241   105
37.7341    98
37.7441    97
37.7541   111
37.7641    94
37.7741   124
37.7841    94
37.7941   103
37.8041   102
37.8141   109
37.8241    87
37.8341    96
37.8441   107
37.8541    90
37.8641    87
37.8741    85
37.8841   103
37.8941    93
37.9041    98
37.9141   110
37.9241   102
37.9341   108
37.9441   101
37.9541    75
37.9641    79
37.9741    87
37.9841    80
37.9941    86
38.0041    90
38.0141    89
38.0241    85
38.0341   113
38.0441   100
38.0541    91
38.0641   104
38.0741    93
38.0841    92
38.0941   101
38.1041    86
38.1141    84
38.1241    87
38.1341    86
38.1441    90
38.1541    86
38.1641    93
38.1741    93
38.1841    85
38.1941    87
38.2041    99
38.2141    92
38.2241    96
38.2341    86
38.2441    88
38.2541    82
38.2641    86
38.2741   100
38.2841    89
38.2941    87
38.3041   102
38.3141    88
38.3241    84
38.3341    79
38.3441    88
38.3541    78
38.3641    75
38.3741    58
38.3841    83
38.3941    84
38.4041    78
38.4141    70
38.4241    80
38.4341    90
38.4441    72
38.4541    68
38.4641    76
38.4741    74
38.4841    88
38.4941    81
38.5041    77
38.5141    99
38.5241    77
38.5341    83
38.5441    95
38.5541    92
38.5641    70
38.5741    79
38.5841    80
38.5941    73
38.6041    70
38.6141    92
38.6241    74
38.6341    87
38.6441    80
38.6541    88
38.6641    90
38.6741    77
38.6841    77
38.6941    68
38.7041    80
38.7141    72
38.7241    70
38.7341    74
38.7441    78
38.7541    75
38.7641    74
38.7741    70
38.7841    59
38.7941    56
38.8041    68
38.8141    62
38.8241    78
38.8341    66
38.8441    63
38.8541    77
38.8641    63
38.8741    68
38.8841    49
38.8941    89
38.9041    72
38.9141    81
38.9241    94
38.9341    73
38.9441    73
38.9541    78
38.9641    75
38.9741    64
38.9841    77
38.9941    68
39.0041    58
39.0141    67
39.0241    79
39.0341    72
39.0441    78
39.0541    57
39.0641    71
39.0741    85
39.0841    67
39.0941    73
39.1041    61
39.1141    65
39.1241    71
39.1341    60
39.1441    68
39.1541    68
39.1641    63
39.1741    66
39.1841    64
39.1941    68
39.2041    62
39.2141    67
39.2241    70
39.2341    64
39.2441    53
39.2541    67
39.2641    64
39.2741    58
39.2841    56
39.2941    71
39.3041    62
39.3141    70
39.3241    66
39.3341    53
39.3441    64
39.3541    56
39.3641    64
39.3741    88
39.3841    59
39.3941    61
39.4041    60
39.4141    66
39.4241    55
39.4341    55
39.4441    49
39.4541    52
39.4641    56
39.4741    48
39.4841    69
39.4941    60
39.5041    64
39.5141    55
39.5241    48
39.5341    58
39.5441    75
39.5541    62
39.5641    57
39.5741    53
39.5841    57
39.5941    54
39.6041    67
39.6141    63
39.6241    64
39.6341    56
39.6441    50
39.6541    53
39.6641    70
39.6741    55
39.6841    53
39.6941    58
39.7041    60
39.7141    62
39.7241    55
39.7341    62
39.7441    71
39.7541    42
39.7641    51
39.7741    66
39.7841    48
39.7941    60
39.8041    56
39.8141    47
39.8241    55
39.8341    40
39.8441    41
39.8541    60
39.8641    42
39.8741    53
39.8841    55
39.8941    44
39.9041    58
39.9141    48
39.9241    55
39.9341    43
39.9441    55
39.9541    60
39.9641    71
39.9741    46
39.9841    63
39.9941    58
