Bruker Nano GmbH Berlin, Germany
Esprit 1.9

Date: 4/1/2021 4:48:00 PM
Real time: 21110
Life time: 19779
Pulse density: 92773


Detector type: XFlash 430
Window type: Custom type
Detector thickness: 0.45
Si dead layer:0.029

Calibration, lin.: 10
Calibration, abs.: -955.9
Mn FWHM: 137.05
Fano factor: 0.121
Channels: 4095

Energy Counts
-0.9559     0
-0.9459     0
-0.9359     0
-0.9259     0
-0.9159     0
-0.9059     0
-0.8959     0
-0.8859     0
-0.8759     0
-0.8659     0
-0.8559     0
-0.8459     0
-0.8359     0
-0.8259     0
-0.8159     0
-0.8059     0
-0.7959     0
-0.7859     0
-0.7759     0
-0.7659     0
-0.7559     0
-0.7459     0
-0.7359     0
-0.7259     0
-0.7159     0
-0.7059     0
-0.6959     0
-0.6859     0
-0.6759     0
-0.6659     0
-0.6559     0
-0.6459     0
-0.6359     0
-0.6259     0
-0.6159     0
-0.6059     0
-0.5959     0
-0.5859     0
-0.5759     0
-0.5659     0
-0.5559     0
-0.5459     0
-0.5359     0
-0.5259     0
-0.5159     0
-0.5059     0
-0.4959     0
-0.4859     0
-0.4759     0
-0.4659     0
-0.4559     0
-0.4459     0
-0.4359     0
-0.4259     0
-0.4159     0
-0.4059     0
-0.3959     0
-0.3859     0
-0.3759     0
-0.3659     0
-0.3559     0
-0.3459     0
-0.3359     0
-0.3259     0
-0.3159     0
-0.3059     0
-0.2959     0
-0.2859     0
-0.2759     0
-0.2659     0
-0.2559     0
-0.2459     0
-0.2359     0
-0.2259     0
-0.2159     0
-0.2059     0
-0.1959     0
-0.1859     0
-0.1759     0
-0.1659     0
-0.1559     0
-0.1459     1
-0.1359     0
-0.1259     1
-0.1159     3
-0.1059    15
-0.0959    43
-0.0859   218
-0.0759   775
-0.0659  2286
-0.0559  5762
-0.0459 12554
-0.0359 23534
-0.0259 37799
-0.0159 51381
-0.0059 60597
 0.0041 60896
 0.0141 52387
 0.0241 39125
 0.0341 24394
 0.0441 13346
 0.0541  6201
 0.0641  2479
 0.0741   853
 0.0841   284
 0.0941    61
 0.1041    19
 0.1141    13
 0.1241    11
 0.1341     8
 0.1441     4
 0.1541     2
 0.1641     1
 0.1741    26
 0.1841   186
 0.1941   331
 0.2041   304
 0.2141   317
 0.2241   321
 0.2341   322
 0.2441   302
 0.2541   305
 0.2641   307
 0.2741   290
 0.2841   292
 0.2941   310
 0.3041   303
 0.3141   297
 0.3241   284
 0.3341   299
 0.3441   305
 0.3541   284
 0.3641   289
 0.3741   308
 0.3841   286
 0.3941   273
 0.4041   297
 0.4141   298
 0.4241   250
 0.4341   259
 0.4441   267
 0.4541   264
 0.4641   274
 0.4741   258
 0.4841   259
 0.4941   274
 0.5041   263
 0.5141   263
 0.5241   278
 0.5341   286
 0.5441   277
 0.5541   255
 0.5641   239
 0.5741   250
 0.5841   250
 0.5941   254
 0.6041   246
 0.6141   237
 0.6241   238
 0.6341   240
 0.6441   246
 0.6541   257
 0.6641   265
 0.6741   256
 0.6841   241
 0.6941   224
 0.7041   233
 0.7141   247
 0.7241   238
 0.7341   221
 0.7441   229
 0.7541   240
 0.7641   240
 0.7741   256
 0.7841   244
 0.7941   215
 0.8041   226
 0.8141   237
 0.8241   216
 0.8341   204
 0.8441   217
 0.8541   230
 0.8641   212
 0.8741   206
 0.8841   244
 0.8941   214
 0.9041   204
 0.9141   201
 0.9241   211
 0.9341   212
 0.9441   223
 0.9541   228
 0.9641   206
 0.9741   207
 0.9841   206
 0.9941   211
 1.0041   215
 1.0141   204
 1.0241   192
 1.0341   200
 1.0441   200
 1.0541   183
 1.0641   183
 1.0741   193
 1.0841   196
 1.0941   206
 1.1041   217
 1.1141   189
 1.1241   173
 1.1341   181
 1.1441   194
 1.1541   197
 1.1641   177
 1.1741   197
 1.1841   217
 1.1941   192
 1.2041   196
 1.2141   177
 1.2241   192
 1.2341   181
 1.2441   193
 1.2541   192
 1.2641   204
 1.2741   191
 1.2841   179
 1.2941   193
 1.3041   168
 1.3141   168
 1.3241   173
 1.3341   189
 1.3441   173
 1.3541   182
 1.3641   183
 1.3741   181
 1.3841   191
 1.3941   166
 1.4041   193
 1.4141   195
 1.4241   198
 1.4341   169
 1.4441   172
 1.4541   171
 1.4641   202
 1.4741   204
 1.4841   211
 1.4941   188
 1.5041   184
 1.5141   200
 1.5241   186
 1.5341   175
 1.5441   186
 1.5541   167
 1.5641   164
 1.5741   174
 1.5841   178
 1.5941   164
 1.6041   172
 1.6141   189
 1.6241   202
 1.6341   195
 1.6441   215
 1.6541   235
 1.6641   286
 1.6741   324
 1.6841   386
 1.6941   456
 1.7041   573
 1.7141   697
 1.7241   736
 1.7341   757
 1.7441   789
 1.7541   674
 1.7641   659
 1.7741   605
 1.7841   449
 1.7941   410
 1.8041   343
 1.8141   298
 1.8241   257
 1.8341   239
 1.8441   232
 1.8541   206
 1.8641   201
 1.8741   189
 1.8841   213
 1.8941   196
 1.9041   163
 1.9141   199
 1.9241   179
 1.9341   191
 1.9441   184
 1.9541   182
 1.9641   201
 1.9741   197
 1.9841   217
 1.9941   213
 2.0041   233
 2.0141   242
 2.0241   215
 2.0341   224
 2.0441   211
 2.0541   206
 2.0641   215
 2.0741   187
 2.0841   180
 2.0941   186
 2.1041   163
 2.1141   175
 2.1241   199
 2.1341   159
 2.1441   173
 2.1541   159
 2.1641   203
 2.1741   179
 2.1841   185
 2.1941   170
 2.2041   169
 2.2141   169
 2.2241   161
 2.2341   155
 2.2441   169
 2.2541   169
 2.2641   147
 2.2741   177
 2.2841   162
 2.2941   180
 2.3041   154
 2.3141   162
 2.3241   138
 2.3341   158
 2.3441   145
 2.3541   155
 2.3641   160
 2.3741   159
 2.3841   172
 2.3941   158
 2.4041   150
 2.4141   152
 2.4241   157
 2.4341   136
 2.4441   147
 2.4541   131
 2.4641   155
 2.4741   136
 2.4841   153
 2.4941   147
 2.5041   152
 2.5141   158
 2.5241   128
 2.5341   161
 2.5441   144
 2.5541   147
 2.5641   141
 2.5741   159
 2.5841   124
 2.5941   135
 2.6041   128
 2.6141   157
 2.6241   140
 2.6341   146
 2.6441   147
 2.6541   127
 2.6641   128
 2.6741   129
 2.6841   127
 2.6941   135
 2.7041   150
 2.7141   127
 2.7241   132
 2.7341   157
 2.7441   139
 2.7541   146
 2.7641   154
 2.7741   138
 2.7841   125
 2.7941   160
 2.8041   144
 2.8141   154
 2.8241   143
 2.8341   144
 2.8441   146
 2.8541   141
 2.8641   145
 2.8741   166
 2.8841   126
 2.8941   129
 2.9041   125
 2.9141   138
 2.9241   139
 2.9341   109
 2.9441   128
 2.9541   130
 2.9641   147
 2.9741   154
 2.9841   118
 2.9941   126
 3.0041   126
 3.0141   122
 3.0241   127
 3.0341   126
 3.0441   118
 3.0541   121
 3.0641   117
 3.0741   137
 3.0841   111
 3.0941   130
 3.1041   126
 3.1141   126
 3.1241   124
 3.1341   120
 3.1441   112
 3.1541   125
 3.1641   112
 3.1741   118
 3.1841   111
 3.1941    94
 3.2041   120
 3.2141   145
 3.2241   134
 3.2341   157
 3.2441   166
 3.2541   174
 3.2641   179
 3.2741   167
 3.2841   222
 3.2941   203
 3.3041   218
 3.3141   235
 3.3241   253
 3.3341   211
 3.3441   194
 3.3541   195
 3.3641   170
 3.3741   132
 3.3841   140
 3.3941   133
 3.4041   119
 3.4141   129
 3.4241   127
 3.4341   107
 3.4441   101
 3.4541   122
 3.4641   128
 3.4741   118
 3.4841   103
 3.4941    94
 3.5041   138
 3.5141   121
 3.5241   114
 3.5341   138
 3.5441   158
 3.5541   181
 3.5641   210
 3.5741   214
 3.5841   299
 3.5941   382
 3.6041   505
 3.6141   650
 3.6241   793
 3.6341   970
 3.6441  1198
 3.6541  1436
 3.6641  1567
 3.6741  1759
 3.6841  1750
 3.6941  1747
 3.7041  1763
 3.7141  1571
 3.7241  1361
 3.7341  1203
 3.7441  1001
 3.7541   767
 3.7641   559
 3.7741   445
 3.7841   324
 3.7941   242
 3.8041   199
 3.8141   173
 3.8241   127
 3.8341   122
 3.8441   102
 3.8541   114
 3.8641   114
 3.8741   104
 3.8841   108
 3.8941   123
 3.9041   128
 3.9141   152
 3.9241   152
 3.9341   219
 3.9441   220
 3.9541   250
 3.9641   269
 3.9741   293
 3.9841   353
 3.9941   358
 4.0041   363
 4.0141   382
 4.0241   366
 4.0341   357
 4.0441   336
 4.0541   275
 4.0641   267
 4.0741   232
 4.0841   170
 4.0941   172
 4.1041   141
 4.1141   128
 4.1241   123
 4.1341   108
 4.1441    93
 4.1541    86
 4.1641    91
 4.1741    85
 4.1841    87
 4.1941    95
 4.2041    76
 4.2141    83
 4.2241    88
 4.2341    86
 4.2441    70
 4.2541    70
 4.2641    87
 4.2741    78
 4.2841    84
 4.2941    91
 4.3041    75
 4.3141    92
 4.3241    75
 4.3341    94
 4.3441    98
 4.3541    87
 4.3641    98
 4.3741   121
 4.3841   135
 4.3941   131
 4.4041   145
 4.4141   180
 4.4241   223
 4.4341   242
 4.4441   322
 4.4541   371
 4.4641   386
 4.4741   463
 4.4841   461
 4.4941   499
 4.5041   536
 4.5141   534
 4.5241   489
 4.5341   464
 4.5441   445
 4.5541   403
 4.5641   362
 4.5741   320
 4.5841   265
 4.5941   197
 4.6041   176
 4.6141   145
 4.6241   138
 4.6341   123
 4.6441   105
 4.6541   104
 4.6641   119
 4.6741   109
 4.6841   120
 4.6941    93
 4.7041    82
 4.7141    87
 4.7241   115
 4.7341    92
 4.7441   107
 4.7541   109
 4.7641   108
 4.7741    96
 4.7841   111
 4.7941   123
 4.8041   115
 4.8141   118
 4.8241   124
 4.8341   123
 4.8441   146
 4.8541   150
 4.8641   161
 4.8741   160
 4.8841   199
 4.8941   216
 4.9041   177
 4.9141   181
 4.9241   194
 4.9341   170
 4.9441   199
 4.9541   189
 4.9641   206
 4.9741   156
 4.9841   168
 4.9941   149
 5.0041   141
 5.0141   131
 5.0241   128
 5.0341   127
 5.0441   103
 5.0541   101
 5.0641   103
 5.0741   103
 5.0841   107
 5.0941    91
 5.1041    95
 5.1141   107
 5.1241    97
 5.1341   110
 5.1441   102
 5.1541    92
 5.1641    96
 5.1741    99
 5.1841    86
 5.1941    81
 5.2041    96
 5.2141    89
 5.2241    98
 5.2341    96
 5.2441    90
 5.2541   115
 5.2641   104
 5.2741   103
 5.2841   105
 5.2941   109
 5.3041   121
 5.3141    90
 5.3241   124
 5.3341   128
 5.3441   128
 5.3541   127
 5.3641   129
 5.3741   165
 5.3841   162
 5.3941   170
 5.4041   175
 5.4141   142
 5.4241   186
 5.4341   160
 5.4441   166
 5.4541   166
 5.4641   127
 5.4741   128
 5.4841   120
 5.4941   110
 5.5041   119
 5.5141   132
 5.5241    94
 5.5341   111
 5.5441   124
 5.5541    96
 5.5641   118
 5.5741   122
 5.5841   130
 5.5941   108
 5.6041   106
 5.6141    99
 5.6241   103
 5.6341   115
 5.6441   109
 5.6541   105
 5.6641   112
 5.6741    94
 5.6841   114
 5.6941    94
 5.7041   123
 5.7141    97
 5.7241   103
 5.7341   112
 5.7441   137
 5.7541   147
 5.7641   172
 5.7741   140
 5.7841   181
 5.7941   205
 5.8041   236
 5.8141   255
 5.8241   312
 5.8341   350
 5.8441   343
 5.8541   376
 5.8641   418
 5.8741   436
 5.8841   465
 5.8941   496
 5.9041   475
 5.9141   447
 5.9241   465
 5.9341   424
 5.9441   368
 5.9541   400
 5.9641   306
 5.9741   280
 5.9841   257
 5.9941   213
 6.0041   199
 6.0141   154
 6.0241   165
 6.0341   143
 6.0441   154
 6.0541   152
 6.0641   153
 6.0741   161
 6.0841   128
 6.0941   156
 6.1041   147
 6.1141   182
 6.1241   161
 6.1341   187
 6.1441   191
 6.1541   196
 6.1641   233
 6.1741   217
 6.1841   254
 6.1941   315
 6.2041   352
 6.2141   492
 6.2241   655
 6.2341   969
 6.2441  1256
 6.2541  1789
 6.2641  2647
 6.2741  3564
 6.2841  4687
 6.2941  5991
 6.3041  7838
 6.3141 10249
 6.3241 12710
 6.3341 14906
 6.3441 17585
 6.3541 20288
 6.3641 22523
 6.3741 24167
 6.3841 25536
 6.3941 26108
 6.4041 25797
 6.4141 25388
 6.4241 23566
 6.4341 21750
 6.4441 19433
 6.4541 16843
 6.4641 14191
 6.4741 11660
 6.4841  9385
 6.4941  7320
 6.5041  5424
 6.5141  4152
 6.5241  3009
 6.5341  2182
 6.5441  1480
 6.5541  1041
 6.5641   715
 6.5741   487
 6.5841   411
 6.5941   311
 6.6041   243
 6.6141   203
 6.6241   204
 6.6341   188
 6.6441   202
 6.6541   177
 6.6641   190
 6.6741   157
 6.6841   171
 6.6941   164
 6.7041   173
 6.7141   170
 6.7241   172
 6.7341   180
 6.7441   169
 6.7541   195
 6.7641   179
 6.7741   221
 6.7841   198
 6.7941   220
 6.8041   223
 6.8141   207
 6.8241   215
 6.8341   223
 6.8441   230
 6.8541   286
 6.8641   307
 6.8741   416
 6.8841   424
 6.8941   470
 6.9041   605
 6.9141   668
 6.9241   874
 6.9341  1009
 6.9441  1261
 6.9541  1551
 6.9641  1816
 6.9741  2279
 6.9841  2622
 6.9941  3067
 7.0041  3420
 7.0141  3763
 7.0241  4067
 7.0341  4301
 7.0441  4444
 7.0541  4444
 7.0641  4521
 7.0741  4376
 7.0841  4065
 7.0941  3666
 7.1041  3412
 7.1141  2905
 7.1241  2475
 7.1341  2157
 7.1441  1746
 7.1541  1411
 7.1641  1076
 7.1741   905
 7.1841   716
 7.1941   569
 7.2041   446
 7.2141   369
 7.2241   313
 7.2341   278
 7.2441   228
 7.2541   221
 7.2641   216
 7.2741   231
 7.2841   219
 7.2941   238
 7.3041   226
 7.3141   214
 7.3241   274
 7.3341   248
 7.3441   249
 7.3541   276
 7.3641   251
 7.3741   282
 7.3841   263
 7.3941   309
 7.4041   303
 7.4141   282
 7.4241   298
 7.4341   306
 7.4441   292
 7.4541   305
 7.4641   280
 7.4741   276
 7.4841   263
 7.4941   263
 7.5041   266
 7.5141   256
 7.5241   253
 7.5341   236
 7.5441   210
 7.5541   203
 7.5641   214
 7.5741   235
 7.5841   185
 7.5941   180
 7.6041   202
 7.6141   181
 7.6241   199
 7.6341   190
 7.6441   196
 7.6541   208
 7.6641   194
 7.6741   205
 7.6841   186
 7.6941   202
 7.7041   218
 7.7141   220
 7.7241   217
 7.7341   217
 7.7441   218
 7.7541   229
 7.7641   234
 7.7741   240
 7.7841   245
 7.7941   233
 7.8041   258
 7.8141   262
 7.8241   262
 7.8341   295
 7.8441   299
 7.8541   284
 7.8641   290
 7.8741   314
 7.8841   338
 7.8941   299
 7.9041   302
 7.9141   361
 7.9241   368
 7.9341   396
 7.9441   417
 7.9541   407
 7.9641   447
 7.9741   474
 7.9841   501
 7.9941   580
 8.0041   606
 8.0141   627
 8.0241   725
 8.0341   717
 8.0441   814
 8.0541   845
 8.0641   953
 8.0741   950
 8.0841  1045
 8.0941  1024
 8.1041  1149
 8.1141  1193
 8.1241  1268
 8.1341  1271
 8.1441  1232
 8.1541  1313
 8.1641  1289
 8.1741  1368
 8.1841  1392
 8.1941  1416
 8.2041  1432
 8.2141  1378
 8.2241  1411
 8.2341  1426
 8.2441  1472
 8.2541  1583
 8.2641  1562
 8.2741  1686
 8.2841  1783
 8.2941  1923
 8.3041  2043
 8.3141  2243
 8.3241  2410
 8.3341  2556
 8.3441  2729
 8.3541  2843
 8.3641  2963
 8.3741  3042
 8.3841  3111
 8.3941  2984
 8.4041  2930
 8.4141  2895
 8.4241  2728
 8.4341  2436
 8.4441  2310
 8.4541  2086
 8.4641  1822
 8.4741  1609
 8.4841  1412
 8.4941  1178
 8.5041  1041
 8.5141   869
 8.5241   711
 8.5341   660
 8.5441   575
 8.5541   517
 8.5641   471
 8.5741   420
 8.5841   398
 8.5941   399
 8.6041   404
 8.6141   411
 8.6241   359
 8.6341   382
 8.6441   376
 8.6541   396
 8.6641   395
 8.6741   365
 8.6841   390
 8.6941   359
 8.7041   391
 8.7141   357
 8.7241   317
 8.7341   342
 8.7441   309
 8.7541   315
 8.7641   316
 8.7741   321
 8.7841   307
 8.7941   312
 8.8041   274
 8.8141   286
 8.8241   295
 8.8341   294
 8.8441   304
 8.8541   308
 8.8641   331
 8.8741   293
 8.8841   289
 8.8941   288
 8.9041   308
 8.9141   308
 8.9241   317
 8.9341   337
 8.9441   336
 8.9541   335
 8.9641   320
 8.9741   331
 8.9841   314
 8.9941   320
 9.0041   344
 9.0141   344
 9.0241   346
 9.0341   395
 9.0441   400
 9.0541   424
 9.0641   419
 9.0741   430
 9.0841   431
 9.0941   407
 9.1041   431
 9.1141   464
 9.1241   493
 9.1341   504
 9.1441   518
 9.1541   578
 9.1641   593
 9.1741   593
 9.1841   661
 9.1941   667
 9.2041   721
 9.2141   744
 9.2241   794
 9.2341   780
 9.2441   824
 9.2541   866
 9.2641   934
 9.2741   960
 9.2841   983
 9.2941  1050
 9.3041  1114
 9.3141  1119
 9.3241  1134
 9.3341  1122
 9.3441  1278
 9.3541  1265
 9.3641  1265
 9.3741  1277
 9.3841  1321
 9.3941  1316
 9.4041  1311
 9.4141  1395
 9.4241  1338
 9.4341  1408
 9.4441  1419
 9.4541  1459
 9.4641  1464
 9.4741  1477
 9.4841  1494
 9.4941  1531
 9.5041  1532
 9.5141  1603
 9.5241  1649
 9.5341  1667
 9.5441  1807
 9.5541  1912
 9.5641  1936
 9.5741  2026
 9.5841  2143
 9.5941  2254
 9.6041  2342
 9.6141  2521
 9.6241  2540
 9.6341  2685
 9.6441  2826
 9.6541  2831
 9.6641  2906
 9.6741  2868
 9.6841  2788
 9.6941  2714
 9.7041  2589
 9.7141  2492
 9.7241  2345
 9.7341  2174
 9.7441  2013
 9.7541  1874
 9.7641  1745
 9.7741  1629
 9.7841  1455
 9.7941  1361
 9.8041  1295
 9.8141  1220
 9.8241  1159
 9.8341  1198
 9.8441  1148
 9.8541  1119
 9.8641  1103
 9.8741  1156
 9.8841  1142
 9.8941  1186
 9.9041  1216
 9.9141  1155
 9.9241  1236
 9.9341  1271
 9.9441  1255
 9.9541  1262
 9.9641  1193
 9.9741  1176
 9.9841  1075
 9.9941  1062
10.0041  1001
10.0141   918
10.0241   864
10.0341   770
10.0441   708
10.0541   677
10.0641   579
10.0741   534
10.0841   496
10.0941   435
10.1041   395
10.1141   352
10.1241   343
10.1341   284
10.1441   293
10.1541   281
10.1641   294
10.1741   242
10.1841   239
10.1941   228
10.2041   217
10.2141   239
10.2241   206
10.2341   210
10.2441   211
10.2541   226
10.2641   195
10.2741   172
10.2841   180
10.2941   171
10.3041   149
10.3141   173
10.3241   157
10.3341   166
10.3441   168
10.3541   150
10.3641   153
10.3741   154
10.3841   162
10.3941   159
10.4041   166
10.4141   165
10.4241   158
10.4341   157
10.4441   161
10.4541   166
10.4641   166
10.4741   162
10.4841   164
10.4941   190
10.5041   190
10.5141   177
10.5241   190
10.5341   175
10.5441   159
10.5541   174
10.5641   182
10.5741   180
10.5841   163
10.5941   158
10.6041   177
10.6141   184
10.6241   186
10.6341   189
10.6441   187
10.6541   183
10.6641   176
10.6741   202
10.6841   192
10.6941   213
10.7041   210
10.7141   205
10.7241   191
10.7341   191
10.7441   207
10.7541   216
10.7641   202
10.7741   199
10.7841   206
10.7941   239
10.8041   263
10.8141   260
10.8241   270
10.8341   275
10.8441   301
10.8541   297
10.8641   268
10.8741   269
10.8841   288
10.8941   287
10.9041   281
10.9141   304
10.9241   290
10.9341   307
10.9441   302
10.9541   295
10.9641   289
10.9741   290
10.9841   268
10.9941   266
11.0041   275
11.0141   277
11.0241   261
11.0341   275
11.0441   254
11.0541   245
11.0641   245
11.0741   257
11.0841   249
11.0941   258
11.1041   274
11.1141   250
11.1241   262
11.1341   260
11.1441   263
11.1541   276
11.1641   298
11.1741   299
11.1841   311
11.1941   306
11.2041   350
11.2141   353
11.2241   363
11.2341   360
11.2441   375
11.2541   419
11.2641   402
11.2741   394
11.2841   399
11.2941   390
11.3041   386
11.3141   362
11.3241   376
11.3341   355
11.3441   329
11.3541   314
11.3641   317
11.3741   309
11.3841   297
11.3941   288
11.4041   258
11.4141   241
11.4241   232
11.4341   222
11.4441   223
11.4541   219
11.4641   196
11.4741   190
11.4841   195
11.4941   210
11.5041   205
11.5141   212
11.5241   199
11.5341   189
11.5441   188
11.5541   188
11.5641   205
11.5741   210
11.5841   206
11.5941   201
11.6041   211
11.6141   235
11.6241   230
11.6341   221
11.6441   218
11.6541   230
11.6641   219
11.6741   211
11.6841   194
11.6941   210
11.7041   199
11.7141   182
11.7241   177
11.7341   176
11.7441   195
11.7541   179
11.7641   174
11.7741   168
11.7841   160
11.7941   162
11.8041   156
11.8141   151
11.8241   144
11.8341   147
11.8441   147
11.8541   147
11.8641   144
11.8741   142
11.8841   131
11.8941   137
11.9041   156
11.9141   149
11.9241   155
11.9341   148
11.9441   144
11.9541   151
11.9641   160
11.9741   154
11.9841   150
11.9941   161
12.0041   158
12.0141   163
12.0241   159
12.0341   146
12.0441   145
12.0541   159
12.0641   153
12.0741   163
12.0841   155
12.0941   151
12.1041   151
12.1141   156
12.1241   157
12.1341   151
12.1441   142
12.1541   147
12.1641   144
12.1741   153
12.1841   149
12.1941   141
12.2041   122
12.2141   149
12.2241   159
12.2341   147
12.2441   143
12.2541   145
12.2641   134
12.2741   140
12.2841   145
12.2941   135
12.3041   133
12.3141   135
12.3241   149
12.3341   131
12.3441   127
12.3541   139
12.3641   152
12.3741   145
12.3841   135
12.3941   147
12.4041   146
12.4141   151
12.4241   154
12.4341   161
12.4441   152
12.4541   139
12.4641   148
12.4741   150
12.4841   151
12.4941   142
12.5041   136
12.5141   153
12.5241   163
12.5341   161
12.5441   165
12.5541   148
12.5641   161
12.5741   155
12.5841   157
12.5941   154
12.6041   163
12.6141   158
12.6241   159
12.6341   160
12.6441   156
12.6541   153
12.6641   152
12.6741   153
12.6841   152
12.6941   154
12.7041   152
12.7141   148
12.7241   150
12.7341   152
12.7441   154
12.7541   158
12.7641   161
12.7741   160
12.7841   155
12.7941   157
12.8041   161
12.8141   157
12.8241   156
12.8341   163
12.8441   169
12.8541   169
12.8641   166
12.8741   165
12.8841   163
12.8941   160
12.9041   164
12.9141   167
12.9241   168
12.9341   172
12.9441   176
12.9541   181
12.9641   180
12.9741   169
12.9841   163
12.9941   166
13.0041   148
13.0141   156
13.0241   170
13.0341   168
13.0441   168
13.0541   170
13.0641   170
13.0741   169
13.0841   150
13.0941   161
13.1041   172
13.1141   164
13.1241   170
13.1341   171
13.1441   165
13.1541   177
13.1641   178
13.1741   190
13.1841   201
13.1941   178
13.2041   165
13.2141   170
13.2241   182
13.2341   187
13.2441   195
13.2541   200
13.2641   217
13.2741   213
13.2841   208
13.2941   221
13.3041   212
13.3141   207
13.3241   197
13.3341   207
13.3441   234
13.3541   245
13.3641   248
13.3741   241
13.3841   232
13.3941   229
13.4041   231
13.4141   232
13.4241   233
13.4341   233
13.4441   230
13.4541   226
13.4641   222
13.4741   218
13.4841   218
13.4941   217
13.5041   210
13.5141   203
13.5241   200
13.5341   195
13.5441   187
13.5541   191
13.5641   199
13.5741   200
13.5841   192
13.5941   186
13.6041   194
13.6141   202
13.6241   197
13.6341   183
13.6441   181
13.6541   212
13.6641   216
13.6741   181
13.6841   180
13.6941   200
13.7041   196
13.7141   185
13.7241   195
13.7341   198
13.7441   195
13.7541   188
13.7641   187
13.7741   193
13.7841   199
13.7941   206
13.8041   206
13.8141   199
13.8241   205
13.8341   203
13.8441   193
13.8541   203
13.8641   215
13.8741   209
13.8841   215
13.8941   248
13.9041   249
13.9141   236
13.9241   245
13.9341   267
13.9441   292
13.9541   312
13.9641   328
13.9741   347
13.9841   370
13.9941   403
14.0041   436
14.0141   463
14.0241   502
14.0341   563
14.0441   618
14.0541   656
14.0641   696
14.0741   749
14.0841   798
14.0941   829
14.1041   855
14.1141   887
14.1241   910
14.1341   928
14.1441   939
14.1541   918
14.1641   886
14.1741   874
14.1841   859
14.1941   830
14.2041   798
14.2141   745
14.2241   690
14.2341   633
14.2441   602
14.2541   556
14.2641   522
14.2741   509
14.2841   448
14.2941   422
14.3041   379
14.3141   335
14.3241   308
14.3341   287
14.3441   264
14.3541   244
14.3641   243
14.3741   252
14.3841   243
14.3941   233
14.4041   230
14.4141   228
14.4241   214
14.4341   213
14.4441   217
14.4541   222
14.4641   222
14.4741   213
14.4841   230
14.4941   228
14.5041   234
14.5141   214
14.5241   223
14.5341   253
14.5441   249
14.5541   256
14.5641   244
14.5741   222
14.5841   221
14.5941   234
14.6041   229
14.6141   210
14.6241   214
14.6341   237
14.6441   232
14.6541   232
14.6641   229
14.6741   223
14.6841   232
14.6941   228
14.7041   238
14.7141   250
14.7241   241
14.7341   229
14.7441   246
14.7541   257
14.7641   259
14.7741   259
14.7841   248
14.7941   242
14.8041   254
14.8141   255
14.8241   258
14.8341   271
14.8441   283
14.8541   290
14.8641   277
14.8741   265
14.8841   293
14.8941   289
14.9041   278
14.9141   292
14.9241   287
14.9341   287
14.9441   293
14.9541   300
14.9641   295
14.9741   315
14.9841   314
14.9941   280
15.0041   288
15.0141   287
15.0241   272
15.0341   288
15.0441   288
15.0541   273
15.0641   262
15.0741   271
15.0841   269
15.0941   265
15.1041   269
15.1141   253
15.1241   263
15.1341   250
15.1441   247
15.1541   246
15.1641   262
15.1741   252
15.1841   233
15.1941   241
15.2041   248
15.2141   249
15.2241   250
15.2341   261
15.2441   243
15.2541   233
15.2641   238
15.2741   255
15.2841   270
15.2941   276
15.3041   258
15.3141   246
15.3241   253
15.3341   275
15.3441   251
15.3541   242
15.3641   265
15.3741   285
15.3841   265
15.3941   263
15.4041   274
15.4141   272
15.4241   265
15.4341   266
15.4441   258
15.4541   260
15.4641   275
15.4741   273
15.4841   275
15.4941   288
15.5041   311
15.5141   300
15.5241   287
15.5341   306
15.5441   331
15.5541   343
15.5641   356
15.5741   376
15.5841   382
15.5941   404
15.6041   415
15.6141   456
15.6241   479
15.6341   475
15.6441   525
15.6541   569
15.6641   575
15.6741   599
15.6841   627
15.6941   638
15.7041   678
15.7141   687
15.7241   698
15.7341   750
15.7441   751
15.7541   750
15.7641   788
15.7741   804
15.7841   795
15.7941   755
15.8041   737
15.8141   749
15.8241   704
15.8341   676
15.8441   666
15.8541   665
15.8641   613
15.8741   589
15.8841   543
15.8941   496
15.9041   499
15.9141   467
15.9241   424
15.9341   429
15.9441   401
15.9541   371
15.9641   381
15.9741   339
15.9841   348
15.9941   352
16.0041   333
16.0141   327
16.0241   329
16.0341   328
16.0441   326
16.0541   306
16.0641   302
16.0741   302
16.0841   305
16.0941   324
16.1041   334
16.1141   323
16.1241   319
16.1341   307
16.1441   312
16.1541   303
16.1641   303
16.1741   301
16.1841   278
16.1941   289
16.2041   320
16.2141   324
16.2241   318
16.2341   326
16.2441   307
16.2541   278
16.2641   304
16.2741   306
16.2841   305
16.2941   318
16.3041   329
16.3141   304
16.3241   287
16.3341   307
16.3441   308
16.3541   322
16.3641   315
16.3741   306
16.3841   320
16.3941   315
16.4041   323
16.4141   341
16.4241   328
16.4341   310
16.4441   310
16.4541   322
16.4641   332
16.4741   327
16.4841   319
16.4941   322
16.5041   322
16.5141   317
16.5241   325
16.5341   343
16.5441   325
16.5541   321
16.5641   359
16.5741   366
16.5841   329
16.5941   315
16.6041   333
16.6141   332
16.6241   338
16.6341   365
16.6441   360
16.6541   342
16.6641   360
16.6741   340
16.6841   360
16.6941   336
16.7041   318
16.7141   315
16.7241   341
16.7341   370
16.7441   361
16.7541   330
16.7641   339
16.7741   337
16.7841   343
16.7941   347
16.8041   316
16.8141   318
16.8241   335
16.8341   335
16.8441   327
16.8541   315
16.8641   320
16.8741   354
16.8841   348
16.8941   331
16.9041   335
16.9141   337
16.9241   324
16.9341   343
16.9441   336
16.9541   338
16.9641   361
16.9741   336
16.9841   327
16.9941   357
17.0041   336
17.0141   341
17.0241   324
17.0341   327
17.0441   319
17.0541   328
17.0641   323
17.0741   334
17.0841   366
17.0941   335
17.1041   323
17.1141   362
17.1241   336
17.1341   345
17.1441   356
17.1541   349
17.1641   341
17.1741   356
17.1841   353
17.1941   353
17.2041   359
17.2141   365
17.2241   368
17.2341   346
17.2441   340
17.2541   354
17.2641   379
17.2741   384
17.2841   361
17.2941   347
17.3041   330
17.3141   353
17.3241   352
17.3341   349
17.3441   364
17.3541   374
17.3641   388
17.3741   359
17.3841   363
17.3941   391
17.4041   390
17.4141   376
17.4241   380
17.4341   377
17.4441   390
17.4541   375
17.4641   360
17.4741   361
17.4841   384
17.4941   384
17.5041   401
17.5141   400
17.5241   400
17.5341   383
17.5441   426
17.5541   415
17.5641   428
17.5741   415
17.5841   434
17.5941   432
17.6041   451
17.6141   425
17.6241   422
17.6341   424
17.6441   402
17.6541   405
17.6641   445
17.6741   441
17.6841   472
17.6941   437
17.7041   423
17.7141   434
17.7241   412
17.7341   413
17.7441   408
17.7541   408
17.7641   430
17.7741   437
17.7841   416
17.7941   408
17.8041   392
17.8141   396
17.8241   391
17.8341   386
17.8441   398
17.8541   409
17.8641   401
17.8741   412
17.8841   404
17.8941   406
17.9041   402
17.9141   391
17.9241   399
17.9341   387
17.9441   390
17.9541   384
17.9641   398
17.9741   404
17.9841   412
17.9941   409
18.0041   402
18.0141   417
18.0241   401
18.0341   395
18.0441   395
18.0541   430
18.0641   417
18.0741   384
18.0841   385
18.0941   402
18.1041   410
18.1141   418
18.1241   393
18.1341   407
18.1441   420
18.1541   396
18.1641   389
18.1741   383
18.1841   412
18.1941   379
18.2041   378
18.2141   390
18.2241   395
18.2341   417
18.2441   408
18.2541   403
18.2641   371
18.2741   394
18.2841   383
18.2941   404
18.3041   387
18.3141   368
18.3241   420
18.3341   411
18.3441   397
18.3541   400
18.3641   441
18.3741   439
18.3841   410
18.3941   424
18.4041   421
18.4141   434
18.4241   421
18.4341   416
18.4441   411
18.4541   428
18.4641   408
18.4741   435
18.4841   400
18.4941   411
18.5041   407
18.5141   415
18.5241   426
18.5341   454
18.5441   434
18.5541   444
18.5641   420
18.5741   422
18.5841   425
18.5941   420
18.6041   449
18.6141   438
18.6241   424
18.6341   440
18.6441   429
18.6541   417
18.6641   409
18.6741   447
18.6841   432
18.6941   423
18.7041   415
18.7141   444
18.7241   431
18.7341   433
18.7441   438
18.7541   414
18.7641   431
18.7741   437
18.7841   448
18.7941   443
18.8041   397
18.8141   449
18.8241   484
18.8341   444
18.8441   438
18.8541   435
18.8641   442
18.8741   440
18.8841   445
18.8941   423
18.9041   432
18.9141   446
18.9241   441
18.9341   462
18.9441   458
18.9541   440
18.9641   442
18.9741   455
18.9841   424
18.9941   409
19.0041   448
19.0141   422
19.0241   454
19.0341   445
19.0441   436
19.0541   433
19.0641   448
19.0741   462
19.0841   469
19.0941   440
19.1041   422
19.1141   450
19.1241   462
19.1341   493
19.1441   442
19.1541   442
19.1641   433
19.1741   454
19.1841   439
19.1941   444
19.2041   446
19.2141   464
19.2241   455
19.2341   457
19.2441   439
19.2541   423
19.2641   415
19.2741   436
19.2841   476
19.2941   441
19.3041   452
19.3141   446
19.3241   471
19.3341   442
19.3441   453
19.3541   432
19.3641   436
19.3741   442
19.3841   443
19.3941   480
19.4041   439
19.4141   450
19.4241   480
19.4341   469
19.4441   482
19.4541   449
19.4641   468
19.4741   462
19.4841   472
19.4941   490
19.5041   492
19.5141   448
19.5241   450
19.5341   488
19.5441   484
19.5541   475
19.5641   474
19.5741   463
19.5841   468
19.5941   488
19.6041   507
19.6141   445
19.6241   495
19.6341   488
19.6441   449
19.6541   495
19.6641   485
19.6741   474
19.6841   454
19.6941   453
19.7041   487
19.7141   473
19.7241   445
19.7341   449
19.7441   450
19.7541   464
19.7641   473
19.7741   470
19.7841   481
19.7941   480
19.8041   486
19.8141   496
19.8241   497
19.8341   496
19.8441   516
19.8541   456
19.8641   495
19.8741   478
19.8841   467
19.8941   459
19.9041   482
19.9141   524
19.9241   471
19.9341   469
19.9441   502
19.9541   489
19.9641   495
19.9741   496
19.9841   472
19.9941   478
20.0041   512
20.0141   503
20.0241   491
20.0341   491
20.0441   513
20.0541   496
20.0641   499
20.0741   488
20.0841   518
20.0941   506
20.1041   463
20.1141   456
20.1241   496
20.1341   467
20.1441   471
20.1541   507
20.1641   489
20.1741   498
20.1841   491
20.1941   494
20.2041   477
20.2141   484
20.2241   514
20.2341   479
20.2441   460
20.2541   515
20.2641   495
20.2741   470
20.2841   478
20.2941   487
20.3041   499
20.3141   488
20.3241   511
20.3341   516
20.3441   498
20.3541   515
20.3641   475
20.3741   487
20.3841   497
20.3941   497
20.4041   491
20.4141   495
20.4241   490
20.4341   510
20.4441   551
20.4541   502
20.4641   494
20.4741   507
20.4841   487
20.4941   505
20.5041   489
20.5141   525
20.5241   505
20.5341   508
20.5441   522
20.5541   480
20.5641   522
20.5741   546
20.5841   496
20.5941   504
20.6041   511
20.6141   502
20.6241   509
20.6341   509
20.6441   519
20.6541   529
20.6641   546
20.6741   522
20.6841   549
20.6941   522
20.7041   510
20.7141   496
20.7241   466
20.7341   529
20.7441   525
20.7541   520
20.7641   551
20.7741   565
20.7841   529
20.7941   520
20.8041   526
20.8141   552
20.8241   533
20.8341   558
20.8441   529
20.8541   585
20.8641   534
20.8741   589
20.8841   600
20.8941   598
20.9041   615
20.9141   602
20.9241   646
20.9341   626
20.9441   634
20.9541   665
20.9641   649
20.9741   658
20.9841   673
20.9941   721
21.0041   755
21.0141   742
21.0241   755
21.0341   773
21.0441   758
21.0541   775
21.0641   796
21.0741   830
21.0841   822
21.0941   811
21.1041   778
21.1141   811
21.1241   888
21.1341   830
21.1441   880
21.1541   884
21.1641   832
21.1741   803
21.1841   836
21.1941   818
21.2041   791
21.2141   761
21.2241   791
21.2341   786
21.2441   746
21.2541   720
21.2641   695
21.2741   686
21.2841   679
21.2941   607
21.3041   684
21.3141   628
21.3241   619
21.3341   606
21.3441   582
21.3541   551
21.3641   586
21.3741   551
21.3841   588
21.3941   614
21.4041   489
21.4141   514
21.4241   544
21.4341   571
21.4441   565
21.4541   531
21.4641   533
21.4741   527
21.4841   551
21.4941   518
21.5041   500
21.5141   550
21.5241   536
21.5341   530
21.5441   494
21.5541   545
21.5641   486
21.5741   518
21.5841   536
21.5941   531
21.6041   512
21.6141   518
21.6241   524
21.6341   543
21.6441   568
21.6541   549
21.6641   494
21.6741   514
21.6841   560
21.6941   526
21.7041   560
21.7141   555
21.7241   536
21.7341   525
21.7441   536
21.7541   511
21.7641   535
21.7741   529
21.7841   554
21.7941   543
21.8041   567
21.8141   552
21.8241   549
21.8341   525
21.8441   523
21.8541   525
21.8641   524
21.8741   544
21.8841   536
21.8941   484
21.9041   538
21.9141   548
21.9241   568
21.9341   521
21.9441   512
21.9541   538
21.9641   525
21.9741   500
21.9841   548
21.9941   517
22.0041   518
22.0141   528
22.0241   543
22.0341   532
22.0441   540
22.0541   506
22.0641   553
22.0741   529
22.0841   507
22.0941   537
22.1041   539
22.1141   556
22.1241   548
22.1341   526
22.1441   520
22.1541   537
22.1641   543
22.1741   547
22.1841   527
22.1941   517
22.2041   548
22.2141   539
22.2241   552
22.2341   567
22.2441   516
22.2541   522
22.2641   549
22.2741   552
22.2841   540
22.2941   538
22.3041   507
22.3141   531
22.3241   555
22.3341   543
22.3441   554
22.3541   531
22.3641   535
22.3741   523
22.3841   516
22.3941   566
22.4041   538
22.4141   527
22.4241   561
22.4341   540
22.4441   547
22.4541   580
22.4641   526
22.4741   584
22.4841   530
22.4941   551
22.5041   554
22.5141   511
22.5241   550
22.5341   545
22.5441   566
22.5541   515
22.5641   561
22.5741   570
22.5841   513
22.5941   552
22.6041   527
22.6141   507
22.6241   512
22.6341   515
22.6441   499
22.6541   556
22.6641   539
22.6741   527
22.6841   550
22.6941   528
22.7041   606
22.7141   552
22.7241   554
22.7341   568
22.7441   528
22.7541   528
22.7641   522
22.7741   499
22.7841   504
22.7941   517
22.8041   555
22.8141   543
22.8241   533
22.8341   531
22.8441   558
22.8541   542
22.8641   603
22.8741   566
22.8841   532
22.8941   572
22.9041   522
22.9141   541
22.9241   488
22.9341   557
22.9441   537
22.9541   539
22.9641   570
22.9741   544
22.9841   545
22.9941   552
23.0041   579
23.0141   512
23.0241   538
23.0341   541
23.0441   538
23.0541   547
23.0641   563
23.0741   546
23.0841   510
23.0941   533
23.1041   505
23.1141   564
23.1241   475
23.1341   533
23.1441   535
23.1541   541
23.1641   526
23.1741   554
23.1841   582
23.1941   585
23.2041   571
23.2141   528
23.2241   552
23.2341   544
23.2441   505
23.2541   513
23.2641   505
23.2741   564
23.2841   543
23.2941   519
23.3041   578
23.3141   565
23.3241   521
23.3341   528
23.3441   531
23.3541   508
23.3641   511
23.3741   535
23.3841   528
23.3941   492
23.4041   575
23.4141   565
23.4241   495
23.4341   504
23.4441   534
23.4541   526
23.4641   489
23.4741   540
23.4841   526
23.4941   512
23.5041   571
23.5141   534
23.5241   528
23.5341   544
23.5441   533
23.5541   517
23.5641   541
23.5741   557
23.5841   553
23.5941   551
23.6041   504
23.6141   561
23.6241   564
23.6341   518
23.6441   584
23.6541   527
23.6641   565
23.6741   559
23.6841   544
23.6941   591
23.7041   522
23.7141   594
23.7241   596
23.7341   605
23.7441   523
23.7541   578
23.7641   579
23.7741   560
23.7841   575
23.7941   598
23.8041   605
23.8141   529
23.8241   536
23.8341   567
23.8441   583
23.8541   554
23.8641   570
23.8741   581
23.8841   583
23.8941   533
23.9041   555
23.9141   548
23.9241   576
23.9341   561
23.9441   578
23.9541   487
23.9641   513
23.9741   503
23.9841   515
23.9941   525
24.0041   562
24.0141   537
24.0241   526
24.0341   516
24.0441   551
24.0541   587
24.0641   543
24.0741   536
24.0841   527
24.0941   543
24.1041   528
24.1141   540
24.1241   571
24.1341   581
24.1441   551
24.1541   521
24.1641   525
24.1741   528
24.1841   554
24.1941   516
24.2041   530
24.2141   499
24.2241   547
24.2341   527
24.2441   492
24.2541   542
24.2641   516
24.2741   531
24.2841   512
24.2941   511
24.3041   516
24.3141   496
24.3241   552
24.3341   527
24.3441   490
24.3541   537
24.3641   552
24.3741   491
24.3841   517
24.3941   474
24.4041   521
24.4141   527
24.4241   509
24.4341   502
24.4441   531
24.4541   513
24.4641   496
24.4741   524
24.4841   507
24.4941   521
24.5041   536
24.5141   509
24.5241   523
24.5341   494
24.5441   528
24.5541   496
24.5641   539
24.5741   521
24.5841   501
24.5941   494
24.6041   538
24.6141   473
24.6241   488
24.6341   509
24.6441   482
24.6541   474
24.6641   473
24.6741   512
24.6841   495
24.6941   516
24.7041   506
24.7141   487
24.7241   530
24.7341   489
24.7441   550
24.7541   482
24.7641   496
24.7741   504
24.7841   490
24.7941   501
24.8041   498
24.8141   521
24.8241   503
24.8341   506
24.8441   470
24.8541   520
24.8641   493
24.8741   514
24.8841   481
24.8941   478
24.9041   477
24.9141   488
24.9241   506
24.9341   504
24.9441   500
24.9541   498
24.9641   496
24.9741   466
24.9841   491
24.9941   474
25.0041   507
25.0141   523
25.0241   500
25.0341   539
25.0441   527
25.0541   502
25.0641   503
25.0741   471
25.0841   505
25.0941   550
25.1041   528
25.1141   508
25.1241   479
25.1341   501
25.1441   506
25.1541   485
25.1641   511
25.1741   522
25.1841   550
25.1941   466
25.2041   510
25.2141   460
25.2241   510
25.2341   515
25.2441   531
25.2541   495
25.2641   517
25.2741   501
25.2841   503
25.2941   504
25.3041   530
25.3141   536
25.3241   490
25.3341   508
25.3441   510
25.3541   498
25.3641   473
25.3741   487
25.3841   489
25.3941   496
25.4041   535
25.4141   472
25.4241   445
25.4341   494
25.4441   478
25.4541   524
25.4641   446
25.4741   471
25.4841   488
25.4941   497
25.5041   510
25.5141   495
25.5241   498
25.5341   494
25.5441   504
25.5541   496
25.5641   477
25.5741   498
25.5841   470
25.5941   431
25.6041   455
25.6141   474
25.6241   486
25.6341   513
25.6441   478
25.6541   458
25.6641   471
25.6741   464
25.6841   463
25.6941   493
25.7041   484
25.7141   466
25.7241   458
25.7341   439
25.7441   491
25.7541   482
25.7641   488
25.7741   452
25.7841   449
25.7941   483
25.8041   494
25.8141   505
25.8241   451
25.8341   476
25.8441   474
25.8541   471
25.8641   437
25.8741   455
25.8841   495
25.8941   497
25.9041   477
25.9141   484
25.9241   493
25.9341   454
25.9441   475
25.9541   464
25.9641   495
25.9741   459
25.9841   450
25.9941   476
26.0041   494
26.0141   466
26.0241   441
26.0341   475
26.0441   458
26.0541   457
26.0641   459
26.0741   475
26.0841   489
26.0941   503
26.1041   505
26.1141   512
26.1241   484
26.1341   485
26.1441   464
26.1541   495
26.1641   457
26.1741   451
26.1841   458
26.1941   487
26.2041   489
26.2141   501
26.2241   467
26.2341   449
26.2441   451
26.2541   482
26.2641   460
26.2741   462
26.2841   481
26.2941   446
26.3041   426
26.3141   452
26.3241   436
26.3341   428
26.3441   451
26.3541   487
26.3641   421
26.3741   440
26.3841   440
26.3941   447
26.4041   440
26.4141   491
26.4241   437
26.4341   448
26.4441   429
26.4541   472
26.4641   449
26.4741   454
26.4841   463
26.4941   432
26.5041   468
26.5141   465
26.5241   445
26.5341   483
26.5441   440
26.5541   431
26.5641   446
26.5741   430
26.5841   460
26.5941   480
26.6041   411
26.6141   435
26.6241   485
26.6341   410
26.6441   448
26.6541   432
26.6641   453
26.6741   472
26.6841   431
26.6941   439
26.7041   426
26.7141   438
26.7241   440
26.7341   452
26.7441   415
26.7541   461
26.7641   421
26.7741   434
26.7841   423
26.7941   468
26.8041   449
26.8141   427
26.8241   378
26.8341   422
26.8441   425
26.8541   446
26.8641   448
26.8741   443
26.8841   452
26.8941   438
26.9041   480
26.9141   417
26.9241   380
26.9341   413
26.9441   407
26.9541   404
26.9641   418
26.9741   428
26.9841   424
26.9941   454
27.0041   426
27.0141   440
27.0241   445
27.0341   447
27.0441   405
27.0541   453
27.0641   422
27.0741   403
27.0841   413
27.0941   430
27.1041   437
27.1141   436
27.1241   433
27.1341   429
27.1441   437
27.1541   435
27.1641   426
27.1741   413
27.1841   430
27.1941   425
27.2041   415
27.2141   416
27.2241   437
27.2341   444
27.2441   453
27.2541   435
27.2641   436
27.2741   398
27.2841   407
27.2941   427
27.3041   429
27.3141   404
27.3241   453
27.3341   414
27.3441   402
27.3541   434
27.3641   402
27.3741   417
27.3841   430
27.3941   406
27.4041   446
27.4141   403
27.4241   428
27.4341   418
27.4441   440
27.4541   433
27.4641   419
27.4741   415
27.4841   405
27.4941   427
27.5041   422
27.5141   410
27.5241   441
27.5341   408
27.5441   404
27.5541   423
27.5641   386
27.5741   415
27.5841   422
27.5941   428
27.6041   414
27.6141   419
27.6241   405
27.6341   423
27.6441   400
27.6541   404
27.6641   389
27.6741   402
27.6841   394
27.6941   403
27.7041   381
27.7141   414
27.7241   397
27.7341   375
27.7441   390
27.7541   403
27.7641   387
27.7741   427
27.7841   433
27.7941   408
27.8041   405
27.8141   390
27.8241   380
27.8341   356
27.8441   390
27.8541   392
27.8641   388
27.8741   401
27.8841   420
27.8941   439
27.9041   425
27.9141   384
27.9241   381
27.9341   425
27.9441   420
27.9541   384
27.9641   424
27.9741   415
27.9841   378
27.9941   382
28.0041   398
28.0141   400
28.0241   404
28.0341   389
28.0441   349
28.0541   372
28.0641   378
28.0741   382
28.0841   374
28.0941   371
28.1041   388
28.1141   412
28.1241   350
28.1341   387
28.1441   407
28.1541   383
28.1641   398
28.1741   402
28.1841   363
28.1941   378
28.2041   384
28.2141   413
28.2241   371
28.2341   382
28.2441   374
28.2541   372
28.2641   396
28.2741   394
28.2841   414
28.2941   415
28.3041   407
28.3141   370
28.3241   373
28.3341   380
28.3441   398
28.3541   401
28.3641   402
28.3741   391
28.3841   400
28.3941   415
28.4041   393
28.4141   400
28.4241   398
28.4341   377
28.4441   374
28.4541   417
28.4641   380
28.4741   363
28.4841   366
28.4941   397
28.5041   411
28.5141   374
28.5241   392
28.5341   402
28.5441   396
28.5541   391
28.5641   367
28.5741   366
28.5841   383
28.5941   364
28.6041   389
28.6141   383
28.6241   371
28.6341   381
28.6441   378
28.6541   363
28.6641   379
28.6741   373
28.6841   351
28.6941   373
28.7041   352
28.7141   334
28.7241   383
28.7341   365
28.7441   334
28.7541   345
28.7641   347
28.7741   362
28.7841   346
28.7941   363
28.8041   353
28.8141   368
28.8241   370
28.8341   341
28.8441   365
28.8541   368
28.8641   352
28.8741   356
28.8841   338
28.8941   372
28.9041   340
28.9141   366
28.9241   399
28.9341   334
28.9441   360
28.9541   340
28.9641   355
28.9741   351
28.9841   352
28.9941   373
29.0041   335
29.0141   327
29.0241   360
29.0341   322
29.0441   353
29.0541   373
29.0641   343
29.0741   320
29.0841   362
29.0941   338
29.1041   341
29.1141   365
29.1241   334
29.1341   336
29.1441   344
29.1541   334
29.1641   339
29.1741   357
29.1841   334
29.1941   298
29.2041   346
29.2141   354
29.2241   318
29.2341   339
29.2441   336
29.2541   295
29.2641   324
29.2741   351
29.2841   324
29.2941   314
29.3041   330
29.3141   296
29.3241   353
29.3341   314
29.3441   328
29.3541   328
29.3641   345
29.3741   333
29.3841   339
29.3941   366
29.4041   373
29.4141   345
29.4241   357
29.4341   335
29.4441   317
29.4541   350
29.4641   341
29.4741   313
29.4841   336
29.4941   354
29.5041   336
29.5141   341
29.5241   362
29.5341   321
29.5441   322
29.5541   327
29.5641   327
29.5741   350
29.5841   335
29.5941   327
29.6041   306
29.6141   300
29.6241   327
29.6341   312
29.6441   309
29.6541   327
29.6641   326
29.6741   307
29.6841   335
29.6941   312
29.7041   325
29.7141   327
29.7241   336
29.7341   349
29.7441   298
29.7541   332
29.7641   326
29.7741   327
29.7841   344
29.7941   331
29.8041   348
29.8141   303
29.8241   320
29.8341   316
29.8441   341
29.8541   322
29.8641   312
29.8741   324
29.8841   316
29.8941   295
29.9041   326
29.9141   308
29.9241   281
29.9341   310
29.9441   340
29.9541   332
29.9641   327
29.9741   296
29.9841   327
29.9941   333
30.0041   306
30.0141   306
30.0241   299
30.0341   310
30.0441   331
30.0541   321
30.0641   279
30.0741   292
30.0841   325
30.0941   308
30.1041   296
30.1141   295
30.1241   305
30.1341   306
30.1441   341
30.1541   322
30.1641   302
30.1741   314
30.1841   320
30.1941   287
30.2041   305
30.2141   289
30.2241   292
30.2341   299
30.2441   300
30.2541   295
30.2641   332
30.2741   302
30.2841   283
30.2941   279
30.3041   270
30.3141   301
30.3241   266
30.3341   299
30.3441   302
30.3541   293
30.3641   286
30.3741   289
30.3841   282
30.3941   294
30.4041   284
30.4141   280
30.4241   291
30.4341   276
30.4441   291
30.4541   289
30.4641   287
30.4741   332
30.4841   271
30.4941   291
30.5041   284
30.5141   332
30.5241   327
30.5341   288
30.5441   282
30.5541   290
30.5641   307
30.5741   301
30.5841   282
30.5941   295
30.6041   298
30.6141   276
30.6241   265
30.6341   264
30.6441   280
30.6541   269
30.6641   267
30.6741   275
30.6841   284
30.6941   286
30.7041   267
30.7141   267
30.7241   313
30.7341   294
30.7441   267
30.7541   267
30.7641   298
30.7741   286
30.7841   254
30.7941   252
30.8041   291
30.8141   278
30.8241   292
30.8341   272
30.8441   276
30.8541   274
30.8641   272
30.8741   278
30.8841   275
30.8941   285
30.9041   257
30.9141   277
30.9241   275
30.9341   251
30.9441   283
30.9541   234
30.9641   271
30.9741   249
30.9841   251
30.9941   300
31.0041   263
31.0141   271
31.0241   304
31.0341   289
31.0441   262
31.0541   285
31.0641   269
31.0741   278
31.0841   260
31.0941   283
31.1041   246
31.1141   256
31.1241   247
31.1341   266
31.1441   276
31.1541   259
31.1641   254
31.1741   216
31.1841   244
31.1941   252
31.2041   287
31.2141   263
31.2241   260
31.2341   266
31.2441   259
31.2541   264
31.2641   234
31.2741   258
31.2841   230
31.2941   255
31.3041   259
31.3141   247
31.3241   277
31.3341   259
31.3441   227
31.3541   243
31.3641   267
31.3741   236
31.3841   257
31.3941   253
31.4041   262
31.4141   289
31.4241   280
31.4341   262
31.4441   294
31.4541   262
31.4641   255
31.4741   258
31.4841   247
31.4941   242
31.5041   251
31.5141   244
31.5241   279
31.5341   241
31.5441   232
31.5541   241
31.5641   253
31.5741   235
31.5841   248
31.5941   253
31.6041   244
31.6141   218
31.6241   259
31.6341   280
31.6441   264
31.6541   247
31.6641   240
31.6741   272
31.6841   258
31.6941   246
31.7041   239
31.7141   253
31.7241   226
31.7341   232
31.7441   243
31.7541   249
31.7641   271
31.7741   255
31.7841   260
31.7941   246
31.8041   237
31.8141   252
31.8241   253
31.8341   260
31.8441   239
31.8541   232
31.8641   226
31.8741   248
31.8841   257
31.8941   256
31.9041   247
31.9141   250
31.9241   239
31.9341   242
31.9441   260
31.9541   242
31.9641   252
31.9741   255
31.9841   227
31.9941   264
32.0041   244
32.0141   254
32.0241   236
32.0341   271
32.0441   243
32.0541   234
32.0641   272
32.0741   251
32.0841   210
32.0941   207
32.1041   225
32.1141   250
32.1241   219
32.1341   254
32.1441   236
32.1541   266
32.1641   245
32.1741   233
32.1841   254
32.1941   247
32.2041   257
32.2141   247
32.2241   256
32.2341   249
32.2441   254
32.2541   266
32.2641   223
32.2741   247
32.2841   242
32.2941   275
32.3041   237
32.3141   232
32.3241   225
32.3341   218
32.3441   237
32.3541   241
32.3641   231
32.3741   231
32.3841   232
32.3941   198
32.4041   238
32.4141   236
32.4241   212
32.4341   218
32.4441   265
32.4541   241
32.4641   200
32.4741   216
32.4841   210
32.4941   215
32.5041   227
32.5141   196
32.5241   247
32.5341   189
32.5441   211
32.5541   196
32.5641   196
32.5741   215
32.5841   205
32.5941   203
32.6041   212
32.6141   215
32.6241   211
32.6341   208
32.6441   189
32.6541   210
32.6641   208
32.6741   218
32.6841   226
32.6941   199
32.7041   205
32.7141   235
32.7241   192
32.7341   217
32.7441   213
32.7541   202
32.7641   195
32.7741   189
32.7841   185
32.7941   227
32.8041   217
32.8141   210
32.8241   217
32.8341   208
32.8441   203
32.8541   200
32.8641   186
32.8741   193
32.8841   203
32.8941   200
32.9041   209
32.9141   196
32.9241   188
32.9341   199
32.9441   207
32.9541   229
32.9641   185
32.9741   192
32.9841   193
32.9941   198
33.0041   211
33.0141   204
33.0241   202
33.0341   182
33.0441   194
33.0541   191
33.0641   167
33.0741   175
33.0841   208
33.0941   203
33.1041   204
33.1141   202
33.1241   200
33.1341   202
33.1441   186
33.1541   187
33.1641   195
33.1741   192
33.1841   213
33.1941   182
33.2041   180
33.2141   182
33.2241   185
33.2341   174
33.2441   181
33.2541   202
33.2641   208
33.2741   175
33.2841   209
33.2941   160
33.3041   184
33.3141   181
33.3241   191
33.3341   187
33.3441   197
33.3541   179
33.3641   191
33.3741   189
33.3841   172
33.3941   177
33.4041   171
33.4141   179
33.4241   160
33.4341   178
33.4441   179
33.4541   188
33.4641   192
33.4741   172
33.4841   180
33.4941   179
33.5041   175
33.5141   178
33.5241   178
33.5341   183
33.5441   203
33.5541   157
33.5641   173
33.5741   179
33.5841   173
33.5941   161
33.6041   197
33.6141   202
33.6241   165
33.6341   200
33.6441   195
33.6541   187
33.6641   160
33.6741   148
33.6841   157
33.6941   166
33.7041   171
33.7141   164
33.7241   182
33.7341   176
33.7441   176
33.7541   181
33.7641   161
33.7741   187
33.7841   160
33.7941   168
33.8041   176
33.8141   167
33.8241   164
33.8341   156
33.8441   194
33.8541   160
33.8641   175
33.8741   157
33.8841   182
33.8941   188
33.9041   162
33.9141   142
33.9241   158
33.9341   164
33.9441   157
33.9541   181
33.9641   152
33.9741   174
33.9841   156
33.9941   166
34.0041   166
34.0141   169
34.0241   162
34.0341   157
34.0441   168
34.0541   155
34.0641   150
34.0741   160
34.0841   179
34.0941   158
34.1041   160
34.1141   171
34.1241   141
34.1341   142
34.1441   169
34.1541   158
34.1641   175
34.1741   149
34.1841   169
34.1941   182
34.2041   168
34.2141   166
34.2241   157
34.2341   138
34.2441   155
34.2541   164
34.2641   153
34.2741   184
34.2841   161
34.2941   140
34.3041   150
34.3141   153
34.3241   140
34.3341   163
34.3441   155
34.3541   137
34.3641   136
34.3741   168
34.3841   141
34.3941   150
34.4041   138
34.4141   148
34.4241   147
34.4341   142
34.4441   138
34.4541   162
34.4641   147
34.4741   138
34.4841   141
34.4941   152
34.5041   133
34.5141   147
34.5241   153
34.5341   148
34.5441   145
34.5541   150
34.5641   154
34.5741   144
34.5841   150
34.5941   153
34.6041   138
34.6141   169
34.6241   130
34.6341   150
34.6441   160
34.6541   159
34.6641   148
34.6741   159
34.6841   153
34.6941   129
34.7041   146
34.7141   149
34.7241   146
34.7341   139
34.7441   135
34.7541   145
34.7641   133
34.7741   148
34.7841   151
34.7941   152
34.8041   129
34.8141   132
34.8241   129
34.8341   144
34.8441   138
34.8541   138
34.8641   133
34.8741   137
34.8841   131
34.8941   138
34.9041   154
34.9141   122
34.9241   137
34.9341   127
34.9441   139
34.9541   137
34.9641   150
34.9741   133
34.9841   128
34.9941   125
35.0041   137
35.0141   148
35.0241   136
35.0341   142
35.0441   145
35.0541   126
35.0641   135
35.0741   136
35.0841   131
35.0941   132
35.1041   136
35.1141   152
35.1241   145
35.1341   130
35.1441   140
35.1541   145
35.1641   143
35.1741   140
35.1841   139
35.1941   117
35.2041   125
35.2141   137
35.2241   141
35.2341   121
35.2441   113
35.2541   134
35.2641   124
35.2741   133
35.2841   139
35.2941   124
35.3041   108
35.3141   126
35.3241   128
35.3341   140
35.3441   143
35.3541   128
35.3641   124
35.3741   123
35.3841   117
35.3941   145
35.4041   144
35.4141   130
35.4241   133
35.4341   122
35.4441   126
35.4541   138
35.4641   131
35.4741   126
35.4841   119
35.4941   120
35.5041   131
35.5141   120
35.5241   110
35.5341   113
35.5441   127
35.5541   118
35.5641   142
35.5741   123
35.5841   103
35.5941   107
35.6041   114
35.6141   124
35.6241   122
35.6341   128
35.6441   118
35.6541   107
35.6641   108
35.6741   118
35.6841   109
35.6941   122
35.7041   126
35.7141   134
35.7241   128
35.7341   111
35.7441   124
35.7541    94
35.7641   104
35.7741   114
35.7841   116
35.7941   118
35.8041    99
35.8141   130
35.8241   129
35.8341   117
35.8441   108
35.8541   127
35.8641   115
35.8741   119
35.8841   111
35.8941   121
35.9041   117
35.9141   123
35.9241   113
35.9341    98
35.9441   113
35.9541    87
35.9641   129
35.9741   120
35.9841   129
35.9941   122
36.0041   125
36.0141   114
36.0241   109
36.0341   127
36.0441   110
36.0541   102
36.0641   108
36.0741   130
36.0841   117
36.0941    97
36.1041   113
36.1141   104
36.1241   110
36.1341   107
36.1441   107
36.1541   120
36.1641   114
36.1741   110
36.1841    84
36.1941   111
36.2041   116
36.2141   108
36.2241   118
36.2341   111
36.2441   119
36.2541   108
36.2641   116
36.2741   115
36.2841   106
36.2941   104
36.3041   129
36.3141   107
36.3241   114
36.3341   103
36.3441   120
36.3541   104
36.3641   108
36.3741   113
36.3841   105
36.3941   101
36.4041   111
36.4141   100
36.4241    90
36.4341   110
36.4441   105
36.4541   101
36.4641    96
36.4741   101
36.4841    85
36.4941   100
36.5041    82
36.5141    98
36.5241   100
36.5341    99
36.5441    92
36.5541   112
36.5641    93
36.5741    94
36.5841   100
36.5941    99
36.6041   100
36.6141    98
36.6241   121
36.6341   107
36.6441    88
36.6541    94
36.6641    88
36.6741    89
36.6841   106
36.6941   113
36.7041   103
36.7141    97
36.7241    97
36.7341    94
36.7441    88
36.7541   101
36.7641    86
36.7741    83
36.7841    98
36.7941    89
36.8041    89
36.8141    95
36.8241    89
36.8341   110
36.8441   100
36.8541    89
36.8641    91
36.8741    99
36.8841    91
36.8941   100
36.9041    97
36.9141    86
36.9241    86
36.9341    98
36.9441    83
36.9541   100
36.9641    88
36.9741    79
36.9841    83
36.9941   109
37.0041    92
37.0141    90
37.0241    75
37.0341   100
37.0441    95
37.0541    91
37.0641    89
37.0741    77
37.0841    94
37.0941    89
37.1041    82
37.1141   105
37.1241    74
37.1341    79
37.1441   108
37.1541    84
37.1641    85
37.1741    91
37.1841    87
37.1941    89
37.2041    86
37.2141    67
37.2241    98
37.2341    90
37.2441    91
37.2541    76
37.2641    74
37.2741    93
37.2841    65
37.2941    90
37.3041    77
37.3141    84
37.3241    82
37.3341    83
37.3441    77
37.3541    94
37.3641    69
37.3741    72
37.3841    86
37.3941    68
37.4041    90
37.4141    75
37.4241    71
37.4341    72
37.4441    97
37.4541    82
37.4641    84
37.4741    72
37.4841    78
37.4941    86
37.5041    90
37.5141    72
37.5241    75
37.5341    62
37.5441    69
37.5541    91
37.5641    74
37.5741    83
37.5841    72
37.5941    72
37.6041    57
37.6141    81
37.6241    86
37.6341    86
37.6441    87
37.6541    84
37.6641    74
37.6741    76
37.6841    62
37.6941    81
37.7041    82
37.7141    81
37.7241    73
37.7341    59
37.7441    52
37.7541    65
37.7641    72
37.7741    59
37.7841    79
37.7941    81
37.8041    79
37.8141    65
37.8241    82
37.8341    74
37.8441    68
37.8541    88
37.8641    74
37.8741    62
37.8841    77
37.8941    77
37.9041    51
37.9141    57
37.9241    59
37.9341    67
37.9441    62
37.9541    63
37.9641    66
37.9741    74
37.9841    77
37.9941    76
38.0041    57
38.0141    62
38.0241    63
38.0341    60
38.0441    73
38.0541    69
38.0641    63
38.0741    61
38.0841    60
38.0941    63
38.1041    65
38.1141    68
38.1241    45
38.1341    74
38.1441    57
38.1541    61
38.1641    75
38.1741    54
38.1841    72
38.1941    69
38.2041    61
38.2141    44
38.2241    55
38.2341    57
38.2441    73
38.2541    62
38.2641    61
38.2741    57
38.2841    56
38.2941    64
38.3041    67
38.3141    72
38.3241    60
38.3341    55
38.3441    60
38.3541    57
38.3641    57
38.3741    60
38.3841    68
38.3941    57
38.4041    68
38.4141    53
38.4241    56
38.4341    64
38.4441    70
38.4541    54
38.4641    56
38.4741    59
38.4841    54
38.4941    41
38.5041    47
38.5141    51
38.5241    49
38.5341    60
38.5441    51
38.5541    74
38.5641    62
38.5741    63
38.5841    62
38.5941    59
38.6041    62
38.6141    60
38.6241    58
38.6341    55
38.6441    58
38.6541    62
38.6641    66
38.6741    43
38.6841    53
38.6941    50
38.7041    63
38.7141    58
38.7241    61
38.7341    66
38.7441    55
38.7541    50
38.7641    59
38.7741    43
38.7841    57
38.7941    65
38.8041    50
38.8141    42
38.8241    45
38.8341    69
38.8441    54
38.8541    51
38.8641    49
38.8741    47
38.8841    41
38.8941    66
38.9041    59
38.9141    52
38.9241    38
38.9341    38
38.9441    46
38.9541    51
38.9641    58
38.9741    44
38.9841    57
38.9941    40
39.0041    53
39.0141    40
39.0241    38
39.0341    63
39.0441    50
39.0541    63
39.0641    49
39.0741    36
39.0841    51
39.0941    55
39.1041    43
39.1141    43
39.1241    41
39.1341    44
39.1441    42
39.1541    46
39.1641    40
39.1741    24
39.1841    44
39.1941    47
39.2041    47
39.2141    47
39.2241    42
39.2341    48
39.2441    58
39.2541    49
39.2641    43
39.2741    53
39.2841    56
39.2941    46
39.3041    48
39.3141    35
39.3241    47
39.3341    43
39.3441    55
39.3541    40
39.3641    42
39.3741    41
39.3841    37
39.3941    42
39.4041    48
39.4141    34
39.4241    54
39.4341    43
39.4441    48
39.4541    51
39.4641    37
39.4741    43
39.4841    46
39.4941    40
39.5041    44
39.5141    39
39.5241    33
39.5341    45
39.5441    44
39.5541    37
39.5641    37
39.5741    43
39.5841    44
39.5941    42
39.6041    32
39.6141    52
39.6241    45
39.6341    37
39.6441    45
39.6541    41
39.6641    34
39.6741    34
39.6841    40
39.6941    30
39.7041    40
39.7141    46
39.7241    27
39.7341    50
39.7441    47
39.7541    49
39.7641    44
39.7741    24
39.7841    35
39.7941    42
39.8041    30
39.8141    33
39.8241    51
39.8341    41
39.8441    42
39.8541    35
39.8641    34
39.8741    38
39.8841    35
39.8941    46
39.9041    43
39.9141    31
39.9241    26
39.9341    36
39.9441    39
39.9541    46
39.9641    36
39.9741    41
39.9841    31
