Bruker Nano GmbH Berlin, Germany
Esprit 1.9

Date: 4/21/2021 2:24:51 PM
Real time: 25508
Life time: 23907
Pulse density: 91047


Detector type: XFlash 430
Window type: Custom type
Detector thickness: 0.45
Si dead layer:0.029

Calibration, lin.: 10
Calibration, abs.: -955.9
Mn FWHM: 137.05
Fano factor: 0.121
Channels: 4095

Energy Counts
-0.9559     0
-0.9459     0
-0.9359     0
-0.9259     0
-0.9159     0
-0.9059     0
-0.8959     0
-0.8859     0
-0.8759     0
-0.8659     0
-0.8559     0
-0.8459     0
-0.8359     0
-0.8259     0
-0.8159     0
-0.8059     0
-0.7959     0
-0.7859     0
-0.7759     0
-0.7659     0
-0.7559     0
-0.7459     0
-0.7359     0
-0.7259     0
-0.7159     0
-0.7059     0
-0.6959     0
-0.6859     0
-0.6759     0
-0.6659     0
-0.6559     0
-0.6459     0
-0.6359     0
-0.6259     0
-0.6159     0
-0.6059     0
-0.5959     0
-0.5859     0
-0.5759     0
-0.5659     0
-0.5559     0
-0.5459     0
-0.5359     0
-0.5259     0
-0.5159     0
-0.5059     0
-0.4959     0
-0.4859     0
-0.4759     0
-0.4659     0
-0.4559     0
-0.4459     0
-0.4359     0
-0.4259     0
-0.4159     0
-0.4059     0
-0.3959     0
-0.3859     0
-0.3759     0
-0.3659     0
-0.3559     0
-0.3459     0
-0.3359     0
-0.3259     0
-0.3159     0
-0.3059     0
-0.2959     0
-0.2859     0
-0.2759     0
-0.2659     0
-0.2559     0
-0.2459     0
-0.2359     0
-0.2259     0
-0.2159     0
-0.2059     0
-0.1959     0
-0.1859     0
-0.1759     0
-0.1659     0
-0.1559     0
-0.1459     0
-0.1359     1
-0.1259     2
-0.1159     3
-0.1059    17
-0.0959    85
-0.0859   287
-0.0759   892
-0.0659  2737
-0.0559  6794
-0.0459 15247
-0.0359 28311
-0.0259 45516
-0.0159 62868
-0.0059 73176
 0.0041 73793
 0.0141 63201
 0.0241 46677
 0.0341 29581
 0.0441 16091
 0.0541  7710
 0.0641  2956
 0.0741  1030
 0.0841   324
 0.0941    97
 0.1041    28
 0.1141    18
 0.1241    14
 0.1341    11
 0.1441     8
 0.1541    10
 0.1641     2
 0.1741    19
 0.1841   240
 0.1941   508
 0.2041   393
 0.2141   440
 0.2241   420
 0.2341   399
 0.2441   417
 0.2541   413
 0.2641   427
 0.2741   427
 0.2841   423
 0.2941   413
 0.3041   418
 0.3141   419
 0.3241   409
 0.3341   369
 0.3441   374
 0.3541   372
 0.3641   401
 0.3741   395
 0.3841   410
 0.3941   407
 0.4041   388
 0.4141   381
 0.4241   390
 0.4341   381
 0.4441   357
 0.4541   373
 0.4641   372
 0.4741   370
 0.4841   367
 0.4941   356
 0.5041   327
 0.5141   350
 0.5241   357
 0.5341   368
 0.5441   380
 0.5541   349
 0.5641   367
 0.5741   354
 0.5841   352
 0.5941   347
 0.6041   334
 0.6141   330
 0.6241   335
 0.6341   359
 0.6441   356
 0.6541   353
 0.6641   337
 0.6741   309
 0.6841   307
 0.6941   310
 0.7041   322
 0.7141   336
 0.7241   323
 0.7341   301
 0.7441   291
 0.7541   298
 0.7641   307
 0.7741   303
 0.7841   317
 0.7941   316
 0.8041   303
 0.8141   303
 0.8241   288
 0.8341   300
 0.8441   311
 0.8541   313
 0.8641   285
 0.8741   273
 0.8841   285
 0.8941   295
 0.9041   293
 0.9141   277
 0.9241   295
 0.9341   286
 0.9441   296
 0.9541   304
 0.9641   303
 0.9741   267
 0.9841   283
 0.9941   295
 1.0041   289
 1.0141   260
 1.0241   293
 1.0341   281
 1.0441   259
 1.0541   269
 1.0641   278
 1.0741   276
 1.0841   295
 1.0941   267
 1.1041   275
 1.1141   250
 1.1241   241
 1.1341   262
 1.1441   273
 1.1541   265
 1.1641   276
 1.1741   270
 1.1841   275
 1.1941   274
 1.2041   261
 1.2141   267
 1.2241   261
 1.2341   254
 1.2441   276
 1.2541   260
 1.2641   263
 1.2741   259
 1.2841   286
 1.2941   292
 1.3041   283
 1.3141   254
 1.3241   284
 1.3341   283
 1.3441   272
 1.3541   252
 1.3641   242
 1.3741   241
 1.3841   258
 1.3941   230
 1.4041   246
 1.4141   257
 1.4241   248
 1.4341   268
 1.4441   231
 1.4541   225
 1.4641   271
 1.4741   255
 1.4841   238
 1.4941   265
 1.5041   245
 1.5141   247
 1.5241   243
 1.5341   227
 1.5441   249
 1.5541   253
 1.5641   231
 1.5741   255
 1.5841   237
 1.5941   238
 1.6041   242
 1.6141   236
 1.6241   219
 1.6341   250
 1.6441   251
 1.6541   286
 1.6641   327
 1.6741   440
 1.6841   478
 1.6941   588
 1.7041   648
 1.7141   772
 1.7241   832
 1.7341   902
 1.7441   922
 1.7541   856
 1.7641   791
 1.7741   636
 1.7841   590
 1.7941   492
 1.8041   445
 1.8141   370
 1.8241   314
 1.8341   316
 1.8441   300
 1.8541   288
 1.8641   277
 1.8741   272
 1.8841   251
 1.8941   247
 1.9041   290
 1.9141   250
 1.9241   245
 1.9341   241
 1.9441   259
 1.9541   280
 1.9641   298
 1.9741   282
 1.9841   305
 1.9941   294
 2.0041   310
 2.0141   310
 2.0241   308
 2.0341   311
 2.0441   268
 2.0541   257
 2.0641   287
 2.0741   284
 2.0841   269
 2.0941   263
 2.1041   268
 2.1141   225
 2.1241   237
 2.1341   232
 2.1441   239
 2.1541   222
 2.1641   225
 2.1741   223
 2.1841   219
 2.1941   216
 2.2041   225
 2.2141   223
 2.2241   236
 2.2341   244
 2.2441   221
 2.2541   198
 2.2641   199
 2.2741   189
 2.2841   205
 2.2941   213
 2.3041   190
 2.3141   203
 2.3241   225
 2.3341   201
 2.3441   197
 2.3541   178
 2.3641   190
 2.3741   179
 2.3841   194
 2.3941   183
 2.4041   208
 2.4141   200
 2.4241   202
 2.4341   189
 2.4441   229
 2.4541   200
 2.4641   207
 2.4741   217
 2.4841   187
 2.4941   228
 2.5041   191
 2.5141   193
 2.5241   197
 2.5341   197
 2.5441   176
 2.5541   188
 2.5641   203
 2.5741   178
 2.5841   214
 2.5941   193
 2.6041   202
 2.6141   187
 2.6241   193
 2.6341   193
 2.6441   190
 2.6541   220
 2.6641   200
 2.6741   172
 2.6841   196
 2.6941   190
 2.7041   189
 2.7141   170
 2.7241   204
 2.7341   174
 2.7441   177
 2.7541   174
 2.7641   204
 2.7741   183
 2.7841   197
 2.7941   189
 2.8041   190
 2.8141   205
 2.8241   187
 2.8341   184
 2.8441   186
 2.8541   165
 2.8641   179
 2.8741   191
 2.8841   194
 2.8941   182
 2.9041   190
 2.9141   162
 2.9241   179
 2.9341   154
 2.9441   168
 2.9541   168
 2.9641   173
 2.9741   175
 2.9841   176
 2.9941   174
 3.0041   179
 3.0141   141
 3.0241   154
 3.0341   147
 3.0441   130
 3.0541   153
 3.0641   177
 3.0741   165
 3.0841   166
 3.0941   186
 3.1041   160
 3.1141   143
 3.1241   183
 3.1341   152
 3.1441   162
 3.1541   137
 3.1641   179
 3.1741   167
 3.1841   150
 3.1941   164
 3.2041   179
 3.2141   173
 3.2241   161
 3.2341   216
 3.2441   215
 3.2541   204
 3.2641   261
 3.2741   262
 3.2841   290
 3.2941   303
 3.3041   305
 3.3141   324
 3.3241   313
 3.3341   308
 3.3441   277
 3.3541   259
 3.3641   245
 3.3741   216
 3.3841   188
 3.3941   209
 3.4041   153
 3.4141   150
 3.4241   146
 3.4341   144
 3.4441   152
 3.4541   133
 3.4641   133
 3.4741   141
 3.4841   130
 3.4941   142
 3.5041   146
 3.5141   167
 3.5241   143
 3.5341   182
 3.5441   169
 3.5541   194
 3.5641   207
 3.5741   252
 3.5841   270
 3.5941   360
 3.6041   466
 3.6141   560
 3.6241   681
 3.6341   817
 3.6441   939
 3.6541  1102
 3.6641  1243
 3.6741  1344
 3.6841  1351
 3.6941  1383
 3.7041  1324
 3.7141  1215
 3.7241  1104
 3.7341  1007
 3.7441   830
 3.7541   654
 3.7641   520
 3.7741   398
 3.7841   322
 3.7941   249
 3.8041   199
 3.8141   173
 3.8241   167
 3.8341   145
 3.8441   142
 3.8541   137
 3.8641   132
 3.8741   131
 3.8841   124
 3.8941   114
 3.9041   128
 3.9141   136
 3.9241   169
 3.9341   176
 3.9441   179
 3.9541   188
 3.9641   207
 3.9741   236
 3.9841   264
 3.9941   300
 4.0041   299
 4.0141   268
 4.0241   268
 4.0341   254
 4.0441   250
 4.0541   219
 4.0641   216
 4.0741   175
 4.0841   174
 4.0941   158
 4.1041   133
 4.1141   126
 4.1241   127
 4.1341   122
 4.1441   116
 4.1541   113
 4.1641   103
 4.1741   112
 4.1841   104
 4.1941   103
 4.2041   107
 4.2141    96
 4.2241    93
 4.2341    92
 4.2441    85
 4.2541   100
 4.2641    94
 4.2741    99
 4.2841    90
 4.2941   101
 4.3041   107
 4.3141   110
 4.3241   101
 4.3341   104
 4.3441   107
 4.3541   115
 4.3641   113
 4.3741    95
 4.3841   126
 4.3941   145
 4.4041   151
 4.4141   161
 4.4241   175
 4.4341   215
 4.4441   223
 4.4541   223
 4.4641   278
 4.4741   274
 4.4841   324
 4.4941   333
 4.5041   305
 4.5141   321
 4.5241   337
 4.5341   281
 4.5441   283
 4.5541   248
 4.5641   231
 4.5741   212
 4.5841   198
 4.5941   151
 4.6041   148
 4.6141   150
 4.6241   144
 4.6341   127
 4.6441   123
 4.6541   120
 4.6641   122
 4.6741   126
 4.6841   112
 4.6941   127
 4.7041   108
 4.7141   105
 4.7241   104
 4.7341    96
 4.7441   120
 4.7541   102
 4.7641   129
 4.7741   127
 4.7841   109
 4.7941   116
 4.8041   131
 4.8141   142
 4.8241   132
 4.8341   132
 4.8441   139
 4.8541   126
 4.8641   146
 4.8741   153
 4.8841   139
 4.8941   143
 4.9041   157
 4.9141   151
 4.9241   160
 4.9341   171
 4.9441   149
 4.9541   142
 4.9641   140
 4.9741   144
 4.9841   156
 4.9941   130
 5.0041   131
 5.0141   117
 5.0241   127
 5.0341   123
 5.0441   139
 5.0541   113
 5.0641   128
 5.0741   120
 5.0841   106
 5.0941   114
 5.1041    99
 5.1141   113
 5.1241    95
 5.1341   107
 5.1441   110
 5.1541   102
 5.1641   115
 5.1741   113
 5.1841   127
 5.1941    90
 5.2041   127
 5.2141   118
 5.2241   134
 5.2341   129
 5.2441   116
 5.2541   116
 5.2641   106
 5.2741   120
 5.2841   137
 5.2941   141
 5.3041   118
 5.3141   130
 5.3241   130
 5.3341   128
 5.3441   127
 5.3541   116
 5.3641   132
 5.3741   136
 5.3841   164
 5.3941   146
 5.4041   150
 5.4141   142
 5.4241   135
 5.4341   139
 5.4441   135
 5.4541   121
 5.4641   130
 5.4741   133
 5.4841   126
 5.4941   119
 5.5041   118
 5.5141   113
 5.5241   119
 5.5341   103
 5.5441   112
 5.5541   114
 5.5641   122
 5.5741   129
 5.5841   131
 5.5941   115
 5.6041   123
 5.6141   107
 5.6241   105
 5.6341   113
 5.6441   110
 5.6541   134
 5.6641   134
 5.6741   120
 5.6841   133
 5.6941   126
 5.7041   136
 5.7141   120
 5.7241   140
 5.7341   169
 5.7441   161
 5.7541   206
 5.7641   247
 5.7741   300
 5.7841   326
 5.7941   430
 5.8041   486
 5.8141   627
 5.8241   770
 5.8341   901
 5.8441  1007
 5.8541  1105
 5.8641  1280
 5.8741  1338
 5.8841  1425
 5.8941  1435
 5.9041  1443
 5.9141  1345
 5.9241  1239
 5.9341  1132
 5.9441  1031
 5.9541   835
 5.9641   718
 5.9741   660
 5.9841   524
 5.9941   442
 6.0041   351
 6.0141   289
 6.0241   253
 6.0341   225
 6.0441   204
 6.0541   174
 6.0641   162
 6.0741   168
 6.0841   184
 6.0941   163
 6.1041   176
 6.1141   164
 6.1241   177
 6.1341   152
 6.1441   190
 6.1541   182
 6.1641   196
 6.1741   206
 6.1841   244
 6.1941   256
 6.2041   288
 6.2141   406
 6.2241   458
 6.2341   656
 6.2441   906
 6.2541  1213
 6.2641  1732
 6.2741  2307
 6.2841  3081
 6.2941  4203
 6.3041  5408
 6.3141  6647
 6.3241  8212
 6.3341  9973
 6.3441 11914
 6.3541 13540
 6.3641 15230
 6.3741 16377
 6.3841 17361
 6.3941 17857
 6.4041 17809
 6.4141 17576
 6.4241 16269
 6.4341 15196
 6.4441 13390
 6.4541 11729
 6.4641  9860
 6.4741  8212
 6.4841  6670
 6.4941  5254
 6.5041  4194
 6.5141  3111
 6.5241  2330
 6.5341  1645
 6.5441  1246
 6.5541   943
 6.5641   643
 6.5741   520
 6.5841   389
 6.5941   305
 6.6041   280
 6.6141   234
 6.6241   213
 6.6341   186
 6.6441   221
 6.6541   183
 6.6641   187
 6.6741   209
 6.6841   160
 6.6941   202
 6.7041   187
 6.7141   169
 6.7241   179
 6.7341   182
 6.7441   197
 6.7541   206
 6.7641   201
 6.7741   204
 6.7841   195
 6.7941   232
 6.8041   208
 6.8141   215
 6.8241   257
 6.8341   220
 6.8441   220
 6.8541   240
 6.8641   290
 6.8741   330
 6.8841   354
 6.8941   351
 6.9041   459
 6.9141   517
 6.9241   633
 6.9341   741
 6.9441   890
 6.9541  1083
 6.9641  1381
 6.9741  1530
 6.9841  1842
 6.9941  2129
 7.0041  2279
 7.0141  2541
 7.0241  2746
 7.0341  2879
 7.0441  3041
 7.0541  3088
 7.0641  3160
 7.0741  2890
 7.0841  2848
 7.0941  2599
 7.1041  2252
 7.1141  2015
 7.1241  1753
 7.1341  1551
 7.1441  1246
 7.1541  1034
 7.1641   851
 7.1741   736
 7.1841   558
 7.1941   476
 7.2041   392
 7.2141   335
 7.2241   306
 7.2341   275
 7.2441   244
 7.2541   262
 7.2641   227
 7.2741   276
 7.2841   239
 7.2941   221
 7.3041   256
 7.3141   282
 7.3241   276
 7.3341   289
 7.3441   314
 7.3541   311
 7.3641   357
 7.3741   339
 7.3841   310
 7.3941   370
 7.4041   328
 7.4141   351
 7.4241   304
 7.4341   312
 7.4441   318
 7.4541   314
 7.4641   284
 7.4741   253
 7.4841   269
 7.4941   284
 7.5041   235
 7.5141   263
 7.5241   257
 7.5341   225
 7.5441   253
 7.5541   254
 7.5641   238
 7.5741   231
 7.5841   232
 7.5941   273
 7.6041   223
 7.6141   237
 7.6241   242
 7.6341   256
 7.6441   260
 7.6541   267
 7.6641   288
 7.6741   241
 7.6841   246
 7.6941   255
 7.7041   280
 7.7141   260
 7.7241   304
 7.7341   268
 7.7441   287
 7.7541   294
 7.7641   287
 7.7741   311
 7.7841   319
 7.7941   322
 7.8041   327
 7.8141   315
 7.8241   311
 7.8341   324
 7.8441   366
 7.8541   369
 7.8641   341
 7.8741   392
 7.8841   376
 7.8941   388
 7.9041   396
 7.9141   418
 7.9241   448
 7.9341   480
 7.9441   493
 7.9541   534
 7.9641   536
 7.9741   594
 7.9841   599
 7.9941   653
 8.0041   738
 8.0141   735
 8.0241   802
 8.0341   913
 8.0441   982
 8.0541  1053
 8.0641  1125
 8.0741  1180
 8.0841  1250
 8.0941  1257
 8.1041  1393
 8.1141  1441
 8.1241  1500
 8.1341  1549
 8.1441  1555
 8.1541  1674
 8.1641  1672
 8.1741  1664
 8.1841  1715
 8.1941  1774
 8.2041  1727
 8.2141  1840
 8.2241  1852
 8.2341  1978
 8.2441  1875
 8.2541  1992
 8.2641  2017
 8.2741  2183
 8.2841  2339
 8.2941  2473
 8.3041  2559
 8.3141  2874
 8.3241  3062
 8.3341  3258
 8.3441  3446
 8.3541  3719
 8.3641  3910
 8.3741  3957
 8.3841  4001
 8.3941  3895
 8.4041  3931
 8.4141  3728
 8.4241  3552
 8.4341  3300
 8.4441  3034
 8.4541  2721
 8.4641  2447
 8.4741  2075
 8.4841  1805
 8.4941  1572
 8.5041  1303
 8.5141  1111
 8.5241   898
 8.5341   819
 8.5441   698
 8.5541   631
 8.5641   544
 8.5741   540
 8.5841   522
 8.5941   520
 8.6041   498
 8.6141   480
 8.6241   478
 8.6341   466
 8.6441   463
 8.6541   483
 8.6641   474
 8.6741   490
 8.6841   478
 8.6941   456
 8.7041   429
 8.7141   441
 8.7241   447
 8.7341   440
 8.7441   403
 8.7541   383
 8.7641   408
 8.7741   405
 8.7841   406
 8.7941   419
 8.8041   429
 8.8141   396
 8.8241   384
 8.8341   395
 8.8441   356
 8.8541   404
 8.8641   417
 8.8741   394
 8.8841   413
 8.8941   398
 8.9041   422
 8.9141   406
 8.9241   440
 8.9341   436
 8.9441   415
 8.9541   423
 8.9641   475
 8.9741   455
 8.9841   478
 8.9941   512
 9.0041   482
 9.0141   476
 9.0241   534
 9.0341   538
 9.0441   529
 9.0541   557
 9.0641   536
 9.0741   564
 9.0841   575
 9.0941   602
 9.1041   629
 9.1141   660
 9.1241   660
 9.1341   736
 9.1441   737
 9.1541   756
 9.1641   775
 9.1741   842
 9.1841   855
 9.1941   931
 9.2041   975
 9.2141   979
 9.2241  1031
 9.2341  1112
 9.2441  1134
 9.2541  1210
 9.2641  1307
 9.2741  1264
 9.2841  1306
 9.2941  1385
 9.3041  1422
 9.3141  1479
 9.3241  1519
 9.3341  1563
 9.3441  1574
 9.3541  1643
 9.3641  1719
 9.3741  1649
 9.3841  1779
 9.3941  1785
 9.4041  1844
 9.4141  1842
 9.4241  1905
 9.4341  1904
 9.4441  1883
 9.4541  1914
 9.4641  1964
 9.4741  1884
 9.4841  1901
 9.4941  2003
 9.5041  1996
 9.5141  2128
 9.5241  2166
 9.5341  2208
 9.5441  2346
 9.5541  2489
 9.5641  2560
 9.5741  2676
 9.5841  2824
 9.5941  2983
 9.6041  3183
 9.6141  3317
 9.6241  3484
 9.6341  3606
 9.6441  3761
 9.6541  3823
 9.6641  3851
 9.6741  3770
 9.6841  3724
 9.6941  3521
 9.7041  3510
 9.7141  3371
 9.7241  3157
 9.7341  2971
 9.7441  2837
 9.7541  2617
 9.7641  2480
 9.7741  2240
 9.7841  2092
 9.7941  1912
 9.8041  1835
 9.8141  1725
 9.8241  1598
 9.8341  1582
 9.8441  1600
 9.8541  1588
 9.8641  1542
 9.8741  1555
 9.8841  1649
 9.8941  1663
 9.9041  1712
 9.9141  1807
 9.9241  1746
 9.9341  1801
 9.9441  1803
 9.9541  1777
 9.9641  1731
 9.9741  1675
 9.9841  1619
 9.9941  1619
10.0041  1487
10.0141  1371
10.0241  1289
10.0341  1157
10.0441  1040
10.0541  1032
10.0641   856
10.0741   788
10.0841   679
10.0941   614
10.1041   562
10.1141   539
10.1241   465
10.1341   426
10.1441   385
10.1541   369
10.1641   411
10.1741   354
10.1841   330
10.1941   333
10.2041   293
10.2141   301
10.2241   286
10.2341   270
10.2441   247
10.2541   249
10.2641   259
10.2741   251
10.2841   254
10.2941   256
10.3041   252
10.3141   246
10.3241   227
10.3341   231
10.3441   236
10.3541   236
10.3641   225
10.3741   240
10.3841   234
10.3941   222
10.4041   253
10.4141   246
10.4241   247
10.4341   256
10.4441   253
10.4541   240
10.4641   245
10.4741   234
10.4841   260
10.4941   280
10.5041   292
10.5141   292
10.5241   259
10.5341   266
10.5441   276
10.5541   260
10.5641   303
10.5741   290
10.5841   286
10.5941   265
10.6041   287
10.6141   288
10.6241   273
10.6341   279
10.6441   263
10.6541   267
10.6641   278
10.6741   285
10.6841   265
10.6941   289
10.7041   275
10.7141   259
10.7241   313
10.7341   294
10.7441   304
10.7541   300
10.7641   317
10.7741   322
10.7841   348
10.7941   337
10.8041   331
10.8141   333
10.8241   368
10.8341   360
10.8441   349
10.8541   372
10.8641   392
10.8741   383
10.8841   394
10.8941   415
10.9041   410
10.9141   428
10.9241   412
10.9341   402
10.9441   403
10.9541   418
10.9641   400
10.9741   384
10.9841   395
10.9941   388
11.0041   374
11.0141   365
11.0241   373
11.0341   391
11.0441   355
11.0541   352
11.0641   353
11.0741   348
11.0841   340
11.0941   334
11.1041   386
11.1141   363
11.1241   378
11.1341   395
11.1441   358
11.1541   354
11.1641   400
11.1741   397
11.1841   419
11.1941   459
11.2041   466
11.2141   484
11.2241   499
11.2341   536
11.2441   543
11.2541   565
11.2641   571
11.2741   550
11.2841   571
11.2941   583
11.3041   553
11.3141   553
11.3241   502
11.3341   484
11.3441   481
11.3541   454
11.3641   426
11.3741   417
11.3841   400
11.3941   385
11.4041   374
11.4141   349
11.4241   317
11.4341   285
11.4441   298
11.4541   296
11.4641   276
11.4741   289
11.4841   288
11.4941   273
11.5041   276
11.5141   262
11.5241   266
11.5341   278
11.5441   297
11.5541   286
11.5641   279
11.5741   287
11.5841   296
11.5941   292
11.6041   295
11.6141   310
11.6241   294
11.6341   303
11.6441   317
11.6541   309
11.6641   313
11.6741   296
11.6841   292
11.6941   281
11.7041   279
11.7141   267
11.7241   244
11.7341   251
11.7441   220
11.7541   213
11.7641   210
11.7741   217
11.7841   236
11.7941   225
11.8041   237
11.8141   231
11.8241   227
11.8341   217
11.8441   224
11.8541   234
11.8641   218
11.8741   219
11.8841   228
11.8941   223
11.9041   211
11.9141   209
11.9241   218
11.9341   215
11.9441   223
11.9541   229
11.9641   226
11.9741   236
11.9841   222
11.9941   223
12.0041   224
12.0141   224
12.0241   233
12.0341   221
12.0441   226
12.0541   224
12.0641   223
12.0741   236
12.0841   230
12.0941   212
12.1041   234
12.1141   231
12.1241   206
12.1341   210
12.1441   225
12.1541   223
12.1641   222
12.1741   219
12.1841   191
12.1941   199
12.2041   206
12.2141   210
12.2241   213
12.2341   209
12.2441   207
12.2541   202
12.2641   201
12.2741   202
12.2841   204
12.2941   201
12.3041   201
12.3141   212
12.3241   208
12.3341   211
12.3441   200
12.3541   202
12.3641   192
12.3741   196
12.3841   205
12.3941   210
12.4041   191
12.4141   189
12.4241   224
12.4341   212
12.4441   215
12.4541   217
12.4641   224
12.4741   212
12.4841   204
12.4941   219
12.5041   220
12.5141   214
12.5241   230
12.5341   235
12.5441   214
12.5541   222
12.5641   224
12.5741   232
12.5841   224
12.5941   215
12.6041   232
12.6141   223
12.6241   232
12.6341   247
12.6441   235
12.6541   218
12.6641   223
12.6741   211
12.6841   218
12.6941   232
12.7041   213
12.7141   219
12.7241   230
12.7341   216
12.7441   233
12.7541   242
12.7641   238
12.7741   236
12.7841   228
12.7941   215
12.8041   206
12.8141   214
12.8241   222
12.8341   218
12.8441   222
12.8541   237
12.8641   244
12.8741   239
12.8841   234
12.8941   234
12.9041   234
12.9141   234
12.9241   236
12.9341   242
12.9441   252
12.9541   255
12.9641   243
12.9741   230
12.9841   233
12.9941   246
13.0041   250
13.0141   243
13.0241   235
13.0341   239
13.0441   253
13.0541   262
13.0641   265
13.0741   263
13.0841   259
13.0941   260
13.1041   258
13.1141   254
13.1241   253
13.1341   247
13.1441   241
13.1541   258
13.1641   250
13.1741   262
13.1841   276
13.1941   260
13.2041   256
13.2141   277
13.2241   292
13.2341   292
13.2441   289
13.2541   300
13.2641   323
13.2741   341
13.2841   336
13.2941   351
13.3041   359
13.3141   365
13.3241   375
13.3341   376
13.3441   395
13.3541   412
13.3641   397
13.3741   396
13.3841   377
13.3941   356
13.4041   363
13.4141   374
13.4241   383
13.4341   386
13.4441   375
13.4541   338
13.4641   335
13.4741   349
13.4841   340
13.4941   329
13.5041   315
13.5141   310
13.5241   312
13.5341   313
13.5441   307
13.5541   298
13.5641   292
13.5741   292
13.5841   281
13.5941   297
13.6041   301
13.6141   296
13.6241   302
13.6341   307
13.6441   305
13.6541   288
13.6641   301
13.6741   300
13.6841   285
13.6941   278
13.7041   273
13.7141   278
13.7241   293
13.7341   302
13.7441   285
13.7541   282
13.7641   290
13.7741   299
13.7841   297
13.7941   290
13.8041   295
13.8141   293
13.8241   287
13.8341   304
13.8441   321
13.8541   297
13.8641   278
13.8741   286
13.8841   292
13.8941   296
13.9041   322
13.9141   325
13.9241   308
13.9341   311
13.9441   317
13.9541   309
13.9641   315
13.9741   330
13.9841   323
13.9941   322
14.0041   351
14.0141   350
14.0241   351
14.0341   380
14.0441   379
14.0541   386
14.0641   379
14.0741   382
14.0841   407
14.0941   401
14.1041   423
14.1141   452
14.1241   428
14.1341   435
14.1441   437
14.1541   426
14.1641   425
14.1741   422
14.1841   418
14.1941   401
14.2041   412
14.2141   432
14.2241   413
14.2341   385
14.2441   389
14.2541   394
14.2641   380
14.2741   370
14.2841   380
14.2941   341
14.3041   350
14.3141   385
14.3241   366
14.3341   356
14.3441   322
14.3541   324
14.3641   338
14.3741   330
14.3841   328
14.3941   326
14.4041   336
14.4141   354
14.4241   361
14.4341   360
14.4441   346
14.4541   332
14.4641   346
14.4741   363
14.4841   360
14.4941   349
14.5041   359
14.5141   363
14.5241   357
14.5341   349
14.5441   350
14.5541   345
14.5641   344
14.5741   351
14.5841   342
14.5941   329
14.6041   354
14.6141   372
14.6241   364
14.6341   347
14.6441   350
14.6541   367
14.6641   369
14.6741   344
14.6841   328
14.6941   340
14.7041   360
14.7141   371
14.7241   354
14.7341   346
14.7441   347
14.7541   348
14.7641   366
14.7741   372
14.7841   353
14.7941   365
14.8041   406
14.8141   393
14.8241   359
14.8341   370
14.8441   378
14.8541   367
14.8641   371
14.8741   387
14.8841   378
14.8941   391
14.9041   420
14.9141   403
14.9241   395
14.9341   401
14.9441   398
14.9541   392
14.9641   404
14.9741   409
14.9841   391
14.9941   394
15.0041   406
15.0141   400
15.0241   377
15.0341   376
15.0441   402
15.0541   409
15.0641   373
15.0741   380
15.0841   391
15.0941   377
15.1041   380
15.1141   414
15.1241   406
15.1341   394
15.1441   390
15.1541   386
15.1641   392
15.1741   393
15.1841   400
15.1941   405
15.2041   405
15.2141   392
15.2241   392
15.2341   396
15.2441   384
15.2541   381
15.2641   367
15.2741   379
15.2841   385
15.2941   385
15.3041   403
15.3141   393
15.3241   381
15.3341   385
15.3441   356
15.3541   361
15.3641   397
15.3741   402
15.3841   398
15.3941   394
15.4041   410
15.4141   395
15.4241   417
15.4341   430
15.4441   374
15.4541   374
15.4641   422
15.4741   421
15.4841   418
15.4941   421
15.5041   402
15.5141   393
15.5241   412
15.5341   418
15.5441   409
15.5541   411
15.5641   414
15.5741   445
15.5841   462
15.5941   453
15.6041   475
15.6141   483
15.6241   496
15.6341   507
15.6441   502
15.6541   491
15.6641   522
15.6741   538
15.6841   534
15.6941   566
15.7041   543
15.7141   535
15.7241   568
15.7341   556
15.7441   575
15.7541   584
15.7641   579
15.7741   568
15.7841   586
15.7941   582
15.8041   553
15.8141   574
15.8241   574
15.8341   518
15.8441   528
15.8541   523
15.8641   503
15.8741   499
15.8841   495
15.8941   507
15.9041   498
15.9141   472
15.9241   465
15.9341   478
15.9441   464
15.9541   472
15.9641   479
15.9741   460
15.9841   476
15.9941   458
16.0041   436
16.0141   425
16.0241   446
16.0341   465
16.0441   448
16.0541   432
16.0641   440
16.0741   446
16.0841   469
16.0941   468
16.1041   480
16.1141   443
16.1241   434
16.1341   447
16.1441   474
16.1541   471
16.1641   457
16.1741   440
16.1841   439
16.1941   470
16.2041   461
16.2141   434
16.2241   451
16.2341   476
16.2441   472
16.2541   477
16.2641   468
16.2741   467
16.2841   480
16.2941   465
16.3041   468
16.3141   483
16.3241   497
16.3341   491
16.3441   482
16.3541   462
16.3641   464
16.3741   488
16.3841   463
16.3941   462
16.4041   487
16.4141   480
16.4241   468
16.4341   491
16.4441   491
16.4541   465
16.4641   465
16.4741   514
16.4841   518
16.4941   482
16.5041   493
16.5141   508
16.5241   505
16.5341   491
16.5441   476
16.5541   500
16.5641   517
16.5741   503
16.5841   517
16.5941   512
16.6041   498
16.6141   477
16.6241   495
16.6341   499
16.6441   505
16.6541   511
16.6641   493
16.6741   494
16.6841   505
16.6941   499
16.7041   502
16.7141   513
16.7241   540
16.7341   507
16.7441   456
16.7541   503
16.7641   517
16.7741   499
16.7841   521
16.7941   494
16.8041   529
16.8141   523
16.8241   502
16.8341   518
16.8441   537
16.8541   526
16.8641   539
16.8741   544
16.8841   542
16.8941   504
16.9041   507
16.9141   534
16.9241   553
16.9341   516
16.9441   541
16.9541   534
16.9641   535
16.9741   548
16.9841   541
16.9941   563
17.0041   517
17.0141   497
17.0241   525
17.0341   555
17.0441   548
17.0541   525
17.0641   519
17.0741   518
17.0841   544
17.0941   474
17.1041   504
17.1141   547
17.1241   542
17.1341   554
17.1441   529
17.1541   533
17.1641   544
17.1741   537
17.1841   535
17.1941   534
17.2041   551
17.2141   560
17.2241   548
17.2341   568
17.2441   584
17.2541   524
17.2641   524
17.2741   528
17.2841   513
17.2941   528
17.3041   563
17.3141   574
17.3241   570
17.3341   576
17.3441   535
17.3541   549
17.3641   582
17.3741   568
17.3841   570
17.3941   554
17.4041   549
17.4141   542
17.4241   563
17.4341   559
17.4441   583
17.4541   566
17.4641   584
17.4741   597
17.4841   597
17.4941   618
17.5041   592
17.5141   568
17.5241   575
17.5341   591
17.5441   578
17.5541   596
17.5641   587
17.5741   585
17.5841   606
17.5941   595
17.6041   575
17.6141   573
17.6241   587
17.6341   618
17.6441   640
17.6541   630
17.6641   622
17.6741   614
17.6841   610
17.6941   596
17.7041   584
17.7141   602
17.7241   589
17.7341   592
17.7441   580
17.7541   631
17.7641   626
17.7741   582
17.7841   585
17.7941   593
17.8041   607
17.8141   617
17.8241   612
17.8341   612
17.8441   623
17.8541   603
17.8641   629
17.8741   644
17.8841   621
17.8941   592
17.9041   629
17.9141   594
17.9241   600
17.9341   630
17.9441   628
17.9541   618
17.9641   617
17.9741   616
17.9841   639
17.9941   607
18.0041   644
18.0141   626
18.0241   629
18.0341   619
18.0441   638
18.0541   616
18.0641   597
18.0741   599
18.0841   641
18.0941   655
18.1041   625
18.1141   640
18.1241   625
18.1341   627
18.1441   592
18.1541   640
18.1641   666
18.1741   646
18.1841   635
18.1941   633
18.2041   663
18.2141   670
18.2241   631
18.2341   664
18.2441   662
18.2541   647
18.2641   698
18.2741   678
18.2841   627
18.2941   664
18.3041   665
18.3141   639
18.3241   652
18.3341   657
18.3441   660
18.3541   668
18.3641   672
18.3741   661
18.3841   670
18.3941   663
18.4041   666
18.4141   701
18.4241   677
18.4341   643
18.4441   641
18.4541   655
18.4641   637
18.4741   645
18.4841   659
18.4941   676
18.5041   681
18.5141   647
18.5241   648
18.5341   674
18.5441   663
18.5541   687
18.5641   653
18.5741   667
18.5841   661
18.5941   692
18.6041   681
18.6141   644
18.6241   651
18.6341   672
18.6441   677
18.6541   669
18.6641   645
18.6741   681
18.6841   643
18.6941   657
18.7041   682
18.7141   681
18.7241   668
18.7341   661
18.7441   686
18.7541   668
18.7641   671
18.7741   681
18.7841   691
18.7941   729
18.8041   725
18.8141   699
18.8241   679
18.8341   672
18.8441   706
18.8541   708
18.8641   672
18.8741   690
18.8841   695
18.8941   673
18.9041   669
18.9141   701
18.9241   689
18.9341   677
18.9441   660
18.9541   689
18.9641   700
18.9741   673
18.9841   692
18.9941   703
19.0041   692
19.0141   719
19.0241   725
19.0341   670
19.0441   640
19.0541   685
19.0641   713
19.0741   676
19.0841   677
19.0941   677
19.1041   691
19.1141   730
19.1241   675
19.1341   735
19.1441   709
19.1541   719
19.1641   702
19.1741   677
19.1841   727
19.1941   699
19.2041   690
19.2141   714
19.2241   689
19.2341   674
19.2441   731
19.2541   704
19.2641   718
19.2741   711
19.2841   717
19.2941   699
19.3041   702
19.3141   716
19.3241   687
19.3341   684
19.3441   672
19.3541   698
19.3641   736
19.3741   692
19.3841   704
19.3941   733
19.4041   733
19.4141   709
19.4241   752
19.4341   740
19.4441   719
19.4541   680
19.4641   742
19.4741   710
19.4841   705
19.4941   721
19.5041   729
19.5141   723
19.5241   712
19.5341   672
19.5441   702
19.5541   739
19.5641   711
19.5741   726
19.5841   689
19.5941   713
19.6041   728
19.6141   709
19.6241   698
19.6341   674
19.6441   695
19.6541   761
19.6641   742
19.6741   706
19.6841   754
19.6941   722
19.7041   764
19.7141   721
19.7241   695
19.7341   755
19.7441   734
19.7541   744
19.7641   718
19.7741   741
19.7841   767
19.7941   716
19.8041   717
19.8141   740
19.8241   721
19.8341   731
19.8441   762
19.8541   709
19.8641   690
19.8741   779
19.8841   745
19.8941   712
19.9041   745
19.9141   771
19.9241   740
19.9341   748
19.9441   732
19.9541   727
19.9641   731
19.9741   770
19.9841   770
19.9941   748
20.0041   776
20.0141   741
20.0241   733
20.0341   743
20.0441   698
20.0541   717
20.0641   795
20.0741   711
20.0841   724
20.0941   742
20.1041   725
20.1141   760
20.1241   715
20.1341   776
20.1441   753
20.1541   743
20.1641   754
20.1741   737
20.1841   728
20.1941   764
20.2041   784
20.2141   778
20.2241   747
20.2341   720
20.2441   727
20.2541   755
20.2641   744
20.2741   767
20.2841   780
20.2941   772
20.3041   723
20.3141   731
20.3241   759
20.3341   723
20.3441   718
20.3541   750
20.3641   740
20.3741   728
20.3841   733
20.3941   774
20.4041   775
20.4141   807
20.4241   744
20.4341   770
20.4441   773
20.4541   760
20.4641   778
20.4741   761
20.4841   780
20.4941   733
20.5041   754
20.5141   753
20.5241   799
20.5341   727
20.5441   812
20.5541   760
20.5641   757
20.5741   764
20.5841   742
20.5941   744
20.6041   783
20.6141   801
20.6241   803
20.6341   801
20.6441   773
20.6541   786
20.6641   743
20.6741   772
20.6841   747
20.6941   768
20.7041   764
20.7141   777
20.7241   805
20.7341   793
20.7441   795
20.7541   760
20.7641   777
20.7741   772
20.7841   801
20.7941   746
20.8041   805
20.8141   784
20.8241   822
20.8341   817
20.8441   807
20.8541   857
20.8641   829
20.8741   842
20.8841   852
20.8941   828
20.9041   904
20.9141   929
20.9241   937
20.9341   913
20.9441   931
20.9541   965
20.9641   972
20.9741   971
20.9841  1016
20.9941  1085
21.0041  1109
21.0141  1072
21.0241  1085
21.0341  1064
21.0441  1144
21.0541  1129
21.0641  1168
21.0741  1131
21.0841  1197
21.0941  1181
21.1041  1184
21.1141  1221
21.1241  1215
21.1341  1249
21.1441  1159
21.1541  1169
21.1641  1170
21.1741  1237
21.1841  1156
21.1941  1116
21.2041  1103
21.2141  1155
21.2241  1127
21.2341  1147
21.2441  1061
21.2541  1078
21.2641  1039
21.2741  1018
21.2841   969
21.2941   935
21.3041   942
21.3141   902
21.3241   892
21.3341   918
21.3441   864
21.3541   819
21.3641   860
21.3741   875
21.3841   843
21.3941   824
21.4041   822
21.4141   852
21.4241   796
21.4341   787
21.4441   788
21.4541   818
21.4641   813
21.4741   756
21.4841   817
21.4941   734
21.5041   833
21.5141   765
21.5241   801
21.5341   796
21.5441   779
21.5541   801
21.5641   785
21.5741   757
21.5841   832
21.5941   784
21.6041   766
21.6141   814
21.6241   809
21.6341   811
21.6441   782
21.6541   805
21.6641   798
21.6741   747
21.6841   749
21.6941   742
21.7041   734
21.7141   778
21.7241   806
21.7341   796
21.7441   786
21.7541   799
21.7641   816
21.7741   790
21.7841   795
21.7941   805
21.8041   771
21.8141   744
21.8241   750
21.8341   756
21.8441   782
21.8541   792
21.8641   819
21.8741   821
21.8841   795
21.8941   792
21.9041   761
21.9141   791
21.9241   721
21.9341   808
21.9441   802
21.9541   789
21.9641   769
21.9741   783
21.9841   804
21.9941   807
22.0041   845
22.0141   823
22.0241   772
22.0341   771
22.0441   780
22.0541   789
22.0641   772
22.0741   791
22.0841   816
22.0941   820
22.1041   792
22.1141   795
22.1241   776
22.1341   850
22.1441   810
22.1541   833
22.1641   775
22.1741   815
22.1841   803
22.1941   774
22.2041   762
22.2141   843
22.2241   819
22.2341   766
22.2441   750
22.2541   773
22.2641   840
22.2741   811
22.2841   778
22.2941   790
22.3041   767
22.3141   737
22.3241   807
22.3341   810
22.3441   792
22.3541   786
22.3641   738
22.3741   787
22.3841   805
22.3941   787
22.4041   855
22.4141   815
22.4241   793
22.4341   800
22.4441   740
22.4541   746
22.4641   829
22.4741   763
22.4841   742
22.4941   740
22.5041   814
22.5141   764
22.5241   762
22.5341   784
22.5441   775
22.5541   811
22.5641   788
22.5741   776
22.5841   778
22.5941   777
22.6041   804
22.6141   790
22.6241   710
22.6341   759
22.6441   760
22.6541   801
22.6641   801
22.6741   782
22.6841   729
22.6941   772
22.7041   802
22.7141   818
22.7241   753
22.7341   796
22.7441   739
22.7541   800
22.7641   802
22.7741   749
22.7841   773
22.7941   780
22.8041   767
22.8141   751
22.8241   767
22.8341   826
22.8441   779
22.8541   754
22.8641   775
22.8741   788
22.8841   805
22.8941   807
22.9041   806
22.9141   761
22.9241   746
22.9341   770
22.9441   785
22.9541   755
22.9641   734
22.9741   776
22.9841   784
22.9941   751
23.0041   741
23.0141   784
23.0241   767
23.0341   772
23.0441   758
23.0541   793
23.0641   784
23.0741   791
23.0841   786
23.0941   757
23.1041   788
23.1141   750
23.1241   735
23.1341   803
23.1441   819
23.1541   792
23.1641   837
23.1741   791
23.1841   783
23.1941   783
23.2041   762
23.2141   785
23.2241   780
23.2341   719
23.2441   749
23.2541   747
23.2641   728
23.2741   716
23.2841   782
23.2941   776
23.3041   807
23.3141   813
23.3241   737
23.3341   750
23.3441   751
23.3541   727
23.3641   768
23.3741   776
23.3841   743
23.3941   802
23.4041   798
23.4141   750
23.4241   709
23.4341   788
23.4441   787
23.4541   740
23.4641   801
23.4741   730
23.4841   784
23.4941   767
23.5041   750
23.5141   764
23.5241   751
23.5341   776
23.5441   796
23.5541   753
23.5641   762
23.5741   783
23.5841   824
23.5941   792
23.6041   741
23.6141   775
23.6241   817
23.6341   739
23.6441   762
23.6541   795
23.6641   818
23.6741   787
23.6841   778
23.6941   805
23.7041   738
23.7141   829
23.7241   809
23.7341   773
23.7441   830
23.7541   836
23.7641   821
23.7741   907
23.7841   824
23.7941   803
23.8041   848
23.8141   882
23.8241   824
23.8341   827
23.8441   859
23.8541   849
23.8641   842
23.8741   834
23.8841   846
23.8941   826
23.9041   811
23.9141   786
23.9241   833
23.9341   798
23.9441   824
23.9541   767
23.9641   754
23.9741   752
23.9841   788
23.9941   726
24.0041   734
24.0141   740
24.0241   716
24.0341   738
24.0441   752
24.0541   774
24.0641   758
24.0741   737
24.0841   810
24.0941   733
24.1041   722
24.1141   723
24.1241   806
24.1341   752
24.1441   741
24.1541   776
24.1641   771
24.1741   750
24.1841   713
24.1941   712
24.2041   779
24.2141   742
24.2241   769
24.2341   753
24.2441   767
24.2541   716
24.2641   734
24.2741   706
24.2841   734
24.2941   737
24.3041   772
24.3141   793
24.3241   752
24.3341   759
24.3441   763
24.3541   742
24.3641   699
24.3741   727
24.3841   755
24.3941   714
24.4041   734
24.4141   708
24.4241   732
24.4341   698
24.4441   697
24.4541   717
24.4641   713
24.4741   725
24.4841   764
24.4941   731
24.5041   734
24.5141   658
24.5241   651
24.5341   719
24.5441   684
24.5541   705
24.5641   694
24.5741   716
24.5841   757
24.5941   719
24.6041   743
24.6141   761
24.6241   721
24.6341   695
24.6441   728
24.6541   689
24.6641   699
24.6741   704
24.6841   694
24.6941   699
24.7041   706
24.7141   696
24.7241   679
24.7341   701
24.7441   676
24.7541   711
24.7641   717
24.7741   732
24.7841   728
24.7941   707
24.8041   753
24.8141   730
24.8241   689
24.8341   720
24.8441   730
24.8541   664
24.8641   728
24.8741   746
24.8841   699
24.8941   715
24.9041   727
24.9141   771
24.9241   715
24.9341   735
24.9441   775
24.9541   709
24.9641   720
24.9741   725
24.9841   743
24.9941   722
25.0041   699
25.0141   728
25.0241   733
25.0341   712
25.0441   732
25.0541   737
25.0641   726
25.0741   733
25.0841   683
25.0941   706
25.1041   715
25.1141   727
25.1241   713
25.1341   763
25.1441   710
25.1541   717
25.1641   714
25.1741   707
25.1841   718
25.1941   686
25.2041   693
25.2141   696
25.2241   720
25.2341   717
25.2441   738
25.2541   702
25.2641   692
25.2741   758
25.2841   686
25.2941   746
25.3041   738
25.3141   687
25.3241   715
25.3341   736
25.3441   719
25.3541   707
25.3641   711
25.3741   696
25.3841   707
25.3941   690
25.4041   722
25.4141   680
25.4241   689
25.4341   705
25.4441   666
25.4541   693
25.4641   665
25.4741   653
25.4841   653
25.4941   671
25.5041   706
25.5141   718
25.5241   671
25.5341   681
25.5441   688
25.5541   711
25.5641   726
25.5741   685
25.5841   640
25.5941   723
25.6041   686
25.6141   679
25.6241   638
25.6341   667
25.6441   704
25.6541   666
25.6641   649
25.6741   651
25.6841   673
25.6941   699
25.7041   678
25.7141   672
25.7241   653
25.7341   662
25.7441   624
25.7541   680
25.7641   662
25.7741   650
25.7841   623
25.7941   677
25.8041   692
25.8141   666
25.8241   660
25.8341   663
25.8441   650
25.8541   717
25.8641   648
25.8741   641
25.8841   659
25.8941   657
25.9041   667
25.9141   654
25.9241   614
25.9341   627
25.9441   685
25.9541   640
25.9641   696
25.9741   661
25.9841   656
25.9941   660
26.0041   634
26.0141   622
26.0241   597
26.0341   617
26.0441   586
26.0541   701
26.0641   662
26.0741   632
26.0841   642
26.0941   695
26.1041   601
26.1141   681
26.1241   645
26.1341   662
26.1441   689
26.1541   674
26.1641   662
26.1741   676
26.1841   652
26.1941   629
26.2041   635
26.2141   664
26.2241   649
26.2341   623
26.2441   638
26.2541   635
26.2641   657
26.2741   651
26.2841   654
26.2941   667
26.3041   663
26.3141   660
26.3241   639
26.3341   587
26.3441   624
26.3541   662
26.3641   629
26.3741   660
26.3841   663
26.3941   652
26.4041   660
26.4141   657
26.4241   609
26.4341   617
26.4441   626
26.4541   629
26.4641   613
26.4741   625
26.4841   631
26.4941   606
26.5041   610
26.5141   640
26.5241   642
26.5341   591
26.5441   641
26.5541   615
26.5641   595
26.5741   608
26.5841   604
26.5941   600
26.6041   635
26.6141   652
26.6241   646
26.6341   637
26.6441   617
26.6541   629
26.6641   588
26.6741   625
26.6841   618
26.6941   631
26.7041   615
26.7141   586
26.7241   596
26.7341   604
26.7441   603
26.7541   640
26.7641   614
26.7741   621
26.7841   602
26.7941   584
26.8041   588
26.8141   578
26.8241   625
26.8341   600
26.8441   584
26.8541   592
26.8641   605
26.8741   591
26.8841   606
26.8941   627
26.9041   575
26.9141   590
26.9241   592
26.9341   595
26.9441   584
26.9541   592
26.9641   611
26.9741   582
26.9841   593
26.9941   582
27.0041   566
27.0141   594
27.0241   585
27.0341   577
27.0441   602
27.0541   606
27.0641   598
27.0741   616
27.0841   601
27.0941   635
27.1041   619
27.1141   581
27.1241   566
27.1341   592
27.1441   622
27.1541   576
27.1641   588
27.1741   593
27.1841   598
27.1941   569
27.2041   561
27.2141   584
27.2241   635
27.2341   591
27.2441   590
27.2541   594
27.2641   585
27.2741   595
27.2841   619
27.2941   585
27.3041   551
27.3141   606
27.3241   548
27.3341   556
27.3441   550
27.3541   609
27.3641   577
27.3741   554
27.3841   576
27.3941   578
27.4041   569
27.4141   572
27.4241   550
27.4341   571
27.4441   569
27.4541   550
27.4641   527
27.4741   543
27.4841   559
27.4941   548
27.5041   561
27.5141   554
27.5241   575
27.5341   555
27.5441   593
27.5541   582
27.5641   578
27.5741   579
27.5841   592
27.5941   577
27.6041   560
27.6141   529
27.6241   579
27.6341   571
27.6441   558
27.6541   559
27.6641   551
27.6741   603
27.6841   522
27.6941   587
27.7041   574
27.7141   538
27.7241   555
27.7341   559
27.7441   554
27.7541   565
27.7641   550
27.7741   530
27.7841   544
27.7941   528
27.8041   511
27.8141   551
27.8241   497
27.8341   516
27.8441   559
27.8541   536
27.8641   555
27.8741   563
27.8841   571
27.8941   521
27.9041   524
27.9141   551
27.9241   557
27.9341   533
27.9441   544
27.9541   498
27.9641   530
27.9741   558
27.9841   543
27.9941   531
28.0041   518
28.0141   529
28.0241   531
28.0341   524
28.0441   526
28.0541   535
28.0641   518
28.0741   534
28.0841   490
28.0941   554
28.1041   525
28.1141   540
28.1241   513
28.1341   517
28.1441   577
28.1541   556
28.1641   526
28.1741   523
28.1841   475
28.1941   524
28.2041   520
28.2141   511
28.2241   511
28.2341   512
28.2441   527
28.2541   547
28.2641   540
28.2741   510
28.2841   521
28.2941   511
28.3041   501
28.3141   484
28.3241   527
28.3341   514
28.3441   505
28.3541   558
28.3641   502
28.3741   518
28.3841   544
28.3941   529
28.4041   530
28.4141   506
28.4241   506
28.4341   509
28.4441   491
28.4541   524
28.4641   512
28.4741   496
28.4841   493
28.4941   522
28.5041   482
28.5141   507
28.5241   540
28.5341   534
28.5441   552
28.5541   488
28.5641   494
28.5741   492
28.5841   512
28.5941   508
28.6041   509
28.6141   545
28.6241   503
28.6341   495
28.6441   488
28.6541   526
28.6641   525
28.6741   508
28.6841   508
28.6941   485
28.7041   509
28.7141   538
28.7241   493
28.7341   484
28.7441   486
28.7541   508
28.7641   502
28.7741   509
28.7841   529
28.7941   494
28.8041   502
28.8141   483
28.8241   493
28.8341   517
28.8441   488
28.8541   464
28.8641   506
28.8741   496
28.8841   513
28.8941   469
28.9041   438
28.9141   426
28.9241   482
28.9341   466
28.9441   498
28.9541   498
28.9641   464
28.9741   486
28.9841   491
28.9941   455
29.0041   455
29.0141   464
29.0241   464
29.0341   459
29.0441   458
29.0541   444
29.0641   444
29.0741   501
29.0841   448
29.0941   445
29.1041   486
29.1141   480
29.1241   466
29.1341   457
29.1441   447
29.1541   461
29.1641   437
29.1741   445
29.1841   488
29.1941   437
29.2041   428
29.2141   490
29.2241   484
29.2341   421
29.2441   438
29.2541   429
29.2641   439
29.2741   466
29.2841   482
29.2941   453
29.3041   473
29.3141   451
29.3241   450
29.3341   498
29.3441   438
29.3541   433
29.3641   442
29.3741   441
29.3841   475
29.3941   494
29.4041   470
29.4141   415
29.4241   439
29.4341   431
29.4441   446
29.4541   482
29.4641   431
29.4741   468
29.4841   424
29.4941   454
29.5041   420
29.5141   430
29.5241   476
29.5341   456
29.5441   420
29.5541   435
29.5641   455
29.5741   461
29.5841   463
29.5941   474
29.6041   434
29.6141   442
29.6241   436
29.6341   422
29.6441   434
29.6541   411
29.6641   412
29.6741   443
29.6841   442
29.6941   424
29.7041   428
29.7141   414
29.7241   454
29.7341   456
29.7441   450
29.7541   449
29.7641   421
29.7741   406
29.7841   459
29.7941   449
29.8041   392
29.8141   409
29.8241   441
29.8341   419
29.8441   421
29.8541   434
29.8641   409
29.8741   388
29.8841   420
29.8941   417
29.9041   447
29.9141   432
29.9241   450
29.9341   414
29.9441   421
29.9541   407
29.9641   405
29.9741   428
29.9841   402
29.9941   420
30.0041   422
30.0141   388
30.0241   413
30.0341   377
30.0441   398
30.0541   367
30.0641   431
30.0741   403
30.0841   416
30.0941   370
30.1041   376
30.1141   431
30.1241   435
30.1341   424
30.1441   418
30.1541   375
30.1641   449
30.1741   404
30.1841   421
30.1941   387
30.2041   393
30.2141   383
30.2241   432
30.2341   429
30.2441   424
30.2541   378
30.2641   410
30.2741   423
30.2841   434
30.2941   397
30.3041   402
30.3141   393
30.3241   399
30.3341   385
30.3441   414
30.3541   392
30.3641   404
30.3741   396
30.3841   403
30.3941   356
30.4041   411
30.4141   417
30.4241   411
30.4341   412
30.4441   395
30.4541   386
30.4641   415
30.4741   400
30.4841   391
30.4941   387
30.5041   389
30.5141   344
30.5241   348
30.5341   397
30.5441   406
30.5541   366
30.5641   385
30.5741   388
30.5841   403
30.5941   385
30.6041   356
30.6141   365
30.6241   367
30.6341   395
30.6441   400
30.6541   374
30.6641   403
30.6741   354
30.6841   379
30.6941   367
30.7041   383
30.7141   390
30.7241   364
30.7341   360
30.7441   377
30.7541   372
30.7641   395
30.7741   341
30.7841   373
30.7941   379
30.8041   363
30.8141   407
30.8241   358
30.8341   386
30.8441   361
30.8541   398
30.8641   367
30.8741   368
30.8841   370
30.8941   361
30.9041   377
30.9141   370
30.9241   364
30.9341   390
30.9441   362
30.9541   367
30.9641   368
30.9741   377
30.9841   359
30.9941   375
31.0041   378
31.0141   367
31.0241   339
31.0341   362
31.0441   361
31.0541   356
31.0641   368
31.0741   363
31.0841   323
31.0941   346
31.1041   360
31.1141   350
31.1241   375
31.1341   354
31.1441   360
31.1541   364
31.1641   375
31.1741   357
31.1841   344
31.1941   396
31.2041   358
31.2141   342
31.2241   365
31.2341   353
31.2441   328
31.2541   373
31.2641   370
31.2741   357
31.2841   339
31.2941   358
31.3041   345
31.3141   372
31.3241   337
31.3341   339
31.3441   339
31.3541   322
31.3641   360
31.3741   353
31.3841   318
31.3941   348
31.4041   329
31.4141   335
31.4241   329
31.4341   326
31.4441   337
31.4541   330
31.4641   341
31.4741   294
31.4841   333
31.4941   306
31.5041   318
31.5141   342
31.5241   323
31.5341   359
31.5441   328
31.5541   338
31.5641   352
31.5741   334
31.5841   317
31.5941   336
31.6041   330
31.6141   321
31.6241   332
31.6341   363
31.6441   342
31.6541   342
31.6641   322
31.6741   307
31.6841   341
31.6941   322
31.7041   315
31.7141   319
31.7241   314
31.7341   328
31.7441   368
31.7541   346
31.7641   337
31.7741   333
31.7841   337
31.7941   288
31.8041   314
31.8141   314
31.8241   330
31.8341   349
31.8441   324
31.8541   338
31.8641   327
31.8741   302
31.8841   351
31.8941   343
31.9041   357
31.9141   344
31.9241   295
31.9341   318
31.9441   322
31.9541   306
31.9641   327
31.9741   309
31.9841   322
31.9941   319
32.0041   289
32.0141   356
32.0241   326
32.0341   309
32.0441   279
32.0541   318
32.0641   318
32.0741   356
32.0841   287
32.0941   272
32.1041   342
32.1141   324
32.1241   311
32.1341   313
32.1441   321
32.1541   308
32.1641   309
32.1741   317
32.1841   319
32.1941   330
32.2041   321
32.2141   321
32.2241   342
32.2341   290
32.2441   304
32.2541   303
32.2641   314
32.2741   284
32.2841   310
32.2941   329
32.3041   324
32.3141   310
32.3241   278
32.3341   316
32.3441   306
32.3541   290
32.3641   305
32.3741   310
32.3841   293
32.3941   298
32.4041   292
32.4141   288
32.4241   295
32.4341   295
32.4441   289
32.4541   303
32.4641   257
32.4741   285
32.4841   304
32.4941   255
32.5041   276
32.5141   286
32.5241   294
32.5341   307
32.5441   267
32.5541   289
32.5641   271
32.5741   296
32.5841   271
32.5941   286
32.6041   270
32.6141   288
32.6241   283
32.6341   270
32.6441   269
32.6541   269
32.6641   308
32.6741   278
32.6841   282
32.6941   280
32.7041   278
32.7141   294
32.7241   305
32.7341   277
32.7441   275
32.7541   277
32.7641   267
32.7741   271
32.7841   238
32.7941   266
32.8041   252
32.8141   297
32.8241   272
32.8341   254
32.8441   251
32.8541   267
32.8641   269
32.8741   250
32.8841   280
32.8941   270
32.9041   268
32.9141   237
32.9241   295
32.9341   267
32.9441   275
32.9541   255
32.9641   285
32.9741   280
32.9841   255
32.9941   273
33.0041   246
33.0141   270
33.0241   247
33.0341   266
33.0441   253
33.0541   246
33.0641   265
33.0741   256
33.0841   287
33.0941   253
33.1041   268
33.1141   241
33.1241   264
33.1341   275
33.1441   247
33.1541   243
33.1641   237
33.1741   274
33.1841   243
33.1941   225
33.2041   279
33.2141   251
33.2241   283
33.2341   237
33.2441   248
33.2541   239
33.2641   204
33.2741   265
33.2841   231
33.2941   233
33.3041   264
33.3141   223
33.3241   264
33.3341   235
33.3441   246
33.3541   236
33.3641   250
33.3741   250
33.3841   250
33.3941   283
33.4041   223
33.4141   234
33.4241   233
33.4341   237
33.4441   241
33.4541   253
33.4641   253
33.4741   264
33.4841   230
33.4941   217
33.5041   248
33.5141   225
33.5241   272
33.5341   250
33.5441   252
33.5541   255
33.5641   220
33.5741   230
33.5841   240
33.5941   209
33.6041   239
33.6141   235
33.6241   240
33.6341   237
33.6441   230
33.6541   205
33.6641   239
33.6741   224
33.6841   213
33.6941   223
33.7041   237
33.7141   240
33.7241   222
33.7341   235
33.7441   230
33.7541   231
33.7641   242
33.7741   237
33.7841   229
33.7941   224
33.8041   219
33.8141   221
33.8241   220
33.8341   209
33.8441   207
33.8541   265
33.8641   202
33.8741   217
33.8841   217
33.8941   227
33.9041   234
33.9141   217
33.9241   220
33.9341   198
33.9441   230
33.9541   213
33.9641   215
33.9741   234
33.9841   212
33.9941   222
34.0041   208
34.0141   212
34.0241   219
34.0341   204
34.0441   242
34.0541   204
34.0641   216
34.0741   199
34.0841   204
34.0941   208
34.1041   231
34.1141   213
34.1241   232
34.1341   202
34.1441   205
34.1541   226
34.1641   216
34.1741   229
34.1841   215
34.1941   185
34.2041   207
34.2141   189
34.2241   210
34.2341   196
34.2441   229
34.2541   210
34.2641   203
34.2741   208
34.2841   183
34.2941   219
34.3041   198
34.3141   201
34.3241   202
34.3341   208
34.3441   164
34.3541   199
34.3641   205
34.3741   207
34.3841   200
34.3941   209
34.4041   224
34.4141   190
34.4241   199
34.4341   206
34.4441   227
34.4541   210
34.4641   193
34.4741   213
34.4841   215
34.4941   216
34.5041   184
34.5141   199
34.5241   200
34.5341   207
34.5441   196
34.5541   219
34.5641   203
34.5741   177
34.5841   194
34.5941   199
34.6041   186
34.6141   186
34.6241   235
34.6341   199
34.6441   201
34.6541   206
34.6641   182
34.6741   184
34.6841   212
34.6941   212
34.7041   192
34.7141   189
34.7241   189
34.7341   177
34.7441   173
34.7541   191
34.7641   199
34.7741   195
34.7841   195
34.7941   177
34.8041   195
34.8141   198
34.8241   164
34.8341   165
34.8441   185
34.8541   192
34.8641   173
34.8741   189
34.8841   172
34.8941   181
34.9041   192
34.9141   193
34.9241   174
34.9341   193
34.9441   169
34.9541   171
34.9641   192
34.9741   174
34.9841   185
34.9941   164
35.0041   167
35.0141   168
35.0241   171
35.0341   214
35.0441   203
35.0541   183
35.0641   187
35.0741   157
35.0841   166
35.0941   190
35.1041   186
35.1141   172
35.1241   161
35.1341   191
35.1441   156
35.1541   184
35.1641   159
35.1741   183
35.1841   191
35.1941   174
35.2041   166
35.2141   175
35.2241   173
35.2341   158
35.2441   174
35.2541   178
35.2641   156
35.2741   180
35.2841   159
35.2941   146
35.3041   164
35.3141   163
35.3241   168
35.3341   161
35.3441   161
35.3541   173
35.3641   161
35.3741   159
35.3841   155
35.3941   141
35.4041   162
35.4141   153
35.4241   150
35.4341   167
35.4441   174
35.4541   169
35.4641   159
35.4741   158
35.4841   143
35.4941   174
35.5041   169
35.5141   165
35.5241   147
35.5341   143
35.5441   161
35.5541   157
35.5641   182
35.5741   175
35.5841   158
35.5941   167
35.6041   146
35.6141   172
35.6241   157
35.6341   173
35.6441   150
35.6541   153
35.6641   144
35.6741   155
35.6841   164
35.6941   160
35.7041   154
35.7141   137
35.7241   149
35.7341   147
35.7441   151
35.7541   141
35.7641   151
35.7741   173
35.7841   145
35.7941   149
35.8041   140
35.8141   143
35.8241   144
35.8341   155
35.8441   142
35.8541   149
35.8641   138
35.8741   143
35.8841   132
35.8941   154
35.9041   150
35.9141   144
35.9241   140
35.9341   156
35.9441   128
35.9541   151
35.9641   168
35.9741   156
35.9841   147
35.9941   158
36.0041   147
36.0141   148
36.0241   129
36.0341   144
36.0441   152
36.0541   131
36.0641   149
36.0741   145
36.0841   138
36.0941   134
36.1041   144
36.1141   131
36.1241   141
36.1341   141
36.1441   116
36.1541   130
36.1641   144
36.1741   152
36.1841   113
36.1941   127
36.2041   151
36.2141   124
36.2241   134
36.2341   143
36.2441   153
36.2541   145
36.2641   157
36.2741   140
36.2841   120
36.2941   137
36.3041   132
36.3141   141
36.3241   146
36.3341   139
36.3441   128
36.3541   130
36.3641   136
36.3741   164
36.3841   141
36.3941   156
36.4041   114
36.4141   131
36.4241   146
36.4341   117
36.4441   141
36.4541   146
36.4641   118
36.4741   125
36.4841   119
36.4941   149
36.5041   130
36.5141   133
36.5241   130
36.5341   146
36.5441   153
36.5541   108
36.5641   132
36.5741   113
36.5841   142
36.5941   123
36.6041   124
36.6141   133
36.6241   128
36.6341   125
36.6441   127
36.6541   128
36.6641   137
36.6741   128
36.6841   118
36.6941   130
36.7041   133
36.7141   110
36.7241   136
36.7341   128
36.7441   119
36.7541   124
36.7641   130
36.7741   154
36.7841   135
36.7941   145
36.8041   119
36.8141   134
36.8241   122
36.8341   131
36.8441   134
36.8541   114
36.8641   121
36.8741    99
36.8841   127
36.8941   102
36.9041    99
36.9141   100
36.9241   115
36.9341   103
36.9441   119
36.9541   117
36.9641   111
36.9741   109
36.9841   112
36.9941   132
37.0041   133
37.0141   128
37.0241   106
37.0341   104
37.0441    97
37.0541    96
37.0641   117
37.0741   119
37.0841   111
37.0941   128
37.1041    93
37.1141   104
37.1241   113
37.1341   115
37.1441   118
37.1541   128
37.1641    98
37.1741   126
37.1841   121
37.1941   107
37.2041    99
37.2141   105
37.2241   107
37.2341   103
37.2441   121
37.2541   106
37.2641   115
37.2741   116
37.2841    97
37.2941   108
37.3041    83
37.3141   106
37.3241   104
37.3341   109
37.3441   104
37.3541   118
37.3641   111
37.3741   103
37.3841    85
37.3941   102
37.4041   104
37.4141    99
37.4241    98
37.4341   100
37.4441   104
37.4541   107
37.4641   100
37.4741   102
37.4841    89
37.4941    93
37.5041    94
37.5141    68
37.5241   102
37.5341   102
37.5441   107
37.5541    96
37.5641    96
37.5741   114
37.5841   103
37.5941   115
37.6041   111
37.6141   110
37.6241   106
37.6341    81
37.6441    91
37.6541    96
37.6641    96
37.6741    90
37.6841    99
37.6941   101
37.7041   105
37.7141   103
37.7241    97
37.7341    89
37.7441   104
37.7541    89
37.7641    82
37.7741    95
37.7841    90
37.7941   116
37.8041    97
37.8141    91
37.8241   119
37.8341    98
37.8441    89
37.8541   100
37.8641    94
37.8741    75
37.8841    81
37.8941   103
37.9041    96
37.9141    81
37.9241    88
37.9341    84
37.9441    77
37.9541    99
37.9641    83
37.9741    83
37.9841    97
37.9941    86
38.0041    82
38.0141    73
38.0241    86
38.0341    73
38.0441    75
38.0541    87
38.0641    95
38.0741    92
38.0841   102
38.0941    78
38.1041    97
38.1141    89
38.1241    78
38.1341    81
38.1441    63
38.1541    89
38.1641    81
38.1741    99
38.1841    84
38.1941    75
38.2041    87
38.2141    85
38.2241    85
38.2341    88
38.2441    80
38.2541    79
38.2641    94
38.2741    93
38.2841    70
38.2941    81
38.3041    74
38.3141    90
38.3241    76
38.3341    78
38.3441    78
38.3541    77
38.3641    87
38.3741    69
38.3841    78
38.3941    83
38.4041    89
38.4141    73
38.4241    88
38.4341    81
38.4441    97
38.4541    73
38.4641    78
38.4741    81
38.4841    81
38.4941    74
38.5041    85
38.5141    76
38.5241    71
38.5341    72
38.5441    76
38.5541    71
38.5641    82
38.5741    77
38.5841    73
38.5941    68
38.6041    69
38.6141    66
38.6241    73
38.6341    73
38.6441    69
38.6541    66
38.6641    62
38.6741    64
38.6841    75
38.6941    80
38.7041    72
38.7141    76
38.7241    68
38.7341    84
38.7441    79
38.7541    74
38.7641    80
38.7741    64
38.7841    80
38.7941    71
38.8041    86
38.8141    60
38.8241    63
38.8341    74
38.8441    74
38.8541    68
38.8641    67
38.8741    75
38.8841    64
38.8941    59
38.9041    76
38.9141    77
38.9241    67
38.9341    58
38.9441    58
38.9541    63
38.9641    70
38.9741    69
38.9841    84
38.9941    58
39.0041    85
39.0141    56
39.0241    50
39.0341    69
39.0441    75
39.0541    60
39.0641    70
39.0741    76
39.0841    73
39.0941    63
39.1041    65
39.1141    74
39.1241    70
39.1341    67
39.1441    57
39.1541    52
39.1641    75
39.1741    63
39.1841    69
39.1941    62
39.2041    66
39.2141    63
39.2241    69
39.2341    59
39.2441    57
39.2541    65
39.2641    51
39.2741    68
39.2841    65
39.2941    73
39.3041    54
39.3141    65
39.3241    58
39.3341    59
39.3441    55
39.3541    59
39.3641    59
39.3741    61
39.3841    60
39.3941    70
39.4041    44
39.4141    53
39.4241    52
39.4341    53
39.4441    61
39.4541    57
39.4641    55
39.4741    44
39.4841    58
39.4941    43
39.5041    48
39.5141    57
39.5241    63
39.5341    49
39.5441    56
39.5541    61
39.5641    56
39.5741    55
39.5841    55
39.5941    54
39.6041    51
39.6141    52
39.6241    41
39.6341    61
39.6441    55
39.6541    51
39.6641    59
39.6741    52
39.6841    54
39.6941    56
39.7041    38
39.7141    46
39.7241    59
39.7341    49
39.7441    45
39.7541    44
39.7641    57
39.7741    55
39.7841    63
39.7941    49
39.8041    52
39.8141    45
39.8241    56
39.8341    52
39.8441    43
39.8541    48
39.8641    50
39.8741    47
39.8841    60
39.8941    50
39.9041    42
39.9141    50
39.9241    44
39.9341    40
39.9441    53
39.9541    52
39.9641    41
39.9741    58
39.9841    38
