Bruker Nano GmbH Berlin, Germany
Esprit 1.9

Date: 4/1/2021 4:07:58 PM
Real time: 30903
Life time: 29015
Pulse density: 86132


Detector type: XFlash 430
Window type: Custom type
Detector thickness: 0.45
Si dead layer:0.029

Calibration, lin.: 10
Calibration, abs.: -955.9
Mn FWHM: 137.05
Fano factor: 0.121
Channels: 4096

Energy Counts
-0.9559     0
-0.9459     0
-0.9359     0
-0.9259     0
-0.9159     0
-0.9059     0
-0.8959     0
-0.8859     0
-0.8759     0
-0.8659     0
-0.8559     0
-0.8459     0
-0.8359     0
-0.8259     0
-0.8159     0
-0.8059     0
-0.7959     0
-0.7859     0
-0.7759     0
-0.7659     0
-0.7559     0
-0.7459     0
-0.7359     0
-0.7259     0
-0.7159     0
-0.7059     0
-0.6959     0
-0.6859     0
-0.6759     0
-0.6659     0
-0.6559     0
-0.6459     0
-0.6359     0
-0.6259     0
-0.6159     0
-0.6059     0
-0.5959     0
-0.5859     0
-0.5759     0
-0.5659     0
-0.5559     0
-0.5459     0
-0.5359     0
-0.5259     0
-0.5159     0
-0.5059     0
-0.4959     0
-0.4859     0
-0.4759     0
-0.4659     0
-0.4559     0
-0.4459     0
-0.4359     0
-0.4259     0
-0.4159     0
-0.4059     0
-0.3959     0
-0.3859     0
-0.3759     0
-0.3659     0
-0.3559     0
-0.3459     0
-0.3359     0
-0.3259     0
-0.3159     0
-0.3059     0
-0.2959     0
-0.2859     0
-0.2759     0
-0.2659     0
-0.2559     0
-0.2459     0
-0.2359     0
-0.2259     0
-0.2159     0
-0.2059     0
-0.1959     0
-0.1859     0
-0.1759     0
-0.1659     0
-0.1559     0
-0.1459     0
-0.1359     0
-0.1259     1
-0.1159     4
-0.1059    24
-0.0959    86
-0.0859   351
-0.0759  1108
-0.0659  3343
-0.0559  8536
-0.0459 18315
-0.0359 34659
-0.0259 55057
-0.0159 75879
-0.0059 89082
 0.0041 89396
 0.0141 76974
 0.0241 56345
 0.0341 36124
 0.0441 19591
 0.0541  9175
 0.0641  3759
 0.0741  1266
 0.0841   384
 0.0941   128
 0.1041    37
 0.1141    14
 0.1241    12
 0.1341    14
 0.1441    11
 0.1541    14
 0.1641    12
 0.1741    11
 0.1841   313
 0.1941   578
 0.2041   527
 0.2141   533
 0.2241   533
 0.2341   483
 0.2441   521
 0.2541   520
 0.2641   546
 0.2741   555
 0.2841   532
 0.2941   524
 0.3041   530
 0.3141   518
 0.3241   513
 0.3341   493
 0.3441   496
 0.3541   484
 0.3641   485
 0.3741   483
 0.3841   476
 0.3941   491
 0.4041   451
 0.4141   475
 0.4241   493
 0.4341   479
 0.4441   437
 0.4541   449
 0.4641   476
 0.4741   484
 0.4841   477
 0.4941   457
 0.5041   465
 0.5141   475
 0.5241   436
 0.5341   434
 0.5441   438
 0.5541   416
 0.5641   408
 0.5741   432
 0.5841   452
 0.5941   447
 0.6041   440
 0.6141   434
 0.6241   404
 0.6341   405
 0.6441   395
 0.6541   381
 0.6641   411
 0.6741   406
 0.6841   402
 0.6941   408
 0.7041   400
 0.7141   391
 0.7241   368
 0.7341   372
 0.7441   402
 0.7541   393
 0.7641   391
 0.7741   383
 0.7841   380
 0.7941   363
 0.8041   354
 0.8141   374
 0.8241   394
 0.8341   391
 0.8441   369
 0.8541   360
 0.8641   354
 0.8741   362
 0.8841   369
 0.8941   348
 0.9041   350
 0.9141   354
 0.9241   375
 0.9341   366
 0.9441   358
 0.9541   347
 0.9641   342
 0.9741   344
 0.9841   349
 0.9941   351
 1.0041   341
 1.0141   349
 1.0241   358
 1.0341   355
 1.0441   345
 1.0541   354
 1.0641   324
 1.0741   339
 1.0841   339
 1.0941   341
 1.1041   312
 1.1141   321
 1.1241   320
 1.1341   303
 1.1441   345
 1.1541   340
 1.1641   333
 1.1741   313
 1.1841   305
 1.1941   317
 1.2041   332
 1.2141   319
 1.2241   339
 1.2341   329
 1.2441   319
 1.2541   335
 1.2641   333
 1.2741   321
 1.2841   315
 1.2941   326
 1.3041   311
 1.3141   335
 1.3241   328
 1.3341   305
 1.3441   304
 1.3541   349
 1.3641   329
 1.3741   329
 1.3841   308
 1.3941   307
 1.4041   295
 1.4141   311
 1.4241   314
 1.4341   311
 1.4441   314
 1.4541   318
 1.4641   326
 1.4741   311
 1.4841   314
 1.4941   299
 1.5041   290
 1.5141   299
 1.5241   298
 1.5341   280
 1.5441   287
 1.5541   314
 1.5641   266
 1.5741   279
 1.5841   285
 1.5941   254
 1.6041   277
 1.6141   318
 1.6241   315
 1.6341   318
 1.6441   336
 1.6541   361
 1.6641   412
 1.6741   503
 1.6841   577
 1.6941   695
 1.7041   841
 1.7141   893
 1.7241  1058
 1.7341  1092
 1.7441  1172
 1.7541  1062
 1.7641   919
 1.7741   809
 1.7841   710
 1.7941   610
 1.8041   493
 1.8141   419
 1.8241   401
 1.8341   384
 1.8441   364
 1.8541   352
 1.8641   339
 1.8741   364
 1.8841   307
 1.8941   321
 1.9041   326
 1.9141   304
 1.9241   302
 1.9341   318
 1.9441   324
 1.9541   339
 1.9641   334
 1.9741   349
 1.9841   366
 1.9941   389
 2.0041   378
 2.0141   351
 2.0241   335
 2.0341   345
 2.0441   327
 2.0541   352
 2.0641   326
 2.0741   331
 2.0841   317
 2.0941   287
 2.1041   309
 2.1141   297
 2.1241   283
 2.1341   280
 2.1441   266
 2.1541   253
 2.1641   284
 2.1741   282
 2.1841   249
 2.1941   293
 2.2041   251
 2.2141   271
 2.2241   292
 2.2341   254
 2.2441   254
 2.2541   249
 2.2641   272
 2.2741   269
 2.2841   242
 2.2941   243
 2.3041   250
 2.3141   253
 2.3241   242
 2.3341   247
 2.3441   269
 2.3541   247
 2.3641   237
 2.3741   253
 2.3841   269
 2.3941   252
 2.4041   251
 2.4141   242
 2.4241   239
 2.4341   257
 2.4441   222
 2.4541   220
 2.4641   237
 2.4741   248
 2.4841   232
 2.4941   234
 2.5041   256
 2.5141   244
 2.5241   236
 2.5341   219
 2.5441   265
 2.5541   230
 2.5641   229
 2.5741   239
 2.5841   240
 2.5941   237
 2.6041   257
 2.6141   247
 2.6241   224
 2.6341   215
 2.6441   217
 2.6541   213
 2.6641   233
 2.6741   224
 2.6841   212
 2.6941   192
 2.7041   223
 2.7141   224
 2.7241   206
 2.7341   219
 2.7441   243
 2.7541   259
 2.7641   204
 2.7741   239
 2.7841   228
 2.7941   249
 2.8041   231
 2.8141   230
 2.8241   239
 2.8341   232
 2.8441   240
 2.8541   217
 2.8641   219
 2.8741   217
 2.8841   205
 2.8941   209
 2.9041   216
 2.9141   203
 2.9241   221
 2.9341   215
 2.9441   222
 2.9541   197
 2.9641   193
 2.9741   220
 2.9841   203
 2.9941   220
 3.0041   209
 3.0141   233
 3.0241   183
 3.0341   206
 3.0441   197
 3.0541   193
 3.0641   175
 3.0741   219
 3.0841   192
 3.0941   186
 3.1041   187
 3.1141   155
 3.1241   183
 3.1341   183
 3.1441   179
 3.1541   167
 3.1641   199
 3.1741   190
 3.1841   188
 3.1941   171
 3.2041   204
 3.2141   182
 3.2241   168
 3.2341   176
 3.2441   196
 3.2541   190
 3.2641   210
 3.2741   186
 3.2841   227
 3.2941   231
 3.3041   184
 3.3141   204
 3.3241   235
 3.3341   214
 3.3441   202
 3.3541   186
 3.3641   189
 3.3741   185
 3.3841   171
 3.3941   160
 3.4041   146
 3.4141   156
 3.4241   178
 3.4341   160
 3.4441   156
 3.4541   169
 3.4641   179
 3.4741   186
 3.4841   155
 3.4941   149
 3.5041   179
 3.5141   179
 3.5241   186
 3.5341   171
 3.5441   184
 3.5541   187
 3.5641   224
 3.5741   246
 3.5841   302
 3.5941   358
 3.6041   494
 3.6141   597
 3.6241   741
 3.6341   951
 3.6441  1096
 3.6541  1245
 3.6641  1425
 3.6741  1523
 3.6841  1577
 3.6941  1590
 3.7041  1527
 3.7141  1438
 3.7241  1218
 3.7341  1125
 3.7441   876
 3.7541   734
 3.7641   566
 3.7741   474
 3.7841   357
 3.7941   267
 3.8041   239
 3.8141   218
 3.8241   184
 3.8341   157
 3.8441   159
 3.8541   138
 3.8641   156
 3.8741   161
 3.8841   149
 3.8941   147
 3.9041   158
 3.9141   176
 3.9241   193
 3.9341   188
 3.9441   207
 3.9541   219
 3.9641   243
 3.9741   272
 3.9841   309
 3.9941   286
 4.0041   310
 4.0141   298
 4.0241   318
 4.0341   329
 4.0441   305
 4.0541   270
 4.0641   207
 4.0741   214
 4.0841   186
 4.0941   166
 4.1041   178
 4.1141   165
 4.1241   126
 4.1341   143
 4.1441   128
 4.1541   144
 4.1641   130
 4.1741   140
 4.1841   126
 4.1941   125
 4.2041   123
 4.2141   119
 4.2241   132
 4.2341   138
 4.2441   119
 4.2541   121
 4.2641   111
 4.2741   118
 4.2841   109
 4.2941   123
 4.3041   120
 4.3141   126
 4.3241   101
 4.3341   100
 4.3441   112
 4.3541   130
 4.3641   132
 4.3741   134
 4.3841   125
 4.3941   126
 4.4041   138
 4.4141   157
 4.4241   160
 4.4341   199
 4.4441   191
 4.4541   218
 4.4641   224
 4.4741   261
 4.4841   269
 4.4941   286
 4.5041   301
 4.5141   284
 4.5241   277
 4.5341   260
 4.5441   256
 4.5541   226
 4.5641   194
 4.5741   204
 4.5841   193
 4.5941   159
 4.6041   160
 4.6141   152
 4.6241   160
 4.6341   152
 4.6441   126
 4.6541   125
 4.6641   128
 4.6741   118
 4.6841   137
 4.6941   123
 4.7041   128
 4.7141   148
 4.7241   113
 4.7341   114
 4.7441   102
 4.7541   118
 4.7641   101
 4.7741   114
 4.7841    98
 4.7941   113
 4.8041   127
 4.8141   123
 4.8241   132
 4.8341   143
 4.8441   143
 4.8541   135
 4.8641   130
 4.8741   147
 4.8841   137
 4.8941   150
 4.9041   146
 4.9141   169
 4.9241   159
 4.9341   127
 4.9441   158
 4.9541   161
 4.9641   151
 4.9741   157
 4.9841   167
 4.9941   162
 5.0041   153
 5.0141   159
 5.0241   135
 5.0341   139
 5.0441   153
 5.0541   131
 5.0641   127
 5.0741   133
 5.0841   121
 5.0941   123
 5.1041   133
 5.1141   120
 5.1241   122
 5.1341   148
 5.1441   135
 5.1541   122
 5.1641   139
 5.1741   123
 5.1841   134
 5.1941   113
 5.2041   112
 5.2141   125
 5.2241   115
 5.2341   106
 5.2441   119
 5.2541   151
 5.2641   150
 5.2741   171
 5.2841   154
 5.2941   144
 5.3041   138
 5.3141   136
 5.3241   134
 5.3341   149
 5.3441   150
 5.3541   143
 5.3641   151
 5.3741   135
 5.3841   142
 5.3941   168
 5.4041   174
 5.4141   154
 5.4241   158
 5.4341   145
 5.4441   158
 5.4541   140
 5.4641   154
 5.4741   159
 5.4841   144
 5.4941   118
 5.5041   166
 5.5141   151
 5.5241   137
 5.5341   138
 5.5441   130
 5.5541   148
 5.5641   138
 5.5741   130
 5.5841   129
 5.5941   127
 5.6041   140
 5.6141   128
 5.6241   142
 5.6341   135
 5.6441   133
 5.6541   132
 5.6641   146
 5.6741   150
 5.6841   168
 5.6941   132
 5.7041   152
 5.7141   140
 5.7241   159
 5.7341   185
 5.7441   186
 5.7541   222
 5.7641   236
 5.7741   278
 5.7841   327
 5.7941   360
 5.8041   476
 5.8141   499
 5.8241   636
 5.8341   682
 5.8441   795
 5.8541   947
 5.8641  1009
 5.8741  1048
 5.8841  1112
 5.8941  1155
 5.9041  1140
 5.9141  1047
 5.9241  1022
 5.9341   979
 5.9441   834
 5.9541   768
 5.9641   609
 5.9741   534
 5.9841   429
 5.9941   413
 6.0041   327
 6.0141   264
 6.0241   236
 6.0341   237
 6.0441   183
 6.0541   203
 6.0641   166
 6.0741   168
 6.0841   202
 6.0941   187
 6.1041   185
 6.1141   205
 6.1241   164
 6.1341   202
 6.1441   191
 6.1541   217
 6.1641   214
 6.1741   193
 6.1841   222
 6.1941   219
 6.2041   277
 6.2141   277
 6.2241   363
 6.2341   404
 6.2441   543
 6.2541   710
 6.2641   922
 6.2741  1218
 6.2841  1642
 6.2941  2102
 6.3041  2606
 6.3141  3422
 6.3241  4247
 6.3341  4907
 6.3441  5813
 6.3541  6752
 6.3641  7372
 6.3741  8146
 6.3841  8417
 6.3941  8625
 6.4041  8467
 6.4141  8250
 6.4241  7842
 6.4341  7383
 6.4441  6577
 6.4541  5625
 6.4641  4731
 6.4741  4042
 6.4841  3375
 6.4941  2678
 6.5041  2040
 6.5141  1604
 6.5241  1232
 6.5341   941
 6.5441   748
 6.5541   536
 6.5641   460
 6.5741   382
 6.5841   293
 6.5941   281
 6.6041   207
 6.6141   213
 6.6241   222
 6.6341   192
 6.6441   192
 6.6541   220
 6.6641   197
 6.6741   187
 6.6841   206
 6.6941   189
 6.7041   205
 6.7141   186
 6.7241   200
 6.7341   202
 6.7441   189
 6.7541   205
 6.7641   215
 6.7741   204
 6.7841   211
 6.7941   211
 6.8041   235
 6.8141   224
 6.8241   235
 6.8341   234
 6.8441   227
 6.8541   268
 6.8641   233
 6.8741   267
 6.8841   284
 6.8941   278
 6.9041   302
 6.9141   364
 6.9241   441
 6.9341   442
 6.9441   581
 6.9541   599
 6.9641   692
 6.9741   842
 6.9841   958
 6.9941  1111
 7.0041  1204
 7.0141  1303
 7.0241  1461
 7.0341  1515
 7.0441  1567
 7.0541  1509
 7.0641  1540
 7.0741  1517
 7.0841  1469
 7.0941  1296
 7.1041  1182
 7.1141  1109
 7.1241   943
 7.1341   819
 7.1441   769
 7.1541   618
 7.1641   539
 7.1741   439
 7.1841   429
 7.1941   396
 7.2041   351
 7.2141   319
 7.2241   332
 7.2341   312
 7.2441   287
 7.2541   277
 7.2641   295
 7.2741   315
 7.2841   300
 7.2941   286
 7.3041   340
 7.3141   314
 7.3241   343
 7.3341   358
 7.3441   334
 7.3541   351
 7.3641   349
 7.3741   425
 7.3841   382
 7.3941   408
 7.4041   407
 7.4141   400
 7.4241   400
 7.4341   399
 7.4441   354
 7.4541   380
 7.4641   318
 7.4741   348
 7.4841   326
 7.4941   315
 7.5041   339
 7.5141   341
 7.5241   319
 7.5341   300
 7.5441   321
 7.5541   312
 7.5641   306
 7.5741   301
 7.5841   310
 7.5941   301
 7.6041   284
 7.6141   301
 7.6241   317
 7.6341   320
 7.6441   310
 7.6541   342
 7.6641   321
 7.6741   299
 7.6841   334
 7.6941   360
 7.7041   341
 7.7141   341
 7.7241   362
 7.7341   357
 7.7441   368
 7.7541   379
 7.7641   346
 7.7741   385
 7.7841   390
 7.7941   391
 7.8041   417
 7.8141   413
 7.8241   437
 7.8341   431
 7.8441   468
 7.8541   441
 7.8641   476
 7.8741   469
 7.8841   551
 7.8941   482
 7.9041   554
 7.9141   563
 7.9241   586
 7.9341   607
 7.9441   618
 7.9541   703
 7.9641   756
 7.9741   756
 7.9841   813
 7.9941   882
 8.0041   943
 8.0141  1014
 8.0241  1070
 8.0341  1148
 8.0441  1260
 8.0541  1315
 8.0641  1403
 8.0741  1548
 8.0841  1636
 8.0941  1646
 8.1041  1798
 8.1141  1876
 8.1241  1980
 8.1341  1935
 8.1441  2160
 8.1541  2210
 8.1641  2198
 8.1741  2172
 8.1841  2253
 8.1941  2197
 8.2041  2300
 8.2141  2294
 8.2241  2300
 8.2341  2327
 8.2441  2425
 8.2541  2512
 8.2641  2622
 8.2741  2614
 8.2841  2784
 8.2941  2898
 8.3041  3193
 8.3141  3407
 8.3241  3645
 8.3341  3757
 8.3441  4126
 8.3541  4432
 8.3641  4541
 8.3741  4712
 8.3841  4755
 8.3941  4568
 8.4041  4587
 8.4141  4440
 8.4241  4179
 8.4341  3788
 8.4441  3542
 8.4541  3172
 8.4641  2748
 8.4741  2524
 8.4841  2167
 8.4941  1829
 8.5041  1600
 8.5141  1350
 8.5241  1118
 8.5341   962
 8.5441   836
 8.5541   727
 8.5641   725
 8.5741   644
 8.5841   589
 8.5941   577
 8.6041   517
 8.6141   565
 8.6241   530
 8.6341   557
 8.6441   491
 8.6541   514
 8.6641   496
 8.6741   504
 8.6841   470
 8.6941   503
 8.7041   480
 8.7141   492
 8.7241   516
 8.7341   473
 8.7441   472
 8.7541   505
 8.7641   484
 8.7741   496
 8.7841   493
 8.7941   502
 8.8041   501
 8.8141   497
 8.8241   486
 8.8341   477
 8.8441   527
 8.8541   527
 8.8641   511
 8.8741   500
 8.8841   526
 8.8941   536
 8.9041   535
 8.9141   540
 8.9241   552
 8.9341   530
 8.9441   532
 8.9541   536
 8.9641   581
 8.9741   578
 8.9841   579
 8.9941   635
 9.0041   637
 9.0141   650
 9.0241   618
 9.0341   648
 9.0441   638
 9.0541   693
 9.0641   698
 9.0741   716
 9.0841   766
 9.0941   811
 9.1041   821
 9.1141   825
 9.1241   805
 9.1341   887
 9.1441   931
 9.1541   926
 9.1641  1003
 9.1741  1037
 9.1841  1060
 9.1941  1075
 9.2041  1179
 9.2141  1219
 9.2241  1312
 9.2341  1358
 9.2441  1460
 9.2541  1509
 9.2641  1529
 9.2741  1574
 9.2841  1644
 9.2941  1752
 9.3041  1808
 9.3141  1898
 9.3241  1963
 9.3341  2016
 9.3441  2063
 9.3541  2146
 9.3641  2197
 9.3741  2206
 9.3841  2303
 9.3941  2320
 9.4041  2350
 9.4141  2456
 9.4241  2390
 9.4341  2443
 9.4441  2476
 9.4541  2494
 9.4641  2465
 9.4741  2567
 9.4841  2593
 9.4941  2565
 9.5041  2629
 9.5141  2710
 9.5241  2800
 9.5341  2818
 9.5441  2907
 9.5541  3149
 9.5641  3233
 9.5741  3354
 9.5841  3550
 9.5941  3685
 9.6041  3938
 9.6141  4128
 9.6241  4342
 9.6341  4494
 9.6441  4695
 9.6541  4787
 9.6641  4809
 9.6741  4774
 9.6841  4673
 9.6941  4652
 9.7041  4436
 9.7141  4313
 9.7241  4082
 9.7341  3872
 9.7441  3644
 9.7541  3280
 9.7641  3198
 9.7741  2912
 9.7841  2735
 9.7941  2645
 9.8041  2505
 9.8141  2404
 9.8241  2319
 9.8341  2342
 9.8441  2370
 9.8541  2336
 9.8641  2416
 9.8741  2489
 9.8841  2547
 9.8941  2635
 9.9041  2685
 9.9141  2789
 9.9241  2797
 9.9341  2862
 9.9441  2935
 9.9541  2886
 9.9641  2843
 9.9741  2784
 9.9841  2638
 9.9941  2582
10.0041  2438
10.0141  2299
10.0241  2117
10.0341  1911
10.0441  1646
10.0541  1476
10.0641  1375
10.0741  1195
10.0841  1049
10.0941   959
10.1041   891
10.1141   786
10.1241   706
10.1341   658
10.1441   593
10.1541   571
10.1641   530
10.1741   513
10.1841   488
10.1941   437
10.2041   425
10.2141   404
10.2241   405
10.2341   405
10.2441   368
10.2541   375
10.2641   384
10.2741   348
10.2841   337
10.2941   321
10.3041   319
10.3141   341
10.3241   324
10.3341   318
10.3441   311
10.3541   329
10.3641   332
10.3741   329
10.3841   303
10.3941   303
10.4041   312
10.4141   296
10.4241   319
10.4341   307
10.4441   321
10.4541   332
10.4641   311
10.4741   286
10.4841   308
10.4941   330
10.5041   349
10.5141   330
10.5241   321
10.5341   304
10.5441   349
10.5541   322
10.5641   303
10.5741   332
10.5841   338
10.5941   320
10.6041   326
10.6141   351
10.6241   346
10.6341   343
10.6441   344
10.6541   357
10.6641   385
10.6741   357
10.6841   352
10.6941   369
10.7041   396
10.7141   403
10.7241   400
10.7341   415
10.7441   428
10.7541   401
10.7641   427
10.7741   445
10.7841   475
10.7941   472
10.8041   496
10.8141   503
10.8241   514
10.8341   511
10.8441   472
10.8541   508
10.8641   518
10.8741   535
10.8841   550
10.8941   543
10.9041   543
10.9141   563
10.9241   599
10.9341   580
10.9441   577
10.9541   541
10.9641   514
10.9741   499
10.9841   508
10.9941   509
11.0041   543
11.0141   538
11.0241   509
11.0341   517
11.0441   481
11.0541   460
11.0641   476
11.0741   483
11.0841   485
11.0941   468
11.1041   458
11.1141   433
11.1241   456
11.1341   507
11.1441   520
11.1541   480
11.1641   521
11.1741   562
11.1841   529
11.1941   572
11.2041   620
11.2141   660
11.2241   691
11.2341   691
11.2441   721
11.2541   713
11.2641   693
11.2741   728
11.2841   742
11.2941   718
11.3041   714
11.3141   693
11.3241   667
11.3341   627
11.3441   612
11.3541   614
11.3641   573
11.3741   579
11.3841   539
11.3941   511
11.4041   466
11.4141   444
11.4241   413
11.4341   404
11.4441   409
11.4541   409
11.4641   379
11.4741   382
11.4841   384
11.4941   399
11.5041   383
11.5141   416
11.5241   412
11.5341   387
11.5441   398
11.5541   405
11.5641   390
11.5741   400
11.5841   400
11.5941   405
11.6041   416
11.6141   424
11.6241   397
11.6341   407
11.6441   385
11.6541   371
11.6641   398
11.6741   385
11.6841   365
11.6941   370
11.7041   362
11.7141   336
11.7241   354
11.7341   351
11.7441   349
11.7541   339
11.7641   321
11.7741   322
11.7841   321
11.7941   309
11.8041   301
11.8141   321
11.8241   285
11.8341   274
11.8441   301
11.8541   294
11.8641   284
11.8741   287
11.8841   264
11.8941   275
11.9041   288
11.9141   297
11.9241   306
11.9341   300
11.9441   297
11.9541   289
11.9641   273
11.9741   276
11.9841   283
11.9941   293
12.0041   284
12.0141   303
12.0241   302
12.0341   299
12.0441   304
12.0541   327
12.0641   301
12.0741   301
12.0841   300
12.0941   297
12.1041   316
12.1141   300
12.1241   295
12.1341   293
12.1441   271
12.1541   265
12.1641   266
12.1741   266
12.1841   258
12.1941   263
12.2041   288
12.2141   285
12.2241   296
12.2341   284
12.2441   293
12.2541   305
12.2641   298
12.2741   272
12.2841   284
12.2941   278
12.3041   264
12.3141   275
12.3241   275
12.3341   280
12.3441   300
12.3541   291
12.3641   283
12.3741   293
12.3841   278
12.3941   287
12.4041   284
12.4141   268
12.4241   276
12.4341   273
12.4441   279
12.4541   277
12.4641   266
12.4741   285
12.4841   293
12.4941   281
12.5041   286
12.5141   297
12.5241   287
12.5341   290
12.5441   305
12.5541   306
12.5641   291
12.5741   288
12.5841   287
12.5941   293
12.6041   306
12.6141   304
12.6241   310
12.6341   291
12.6441   272
12.6541   292
12.6641   303
12.6741   291
12.6841   291
12.6941   299
12.7041   298
12.7141   307
12.7241   302
12.7341   300
12.7441   308
12.7541   303
12.7641   307
12.7741   325
12.7841   309
12.7941   292
12.8041   291
12.8141   303
12.8241   310
12.8341   301
12.8441   313
12.8541   304
12.8641   313
12.8741   339
12.8841   346
12.8941   330
12.9041   318
12.9141   310
12.9241   322
12.9341   324
12.9441   309
12.9541   308
12.9641   308
12.9741   323
12.9841   318
12.9941   319
13.0041   328
13.0141   328
13.0241   324
13.0341   334
13.0441   325
13.0541   334
13.0641   341
13.0741   341
13.0841   351
13.0941   330
13.1041   318
13.1141   343
13.1241   355
13.1341   337
13.1441   345
13.1541   349
13.1641   344
13.1741   342
13.1841   339
13.1941   346
13.2041   345
13.2141   355
13.2241   363
13.2341   363
13.2441   367
13.2541   345
13.2641   345
13.2741   347
13.2841   343
13.2941   338
13.3041   342
13.3141   376
13.3241   378
13.3341   361
13.3441   378
13.3541   361
13.3641   351
13.3741   389
13.3841   408
13.3941   398
13.4041   394
13.4141   391
13.4241   368
13.4341   355
13.4441   367
13.4541   387
13.4641   395
13.4741   391
13.4841   376
13.4941   376
13.5041   389
13.5141   387
13.5241   417
13.5341   417
13.5441   383
13.5541   372
13.5641   380
13.5741   388
13.5841   386
13.5941   383
13.6041   369
13.6141   383
13.6241   389
13.6341   375
13.6441   387
13.6541   398
13.6641   401
13.6741   399
13.6841   408
13.6941   422
13.7041   410
13.7141   377
13.7241   380
13.7341   394
13.7441   404
13.7541   384
13.7641   379
13.7741   396
13.7841   411
13.7941   415
13.8041   394
13.8141   399
13.8241   406
13.8341   395
13.8441   400
13.8541   393
13.8641   403
13.8741   420
13.8841   406
13.8941   416
13.9041   412
13.9141   417
13.9241   401
13.9341   396
13.9441   427
13.9541   445
13.9641   435
13.9741   414
13.9841   414
13.9941   420
14.0041   450
14.0141   460
14.0241   444
14.0341   447
14.0441   453
14.0541   475
14.0641   469
14.0741   448
14.0841   461
14.0941   467
14.1041   478
14.1141   478
14.1241   466
14.1341   474
14.1441   476
14.1541   483
14.1641   482
14.1741   472
14.1841   468
14.1941   478
14.2041   496
14.2141   476
14.2241   468
14.2341   468
14.2441   464
14.2541   460
14.2641   448
14.2741   458
14.2841   472
14.2941   490
14.3041   482
14.3141   458
14.3241   452
14.3341   447
14.3441   454
14.3541   459
14.3641   458
14.3741   473
14.3841   464
14.3941   448
14.4041   447
14.4141   459
14.4241   475
14.4341   481
14.4441   475
14.4541   465
14.4641   461
14.4741   455
14.4841   473
14.4941   475
14.5041   451
14.5141   452
14.5241   456
14.5341   451
14.5441   471
14.5541   478
14.5641   465
14.5741   462
14.5841   457
14.5941   466
14.6041   499
14.6141   500
14.6241   479
14.6341   471
14.6441   472
14.6541   473
14.6641   475
14.6741   487
14.6841   498
14.6941   481
14.7041   462
14.7141   452
14.7241   461
14.7341   491
14.7441   495
14.7541   475
14.7641   501
14.7741   518
14.7841   509
14.7941   515
14.8041   514
14.8141   498
14.8241   513
14.8341   513
14.8441   484
14.8541   479
14.8641   518
14.8741   522
14.8841   516
14.8941   546
14.9041   543
14.9141   538
14.9241   542
14.9341   528
14.9441   519
14.9541   519
14.9641   514
14.9741   534
14.9841   537
14.9941   545
15.0041   533
15.0141   516
15.0241   512
15.0341   506
15.0441   514
15.0541   534
15.0641   518
15.0741   530
15.0841   529
15.0941   530
15.1041   543
15.1141   511
15.1241   531
15.1341   524
15.1441   514
15.1541   538
15.1641   515
15.1741   511
15.1841   496
15.1941   503
15.2041   504
15.2141   505
15.2241   527
15.2341   529
15.2441   509
15.2541   533
15.2641   517
15.2741   504
15.2841   525
15.2941   569
15.3041   562
15.3141   535
15.3241   542
15.3341   529
15.3441   538
15.3541   552
15.3641   561
15.3741   567
15.3841   560
15.3941   525
15.4041   514
15.4141   539
15.4241   556
15.4341   568
15.4441   560
15.4541   542
15.4641   534
15.4741   544
15.4841   563
15.4941   536
15.5041   532
15.5141   570
15.5241   594
15.5341   574
15.5441   574
15.5541   586
15.5641   592
15.5741   580
15.5841   613
15.5941   609
15.6041   621
15.6141   689
15.6241   715
15.6341   672
15.6441   655
15.6541   681
15.6641   713
15.6741   707
15.6841   687
15.6941   683
15.7041   712
15.7141   752
15.7241   776
15.7341   758
15.7441   770
15.7541   771
15.7641   776
15.7741   779
15.7841   792
15.7941   779
15.8041   761
15.8141   728
15.8241   747
15.8341   739
15.8441   715
15.8541   690
15.8641   654
15.8741   663
15.8841   676
15.8941   669
15.9041   680
15.9141   679
15.9241   657
15.9341   624
15.9441   614
15.9541   615
15.9641   610
15.9741   603
15.9841   586
15.9941   612
16.0041   620
16.0141   643
16.0241   640
16.0341   608
16.0441   597
16.0541   566
16.0641   581
16.0741   596
16.0841   607
16.0941   637
16.1041   630
16.1141   600
16.1241   609
16.1341   624
16.1441   603
16.1541   617
16.1641   647
16.1741   642
16.1841   638
16.1941   646
16.2041   662
16.2141   636
16.2241   639
16.2341   648
16.2441   667
16.2541   640
16.2641   639
16.2741   657
16.2841   673
16.2941   675
16.3041   672
16.3141   667
16.3241   646
16.3341   618
16.3441   652
16.3541   671
16.3641   647
16.3741   646
16.3841   645
16.3941   660
16.4041   653
16.4141   677
16.4241   675
16.4341   671
16.4441   669
16.4541   685
16.4641   684
16.4741   657
16.4841   631
16.4941   632
16.5041   692
16.5141   678
16.5241   665
16.5341   698
16.5441   704
16.5541   710
16.5641   673
16.5741   707
16.5841   713
16.5941   688
16.6041   686
16.6141   691
16.6241   699
16.6341   708
16.6441   680
16.6541   699
16.6641   703
16.6741   698
16.6841   690
16.6941   688
16.7041   707
16.7141   687
16.7241   666
16.7341   654
16.7441   685
16.7541   754
16.7641   762
16.7741   712
16.7841   678
16.7941   667
16.8041   683
16.8141   718
16.8241   721
16.8341   707
16.8441   716
16.8541   726
16.8641   765
16.8741   717
16.8841   709
16.8941   746
16.9041   730
16.9141   715
16.9241   725
16.9341   734
16.9441   740
16.9541   733
16.9641   758
16.9741   775
16.9841   747
16.9941   730
17.0041   738
17.0141   744
17.0241   762
17.0341   740
17.0441   747
17.0541   696
17.0641   711
17.0741   742
17.0841   735
17.0941   738
17.1041   726
17.1141   733
17.1241   724
17.1341   744
17.1441   770
17.1541   771
17.1641   736
17.1741   738
17.1841   725
17.1941   746
17.2041   742
17.2141   733
17.2241   793
17.2341   752
17.2441   725
17.2541   785
17.2641   783
17.2741   751
17.2841   733
17.2941   738
17.3041   771
17.3141   725
17.3241   754
17.3341   755
17.3441   758
17.3541   729
17.3641   765
17.3741   787
17.3841   770
17.3941   788
17.4041   774
17.4141   781
17.4241   775
17.4341   767
17.4441   752
17.4541   750
17.4641   757
17.4741   746
17.4841   749
17.4941   798
17.5041   796
17.5141   779
17.5241   792
17.5341   815
17.5441   800
17.5541   799
17.5641   794
17.5741   785
17.5841   791
17.5941   814
17.6041   799
17.6141   867
17.6241   856
17.6341   841
17.6441   852
17.6541   797
17.6641   801
17.6741   816
17.6841   816
17.6941   821
17.7041   855
17.7141   847
17.7241   795
17.7341   789
17.7441   811
17.7541   825
17.7641   823
17.7741   817
17.7841   839
17.7941   845
17.8041   818
17.8141   805
17.8241   836
17.8341   843
17.8441   810
17.8541   831
17.8641   818
17.8741   816
17.8841   837
17.8941   841
17.9041   812
17.9141   814
17.9241   854
17.9341   860
17.9441   831
17.9541   855
17.9641   893
17.9741   831
17.9841   811
17.9941   860
18.0041   859
18.0141   856
18.0241   857
18.0341   835
18.0441   884
18.0541   838
18.0641   815
18.0741   830
18.0841   806
18.0941   815
18.1041   834
18.1141   850
18.1241   872
18.1341   863
18.1441   874
18.1541   855
18.1641   845
18.1741   844
18.1841   811
18.1941   831
18.2041   849
18.2141   818
18.2241   874
18.2341   860
18.2441   836
18.2541   870
18.2641   908
18.2741   882
18.2841   869
18.2941   863
18.3041   878
18.3141   928
18.3241   877
18.3341   893
18.3441   873
18.3541   887
18.3641   877
18.3741   880
18.3841   887
18.3941   922
18.4041   844
18.4141   822
18.4241   875
18.4341   850
18.4441   886
18.4541   893
18.4641   855
18.4741   890
18.4841   883
18.4941   922
18.5041   864
18.5141   872
18.5241   906
18.5341   932
18.5441   892
18.5541   917
18.5641   874
18.5741   875
18.5841   909
18.5941   887
18.6041   875
18.6141   865
18.6241   902
18.6341   870
18.6441   919
18.6541   925
18.6641   894
18.6741   876
18.6841   873
18.6941   911
18.7041   906
18.7141   930
18.7241   940
18.7341   917
18.7441   960
18.7541   939
18.7641   945
18.7741   900
18.7841   901
18.7941   951
18.8041   922
18.8141   931
18.8241   898
18.8341   927
18.8441   903
18.8541   874
18.8641   886
18.8741   909
18.8841   974
18.8941   905
18.9041   918
18.9141   914
18.9241   910
18.9341   905
18.9441   926
18.9541   933
18.9641   904
18.9741   905
18.9841   919
18.9941   937
19.0041   922
19.0141   960
19.0241   935
19.0341   949
19.0441   923
19.0541   944
19.0641   942
19.0741   970
19.0841   921
19.0941   924
19.1041   963
19.1141   903
19.1241   932
19.1341   904
19.1441   950
19.1541   944
19.1641   938
19.1741   942
19.1841   917
19.1941   950
19.2041   964
19.2141   919
19.2241   948
19.2341   962
19.2441   992
19.2541   957
19.2641   935
19.2741   918
19.2841   955
19.2941   929
19.3041   956
19.3141   917
19.3241   922
19.3341   937
19.3441   990
19.3541   940
19.3641   961
19.3741   968
19.3841   951
19.3941   963
19.4041   945
19.4141   919
19.4241   944
19.4341   953
19.4441   966
19.4541   956
19.4641   933
19.4741   923
19.4841   983
19.4941  1008
19.5041   976
19.5141   981
19.5241   975
19.5341  1013
19.5441   942
19.5541   970
19.5641   972
19.5741   965
19.5841   967
19.5941   945
19.6041   946
19.6141   953
19.6241   968
19.6341   988
19.6441   938
19.6541  1010
19.6641   996
19.6741  1012
19.6841   962
19.6941   934
19.7041   948
19.7141   948
19.7241   979
19.7341   969
19.7441   977
19.7541   982
19.7641   985
19.7741   970
19.7841   927
19.7941   972
19.8041  1000
19.8141  1001
19.8241   972
19.8341  1002
19.8441   947
19.8541  1017
19.8641   977
19.8741   999
19.8841   988
19.8941   970
19.9041  1024
19.9141   974
19.9241   986
19.9341  1015
19.9441   969
19.9541   970
19.9641   986
19.9741   967
19.9841   994
19.9941  1026
20.0041  1022
20.0141  1005
20.0241   974
20.0341   982
20.0441  1019
20.0541   997
20.0641  1000
20.0741   956
20.0841   985
20.0941   977
20.1041   995
20.1141  1063
20.1241   991
20.1341   993
20.1441  1006
20.1541   979
20.1641   962
20.1741  1017
20.1841   960
20.1941   960
20.2041   983
20.2141  1014
20.2241   962
20.2341   985
20.2441  1018
20.2541  1032
20.2641  1006
20.2741   940
20.2841   941
20.2941  1011
20.3041  1051
20.3141   999
20.3241   971
20.3341   974
20.3441   958
20.3541   961
20.3641  1016
20.3741   987
20.3841  1030
20.3941  1081
20.4041  1009
20.4141  1002
20.4241  1021
20.4341   984
20.4441   984
20.4541   982
20.4641   972
20.4741  1012
20.4841  1014
20.4941  1033
20.5041  1025
20.5141   947
20.5241  1009
20.5341  1025
20.5441  1009
20.5541  1027
20.5641   988
20.5741  1006
20.5841  1072
20.5941  1079
20.6041  1022
20.6141   970
20.6241  1020
20.6341  1053
20.6441  1009
20.6541  1050
20.6641  1028
20.6741   953
20.6841  1013
20.6941  1044
20.7041  1018
20.7141   993
20.7241  1010
20.7341  1060
20.7441  1064
20.7541  1018
20.7641  1028
20.7741  1070
20.7841  1006
20.7941  1032
20.8041  1071
20.8141  1009
20.8241  1048
20.8341  1037
20.8441  1061
20.8541  1083
20.8641  1132
20.8741  1145
20.8841  1133
20.8941  1124
20.9041  1149
20.9141  1177
20.9241  1195
20.9341  1203
20.9441  1253
20.9541  1294
20.9641  1317
20.9741  1270
20.9841  1347
20.9941  1364
21.0041  1439
21.0141  1403
21.0241  1389
21.0341  1409
21.0441  1434
21.0541  1445
21.0641  1491
21.0741  1496
21.0841  1464
21.0941  1504
21.1041  1488
21.1141  1548
21.1241  1482
21.1341  1506
21.1441  1602
21.1541  1502
21.1641  1538
21.1741  1511
21.1841  1458
21.1941  1513
21.2041  1436
21.2141  1414
21.2241  1432
21.2341  1406
21.2441  1409
21.2541  1360
21.2641  1336
21.2741  1297
21.2841  1233
21.2941  1236
21.3041  1183
21.3141  1198
21.3241  1165
21.3341  1176
21.3441  1116
21.3541  1167
21.3641  1043
21.3741  1095
21.3841   997
21.3941  1035
21.4041  1006
21.4141   983
21.4241  1044
21.4341  1055
21.4441  1093
21.4541  1043
21.4641  1033
21.4741  1029
21.4841   999
21.4941  1003
21.5041  1014
21.5141  1034
21.5241  1014
21.5341  1025
21.5441  1006
21.5541   959
21.5641   992
21.5741  1022
21.5841  1012
21.5941  1058
21.6041  1023
21.6141  1019
21.6241   983
21.6341   971
21.6441  1007
21.6541  1031
21.6641  1020
21.6741  1006
21.6841  1070
21.6941  1023
21.7041  1005
21.7141  1025
21.7241  1057
21.7341  1042
21.7441  1047
21.7541  1031
21.7641  1005
21.7741  1035
21.7841  1027
21.7941  1037
21.8041  1034
21.8141  1031
21.8241   977
21.8341  1040
21.8441  1014
21.8541  1019
21.8641  1022
21.8741  1025
21.8841  1004
21.8941  1000
21.9041   965
21.9141   985
21.9241  1053
21.9341  1029
21.9441  1042
21.9541  1024
21.9641   990
21.9741  1034
21.9841  1029
21.9941  1007
22.0041  1037
22.0141  1068
22.0241  1069
22.0341   991
22.0441   998
22.0541   983
22.0641   968
22.0741  1009
22.0841  1016
22.0941   972
22.1041  1063
22.1141  1015
22.1241  1042
22.1341  1060
22.1441  1033
22.1541  1049
22.1641   963
22.1741  1028
22.1841  1052
22.1941  1023
22.2041   991
22.2141   985
22.2241   985
22.2341   968
22.2441  1029
22.2541  1059
22.2641  1076
22.2741  1033
22.2841  1002
22.2941  1004
22.3041   983
22.3141  1044
22.3241  1023
22.3341  1059
22.3441  1002
22.3541  1014
22.3641  1033
22.3741  1010
22.3841   997
22.3941  1007
22.4041   994
22.4141   977
22.4241   993
22.4341  1045
22.4441  1002
22.4541  1023
22.4641  1009
22.4741  1068
22.4841  1040
22.4941  1048
22.5041   979
22.5141  1010
22.5241  1018
22.5341  1062
22.5441  1032
22.5541  1005
22.5641   980
22.5741  1005
22.5841  1042
22.5941  1011
22.6041  1006
22.6141   993
22.6241  1004
22.6341   992
22.6441  1052
22.6541   996
22.6641  1009
22.6741  1027
22.6841  1050
22.6941  1003
22.7041   987
22.7141   991
22.7241  1037
22.7341   996
22.7441  1051
22.7541   987
22.7641  1066
22.7741   979
22.7841  1020
22.7941  1038
22.8041   998
22.8141   952
22.8241   996
22.8341   990
22.8441   982
22.8541  1000
22.8641  1011
22.8741  1015
22.8841   997
22.8941   994
22.9041  1014
22.9141  1045
22.9241  1087
22.9341   992
22.9441   997
22.9541  1015
22.9641   997
22.9741   995
22.9841   980
22.9941  1043
23.0041   969
23.0141   976
23.0241  1004
23.0341   965
23.0441   998
23.0541  1031
23.0641   983
23.0741  1062
23.0841   943
23.0941  1030
23.1041  1000
23.1141   963
23.1241  1024
23.1341   968
23.1441   994
23.1541   969
23.1641  1017
23.1741  1003
23.1841  1011
23.1941   990
23.2041  1003
23.2141   963
23.2241   994
23.2341   999
23.2441  1011
23.2541  1051
23.2641  1004
23.2741   996
23.2841   990
23.2941   948
23.3041   958
23.3141   972
23.3241   970
23.3341  1002
23.3441   945
23.3541   953
23.3641  1029
23.3741   973
23.3841   938
23.3941  1023
23.4041   975
23.4141  1037
23.4241   962
23.4341   970
23.4441   942
23.4541  1006
23.4641   937
23.4741   975
23.4841  1016
23.4941   994
23.5041   944
23.5141   991
23.5241   951
23.5341  1018
23.5441   963
23.5541  1034
23.5641   972
23.5741   954
23.5841   952
23.5941  1018
23.6041   982
23.6141   988
23.6241  1000
23.6341   985
23.6441  1003
23.6541   978
23.6641   996
23.6741   993
23.6841  1011
23.6941  1061
23.7041  1046
23.7141  1085
23.7241   988
23.7341   989
23.7441  1088
23.7541  1047
23.7641  1028
23.7741  1039
23.7841  1060
23.7941  1052
23.8041  1022
23.8141  1071
23.8241  1035
23.8341  1063
23.8441  1042
23.8541  1058
23.8641   991
23.8741  1065
23.8841  1033
23.8941  1053
23.9041   960
23.9141   985
23.9241  1023
23.9341   980
23.9441   976
23.9541  1055
23.9641   980
23.9741   991
23.9841   960
23.9941   977
24.0041   956
24.0141   986
24.0241   984
24.0341   930
24.0441   972
24.0541   911
24.0641  1013
24.0741   947
24.0841   960
24.0941   996
24.1041   936
24.1141   977
24.1241   957
24.1341   927
24.1441   913
24.1541   966
24.1641   957
24.1741   899
24.1841   971
24.1941   940
24.2041   946
24.2141   913
24.2241   944
24.2341   921
24.2441   952
24.2541   968
24.2641   933
24.2741   980
24.2841   941
24.2941   944
24.3041   947
24.3141   969
24.3241   909
24.3341   980
24.3441   858
24.3541   944
24.3641   951
24.3741  1012
24.3841   951
24.3941   944
24.4041   962
24.4141   952
24.4241   934
24.4341   973
24.4441   963
24.4541   896
24.4641   969
24.4741   935
24.4841   937
24.4941   907
24.5041   971
24.5141   905
24.5241   865
24.5341   913
24.5441   905
24.5541   896
24.5641   861
24.5741   895
24.5841   917
24.5941   906
24.6041   934
24.6141   909
24.6241   922
24.6341   922
24.6441   939
24.6541   907
24.6641   867
24.6741   886
24.6841   864
24.6941   871
24.7041   910
24.7141   932
24.7241   917
24.7341   904
24.7441   926
24.7541   895
24.7641   863
24.7741   917
24.7841   836
24.7941   885
24.8041   880
24.8141   906
24.8241   953
24.8341   892
24.8441   844
24.8541   929
24.8641   900
24.8741   907
24.8841   863
24.8941   883
24.9041   912
24.9141   898
24.9241   922
24.9341   921
24.9441   819
24.9541   864
24.9641   911
24.9741   902
24.9841   866
24.9941   883
25.0041   894
25.0141   874
25.0241   880
25.0341   928
25.0441   912
25.0541   909
25.0641   912
25.0741   886
25.0841   945
25.0941   911
25.1041   890
25.1141   945
25.1241   858
25.1341   868
25.1441   932
25.1541   917
25.1641   953
25.1741   914
25.1841   894
25.1941   907
25.2041   957
25.2141   914
25.2241   874
25.2341   856
25.2441   885
25.2541   899
25.2641   897
25.2741   902
25.2841   899
25.2941   893
25.3041   871
25.3141   916
25.3241   903
25.3341   863
25.3441   908
25.3541   878
25.3641   940
25.3741   908
25.3841   876
25.3941   904
25.4041   878
25.4141   895
25.4241   830
25.4341   844
25.4441   859
25.4541   859
25.4641   844
25.4741   830
25.4841   868
25.4941   849
25.5041   857
25.5141   810
25.5241   793
25.5341   811
25.5441   829
25.5541   867
25.5641   866
25.5741   873
25.5841   837
25.5941   781
25.6041   854
25.6141   867
25.6241   855
25.6341   799
25.6441   809
25.6541   791
25.6641   841
25.6741   810
25.6841   847
25.6941   817
25.7041   831
25.7141   847
25.7241   846
25.7341   828
25.7441   864
25.7541   845
25.7641   806
25.7741   840
25.7841   863
25.7941   816
25.8041   797
25.8141   823
25.8241   828
25.8341   899
25.8441   852
25.8541   837
25.8641   820
25.8741   820
25.8841   842
25.8941   824
25.9041   819
25.9141   821
25.9241   798
25.9341   797
25.9441   846
25.9541   799
25.9641   815
25.9741   815
25.9841   775
25.9941   837
26.0041   832
26.0141   781
26.0241   814
26.0341   812
26.0441   826
26.0541   870
26.0641   807
26.0741   810
26.0841   759
26.0941   778
26.1041   808
26.1141   806
26.1241   871
26.1341   865
26.1441   770
26.1541   815
26.1641   790
26.1741   807
26.1841   830
26.1941   813
26.2041   790
26.2141   808
26.2241   827
26.2341   821
26.2441   791
26.2541   796
26.2641   776
26.2741   785
26.2841   790
26.2941   838
26.3041   842
26.3141   764
26.3241   812
26.3341   774
26.3441   783
26.3541   766
26.3641   785
26.3741   795
26.3841   804
26.3941   778
26.4041   790
26.4141   808
26.4241   805
26.4341   763
26.4441   813
26.4541   762
26.4641   761
26.4741   763
26.4841   716
26.4941   816
26.5041   758
26.5141   802
26.5241   810
26.5341   789
26.5441   794
26.5541   832
26.5641   763
26.5741   719
26.5841   773
26.5941   724
26.6041   779
26.6141   782
26.6241   750
26.6341   751
26.6441   760
26.6541   796
26.6641   782
26.6741   798
26.6841   781
26.6941   792
26.7041   750
26.7141   758
26.7241   776
26.7341   768
26.7441   756
26.7541   715
26.7641   758
26.7741   795
26.7841   752
26.7941   787
26.8041   726
26.8141   729
26.8241   694
26.8341   737
26.8441   758
26.8541   696
26.8641   742
26.8741   778
26.8841   745
26.8941   748
26.9041   720
26.9141   714
26.9241   747
26.9341   725
26.9441   780
26.9541   678
26.9641   732
26.9741   746
26.9841   722
26.9941   775
27.0041   728
27.0141   718
27.0241   710
27.0341   721
27.0441   740
27.0541   766
27.0641   732
27.0741   694
27.0841   749
27.0941   757
27.1041   773
27.1141   721
27.1241   694
27.1341   698
27.1441   746
27.1541   740
27.1641   720
27.1741   727
27.1841   744
27.1941   782
27.2041   737
27.2141   720
27.2241   748
27.2341   719
27.2441   715
27.2541   729
27.2641   717
27.2741   783
27.2841   756
27.2941   694
27.3041   725
27.3141   713
27.3241   670
27.3341   698
27.3441   690
27.3541   775
27.3641   710
27.3741   715
27.3841   724
27.3941   689
27.4041   761
27.4141   716
27.4241   707
27.4341   734
27.4441   710
27.4541   681
27.4641   695
27.4741   744
27.4841   742
27.4941   678
27.5041   743
27.5141   748
27.5241   712
27.5341   727
27.5441   722
27.5541   686
27.5641   703
27.5741   703
27.5841   644
27.5941   700
27.6041   682
27.6141   657
27.6241   713
27.6341   716
27.6441   674
27.6541   729
27.6641   680
27.6741   684
27.6841   685
27.6941   694
27.7041   649
27.7141   692
27.7241   660
27.7341   680
27.7441   695
27.7541   688
27.7641   681
27.7741   709
27.7841   635
27.7941   705
27.8041   710
27.8141   692
27.8241   719
27.8341   689
27.8441   707
27.8541   665
27.8641   658
27.8741   658
27.8841   722
27.8941   690
27.9041   648
27.9141   667
27.9241   663
27.9341   627
27.9441   670
27.9541   705
27.9641   663
27.9741   722
27.9841   666
27.9941   671
28.0041   690
28.0141   644
28.0241   689
28.0341   648
28.0441   634
28.0541   628
28.0641   659
28.0741   645
28.0841   627
28.0941   649
28.1041   637
28.1141   612
28.1241   627
28.1341   639
28.1441   625
28.1541   653
28.1641   614
28.1741   620
28.1841   623
28.1941   666
28.2041   631
28.2141   665
28.2241   632
28.2341   628
28.2441   604
28.2541   637
28.2641   607
28.2741   654
28.2841   632
28.2941   672
28.3041   642
28.3141   625
28.3241   641
28.3341   673
28.3441   630
28.3541   589
28.3641   653
28.3741   638
28.3841   623
28.3941   602
28.4041   618
28.4141   629
28.4241   633
28.4341   635
28.4441   625
28.4541   629
28.4641   657
28.4741   642
28.4841   654
28.4941   615
28.5041   610
28.5141   655
28.5241   595
28.5341   610
28.5441   630
28.5541   629
28.5641   599
28.5741   625
28.5841   661
28.5941   611
28.6041   579
28.6141   626
28.6241   625
28.6341   621
28.6441   585
28.6541   663
28.6641   621
28.6741   616
28.6841   644
28.6941   609
28.7041   581
28.7141   626
28.7241   602
28.7341   600
28.7441   600
28.7541   585
28.7641   570
28.7741   528
28.7841   588
28.7941   579
28.8041   574
28.8141   621
28.8241   601
28.8341   621
28.8441   607
28.8541   596
28.8641   643
28.8741   613
28.8841   631
28.8941   610
28.9041   588
28.9141   587
28.9241   616
28.9341   616
28.9441   598
28.9541   637
28.9641   572
28.9741   607
28.9841   598
28.9941   608
29.0041   654
29.0141   608
29.0241   572
29.0341   561
29.0441   614
29.0541   563
29.0641   550
29.0741   562
29.0841   577
29.0941   601
29.1041   606
29.1141   570
29.1241   556
29.1341   564
29.1441   571
29.1541   600
29.1641   577
29.1741   585
29.1841   549
29.1941   582
29.2041   575
29.2141   551
29.2241   566
29.2341   590
29.2441   555
29.2541   564
29.2641   519
29.2741   567
29.2841   544
29.2941   582
29.3041   534
29.3141   536
29.3241   580
29.3341   559
29.3441   551
29.3541   541
29.3641   582
29.3741   565
29.3841   571
29.3941   555
29.4041   545
29.4141   597
29.4241   517
29.4341   566
29.4441   544
29.4541   549
29.4641   519
29.4741   583
29.4841   556
29.4941   518
29.5041   512
29.5141   537
29.5241   508
29.5341   553
29.5441   530
29.5541   536
29.5641   522
29.5741   532
29.5841   537
29.5941   558
29.6041   523
29.6141   523
29.6241   556
29.6341   558
29.6441   525
29.6541   508
29.6641   540
29.6741   511
29.6841   514
29.6941   548
29.7041   551
29.7141   525
29.7241   535
29.7341   516
29.7441   532
29.7541   534
29.7641   540
29.7741   552
29.7841   530
29.7941   536
29.8041   518
29.8141   545
29.8241   491
29.8341   558
29.8441   546
29.8541   545
29.8641   537
29.8741   530
29.8841   503
29.8941   538
29.9041   547
29.9141   529
29.9241   518
29.9341   537
29.9441   487
29.9541   488
29.9641   496
29.9741   526
29.9841   517
29.9941   521
30.0041   484
30.0141   515
30.0241   522
30.0341   476
30.0441   495
30.0541   493
30.0641   501
30.0741   545
30.0841   554
30.0941   500
30.1041   471
30.1141   508
30.1241   493
30.1341   479
30.1441   478
30.1541   524
30.1641   490
30.1741   485
30.1841   470
30.1941   512
30.2041   506
30.2141   500
30.2241   486
30.2341   454
30.2441   476
30.2541   476
30.2641   503
30.2741   482
30.2841   487
30.2941   449
30.3041   471
30.3141   492
30.3241   459
30.3341   522
30.3441   507
30.3541   461
30.3641   500
30.3741   496
30.3841   524
30.3941   469
30.4041   469
30.4141   471
30.4241   502
30.4341   463
30.4441   495
30.4541   437
30.4641   480
30.4741   491
30.4841   460
30.4941   467
30.5041   489
30.5141   452
30.5241   486
30.5341   492
30.5441   438
30.5541   452
30.5641   458
30.5741   490
30.5841   433
30.5941   465
30.6041   440
30.6141   475
30.6241   486
30.6341   475
30.6441   451
30.6541   461
30.6641   461
30.6741   484
30.6841   472
30.6941   437
30.7041   454
30.7141   452
30.7241   436
30.7341   458
30.7441   440
30.7541   478
30.7641   440
30.7741   468
30.7841   441
30.7941   425
30.8041   447
30.8141   421
30.8241   491
30.8341   449
30.8441   485
30.8541   462
30.8641   448
30.8741   441
30.8841   454
30.8941   413
30.9041   422
30.9141   461
30.9241   419
30.9341   471
30.9441   435
30.9541   463
30.9641   411
30.9741   419
30.9841   437
30.9941   460
31.0041   407
31.0141   424
31.0241   426
31.0341   440
31.0441   431
31.0541   420
31.0641   469
31.0741   423
31.0841   445
31.0941   442
31.1041   422
31.1141   432
31.1241   433
31.1341   466
31.1441   422
31.1541   407
31.1641   404
31.1741   449
31.1841   437
31.1941   430
31.2041   405
31.2141   438
31.2241   443
31.2341   390
31.2441   416
31.2541   431
31.2641   436
31.2741   426
31.2841   408
31.2941   411
31.3041   403
31.3141   406
31.3241   434
31.3341   401
31.3441   415
31.3541   436
31.3641   415
31.3741   407
31.3841   407
31.3941   407
31.4041   442
31.4141   420
31.4241   360
31.4341   394
31.4441   426
31.4541   443
31.4641   398
31.4741   408
31.4841   435
31.4941   425
31.5041   387
31.5141   420
31.5241   389
31.5341   365
31.5441   410
31.5541   383
31.5641   424
31.5741   412
31.5841   397
31.5941   396
31.6041   409
31.6141   413
31.6241   414
31.6341   423
31.6441   394
31.6541   399
31.6641   408
31.6741   400
31.6841   408
31.6941   405
31.7041   376
31.7141   380
31.7241   375
31.7341   378
31.7441   365
31.7541   390
31.7641   373
31.7741   365
31.7841   375
31.7941   400
31.8041   382
31.8141   388
31.8241   369
31.8341   384
31.8441   401
31.8541   395
31.8641   379
31.8741   409
31.8841   408
31.8941   387
31.9041   404
31.9141   374
31.9241   355
31.9341   338
31.9441   359
31.9541   373
31.9641   385
31.9741   385
31.9841   386
31.9941   350
32.0041   405
32.0141   372
32.0241   368
32.0341   369
32.0441   377
32.0541   378
32.0641   332
32.0741   357
32.0841   365
32.0941   368
32.1041   402
32.1141   391
32.1241   394
32.1341   395
32.1441   377
32.1541   355
32.1641   397
32.1741   358
32.1841   354
32.1941   359
32.2041   364
32.2141   372
32.2241   356
32.2341   360
32.2441   360
32.2541   367
32.2641   384
32.2741   372
32.2841   380
32.2941   363
32.3041   347
32.3141   353
32.3241   340
32.3341   354
32.3441   373
32.3541   351
32.3641   348
32.3741   352
32.3841   348
32.3941   370
32.4041   349
32.4141   348
32.4241   367
32.4341   348
32.4441   350
32.4541   343
32.4641   344
32.4741   363
32.4841   371
32.4941   345
32.5041   337
32.5141   336
32.5241   367
32.5341   360
32.5441   338
32.5541   331
32.5641   349
32.5741   337
32.5841   328
32.5941   328
32.6041   364
32.6141   335
32.6241   340
32.6341   325
32.6441   326
32.6541   326
32.6641   342
32.6741   338
32.6841   321
32.6941   328
32.7041   331
32.7141   365
32.7241   338
32.7341   318
32.7441   322
32.7541   328
32.7641   336
32.7741   332
32.7841   332
32.7941   348
32.8041   343
32.8141   340
32.8241   351
32.8341   333
32.8441   313
32.8541   321
32.8641   316
32.8741   328
32.8841   320
32.8941   314
32.9041   327
32.9141   328
32.9241   330
32.9341   312
32.9441   331
32.9541   304
32.9641   335
32.9741   345
32.9841   341
32.9941   300
33.0041   319
33.0141   315
33.0241   302
33.0341   317
33.0441   313
33.0541   299
33.0641   308
33.0741   316
33.0841   289
33.0941   288
33.1041   326
33.1141   329
33.1241   329
33.1341   297
33.1441   311
33.1541   315
33.1641   329
33.1741   307
33.1841   293
33.1941   299
33.2041   319
33.2141   297
33.2241   321
33.2341   300
33.2441   335
33.2541   287
33.2641   341
33.2741   286
33.2841   281
33.2941   309
33.3041   315
33.3141   292
33.3241   295
33.3341   290
33.3441   310
33.3541   280
33.3641   306
33.3741   275
33.3841   296
33.3941   334
33.4041   296
33.4141   307
33.4241   268
33.4341   284
33.4441   274
33.4541   321
33.4641   333
33.4741   308
33.4841   326
33.4941   278
33.5041   276
33.5141   299
33.5241   311
33.5341   269
33.5441   297
33.5541   295
33.5641   273
33.5741   298
33.5841   280
33.5941   299
33.6041   304
33.6141   299
33.6241   300
33.6341   292
33.6441   266
33.6541   301
33.6641   263
33.6741   283
33.6841   279
33.6941   292
33.7041   287
33.7141   282
33.7241   301
33.7341   300
33.7441   239
33.7541   287
33.7641   274
33.7741   266
33.7841   278
33.7941   263
33.8041   261
33.8141   294
33.8241   266
33.8341   275
33.8441   263
33.8541   271
33.8641   288
33.8741   269
33.8841   268
33.8941   251
33.9041   272
33.9141   290
33.9241   266
33.9341   267
33.9441   276
33.9541   279
33.9641   273
33.9741   281
33.9841   282
33.9941   219
34.0041   233
34.0141   267
34.0241   241
34.0341   265
34.0441   269
34.0541   285
34.0641   248
34.0741   268
34.0841   251
34.0941   272
34.1041   283
34.1141   272
34.1241   268
34.1341   264
34.1441   268
34.1541   251
34.1641   254
34.1741   282
34.1841   250
34.1941   266
34.2041   255
34.2141   266
34.2241   259
34.2341   235
34.2441   242
34.2541   247
34.2641   256
34.2741   263
34.2841   250
34.2941   238
34.3041   244
34.3141   232
34.3241   252
34.3341   256
34.3441   257
34.3541   240
34.3641   248
34.3741   245
34.3841   263
34.3941   269
34.4041   246
34.4141   224
34.4241   236
34.4341   245
34.4441   258
34.4541   251
34.4641   246
34.4741   242
34.4841   222
34.4941   238
34.5041   252
34.5141   253
34.5241   244
34.5341   261
34.5441   237
34.5541   210
34.5641   231
34.5741   242
34.5841   233
34.5941   237
34.6041   252
34.6141   218
34.6241   227
34.6341   250
34.6441   230
34.6541   239
34.6641   267
34.6741   240
34.6841   245
34.6941   219
34.7041   241
34.7141   253
34.7241   227
34.7341   252
34.7441   216
34.7541   209
34.7641   227
34.7741   245
34.7841   234
34.7941   225
34.8041   242
34.8141   237
34.8241   236
34.8341   249
34.8441   223
34.8541   225
34.8641   215
34.8741   234
34.8841   222
34.8941   229
34.9041   243
34.9141   238
34.9241   223
34.9341   248
34.9441   225
34.9541   214
34.9641   226
34.9741   222
34.9841   210
34.9941   204
35.0041   233
35.0141   193
35.0241   201
35.0341   211
35.0441   218
35.0541   209
35.0641   199
35.0741   222
35.0841   236
35.0941   239
35.1041   205
35.1141   212
35.1241   211
35.1341   226
35.1441   183
35.1541   209
35.1641   205
35.1741   206
35.1841   211
35.1941   237
35.2041   206
35.2141   218
35.2241   213
35.2341   213
35.2441   214
35.2541   212
35.2641   195
35.2741   210
35.2841   200
35.2941   211
35.3041   179
35.3141   206
35.3241   194
35.3341   192
35.3441   218
35.3541   210
35.3641   202
35.3741   204
35.3841   191
35.3941   183
35.4041   183
35.4141   180
35.4241   206
35.4341   192
35.4441   199
35.4541   213
35.4641   198
35.4741   193
35.4841   213
35.4941   202
35.5041   174
35.5141   181
35.5241   189
35.5341   198
35.5441   196
35.5541   231
35.5641   206
35.5741   204
35.5841   209
35.5941   183
35.6041   191
35.6141   198
35.6241   194
35.6341   201
35.6441   198
35.6541   192
35.6641   200
35.6741   191
35.6841   187
35.6941   190
35.7041   198
35.7141   188
35.7241   197
35.7341   205
35.7441   167
35.7541   171
35.7641   196
35.7741   176
35.7841   204
35.7941   177
35.8041   201
35.8141   197
35.8241   197
35.8341   175
35.8441   204
35.8541   195
35.8641   189
35.8741   189
35.8841   175
35.8941   187
35.9041   188
35.9141   186
35.9241   179
35.9341   175
35.9441   189
35.9541   166
35.9641   191
35.9741   166
35.9841   193
35.9941   197
36.0041   180
36.0141   178
36.0241   167
36.0341   174
36.0441   191
36.0541   202
36.0641   164
36.0741   202
36.0841   181
36.0941   179
36.1041   181
36.1141   174
36.1241   179
36.1341   151
36.1441   179
36.1541   170
36.1641   178
36.1741   150
36.1841   184
36.1941   155
36.2041   178
36.2141   178
36.2241   171
36.2341   164
36.2441   170
36.2541   153
36.2641   176
36.2741   168
36.2841   141
36.2941   150
36.3041   150
36.3141   171
36.3241   175
36.3341   173
36.3441   147
36.3541   152
36.3641   159
36.3741   160
36.3841   178
36.3941   165
36.4041   137
36.4141   144
36.4241   162
36.4341   168
36.4441   181
36.4541   163
36.4641   191
36.4741   151
36.4841   161
36.4941   155
36.5041   153
36.5141   161
36.5241   166
36.5341   159
36.5441   161
36.5541   143
36.5641   162
36.5741   156
36.5841   171
36.5941   185
36.6041   144
36.6141   145
36.6241   155
36.6341   156
36.6441   158
36.6541   144
36.6641   140
36.6741   132
36.6841   127
36.6941   168
36.7041   149
36.7141   153
36.7241   165
36.7341   170
36.7441   148
36.7541   151
36.7641   159
36.7741   143
36.7841   138
36.7941   168
36.8041   145
36.8141   132
36.8241   152
36.8341   157
36.8441   148
36.8541   126
36.8641   138
36.8741   128
36.8841   141
36.8941   134
36.9041   140
36.9141   131
36.9241   138
36.9341   109
36.9441   138
36.9541   152
36.9641   122
36.9741   134
36.9841   151
36.9941   157
37.0041   174
37.0141   146
37.0241   126
37.0341   134
37.0441   132
37.0541   127
37.0641   146
37.0741   133
37.0841   143
37.0941   146
37.1041   135
37.1141   163
37.1241   128
37.1341   154
37.1441   149
37.1541   147
37.1641   139
37.1741   139
37.1841   122
37.1941   129
37.2041   121
37.2141   135
37.2241   118
37.2341   122
37.2441   128
37.2541   154
37.2641   125
37.2741   132
37.2841   137
37.2941   120
37.3041   134
37.3141   114
37.3241   135
37.3341   106
37.3441   130
37.3541   126
37.3641   121
37.3741   121
37.3841   119
37.3941   126
37.4041   118
37.4141   119
37.4241   134
37.4341   139
37.4441   112
37.4541   109
37.4641   121
37.4741   139
37.4841   115
37.4941   124
37.5041   115
37.5141   135
37.5241   140
37.5341   128
37.5441   112
37.5541   122
37.5641   138
37.5741   112
37.5841   134
37.5941   136
37.6041   138
37.6141   132
37.6241   132
37.6341   130
37.6441   115
37.6541   131
37.6641   119
37.6741   118
37.6841   117
37.6941   114
37.7041   110
37.7141   109
37.7241   136
37.7341   137
37.7441   108
37.7541   106
37.7641   117
37.7741   103
37.7841   114
37.7941   109
37.8041   112
37.8141   123
37.8241   103
37.8341   130
37.8441   103
37.8541   101
37.8641    95
37.8741   100
37.8841   109
37.8941   134
37.9041    97
37.9141   113
37.9241   107
37.9341   116
37.9441   114
37.9541   129
37.9641   121
37.9741    95
37.9841   115
37.9941   107
38.0041   118
38.0141    99
38.0241   109
38.0341   107
38.0441   113
38.0541    98
38.0641   108
38.0741    95
38.0841   109
38.0941   110
38.1041   104
38.1141   102
38.1241   124
38.1341    95
38.1441   112
38.1541   106
38.1641   114
38.1741   102
38.1841   107
38.1941    86
38.2041   105
38.2141   108
38.2241   114
38.2341    98
38.2441    93
38.2541   107
38.2641    93
38.2741    93
38.2841    98
38.2941    89
38.3041   101
38.3141    86
38.3241   100
38.3341    99
38.3441   105
38.3541    91
38.3641    97
38.3741   103
38.3841    75
38.3941   107
38.4041    87
38.4141    98
38.4241    94
38.4341    92
38.4441    87
38.4541    88
38.4641    94
38.4741    98
38.4841   105
38.4941   109
38.5041    94
38.5141   106
38.5241    91
38.5341    84
38.5441    86
38.5541   109
38.5641   106
38.5741    89
38.5841    95
38.5941    87
38.6041    72
38.6141    86
38.6241    93
38.6341    74
38.6441    94
38.6541    95
38.6641    95
38.6741    90
38.6841    80
38.6941    80
38.7041    80
38.7141    97
38.7241   108
38.7341    93
38.7441    82
38.7541    90
38.7641    93
38.7741    88
38.7841    91
38.7941    82
38.8041    76
38.8141    65
38.8241    70
38.8341    72
38.8441    78
38.8541    67
38.8641    88
38.8741    74
38.8841    85
38.8941    80
38.9041    82
38.9141    77
38.9241    92
38.9341    85
38.9441    78
38.9541    79
38.9641    83
38.9741    74
38.9841    66
38.9941    78
39.0041    74
39.0141    74
39.0241    70
39.0341    71
39.0441    62
39.0541    95
39.0641    82
39.0741    78
39.0841    69
39.0941    80
39.1041    68
39.1141    67
39.1241    94
39.1341    82
39.1441    88
39.1541    76
39.1641    71
39.1741    66
39.1841    73
39.1941    69
39.2041    54
39.2141    54
39.2241    51
39.2341    66
39.2441    70
39.2541    65
39.2641    84
39.2741    85
39.2841    70
39.2941    71
39.3041    76
39.3141    59
39.3241    82
39.3341    83
39.3441    62
39.3541    70
39.3641    79
39.3741    79
39.3841    68
39.3941    66
39.4041    79
39.4141    78
39.4241    73
39.4341   108
39.4441    77
39.4541    80
39.4641    70
39.4741    76
39.4841    70
39.4941    69
39.5041    76
39.5141    68
39.5241    66
39.5341    71
39.5441    60
39.5541    63
39.5641    71
39.5741    70
39.5841    75
39.5941    68
39.6041    61
39.6141    51
39.6241    59
39.6341    67
39.6441    69
39.6541    59
39.6641    72
39.6741    63
39.6841    64
39.6941    70
39.7041    56
39.7141    69
39.7241    55
39.7341    59
39.7441    60
39.7541    67
39.7641    65
39.7741    64
39.7841    53
39.7941    56
39.8041    68
39.8141    54
39.8241    72
39.8341    71
39.8441    72
39.8541    48
39.8641    56
39.8741    63
39.8841    50
39.8941    64
39.9041    66
39.9141    56
39.9241    54
39.9341    51
39.9441    48
39.9541    58
39.9641    56
39.9741    52
39.9841    51
39.9941    63
