Bruker Nano GmbH Berlin, Germany
Esprit 1.9

Date: 4/21/2021 2:28:46 PM
Real time: 25609
Life time: 23930
Pulse density: 93962


Detector type: XFlash 430
Window type: Custom type
Detector thickness: 0.45
Si dead layer:0.029

Calibration, lin.: 10
Calibration, abs.: -955.9
Mn FWHM: 137.05
Fano factor: 0.121
Channels: 4096

Energy Counts
-0.9559     0
-0.9459     0
-0.9359     0
-0.9259     0
-0.9159     0
-0.9059     0
-0.8959     0
-0.8859     0
-0.8759     0
-0.8659     0
-0.8559     0
-0.8459     0
-0.8359     0
-0.8259     0
-0.8159     0
-0.8059     0
-0.7959     0
-0.7859     0
-0.7759     0
-0.7659     0
-0.7559     0
-0.7459     0
-0.7359     0
-0.7259     0
-0.7159     0
-0.7059     0
-0.6959     0
-0.6859     0
-0.6759     0
-0.6659     0
-0.6559     0
-0.6459     0
-0.6359     0
-0.6259     0
-0.6159     0
-0.6059     0
-0.5959     0
-0.5859     0
-0.5759     0
-0.5659     0
-0.5559     0
-0.5459     0
-0.5359     0
-0.5259     0
-0.5159     0
-0.5059     0
-0.4959     0
-0.4859     0
-0.4759     0
-0.4659     0
-0.4559     0
-0.4459     0
-0.4359     0
-0.4259     0
-0.4159     0
-0.4059     0
-0.3959     0
-0.3859     0
-0.3759     0
-0.3659     0
-0.3559     0
-0.3459     0
-0.3359     0
-0.3259     0
-0.3159     0
-0.3059     0
-0.2959     0
-0.2859     0
-0.2759     0
-0.2659     0
-0.2559     0
-0.2459     0
-0.2359     0
-0.2259     0
-0.2159     0
-0.2059     0
-0.1959     0
-0.1859     0
-0.1759     0
-0.1659     0
-0.1559     0
-0.1459     0
-0.1359     1
-0.1259     0
-0.1159     3
-0.1059    15
-0.0959    58
-0.0859   263
-0.0759   892
-0.0659  2760
-0.0559  6911
-0.0459 15222
-0.0359 28391
-0.0259 45440
-0.0159 62481
-0.0059 73697
 0.0041 73849
 0.0141 63513
 0.0241 46898
 0.0341 29569
 0.0441 16017
 0.0541  7467
 0.0641  2942
 0.0741  1085
 0.0841   354
 0.0941    77
 0.1041    21
 0.1141    14
 0.1241    12
 0.1341     9
 0.1441     5
 0.1541     8
 0.1641     0
 0.1741    34
 0.1841   273
 0.1941   483
 0.2041   416
 0.2141   420
 0.2241   431
 0.2341   427
 0.2441   465
 0.2541   414
 0.2641   418
 0.2741   459
 0.2841   441
 0.2941   438
 0.3041   424
 0.3141   413
 0.3241   426
 0.3341   420
 0.3441   404
 0.3541   398
 0.3641   389
 0.3741   400
 0.3841   396
 0.3941   410
 0.4041   392
 0.4141   408
 0.4241   371
 0.4341   382
 0.4441   401
 0.4541   370
 0.4641   368
 0.4741   364
 0.4841   375
 0.4941   382
 0.5041   385
 0.5141   375
 0.5241   390
 0.5341   389
 0.5441   373
 0.5541   379
 0.5641   351
 0.5741   334
 0.5841   342
 0.5941   367
 0.6041   362
 0.6141   344
 0.6241   346
 0.6341   332
 0.6441   319
 0.6541   323
 0.6641   330
 0.6741   335
 0.6841   311
 0.6941   305
 0.7041   312
 0.7141   303
 0.7241   328
 0.7341   346
 0.7441   317
 0.7541   313
 0.7641   324
 0.7741   313
 0.7841   308
 0.7941   323
 0.8041   301
 0.8141   299
 0.8241   308
 0.8341   304
 0.8441   307
 0.8541   312
 0.8641   318
 0.8741   321
 0.8841   309
 0.8941   309
 0.9041   300
 0.9141   273
 0.9241   288
 0.9341   302
 0.9441   328
 0.9541   311
 0.9641   297
 0.9741   300
 0.9841   302
 0.9941   282
 1.0041   305
 1.0141   298
 1.0241   293
 1.0341   303
 1.0441   284
 1.0541   297
 1.0641   273
 1.0741   258
 1.0841   281
 1.0941   279
 1.1041   280
 1.1141   283
 1.1241   252
 1.1341   289
 1.1441   297
 1.1541   269
 1.1641   273
 1.1741   265
 1.1841   278
 1.1941   281
 1.2041   260
 1.2141   248
 1.2241   260
 1.2341   262
 1.2441   256
 1.2541   260
 1.2641   227
 1.2741   259
 1.2841   246
 1.2941   247
 1.3041   249
 1.3141   268
 1.3241   252
 1.3341   247
 1.3441   247
 1.3541   258
 1.3641   279
 1.3741   251
 1.3841   242
 1.3941   257
 1.4041   244
 1.4141   257
 1.4241   267
 1.4341   251
 1.4441   251
 1.4541   261
 1.4641   266
 1.4741   242
 1.4841   258
 1.4941   271
 1.5041   272
 1.5141   257
 1.5241   242
 1.5341   245
 1.5441   252
 1.5541   247
 1.5641   244
 1.5741   268
 1.5841   251
 1.5941   241
 1.6041   253
 1.6141   256
 1.6241   240
 1.6341   261
 1.6441   254
 1.6541   267
 1.6641   349
 1.6741   416
 1.6841   481
 1.6941   558
 1.7041   686
 1.7141   809
 1.7241   874
 1.7341   907
 1.7441   964
 1.7541   887
 1.7641   794
 1.7741   720
 1.7841   590
 1.7941   505
 1.8041   387
 1.8141   323
 1.8241   328
 1.8341   328
 1.8441   298
 1.8541   276
 1.8641   304
 1.8741   268
 1.8841   259
 1.8941   287
 1.9041   265
 1.9141   229
 1.9241   251
 1.9341   267
 1.9441   271
 1.9541   281
 1.9641   284
 1.9741   269
 1.9841   264
 1.9941   301
 2.0041   290
 2.0141   292
 2.0241   279
 2.0341   291
 2.0441   286
 2.0541   268
 2.0641   240
 2.0741   252
 2.0841   241
 2.0941   259
 2.1041   252
 2.1141   225
 2.1241   230
 2.1341   222
 2.1441   227
 2.1541   229
 2.1641   216
 2.1741   236
 2.1841   223
 2.1941   213
 2.2041   215
 2.2141   221
 2.2241   230
 2.2341   224
 2.2441   204
 2.2541   227
 2.2641   201
 2.2741   213
 2.2841   195
 2.2941   222
 2.3041   220
 2.3141   222
 2.3241   220
 2.3341   196
 2.3441   209
 2.3541   206
 2.3641   212
 2.3741   199
 2.3841   203
 2.3941   187
 2.4041   217
 2.4141   219
 2.4241   229
 2.4341   212
 2.4441   191
 2.4541   191
 2.4641   190
 2.4741   177
 2.4841   198
 2.4941   196
 2.5041   178
 2.5141   197
 2.5241   199
 2.5341   170
 2.5441   200
 2.5541   194
 2.5641   215
 2.5741   179
 2.5841   196
 2.5941   193
 2.6041   198
 2.6141   203
 2.6241   188
 2.6341   173
 2.6441   198
 2.6541   184
 2.6641   178
 2.6741   194
 2.6841   178
 2.6941   178
 2.7041   198
 2.7141   166
 2.7241   167
 2.7341   167
 2.7441   172
 2.7541   179
 2.7641   182
 2.7741   180
 2.7841   185
 2.7941   177
 2.8041   188
 2.8141   199
 2.8241   177
 2.8341   190
 2.8441   179
 2.8541   193
 2.8641   174
 2.8741   190
 2.8841   179
 2.8941   188
 2.9041   192
 2.9141   184
 2.9241   196
 2.9341   177
 2.9441   188
 2.9541   189
 2.9641   157
 2.9741   190
 2.9841   176
 2.9941   197
 3.0041   150
 3.0141   159
 3.0241   159
 3.0341   171
 3.0441   153
 3.0541   160
 3.0641   172
 3.0741   154
 3.0841   162
 3.0941   183
 3.1041   152
 3.1141   166
 3.1241   131
 3.1341   154
 3.1441   171
 3.1541   167
 3.1641   153
 3.1741   172
 3.1841   156
 3.1941   148
 3.2041   162
 3.2141   179
 3.2241   197
 3.2341   190
 3.2441   206
 3.2541   248
 3.2641   307
 3.2741   332
 3.2841   336
 3.2941   346
 3.3041   410
 3.3141   428
 3.3241   438
 3.3341   377
 3.3441   325
 3.3541   304
 3.3641   264
 3.3741   251
 3.3841   208
 3.3941   193
 3.4041   174
 3.4141   156
 3.4241   171
 3.4341   165
 3.4441   148
 3.4541   130
 3.4641   131
 3.4741   159
 3.4841   116
 3.4941   154
 3.5041   156
 3.5141   162
 3.5241   168
 3.5341   182
 3.5441   186
 3.5541   221
 3.5641   259
 3.5741   251
 3.5841   303
 3.5941   415
 3.6041   454
 3.6141   535
 3.6241   728
 3.6341   911
 3.6441  1056
 3.6541  1207
 3.6641  1330
 3.6741  1431
 3.6841  1572
 3.6941  1449
 3.7041  1422
 3.7141  1331
 3.7241  1160
 3.7341  1059
 3.7441   856
 3.7541   656
 3.7641   521
 3.7741   377
 3.7841   326
 3.7941   249
 3.8041   203
 3.8141   173
 3.8241   152
 3.8341   135
 3.8441   113
 3.8541   130
 3.8641   127
 3.8741   125
 3.8841   131
 3.8941   139
 3.9041   131
 3.9141   144
 3.9241   165
 3.9341   177
 3.9441   186
 3.9541   192
 3.9641   226
 3.9741   262
 3.9841   287
 3.9941   313
 4.0041   299
 4.0141   296
 4.0241   284
 4.0341   286
 4.0441   258
 4.0541   231
 4.0641   211
 4.0741   200
 4.0841   171
 4.0941   169
 4.1041   131
 4.1141   136
 4.1241   124
 4.1341   113
 4.1441   130
 4.1541    93
 4.1641   117
 4.1741   107
 4.1841   106
 4.1941    93
 4.2041   109
 4.2141   126
 4.2241    85
 4.2341    99
 4.2441   102
 4.2541   101
 4.2641   107
 4.2741   100
 4.2841    99
 4.2941    97
 4.3041    93
 4.3141   101
 4.3241    93
 4.3341   111
 4.3441   115
 4.3541   105
 4.3641   125
 4.3741   132
 4.3841   140
 4.3941   171
 4.4041   199
 4.4141   222
 4.4241   243
 4.4341   271
 4.4441   306
 4.4541   354
 4.4641   380
 4.4741   402
 4.4841   424
 4.4941   458
 4.5041   443
 4.5141   478
 4.5241   398
 4.5341   386
 4.5441   369
 4.5541   319
 4.5641   236
 4.5741   248
 4.5841   199
 4.5941   173
 4.6041   150
 4.6141   174
 4.6241   142
 4.6341   128
 4.6441   134
 4.6541   115
 4.6641   119
 4.6741   137
 4.6841   124
 4.6941   127
 4.7041   101
 4.7141   119
 4.7241   134
 4.7341   109
 4.7441   125
 4.7541   131
 4.7641   146
 4.7741   166
 4.7841   168
 4.7941   179
 4.8041   172
 4.8141   208
 4.8241   204
 4.8341   228
 4.8441   212
 4.8541   216
 4.8641   212
 4.8741   206
 4.8841   207
 4.8941   199
 4.9041   197
 4.9141   198
 4.9241   194
 4.9341   208
 4.9441   187
 4.9541   173
 4.9641   199
 4.9741   164
 4.9841   178
 4.9941   156
 5.0041   171
 5.0141   147
 5.0241   139
 5.0341   143
 5.0441   149
 5.0541   143
 5.0641   128
 5.0741   160
 5.0841   128
 5.0941   147
 5.1041   120
 5.1141   142
 5.1241   157
 5.1341   159
 5.1441   158
 5.1541   176
 5.1641   152
 5.1741   143
 5.1841   146
 5.1941   150
 5.2041   126
 5.2141   139
 5.2241   152
 5.2341   147
 5.2441   165
 5.2541   184
 5.2641   192
 5.2741   173
 5.2841   172
 5.2941   188
 5.3041   218
 5.3141   248
 5.3241   275
 5.3341   314
 5.3441   374
 5.3541   437
 5.3641   468
 5.3741   513
 5.3841   550
 5.3941   548
 5.4041   646
 5.4141   581
 5.4241   598
 5.4341   600
 5.4441   561
 5.4541   481
 5.4641   438
 5.4741   386
 5.4841   341
 5.4941   297
 5.5041   259
 5.5141   231
 5.5241   231
 5.5341   188
 5.5441   182
 5.5541   174
 5.5641   152
 5.5741   155
 5.5841   135
 5.5941   128
 5.6041   143
 5.6141   155
 5.6241   131
 5.6341   128
 5.6441   139
 5.6541   157
 5.6641   147
 5.6741   140
 5.6841   132
 5.6941   136
 5.7041   138
 5.7141   163
 5.7241   187
 5.7341   161
 5.7441   195
 5.7541   184
 5.7641   192
 5.7741   205
 5.7841   223
 5.7941   265
 5.8041   308
 5.8141   355
 5.8241   381
 5.8341   453
 5.8441   465
 5.8541   530
 5.8641   543
 5.8741   592
 5.8841   656
 5.8941   646
 5.9041   652
 5.9141   627
 5.9241   624
 5.9341   576
 5.9441   532
 5.9541   525
 5.9641   451
 5.9741   399
 5.9841   334
 5.9941   311
 6.0041   317
 6.0141   282
 6.0241   226
 6.0341   204
 6.0441   185
 6.0541   193
 6.0641   173
 6.0741   153
 6.0841   190
 6.0941   152
 6.1041   182
 6.1141   154
 6.1241   177
 6.1341   166
 6.1441   181
 6.1541   172
 6.1641   181
 6.1741   191
 6.1841   211
 6.1941   231
 6.2041   258
 6.2141   351
 6.2241   402
 6.2341   558
 6.2441   699
 6.2541   927
 6.2641  1262
 6.2741  1747
 6.2841  2231
 6.2941  2847
 6.3041  3756
 6.3141  4723
 6.3241  5911
 6.3341  7050
 6.3441  8369
 6.3541  9452
 6.3641 10653
 6.3741 11591
 6.3841 12123
 6.3941 12495
 6.4041 12482
 6.4141 12151
 6.4241 11418
 6.4341 10348
 6.4441  9266
 6.4541  8151
 6.4641  6931
 6.4741  5811
 6.4841  4694
 6.4941  3767
 6.5041  2852
 6.5141  2096
 6.5241  1614
 6.5341  1166
 6.5441   830
 6.5541   665
 6.5641   499
 6.5741   378
 6.5841   303
 6.5941   266
 6.6041   223
 6.6141   218
 6.6241   195
 6.6341   206
 6.6441   172
 6.6541   190
 6.6641   183
 6.6741   199
 6.6841   203
 6.6941   213
 6.7041   187
 6.7141   192
 6.7241   169
 6.7341   201
 6.7441   204
 6.7541   195
 6.7641   200
 6.7741   222
 6.7841   195
 6.7941   193
 6.8041   240
 6.8141   199
 6.8241   238
 6.8341   249
 6.8441   242
 6.8541   242
 6.8641   258
 6.8741   297
 6.8841   296
 6.8941   320
 6.9041   367
 6.9141   483
 6.9241   492
 6.9341   559
 6.9441   755
 6.9541   882
 6.9641  1042
 6.9741  1191
 6.9841  1458
 6.9941  1524
 7.0041  1844
 7.0141  1998
 7.0241  2112
 7.0341  2272
 7.0441  2285
 7.0541  2325
 7.0641  2286
 7.0741  2211
 7.0841  2055
 7.0941  1951
 7.1041  1686
 7.1141  1587
 7.1241  1421
 7.1341  1152
 7.1441  1014
 7.1541   808
 7.1641   691
 7.1741   575
 7.1841   515
 7.1941   414
 7.2041   359
 7.2141   329
 7.2241   303
 7.2341   285
 7.2441   286
 7.2541   282
 7.2641   254
 7.2741   271
 7.2841   289
 7.2941   330
 7.3041   334
 7.3141   371
 7.3241   389
 7.3341   486
 7.3441   454
 7.3541   550
 7.3641   630
 7.3741   729
 7.3841   834
 7.3941   913
 7.4041   960
 7.4141  1149
 7.4241  1151
 7.4341  1231
 7.4441  1357
 7.4541  1426
 7.4641  1364
 7.4741  1425
 7.4841  1402
 7.4941  1323
 7.5041  1345
 7.5141  1157
 7.5241  1008
 7.5341   952
 7.5441   823
 7.5541   753
 7.5641   631
 7.5741   573
 7.5841   502
 7.5941   455
 7.6041   440
 7.6141   342
 7.6241   359
 7.6341   325
 7.6441   295
 7.6541   312
 7.6641   263
 7.6741   264
 7.6841   308
 7.6941   282
 7.7041   283
 7.7141   311
 7.7241   340
 7.7341   321
 7.7441   295
 7.7541   317
 7.7641   333
 7.7741   290
 7.7841   317
 7.7941   366
 7.8041   374
 7.8141   379
 7.8241   387
 7.8341   414
 7.8441   422
 7.8541   416
 7.8641   404
 7.8741   429
 7.8841   419
 7.8941   455
 7.9041   468
 7.9141   480
 7.9241   539
 7.9341   543
 7.9441   582
 7.9541   601
 7.9641   624
 7.9741   656
 7.9841   734
 7.9941   763
 8.0041   770
 8.0141   880
 8.0241   913
 8.0341  1030
 8.0441  1137
 8.0541  1214
 8.0641  1188
 8.0741  1315
 8.0841  1408
 8.0941  1393
 8.1041  1559
 8.1141  1530
 8.1241  1629
 8.1341  1722
 8.1441  1782
 8.1541  1899
 8.1641  1902
 8.1741  1909
 8.1841  2007
 8.1941  1975
 8.2041  1987
 8.2141  2024
 8.2241  2161
 8.2341  2214
 8.2441  2332
 8.2541  2396
 8.2641  2394
 8.2741  2655
 8.2841  2716
 8.2941  2846
 8.3041  3129
 8.3141  3311
 8.3241  3629
 8.3341  3810
 8.3441  3931
 8.3541  4234
 8.3641  4332
 8.3741  4543
 8.3841  4542
 8.3941  4616
 8.4041  4580
 8.4141  4317
 8.4241  4035
 8.4341  3785
 8.4441  3449
 8.4541  3194
 8.4641  2833
 8.4741  2463
 8.4841  2084
 8.4941  1734
 8.5041  1466
 8.5141  1261
 8.5241  1057
 8.5341   917
 8.5441   794
 8.5541   730
 8.5641   652
 8.5741   549
 8.5841   528
 8.5941   547
 8.6041   493
 8.6141   517
 8.6241   511
 8.6341   494
 8.6441   496
 8.6541   491
 8.6641   530
 8.6741   495
 8.6841   479
 8.6941   495
 8.7041   515
 8.7141   477
 8.7241   472
 8.7341   495
 8.7441   468
 8.7541   479
 8.7641   446
 8.7741   413
 8.7841   472
 8.7941   432
 8.8041   444
 8.8141   411
 8.8241   423
 8.8341   425
 8.8441   470
 8.8541   410
 8.8641   444
 8.8741   452
 8.8841   481
 8.8941   456
 8.9041   423
 8.9141   453
 8.9241   455
 8.9341   458
 8.9441   461
 8.9541   484
 8.9641   490
 8.9741   494
 8.9841   524
 8.9941   511
 9.0041   546
 9.0141   557
 9.0241   520
 9.0341   516
 9.0441   548
 9.0541   544
 9.0641   573
 9.0741   598
 9.0841   633
 9.0941   651
 9.1041   630
 9.1141   673
 9.1241   684
 9.1341   734
 9.1441   773
 9.1541   775
 9.1641   840
 9.1741   904
 9.1841   929
 9.1941   944
 9.2041  1003
 9.2141  1014
 9.2241  1064
 9.2341  1159
 9.2441  1295
 9.2541  1253
 9.2641  1296
 9.2741  1428
 9.2841  1382
 9.2941  1389
 9.3041  1496
 9.3141  1547
 9.3241  1556
 9.3341  1650
 9.3441  1722
 9.3541  1775
 9.3641  1817
 9.3741  1796
 9.3841  1869
 9.3941  1965
 9.4041  1975
 9.4141  2020
 9.4241  1963
 9.4341  2010
 9.4441  2025
 9.4541  1999
 9.4641  2031
 9.4741  2037
 9.4841  2071
 9.4941  2152
 9.5041  2196
 9.5141  2276
 9.5241  2408
 9.5341  2481
 9.5441  2558
 9.5541  2648
 9.5641  2787
 9.5741  2878
 9.5841  3115
 9.5941  3395
 9.6041  3500
 9.6141  3753
 9.6241  3992
 9.6341  4121
 9.6441  4190
 9.6541  4323
 9.6641  4285
 9.6741  4229
 9.6841  4293
 9.6941  4184
 9.7041  3919
 9.7141  3756
 9.7241  3631
 9.7341  3341
 9.7441  3091
 9.7541  2866
 9.7641  2691
 9.7741  2459
 9.7841  2310
 9.7941  2127
 9.8041  2042
 9.8141  1895
 9.8241  1824
 9.8341  1799
 9.8441  1718
 9.8541  1695
 9.8641  1711
 9.8741  1747
 9.8841  1796
 9.8941  1866
 9.9041  1939
 9.9141  1940
 9.9241  1980
 9.9341  1987
 9.9441  1999
 9.9541  2038
 9.9641  1987
 9.9741  1842
 9.9841  1890
 9.9941  1748
10.0041  1645
10.0141  1549
10.0241  1417
10.0341  1318
10.0441  1200
10.0541  1076
10.0641   940
10.0741   844
10.0841   778
10.0941   707
10.1041   634
10.1141   553
10.1241   522
10.1341   455
10.1441   406
10.1541   399
10.1641   378
10.1741   387
10.1841   346
10.1941   353
10.2041   340
10.2141   333
10.2241   341
10.2341   314
10.2441   304
10.2541   304
10.2641   300
10.2741   291
10.2841   270
10.2941   269
10.3041   261
10.3141   259
10.3241   256
10.3341   254
10.3441   245
10.3541   240
10.3641   255
10.3741   228
10.3841   236
10.3941   263
10.4041   271
10.4141   253
10.4241   265
10.4341   243
10.4441   227
10.4541   252
10.4641   267
10.4741   261
10.4841   257
10.4941   266
10.5041   258
10.5141   274
10.5241   273
10.5341   289
10.5441   299
10.5541   283
10.5641   254
10.5741   276
10.5841   286
10.5941   277
10.6041   305
10.6141   309
10.6241   296
10.6341   261
10.6441   291
10.6541   304
10.6641   289
10.6741   262
10.6841   294
10.6941   325
10.7041   335
10.7141   320
10.7241   312
10.7341   306
10.7441   330
10.7541   331
10.7641   345
10.7741   334
10.7841   374
10.7941   350
10.8041   355
10.8141   378
10.8241   387
10.8341   396
10.8441   401
10.8541   403
10.8641   420
10.8741   440
10.8841   459
10.8941   438
10.9041   445
10.9141   428
10.9241   418
10.9341   429
10.9441   417
10.9541   443
10.9641   448
10.9741   420
10.9841   414
10.9941   381
11.0041   413
11.0141   417
11.0241   395
11.0341   384
11.0441   393
11.0541   389
11.0641   378
11.0741   376
11.0841   373
11.0941   378
11.1041   386
11.1141   375
11.1241   386
11.1341   386
11.1441   396
11.1541   413
11.1641   436
11.1741   457
11.1841   468
11.1941   464
11.2041   494
11.2141   512
11.2241   529
11.2341   549
11.2441   574
11.2541   580
11.2641   589
11.2741   626
11.2841   602
11.2941   594
11.3041   608
11.3141   598
11.3241   577
11.3341   532
11.3441   500
11.3541   509
11.3641   482
11.3741   428
11.3841   437
11.3941   417
11.4041   376
11.4141   328
11.4241   328
11.4341   341
11.4441   324
11.4541   316
11.4641   298
11.4741   304
11.4841   311
11.4941   298
11.5041   283
11.5141   285
11.5241   299
11.5341   307
11.5441   301
11.5541   284
11.5641   299
11.5741   322
11.5841   317
11.5941   323
11.6041   331
11.6141   316
11.6241   312
11.6341   317
11.6441   321
11.6541   335
11.6641   307
11.6741   312
11.6841   295
11.6941   284
11.7041   288
11.7141   265
11.7241   260
11.7341   270
11.7441   265
11.7541   259
11.7641   251
11.7741   230
11.7841   234
11.7941   222
11.8041   219
11.8141   211
11.8241   217
11.8341   230
11.8441   211
11.8541   213
11.8641   219
11.8741   216
11.8841   226
11.8941   238
11.9041   237
11.9141   236
11.9241   228
11.9341   237
11.9441   234
11.9541   214
11.9641   211
11.9741   237
11.9841   245
11.9941   246
12.0041   255
12.0141   240
12.0241   228
12.0341   232
12.0441   235
12.0541   225
12.0641   218
12.0741   225
12.0841   244
12.0941   237
12.1041   223
12.1141   249
12.1241   218
12.1341   211
12.1441   230
12.1541   232
12.1641   234
12.1741   210
12.1841   195
12.1941   207
12.2041   199
12.2141   209
12.2241   214
12.2341   220
12.2441   217
12.2541   210
12.2641   209
12.2741   210
12.2841   209
12.2941   208
12.3041   223
12.3141   210
12.3241   213
12.3341   208
12.3441   199
12.3541   220
12.3641   220
12.3741   202
12.3841   212
12.3941   234
12.4041   237
12.4141   216
12.4241   219
12.4341   215
12.4441   221
12.4541   227
12.4641   211
12.4741   228
12.4841   223
12.4941   234
12.5041   236
12.5141   235
12.5241   250
12.5341   266
12.5441   241
12.5541   236
12.5641   243
12.5741   226
12.5841   238
12.5941   276
12.6041   262
12.6141   264
12.6241   248
12.6341   253
12.6441   251
12.6541   237
12.6641   259
12.6741   262
12.6841   250
12.6941   251
12.7041   260
12.7141   237
12.7241   251
12.7341   268
12.7441   269
12.7541   266
12.7641   256
12.7741   238
12.7841   242
12.7941   265
12.8041   256
12.8141   243
12.8241   265
12.8341   263
12.8441   253
12.8541   267
12.8641   269
12.8741   261
12.8841   258
12.8941   268
12.9041   263
12.9141   273
12.9241   283
12.9341   266
12.9441   270
12.9541   265
12.9641   258
12.9741   281
12.9841   297
12.9941   280
13.0041   269
13.0141   275
13.0241   268
13.0341   266
13.0441   290
13.0541   286
13.0641   271
13.0741   275
13.0841   270
13.0941   257
13.1041   275
13.1141   273
13.1241   255
13.1341   257
13.1441   276
13.1541   284
13.1641   285
13.1741   286
13.1841   294
13.1941   297
13.2041   285
13.2141   277
13.2241   307
13.2341   329
13.2441   353
13.2541   355
13.2641   359
13.2741   380
13.2841   374
13.2941   384
13.3041   404
13.3141   418
13.3241   436
13.3341   413
13.3441   442
13.3541   466
13.3641   443
13.3741   436
13.3841   448
13.3941   462
13.4041   435
13.4141   438
13.4241   467
13.4341   436
13.4441   411
13.4541   397
13.4641   378
13.4741   383
13.4841   369
13.4941   344
13.5041   340
13.5141   350
13.5241   333
13.5341   324
13.5441   321
13.5541   328
13.5641   329
13.5741   301
13.5841   289
13.5941   296
13.6041   318
13.6141   308
13.6241   302
13.6341   320
13.6441   307
13.6541   316
13.6641   315
13.6741   298
13.6841   302
13.6941   314
13.7041   311
13.7141   309
13.7241   314
13.7341   312
13.7441   317
13.7541   322
13.7641   325
13.7741   314
13.7841   311
13.7941   316
13.8041   336
13.8141   330
13.8241   320
13.8341   337
13.8441   347
13.8541   355
13.8641   337
13.8741   336
13.8841   352
13.8941   358
13.9041   351
13.9141   370
13.9241   405
13.9341   411
13.9441   429
13.9541   451
13.9641   470
13.9741   517
13.9841   585
13.9941   649
14.0041   683
14.0141   693
14.0241   729
14.0341   812
14.0441   899
14.0541   939
14.0641   972
14.0741  1057
14.0841  1143
14.0941  1226
14.1041  1311
14.1141  1361
14.1241  1371
14.1341  1356
14.1441  1333
14.1541  1337
14.1641  1338
14.1741  1293
14.1841  1261
14.1941  1227
14.2041  1199
14.2141  1162
14.2241  1077
14.2341   993
14.2441   931
14.2541   868
14.2641   805
14.2741   749
14.2841   666
14.2941   621
14.3041   606
14.3141   571
14.3241   550
14.3341   529
14.3441   504
14.3541   435
14.3641   406
14.3741   425
14.3841   391
14.3941   372
14.4041   381
14.4141   386
14.4241   392
14.4341   392
14.4441   370
14.4541   356
14.4641   377
14.4741   396
14.4841   389
14.4941   382
14.5041   378
14.5141   385
14.5241   394
14.5341   396
14.5441   391
14.5541   392
14.5641   393
14.5741   382
14.5841   403
14.5941   415
14.6041   395
14.6141   380
14.6241   391
14.6341   389
14.6441   377
14.6541   369
14.6641   380
14.6741   405
14.6841   410
14.6941   392
14.7041   379
14.7141   391
14.7241   390
14.7341   386
14.7441   386
14.7541   388
14.7641   410
14.7741   448
14.7841   445
14.7941   425
14.8041   425
14.8141   461
14.8241   457
14.8341   449
14.8441   470
14.8541   463
14.8641   456
14.8741   458
14.8841   484
14.8941   473
14.9041   469
14.9141   471
14.9241   483
14.9341   508
14.9441   486
14.9541   481
14.9641   504
14.9741   513
14.9841   501
14.9941   500
15.0041   506
15.0141   467
15.0241   482
15.0341   477
15.0441   452
15.0541   462
15.0641   445
15.0741   432
15.0841   439
15.0941   467
15.1041   460
15.1141   442
15.1241   442
15.1341   457
15.1441   459
15.1541   441
15.1641   441
15.1741   438
15.1841   437
15.1941   416
15.2041   450
15.2141   452
15.2241   422
15.2341   415
15.2441   425
15.2541   416
15.2641   432
15.2741   437
15.2841   445
15.2941   455
15.3041   464
15.3141   455
15.3241   427
15.3341   434
15.3441   444
15.3541   433
15.3641   431
15.3741   425
15.3841   440
15.3941   442
15.4041   446
15.4141   440
15.4241   447
15.4341   468
15.4441   454
15.4541   443
15.4641   461
15.4741   474
15.4841   486
15.4941   479
15.5041   479
15.5141   492
15.5241   505
15.5341   511
15.5441   524
15.5541   555
15.5641   551
15.5741   555
15.5841   587
15.5941   574
15.6041   597
15.6141   634
15.6241   689
15.6341   732
15.6441   769
15.6541   792
15.6641   792
15.6741   848
15.6841   847
15.6941   843
15.7041   913
15.7141   954
15.7241   966
15.7341   977
15.7441  1002
15.7541  1021
15.7641  1034
15.7741   993
15.7841   977
15.7941  1018
15.8041   996
15.8141  1020
15.8241  1018
15.8341   998
15.8441   952
15.8541   901
15.8641   887
15.8741   887
15.8841   827
15.8941   757
15.9041   735
15.9141   737
15.9241   686
15.9341   638
15.9441   653
15.9541   643
15.9641   608
15.9741   577
15.9841   582
15.9941   588
16.0041   582
16.0141   572
16.0241   550
16.0341   545
16.0441   555
16.0541   553
16.0641   535
16.0741   510
16.0841   500
16.0941   506
16.1041   545
16.1141   556
16.1241   547
16.1341   541
16.1441   559
16.1541   557
16.1641   547
16.1741   574
16.1841   585
16.1941   555
16.2041   553
16.2141   547
16.2241   561
16.2341   568
16.2441   542
16.2541   561
16.2641   564
16.2741   538
16.2841   533
16.2941   564
16.3041   553
16.3141   548
16.3241   549
16.3341   544
16.3441   537
16.3541   523
16.3641   532
16.3741   586
16.3841   552
16.3941   555
16.4041   561
16.4141   543
16.4241   557
16.4341   558
16.4441   598
16.4541   560
16.4641   536
16.4741   548
16.4841   555
16.4941   585
16.5041   577
16.5141   568
16.5241   619
16.5341   626
16.5441   621
16.5541   589
16.5641   582
16.5741   601
16.5841   612
16.5941   626
16.6041   625
16.6141   620
16.6241   608
16.6341   605
16.6441   624
16.6541   615
16.6641   599
16.6741   602
16.6841   580
16.6941   578
16.7041   598
16.7141   599
16.7241   573
16.7341   598
16.7441   596
16.7541   602
16.7641   629
16.7741   612
16.7841   584
16.7941   597
16.8041   587
16.8141   568
16.8241   582
16.8341   611
16.8441   584
16.8541   566
16.8641   590
16.8741   617
16.8841   585
16.8941   565
16.9041   591
16.9141   610
16.9241   593
16.9341   594
16.9441   586
16.9541   575
16.9641   583
16.9741   585
16.9841   602
16.9941   610
17.0041   623
17.0141   613
17.0241   578
17.0341   611
17.0441   608
17.0541   604
17.0641   598
17.0741   611
17.0841   639
17.0941   613
17.1041   585
17.1141   619
17.1241   619
17.1341   620
17.1441   610
17.1541   602
17.1641   621
17.1741   618
17.1841   638
17.1941   628
17.2041   633
17.2141   654
17.2241   677
17.2341   655
17.2441   644
17.2541   649
17.2641   640
17.2741   667
17.2841   656
17.2941   656
17.3041   679
17.3141   691
17.3241   695
17.3341   696
17.3441   720
17.3541   738
17.3641   743
17.3741   729
17.3841   731
17.3941   742
17.4041   776
17.4141   799
17.4241   798
17.4341   758
17.4441   774
17.4541   753
17.4641   751
17.4741   760
17.4841   776
17.4941   751
17.5041   743
17.5141   757
17.5241   791
17.5341   794
17.5441   784
17.5541   797
17.5641   786
17.5741   766
17.5841   715
17.5941   736
17.6041   756
17.6141   731
17.6241   707
17.6341   721
17.6441   736
17.6541   731
17.6641   692
17.6741   710
17.6841   737
17.6941   761
17.7041   716
17.7141   747
17.7241   735
17.7341   737
17.7441   714
17.7541   711
17.7641   686
17.7741   679
17.7841   695
17.7941   735
17.8041   695
17.8141   696
17.8241   713
17.8341   696
17.8441   700
17.8541   683
17.8641   680
17.8741   743
17.8841   748
17.8941   711
17.9041   689
17.9141   706
17.9241   726
17.9341   675
17.9441   679
17.9541   692
17.9641   692
17.9741   678
17.9841   684
17.9941   685
18.0041   702
18.0141   714
18.0241   667
18.0341   651
18.0441   681
18.0541   695
18.0641   689
18.0741   739
18.0841   709
18.0941   699
18.1041   677
18.1141   684
18.1241   707
18.1341   709
18.1441   702
18.1541   705
18.1641   686
18.1741   706
18.1841   702
18.1941   708
18.2041   730
18.2141   709
18.2241   698
18.2341   710
18.2441   686
18.2541   725
18.2641   740
18.2741   711
18.2841   716
18.2941   727
18.3041   760
18.3141   721
18.3241   694
18.3341   687
18.3441   705
18.3541   717
18.3641   704
18.3741   728
18.3841   729
18.3941   752
18.4041   759
18.4141   697
18.4241   682
18.4341   712
18.4441   732
18.4541   720
18.4641   723
18.4741   734
18.4841   729
18.4941   729
18.5041   719
18.5141   698
18.5241   705
18.5341   720
18.5441   756
18.5541   719
18.5641   726
18.5741   743
18.5841   724
18.5941   736
18.6041   760
18.6141   763
18.6241   769
18.6341   750
18.6441   742
18.6541   753
18.6641   741
18.6741   763
18.6841   724
18.6941   704
18.7041   759
18.7141   765
18.7241   761
18.7341   783
18.7441   725
18.7541   755
18.7641   745
18.7741   786
18.7841   743
18.7941   758
18.8041   758
18.8141   731
18.8241   723
18.8341   745
18.8441   768
18.8541   751
18.8641   746
18.8741   721
18.8841   753
18.8941   778
18.9041   766
18.9141   766
18.9241   743
18.9341   757
18.9441   785
18.9541   768
18.9641   778
18.9741   737
18.9841   740
18.9941   772
19.0041   803
19.0141   772
19.0241   770
19.0341   766
19.0441   761
19.0541   800
19.0641   788
19.0741   753
19.0841   781
19.0941   788
19.1041   786
19.1141   747
19.1241   765
19.1341   766
19.1441   801
19.1541   815
19.1641   772
19.1741   753
19.1841   800
19.1941   826
19.2041   752
19.2141   760
19.2241   771
19.2341   779
19.2441   767
19.2541   756
19.2641   796
19.2741   779
19.2841   765
19.2941   741
19.3041   755
19.3141   815
19.3241   787
19.3341   777
19.3441   738
19.3541   799
19.3641   728
19.3741   784
19.3841   788
19.3941   788
19.4041   776
19.4141   802
19.4241   778
19.4341   792
19.4441   789
19.4541   767
19.4641   774
19.4741   789
19.4841   795
19.4941   839
19.5041   790
19.5141   819
19.5241   796
19.5341   762
19.5441   810
19.5541   831
19.5641   823
19.5741   818
19.5841   809
19.5941   838
19.6041   889
19.6141   843
19.6241   795
19.6341   817
19.6441   821
19.6541   834
19.6641   767
19.6741   789
19.6841   840
19.6941   800
19.7041   827
19.7141   791
19.7241   764
19.7341   830
19.7441   783
19.7541   853
19.7641   847
19.7741   823
19.7841   790
19.7941   811
19.8041   822
19.8141   800
19.8241   784
19.8341   765
19.8441   816
19.8541   825
19.8641   839
19.8741   789
19.8841   800
19.8941   770
19.9041   825
19.9141   806
19.9241   779
19.9341   815
19.9441   836
19.9541   799
19.9641   819
19.9741   804
19.9841   789
19.9941   812
20.0041   803
20.0141   798
20.0241   811
20.0341   772
20.0441   804
20.0541   788
20.0641   828
20.0741   796
20.0841   830
20.0941   847
20.1041   845
20.1141   802
20.1241   798
20.1341   822
20.1441   760
20.1541   797
20.1641   810
20.1741   798
20.1841   823
20.1941   813
20.2041   822
20.2141   838
20.2241   806
20.2341   818
20.2441   817
20.2541   799
20.2641   831
20.2741   741
20.2841   799
20.2941   799
20.3041   802
20.3141   830
20.3241   818
20.3341   797
20.3441   796
20.3541   841
20.3641   837
20.3741   804
20.3841   776
20.3941   861
20.4041   842
20.4141   859
20.4241   843
20.4341   803
20.4441   852
20.4541   850
20.4641   800
20.4741   814
20.4841   820
20.4941   829
20.5041   800
20.5141   850
20.5241   882
20.5341   831
20.5441   814
20.5541   834
20.5641   820
20.5741   834
20.5841   828
20.5941   807
20.6041   809
20.6141   869
20.6241   830
20.6341   771
20.6441   862
20.6541   808
20.6641   806
20.6741   833
20.6841   814
20.6941   826
20.7041   880
20.7141   847
20.7241   865
20.7341   829
20.7441   802
20.7541   823
20.7641   831
20.7741   854
20.7841   835
20.7941   797
20.8041   870
20.8141   853
20.8241   862
20.8341   882
20.8441   902
20.8541   889
20.8641   859
20.8741   922
20.8841   875
20.8941   974
20.9041   912
20.9141   940
20.9241   998
20.9341  1072
20.9441  1005
20.9541  1024
20.9641  1048
20.9741  1119
20.9841  1076
20.9941  1110
21.0041  1107
21.0141  1107
21.0241  1213
21.0341  1221
21.0441  1147
21.0541  1201
21.0641  1172
21.0741  1229
21.0841  1235
21.0941  1202
21.1041  1228
21.1141  1259
21.1241  1210
21.1341  1270
21.1441  1219
21.1541  1219
21.1641  1276
21.1741  1264
21.1841  1250
21.1941  1209
21.2041  1153
21.2141  1167
21.2241  1112
21.2341  1154
21.2441  1108
21.2541  1091
21.2641  1122
21.2741  1106
21.2841  1043
21.2941  1058
21.3041  1027
21.3141   960
21.3241   928
21.3341   950
21.3441   916
21.3541   884
21.3641   935
21.3741   897
21.3841   838
21.3941   888
21.4041   903
21.4141   864
21.4241   861
21.4341   860
21.4441   828
21.4541   854
21.4641   811
21.4741   802
21.4841   842
21.4941   836
21.5041   836
21.5141   846
21.5241   849
21.5341   816
21.5441   877
21.5541   829
21.5641   826
21.5741   847
21.5841   817
21.5941   806
21.6041   824
21.6141   837
21.6241   832
21.6341   828
21.6441   843
21.6541   829
21.6641   872
21.6741   843
21.6841   871
21.6941   892
21.7041   873
21.7141   784
21.7241   825
21.7341   795
21.7441   806
21.7541   817
21.7641   840
21.7741   842
21.7841   837
21.7941   834
21.8041   825
21.8141   861
21.8241   857
21.8341   818
21.8441   808
21.8541   844
21.8641   804
21.8741   841
21.8841   850
21.8941   851
21.9041   862
21.9141   873
21.9241   836
21.9341   790
21.9441   847
21.9541   836
21.9641   889
21.9741   831
21.9841   816
21.9941   858
22.0041   827
22.0141   885
22.0241   821
22.0341   830
22.0441   781
22.0541   834
22.0641   845
22.0741   839
22.0841   821
22.0941   824
22.1041   835
22.1141   873
22.1241   855
22.1341   847
22.1441   809
22.1541   847
22.1641   802
22.1741   835
22.1841   844
22.1941   858
22.2041   866
22.2141   862
22.2241   819
22.2341   873
22.2441   826
22.2541   822
22.2641   830
22.2741   798
22.2841   805
22.2941   803
22.3041   842
22.3141   838
22.3241   824
22.3341   827
22.3441   792
22.3541   797
22.3641   836
22.3741   812
22.3841   807
22.3941   867
22.4041   862
22.4141   871
22.4241   812
22.4341   803
22.4441   805
22.4541   834
22.4641   875
22.4741   816
22.4841   820
22.4941   829
22.5041   849
22.5141   823
22.5241   823
22.5341   842
22.5441   854
22.5541   844
22.5641   813
22.5741   767
22.5841   802
22.5941   822
22.6041   802
22.6141   858
22.6241   878
22.6341   841
22.6441   862
22.6541   835
22.6641   829
22.6741   812
22.6841   847
22.6941   807
22.7041   864
22.7141   822
22.7241   865
22.7341   849
22.7441   797
22.7541   844
22.7641   809
22.7741   832
22.7841   812
22.7941   767
22.8041   763
22.8141   808
22.8241   806
22.8341   825
22.8441   787
22.8541   779
22.8641   810
22.8741   837
22.8841   844
22.8941   820
22.9041   817
22.9141   820
22.9241   771
22.9341   843
22.9441   790
22.9541   867
22.9641   800
22.9741   789
22.9841   729
22.9941   803
23.0041   854
23.0141   787
23.0241   796
23.0341   874
23.0441   777
23.0541   811
23.0641   820
23.0741   816
23.0841   815
23.0941   737
23.1041   803
23.1141   796
23.1241   792
23.1341   829
23.1441   810
23.1541   841
23.1641   819
23.1741   803
23.1841   738
23.1941   793
23.2041   812
23.2141   786
23.2241   821
23.2341   834
23.2441   809
23.2541   766
23.2641   788
23.2741   795
23.2841   779
23.2941   817
23.3041   794
23.3141   743
23.3241   823
23.3341   880
23.3441   800
23.3541   828
23.3641   770
23.3741   773
23.3841   830
23.3941   777
23.4041   796
23.4141   813
23.4241   784
23.4341   821
23.4441   871
23.4541   830
23.4641   768
23.4741   816
23.4841   763
23.4941   784
23.5041   799
23.5141   748
23.5241   788
23.5341   768
23.5441   852
23.5541   750
23.5641   806
23.5741   800
23.5841   767
23.5941   856
23.6041   818
23.6141   795
23.6241   861
23.6341   795
23.6441   829
23.6541   780
23.6641   802
23.6741   880
23.6841   815
23.6941   802
23.7041   844
23.7141   840
23.7241   882
23.7341   875
23.7441   915
23.7541   821
23.7641   817
23.7741   831
23.7841   898
23.7941   880
23.8041   857
23.8141   836
23.8241   811
23.8341   857
23.8441   846
23.8541   833
23.8641   856
23.8741   852
23.8841   840
23.8941   832
23.9041   856
23.9141   856
23.9241   817
23.9341   840
23.9441   853
23.9541   805
23.9641   852
23.9741   816
23.9841   828
23.9941   825
24.0041   778
24.0141   844
24.0241   778
24.0341   758
24.0441   780
24.0541   737
24.0641   772
24.0741   770
24.0841   841
24.0941   760
24.1041   743
24.1141   733
24.1241   767
24.1341   759
24.1441   757
24.1541   747
24.1641   819
24.1741   775
24.1841   771
24.1941   793
24.2041   787
24.2141   784
24.2241   829
24.2341   814
24.2441   851
24.2541   786
24.2641   747
24.2741   782
24.2841   797
24.2941   750
24.3041   752
24.3141   786
24.3241   799
24.3341   759
24.3441   808
24.3541   771
24.3641   758
24.3741   782
24.3841   744
24.3941   727
24.4041   762
24.4141   762
24.4241   749
24.4341   795
24.4441   711
24.4541   704
24.4641   762
24.4741   763
24.4841   768
24.4941   741
24.5041   775
24.5141   755
24.5241   715
24.5341   783
24.5441   794
24.5541   772
24.5641   763
24.5741   763
24.5841   766
24.5941   738
24.6041   742
24.6141   702
24.6241   740
24.6341   752
24.6441   695
24.6541   739
24.6641   709
24.6741   702
24.6841   730
24.6941   756
24.7041   709
24.7141   742
24.7241   738
24.7341   733
24.7441   732
24.7541   721
24.7641   760
24.7741   736
24.7841   691
24.7941   771
24.8041   734
24.8141   771
24.8241   742
24.8341   783
24.8441   731
24.8541   736
24.8641   692
24.8741   715
24.8841   707
24.8941   762
24.9041   741
24.9141   759
24.9241   748
24.9341   739
24.9441   773
24.9541   761
24.9641   757
24.9741   733
24.9841   722
24.9941   723
25.0041   731
25.0141   765
25.0241   671
25.0341   759
25.0441   754
25.0541   780
25.0641   706
25.0741   728
25.0841   738
25.0941   746
25.1041   736
25.1141   721
25.1241   807
25.1341   740
25.1441   728
25.1541   741
25.1641   720
25.1741   712
25.1841   720
25.1941   714
25.2041   711
25.2141   736
25.2241   742
25.2341   730
25.2441   727
25.2541   726
25.2641   700
25.2741   695
25.2841   680
25.2941   730
25.3041   750
25.3141   767
25.3241   723
25.3341   729
25.3441   710
25.3541   738
25.3641   730
25.3741   735
25.3841   761
25.3941   717
25.4041   740
25.4141   698
25.4241   708
25.4341   684
25.4441   681
25.4541   669
25.4641   738
25.4741   707
25.4841   713
25.4941   686
25.5041   734
25.5141   710
25.5241   697
25.5341   668
25.5441   688
25.5541   650
25.5641   696
25.5741   663
25.5841   701
25.5941   666
25.6041   640
25.6141   711
25.6241   681
25.6341   628
25.6441   667
25.6541   667
25.6641   679
25.6741   630
25.6841   654
25.6941   690
25.7041   678
25.7141   645
25.7241   698
25.7341   682
25.7441   731
25.7541   735
25.7641   699
25.7741   638
25.7841   683
25.7941   699
25.8041   673
25.8141   702
25.8241   682
25.8341   671
25.8441   721
25.8541   646
25.8641   649
25.8741   700
25.8841   605
25.8941   703
25.9041   660
25.9141   675
25.9241   649
25.9341   669
25.9441   652
25.9541   670
25.9641   624
25.9741   696
25.9841   656
25.9941   670
26.0041   666
26.0141   658
26.0241   661
26.0341   682
26.0441   673
26.0541   675
26.0641   675
26.0741   649
26.0841   681
26.0941   662
26.1041   676
26.1141   668
26.1241   656
26.1341   638
26.1441   661
26.1541   652
26.1641   667
26.1741   668
26.1841   618
26.1941   639
26.2041   686
26.2141   668
26.2241   633
26.2341   627
26.2441   649
26.2541   618
26.2641   661
26.2741   707
26.2841   640
26.2941   667
26.3041   663
26.3141   612
26.3241   662
26.3341   639
26.3441   617
26.3541   625
26.3641   630
26.3741   662
26.3841   638
26.3941   654
26.4041   620
26.4141   614
26.4241   643
26.4341   651
26.4441   668
26.4541   645
26.4641   643
26.4741   648
26.4841   606
26.4941   637
26.5041   609
26.5141   669
26.5241   635
26.5341   610
26.5441   608
26.5541   637
26.5641   614
26.5741   627
26.5841   615
26.5941   650
26.6041   633
26.6141   638
26.6241   608
26.6341   670
26.6441   684
26.6541   632
26.6641   622
26.6741   623
26.6841   623
26.6941   607
26.7041   626
26.7141   624
26.7241   600
26.7341   606
26.7441   615
26.7541   621
26.7641   650
26.7741   634
26.7841   643
26.7941   624
26.8041   636
26.8141   657
26.8241   607
26.8341   622
26.8441   634
26.8541   612
26.8641   601
26.8741   583
26.8841   588
26.8941   600
26.9041   600
26.9141   594
26.9241   594
26.9341   637
26.9441   639
26.9541   568
26.9641   593
26.9741   616
26.9841   588
26.9941   604
27.0041   564
27.0141   626
27.0241   565
27.0341   597
27.0441   599
27.0541   617
27.0641   573
27.0741   613
27.0841   584
27.0941   592
27.1041   580
27.1141   602
27.1241   616
27.1341   569
27.1441   566
27.1541   577
27.1641   598
27.1741   617
27.1841   602
27.1941   624
27.2041   637
27.2141   615
27.2241   585
27.2341   609
27.2441   563
27.2541   588
27.2641   617
27.2741   585
27.2841   633
27.2941   613
27.3041   575
27.3141   573
27.3241   582
27.3341   594
27.3441   602
27.3541   579
27.3641   571
27.3741   583
27.3841   601
27.3941   570
27.4041   627
27.4141   570
27.4241   630
27.4341   606
27.4441   578
27.4541   543
27.4641   589
27.4741   615
27.4841   544
27.4941   550
27.5041   568
27.5141   556
27.5241   573
27.5341   564
27.5441   597
27.5541   568
27.5641   579
27.5741   574
27.5841   580
27.5941   572
27.6041   568
27.6141   551
27.6241   553
27.6341   579
27.6441   538
27.6541   524
27.6641   601
27.6741   591
27.6841   581
27.6941   602
27.7041   577
27.7141   543
27.7241   586
27.7341   577
27.7441   567
27.7541   546
27.7641   568
27.7741   562
27.7841   537
27.7941   558
27.8041   536
27.8141   586
27.8241   560
27.8341   554
27.8441   530
27.8541   538
27.8641   554
27.8741   554
27.8841   558
27.8941   561
27.9041   545
27.9141   522
27.9241   566
27.9341   537
27.9441   530
27.9541   539
27.9641   533
27.9741   541
27.9841   504
27.9941   539
28.0041   505
28.0141   525
28.0241   499
28.0341   529
28.0441   558
28.0541   542
28.0641   481
28.0741   539
28.0841   573
28.0941   553
28.1041   545
28.1141   545
28.1241   487
28.1341   550
28.1441   523
28.1541   522
28.1641   551
28.1741   520
28.1841   546
28.1941   516
28.2041   512
28.2141   521
28.2241   524
28.2341   516
28.2441   533
28.2541   494
28.2641   499
28.2741   533
28.2841   501
28.2941   506
28.3041   518
28.3141   534
28.3241   528
28.3341   515
28.3441   544
28.3541   523
28.3641   511
28.3741   511
28.3841   539
28.3941   520
28.4041   493
28.4141   508
28.4241   498
28.4341   487
28.4441   524
28.4541   492
28.4641   527
28.4741   486
28.4841   513
28.4941   531
28.5041   523
28.5141   514
28.5241   499
28.5341   515
28.5441   475
28.5541   511
28.5641   530
28.5741   492
28.5841   523
28.5941   544
28.6041   523
28.6141   489
28.6241   519
28.6341   486
28.6441   488
28.6541   509
28.6641   482
28.6741   528
28.6841   495
28.6941   519
28.7041   457
28.7141   497
28.7241   539
28.7341   502
28.7441   463
28.7541   482
28.7641   496
28.7741   487
28.7841   489
28.7941   475
28.8041   506
28.8141   473
28.8241   487
28.8341   496
28.8441   473
28.8541   467
28.8641   450
28.8741   447
28.8841   444
28.8941   497
28.9041   527
28.9141   498
28.9241   487
28.9341   499
28.9441   490
28.9541   501
28.9641   483
28.9741   489
28.9841   449
28.9941   498
29.0041   475
29.0141   484
29.0241   477
29.0341   501
29.0441   500
29.0541   512
29.0641   461
29.0741   449
29.0841   517
29.0941   511
29.1041   471
29.1141   491
29.1241   468
29.1341   468
29.1441   461
29.1541   508
29.1641   477
29.1741   482
29.1841   437
29.1941   464
29.2041   472
29.2141   490
29.2241   479
29.2341   463
29.2441   453
29.2541   481
29.2641   487
29.2741   428
29.2841   440
29.2941   456
29.3041   470
29.3141   431
29.3241   478
29.3341   451
29.3441   452
29.3541   481
29.3641   503
29.3741   471
29.3841   466
29.3941   395
29.4041   459
29.4141   460
29.4241   463
29.4341   442
29.4441   413
29.4541   425
29.4641   484
29.4741   436
29.4841   463
29.4941   477
29.5041   427
29.5141   434
29.5241   464
29.5341   450
29.5441   473
29.5541   451
29.5641   424
29.5741   427
29.5841   432
29.5941   458
29.6041   416
29.6141   447
29.6241   472
29.6341   453
29.6441   428
29.6541   428
29.6641   416
29.6741   389
29.6841   394
29.6941   403
29.7041   435
29.7141   417
29.7241   439
29.7341   406
29.7441   461
29.7541   440
29.7641   452
29.7741   421
29.7841   446
29.7941   425
29.8041   408
29.8141   442
29.8241   439
29.8341   449
29.8441   434
29.8541   434
29.8641   390
29.8741   451
29.8841   436
29.8941   432
29.9041   432
29.9141   411
29.9241   387
29.9341   392
29.9441   408
29.9541   431
29.9641   406
29.9741   435
29.9841   397
29.9941   414
30.0041   369
30.0141   414
30.0241   395
30.0341   413
30.0441   405
30.0541   458
30.0641   414
30.0741   408
30.0841   402
30.0941   409
30.1041   404
30.1141   429
30.1241   427
30.1341   459
30.1441   420
30.1541   424
30.1641   400
30.1741   414
30.1841   384
30.1941   433
30.2041   368
30.2141   380
30.2241   402
30.2341   413
30.2441   416
30.2541   416
30.2641   407
30.2741   390
30.2841   377
30.2941   408
30.3041   401
30.3141   419
30.3241   410
30.3341   419
30.3441   389
30.3541   416
30.3641   392
30.3741   388
30.3841   403
30.3941   407
30.4041   396
30.4141   383
30.4241   392
30.4341   341
30.4441   396
30.4541   407
30.4641   389
30.4741   412
30.4841   397
30.4941   393
30.5041   394
30.5141   400
30.5241   424
30.5341   378
30.5441   360
30.5541   372
30.5641   390
30.5741   398
30.5841   390
30.5941   406
30.6041   385
30.6141   370
30.6241   364
30.6341   379
30.6441   379
30.6541   375
30.6641   376
30.6741   373
30.6841   398
30.6941   380
30.7041   385
30.7141   357
30.7241   341
30.7341   398
30.7441   421
30.7541   350
30.7641   373
30.7741   358
30.7841   366
30.7941   344
30.8041   375
30.8141   369
30.8241   349
30.8341   351
30.8441   366
30.8541   361
30.8641   413
30.8741   340
30.8841   368
30.8941   372
30.9041   378
30.9141   375
30.9241   351
30.9341   346
30.9441   363
30.9541   384
30.9641   359
30.9741   327
30.9841   344
30.9941   398
31.0041   354
31.0141   376
31.0241   369
31.0341   364
31.0441   361
31.0541   357
31.0641   360
31.0741   345
31.0841   359
31.0941   348
31.1041   363
31.1141   339
31.1241   348
31.1341   356
31.1441   341
31.1541   347
31.1641   355
31.1741   348
31.1841   325
31.1941   348
31.2041   341
31.2141   347
31.2241   343
31.2341   334
31.2441   355
31.2541   337
31.2641   345
31.2741   341
31.2841   343
31.2941   363
31.3041   316
31.3141   348
31.3241   334
31.3341   347
31.3441   337
31.3541   350
31.3641   363
31.3741   358
31.3841   329
31.3941   335
31.4041   345
31.4141   329
31.4241   336
31.4341   344
31.4441   327
31.4541   347
31.4641   357
31.4741   313
31.4841   329
31.4941   301
31.5041   334
31.5141   349
31.5241   338
31.5341   321
31.5441   311
31.5541   358
31.5641   351
31.5741   342
31.5841   372
31.5941   348
31.6041   330
31.6141   323
31.6241   340
31.6341   339
31.6441   299
31.6541   325
31.6641   357
31.6741   365
31.6841   332
31.6941   337
31.7041   377
31.7141   361
31.7241   317
31.7341   321
31.7441   337
31.7541   359
31.7641   357
31.7741   308
31.7841   365
31.7941   307
31.8041   357
31.8141   354
31.8241   359
31.8341   333
31.8441   352
31.8541   307
31.8641   315
31.8741   337
31.8841   309
31.8941   322
31.9041   336
31.9141   342
31.9241   339
31.9341   348
31.9441   365
31.9541   333
31.9641   343
31.9741   322
31.9841   327
31.9941   354
32.0041   353
32.0141   346
32.0241   355
32.0341   322
32.0441   358
32.0541   342
32.0641   349
32.0741   327
32.0841   360
32.0941   387
32.1041   337
32.1141   342
32.1241   325
32.1341   344
32.1441   362
32.1541   358
32.1641   380
32.1741   372
32.1841   382
32.1941   367
32.2041   359
32.2141   370
32.2241   337
32.2341   336
32.2441   342
32.2541   341
32.2641   334
32.2741   327
32.2841   346
32.2941   326
32.3041   318
32.3141   336
32.3241   315
32.3341   313
32.3441   318
32.3541   342
32.3641   286
32.3741   316
32.3841   293
32.3941   317
32.4041   285
32.4141   297
32.4241   304
32.4341   327
32.4441   296
32.4541   324
32.4641   296
32.4741   280
32.4841   272
32.4941   272
32.5041   273
32.5141   296
32.5241   262
32.5341   276
32.5441   241
32.5541   288
32.5641   288
32.5741   307
32.5841   286
32.5941   301
32.6041   307
32.6141   281
32.6241   264
32.6341   270
32.6441   251
32.6541   281
32.6641   288
32.6741   278
32.6841   273
32.6941   273
32.7041   275
32.7141   272
32.7241   280
32.7341   260
32.7441   271
32.7541   267
32.7641   278
32.7741   281
32.7841   258
32.7941   282
32.8041   269
32.8141   269
32.8241   267
32.8341   264
32.8441   267
32.8541   271
32.8641   274
32.8741   279
32.8841   278
32.8941   262
32.9041   235
32.9141   256
32.9241   256
32.9341   292
32.9441   277
32.9541   252
32.9641   263
32.9741   264
32.9841   274
32.9941   289
33.0041   249
33.0141   277
33.0241   283
33.0341   257
33.0441   259
33.0541   287
33.0641   250
33.0741   268
33.0841   269
33.0941   271
33.1041   253
33.1141   257
33.1241   228
33.1341   243
33.1441   248
33.1541   236
33.1641   225
33.1741   243
33.1841   242
33.1941   260
33.2041   253
33.2141   251
33.2241   257
33.2341   249
33.2441   253
33.2541   238
33.2641   249
33.2741   232
33.2841   247
33.2941   255
33.3041   255
33.3141   255
33.3241   251
33.3341   249
33.3441   242
33.3541   246
33.3641   271
33.3741   242
33.3841   242
33.3941   265
33.4041   245
33.4141   242
33.4241   250
33.4341   226
33.4441   227
33.4541   245
33.4641   235
33.4741   221
33.4841   228
33.4941   268
33.5041   258
33.5141   238
33.5241   245
33.5341   225
33.5441   244
33.5541   267
33.5641   249
33.5741   224
33.5841   215
33.5941   208
33.6041   237
33.6141   234
33.6241   238
33.6341   238
33.6441   221
33.6541   231
33.6641   225
33.6741   207
33.6841   235
33.6941   219
33.7041   212
33.7141   234
33.7241   232
33.7341   235
33.7441   220
33.7541   228
33.7641   220
33.7741   233
33.7841   200
33.7941   212
33.8041   203
33.8141   219
33.8241   229
33.8341   228
33.8441   219
33.8541   252
33.8641   216
33.8741   210
33.8841   227
33.8941   227
33.9041   222
33.9141   227
33.9241   217
33.9341   211
33.9441   202
33.9541   227
33.9641   215
33.9741   215
33.9841   188
33.9941   218
34.0041   229
34.0141   239
34.0241   219
34.0341   235
34.0441   231
34.0541   229
34.0641   190
34.0741   192
34.0841   213
34.0941   217
34.1041   222
34.1141   186
34.1241   204
34.1341   212
34.1441   212
34.1541   203
34.1641   220
34.1741   192
34.1841   211
34.1941   199
34.2041   199
34.2141   207
34.2241   216
34.2341   190
34.2441   221
34.2541   238
34.2641   227
34.2741   195
34.2841   212
34.2941   221
34.3041   210
34.3141   203
34.3241   200
34.3341   179
34.3441   197
34.3541   202
34.3641   208
34.3741   204
34.3841   221
34.3941   216
34.4041   210
34.4141   200
34.4241   195
34.4341   199
34.4441   207
34.4541   215
34.4641   194
34.4741   197
34.4841   186
34.4941   196
34.5041   186
34.5141   201
34.5241   198
34.5341   208
34.5441   185
34.5541   214
34.5641   174
34.5741   188
34.5841   215
34.5941   215
34.6041   206
34.6141   173
34.6241   203
34.6341   194
34.6441   187
34.6541   174
34.6641   197
34.6741   165
34.6841   203
34.6941   210
34.7041   193
34.7141   170
34.7241   172
34.7341   216
34.7441   182
34.7541   203
34.7641   175
34.7741   197
34.7841   161
34.7941   182
34.8041   193
34.8141   188
34.8241   179
34.8341   186
34.8441   164
34.8541   168
34.8641   180
34.8741   174
34.8841   218
34.8941   186
34.9041   165
34.9141   173
34.9241   157
34.9341   174
34.9441   182
34.9541   169
34.9641   168
34.9741   187
34.9841   185
34.9941   177
35.0041   176
35.0141   194
35.0241   157
35.0341   170
35.0441   180
35.0541   170
35.0641   180
35.0741   175
35.0841   182
35.0941   175
35.1041   159
35.1141   165
35.1241   164
35.1341   160
35.1441   169
35.1541   167
35.1641   171
35.1741   170
35.1841   178
35.1941   179
35.2041   163
35.2141   175
35.2241   167
35.2341   162
35.2441   155
35.2541   170
35.2641   155
35.2741   159
35.2841   174
35.2941   141
35.3041   166
35.3141   171
35.3241   152
35.3341   167
35.3441   167
35.3541   154
35.3641   152
35.3741   146
35.3841   162
35.3941   166
35.4041   175
35.4141   172
35.4241   155
35.4341   187
35.4441   163
35.4541   178
35.4641   163
35.4741   151
35.4841   143
35.4941   161
35.5041   164
35.5141   179
35.5241   168
35.5341   152
35.5441   169
35.5541   176
35.5641   151
35.5741   160
35.5841   160
35.5941   147
35.6041   172
35.6141   133
35.6241   140
35.6341   154
35.6441   123
35.6541   131
35.6641   146
35.6741   162
35.6841   167
35.6941   144
35.7041   158
35.7141   180
35.7241   158
35.7341   153
35.7441   129
35.7541   146
35.7641   165
35.7741   193
35.7841   158
35.7941   160
35.8041   161
35.8141   171
35.8241   160
35.8341   181
35.8441   167
35.8541   167
35.8641   132
35.8741   134
35.8841   132
35.8941   129
35.9041   141
35.9141   135
35.9241   139
35.9341   145
35.9441   159
35.9541   146
35.9641   129
35.9741   153
35.9841   171
35.9941   148
36.0041   139
36.0141   141
36.0241   147
36.0341   167
36.0441   149
36.0541   136
36.0641   163
36.0741   133
36.0841   137
36.0941   155
36.1041   168
36.1141   152
36.1241   146
36.1341   136
36.1441   130
36.1541   119
36.1641   145
36.1741   153
36.1841   163
36.1941   143
36.2041   147
36.2141   146
36.2241   139
36.2341   143
36.2441   153
36.2541   143
36.2641   135
36.2741   139
36.2841   116
36.2941   142
36.3041   147
36.3141   138
36.3241   159
36.3341   130
36.3441   131
36.3541   146
36.3641   136
36.3741   137
36.3841   133
36.3941   108
36.4041   147
36.4141   145
36.4241   130
36.4341   158
36.4441   119
36.4541   145
36.4641   133
36.4741   119
36.4841   147
36.4941   146
36.5041   138
36.5141   137
36.5241   116
36.5341   132
36.5441   139
36.5541   102
36.5641   127
36.5741   132
36.5841   140
36.5941   113
36.6041   135
36.6141   145
36.6241   126
36.6341   120
36.6441   148
36.6541   114
36.6641   135
36.6741   133
36.6841   144
36.6941   122
36.7041   134
36.7141   139
36.7241   140
36.7341   138
36.7441   103
36.7541   123
36.7641   114
36.7741   106
36.7841   110
36.7941   120
36.8041   101
36.8141    94
36.8241    96
36.8341   114
36.8441   107
36.8541   134
36.8641    96
36.8741   140
36.8841   123
36.8941   123
36.9041   115
36.9141   115
36.9241   116
36.9341   103
36.9441   113
36.9541   107
36.9641   104
36.9741   112
36.9841   118
36.9941   121
37.0041   122
37.0141    91
37.0241   116
37.0341   109
37.0441   120
37.0541   118
37.0641    90
37.0741   104
37.0841   114
37.0941   130
37.1041   119
37.1141   124
37.1241   130
37.1341   130
37.1441   106
37.1541   113
37.1641   119
37.1741   111
37.1841   112
37.1941   110
37.2041   123
37.2141   106
37.2241   105
37.2341   101
37.2441   109
37.2541   124
37.2641   128
37.2741   113
37.2841   114
37.2941   117
37.3041   118
37.3141   122
37.3241    89
37.3341   112
37.3441    99
37.3541   110
37.3641   104
37.3741    93
37.3841   117
37.3941   101
37.4041   114
37.4141    96
37.4241   108
37.4341   112
37.4441    99
37.4541   104
37.4641    95
37.4741   114
37.4841   103
37.4941   104
37.5041    95
37.5141    95
37.5241    95
37.5341    97
37.5441   100
37.5541    91
37.5641   104
37.5741   108
37.5841   103
37.5941   102
37.6041   103
37.6141    95
37.6241   100
37.6341   102
37.6441    96
37.6541    95
37.6641   103
37.6741    85
37.6841    80
37.6941    99
37.7041    97
37.7141    91
37.7241    96
37.7341   104
37.7441   110
37.7541   106
37.7641    83
37.7741    97
37.7841    93
37.7941    89
37.8041    91
37.8141    76
37.8241    90
37.8341    73
37.8441    97
37.8541   104
37.8641    96
37.8741    86
37.8841    94
37.8941    82
37.9041    86
37.9141    80
37.9241    98
37.9341    75
37.9441    98
37.9541    97
37.9641    92
37.9741    82
37.9841    87
37.9941    93
38.0041    81
38.0141    97
38.0241    79
38.0341    73
38.0441    79
38.0541    92
38.0641    82
38.0741    89
38.0841    76
38.0941   101
38.1041    81
38.1141    93
38.1241    80
38.1341    73
38.1441    90
38.1541    82
38.1641    66
38.1741    83
38.1841    73
38.1941    83
38.2041    84
38.2141    94
38.2241    74
38.2341    98
38.2441    75
38.2541    88
38.2641    82
38.2741    78
38.2841    89
38.2941    89
38.3041    79
38.3141    74
38.3241    64
38.3341    76
38.3441    82
38.3541    85
38.3641    70
38.3741    90
38.3841   104
38.3941    76
38.4041    68
38.4141    63
38.4241    81
38.4341    97
38.4441    81
38.4541    79
38.4641    77
38.4741    79
38.4841    65
38.4941    86
38.5041    57
38.5141    73
38.5241    63
38.5341    66
38.5441    63
38.5541    80
38.5641    74
38.5741    79
38.5841    69
38.5941    61
38.6041    88
38.6141    85
38.6241    77
38.6341    63
38.6441    66
38.6541    67
38.6641    74
38.6741    73
38.6841    67
38.6941    60
38.7041    80
38.7141    65
38.7241    81
38.7341    81
38.7441    54
38.7541    74
38.7641    65
38.7741    67
38.7841    84
38.7941    70
38.8041    68
38.8141    75
38.8241    75
38.8341    74
38.8441    77
38.8541    49
38.8641    65
38.8741    62
38.8841    73
38.8941    58
38.9041    73
38.9141    65
38.9241    76
38.9341    70
38.9441    72
38.9541    79
38.9641    70
38.9741    60
38.9841    57
38.9941    67
39.0041    56
39.0141    54
39.0241    47
39.0341    77
39.0441    69
39.0541    62
39.0641    68
39.0741    74
39.0841    53
39.0941    54
39.1041    74
39.1141    66
39.1241    62
39.1341    58
39.1441    61
39.1541    67
39.1641    54
39.1741    61
39.1841    57
39.1941    69
39.2041    70
39.2141    64
39.2241    58
39.2341    49
39.2441    50
39.2541    56
39.2641    69
39.2741    58
39.2841    75
39.2941    49
39.3041    65
39.3141    58
39.3241    61
39.3341    46
39.3441    51
39.3541    61
39.3641    65
39.3741    65
39.3841    57
39.3941    44
39.4041    52
39.4141    66
39.4241    56
39.4341    57
39.4441    60
39.4541    57
39.4641    60
39.4741    63
39.4841    63
39.4941    52
39.5041    64
39.5141    47
39.5241    54
39.5341    73
39.5441    59
39.5541    51
39.5641    50
39.5741    52
39.5841    58
39.5941    48
39.6041    37
39.6141    44
39.6241    51
39.6341    67
39.6441    60
39.6541    48
39.6641    50
39.6741    52
39.6841    59
39.6941    55
39.7041    49
39.7141    53
39.7241    41
39.7341    51
39.7441    58
39.7541    51
39.7641    60
39.7741    52
39.7841    55
39.7941    43
39.8041    48
39.8141    46
39.8241    52
39.8341    49
39.8441    40
39.8541    38
39.8641    57
39.8741    59
39.8841    46
39.8941    51
39.9041    59
39.9141    47
39.9241    47
39.9341    45
39.9441    47
39.9541    48
39.9641    61
39.9741    61
39.9841    56
39.9941    37
