Bruker Nano GmbH Berlin, Germany
Esprit 1.9

Date: 4/21/2021 1:34:56 PM
Real time: 20938
Life time: 19531
Pulse density: 98507


Detector type: XFlash 430
Window type: Custom type
Detector thickness: 0.45
Si dead layer:0.029

Calibration, lin.: 10
Calibration, abs.: -955.9
Mn FWHM: 137.05
Fano factor: 0.121
Channels: 4095

Energy Counts
-0.9559     0
-0.9459     0
-0.9359     0
-0.9259     0
-0.9159     0
-0.9059     0
-0.8959     0
-0.8859     0
-0.8759     0
-0.8659     0
-0.8559     0
-0.8459     0
-0.8359     0
-0.8259     0
-0.8159     0
-0.8059     0
-0.7959     0
-0.7859     0
-0.7759     0
-0.7659     0
-0.7559     0
-0.7459     0
-0.7359     0
-0.7259     0
-0.7159     0
-0.7059     0
-0.6959     0
-0.6859     0
-0.6759     0
-0.6659     0
-0.6559     0
-0.6459     0
-0.6359     0
-0.6259     0
-0.6159     0
-0.6059     0
-0.5959     0
-0.5859     0
-0.5759     0
-0.5659     0
-0.5559     0
-0.5459     0
-0.5359     0
-0.5259     0
-0.5159     0
-0.5059     0
-0.4959     0
-0.4859     0
-0.4759     0
-0.4659     0
-0.4559     0
-0.4459     0
-0.4359     0
-0.4259     0
-0.4159     0
-0.4059     0
-0.3959     0
-0.3859     0
-0.3759     0
-0.3659     0
-0.3559     0
-0.3459     0
-0.3359     0
-0.3259     0
-0.3159     0
-0.3059     0
-0.2959     0
-0.2859     0
-0.2759     0
-0.2659     0
-0.2559     0
-0.2459     0
-0.2359     0
-0.2259     0
-0.2159     0
-0.2059     0
-0.1959     0
-0.1859     0
-0.1759     0
-0.1659     0
-0.1559     0
-0.1459     0
-0.1359     0
-0.1259     1
-0.1159     3
-0.1059    15
-0.0959    54
-0.0859   230
-0.0759   752
-0.0659  2290
-0.0559  5588
-0.0459 12381
-0.0359 23063
-0.0259 37043
-0.0159 50878
-0.0059 59660
 0.0041 60199
 0.0141 51957
 0.0241 38808
 0.0341 24336
 0.0441 12958
 0.0541  6195
 0.0641  2403
 0.0741   818
 0.0841   260
 0.0941    65
 0.1041    30
 0.1141    11
 0.1241     8
 0.1341     7
 0.1441     9
 0.1541     5
 0.1641     4
 0.1741     2
 0.1841   162
 0.1941   373
 0.2041   331
 0.2141   298
 0.2241   337
 0.2341   312
 0.2441   343
 0.2541   341
 0.2641   352
 0.2741   345
 0.2841   327
 0.2941   317
 0.3041   334
 0.3141   318
 0.3241   331
 0.3341   311
 0.3441   303
 0.3541   304
 0.3641   318
 0.3741   300
 0.3841   304
 0.3941   307
 0.4041   293
 0.4141   296
 0.4241   285
 0.4341   276
 0.4441   281
 0.4541   279
 0.4641   282
 0.4741   262
 0.4841   273
 0.4941   272
 0.5041   278
 0.5141   295
 0.5241   312
 0.5341   279
 0.5441   265
 0.5541   271
 0.5641   269
 0.5741   265
 0.5841   271
 0.5941   273
 0.6041   275
 0.6141   262
 0.6241   262
 0.6341   247
 0.6441   257
 0.6541   261
 0.6641   244
 0.6741   259
 0.6841   258
 0.6941   250
 0.7041   241
 0.7141   246
 0.7241   233
 0.7341   233
 0.7441   256
 0.7541   248
 0.7641   243
 0.7741   244
 0.7841   233
 0.7941   220
 0.8041   237
 0.8141   235
 0.8241   220
 0.8341   224
 0.8441   236
 0.8541   220
 0.8641   224
 0.8741   213
 0.8841   235
 0.8941   232
 0.9041   227
 0.9141   238
 0.9241   225
 0.9341   213
 0.9441   221
 0.9541   239
 0.9641   206
 0.9741   222
 0.9841   227
 0.9941   224
 1.0041   218
 1.0141   246
 1.0241   240
 1.0341   220
 1.0441   212
 1.0541   216
 1.0641   204
 1.0741   223
 1.0841   208
 1.0941   208
 1.1041   192
 1.1141   195
 1.1241   198
 1.1341   207
 1.1441   207
 1.1541   204
 1.1641   207
 1.1741   187
 1.1841   205
 1.1941   212
 1.2041   196
 1.2141   205
 1.2241   203
 1.2341   208
 1.2441   211
 1.2541   202
 1.2641   194
 1.2741   202
 1.2841   207
 1.2941   196
 1.3041   206
 1.3141   194
 1.3241   197
 1.3341   203
 1.3441   217
 1.3541   195
 1.3641   194
 1.3741   188
 1.3841   198
 1.3941   197
 1.4041   176
 1.4141   177
 1.4241   197
 1.4341   190
 1.4441   211
 1.4541   195
 1.4641   203
 1.4741   202
 1.4841   189
 1.4941   200
 1.5041   181
 1.5141   200
 1.5241   191
 1.5341   181
 1.5441   198
 1.5541   178
 1.5641   187
 1.5741   175
 1.5841   180
 1.5941   175
 1.6041   192
 1.6141   171
 1.6241   193
 1.6341   206
 1.6441   188
 1.6541   242
 1.6641   290
 1.6741   353
 1.6841   435
 1.6941   509
 1.7041   612
 1.7141   642
 1.7241   751
 1.7341   849
 1.7441   813
 1.7541   792
 1.7641   710
 1.7741   610
 1.7841   514
 1.7941   412
 1.8041   353
 1.8141   317
 1.8241   264
 1.8341   239
 1.8441   234
 1.8541   205
 1.8641   202
 1.8741   170
 1.8841   205
 1.8941   204
 1.9041   226
 1.9141   213
 1.9241   208
 1.9341   194
 1.9441   177
 1.9541   194
 1.9641   226
 1.9741   213
 1.9841   196
 1.9941   235
 2.0041   246
 2.0141   244
 2.0241   237
 2.0341   223
 2.0441   224
 2.0541   192
 2.0641   226
 2.0741   196
 2.0841   197
 2.0941   200
 2.1041   178
 2.1141   177
 2.1241   203
 2.1341   164
 2.1441   157
 2.1541   177
 2.1641   190
 2.1741   163
 2.1841   165
 2.1941   173
 2.2041   169
 2.2141   194
 2.2241   156
 2.2341   155
 2.2441   154
 2.2541   180
 2.2641   158
 2.2741   181
 2.2841   151
 2.2941   155
 2.3041   157
 2.3141   161
 2.3241   159
 2.3341   166
 2.3441   172
 2.3541   141
 2.3641   145
 2.3741   156
 2.3841   167
 2.3941   144
 2.4041   160
 2.4141   156
 2.4241   166
 2.4341   159
 2.4441   169
 2.4541   141
 2.4641   142
 2.4741   135
 2.4841   162
 2.4941   138
 2.5041   120
 2.5141   163
 2.5241   133
 2.5341   150
 2.5441   149
 2.5541   130
 2.5641   133
 2.5741   158
 2.5841   138
 2.5941   150
 2.6041   168
 2.6141   132
 2.6241   144
 2.6341   159
 2.6441   139
 2.6541   141
 2.6641   160
 2.6741   118
 2.6841   145
 2.6941   150
 2.7041   150
 2.7141   139
 2.7241   159
 2.7341   117
 2.7441   150
 2.7541   140
 2.7641   154
 2.7741   150
 2.7841   172
 2.7941   142
 2.8041   156
 2.8141   159
 2.8241   148
 2.8341   152
 2.8441   165
 2.8541   144
 2.8641   148
 2.8741   156
 2.8841   149
 2.8941   151
 2.9041   137
 2.9141   127
 2.9241   135
 2.9341   142
 2.9441   133
 2.9541   143
 2.9641   153
 2.9741   123
 2.9841   118
 2.9941   141
 3.0041   142
 3.0141   119
 3.0241   126
 3.0341   137
 3.0441   119
 3.0541   132
 3.0641   126
 3.0741   120
 3.0841   145
 3.0941   124
 3.1041   112
 3.1141   142
 3.1241   117
 3.1341   107
 3.1441   113
 3.1541   123
 3.1641   123
 3.1741   130
 3.1841   115
 3.1941   134
 3.2041   136
 3.2141   133
 3.2241   155
 3.2341   175
 3.2441   152
 3.2541   218
 3.2641   208
 3.2741   293
 3.2841   306
 3.2941   309
 3.3041   376
 3.3141   344
 3.3241   314
 3.3341   298
 3.3441   306
 3.3541   292
 3.3641   233
 3.3741   208
 3.3841   169
 3.3941   170
 3.4041   133
 3.4141   125
 3.4241   122
 3.4341   106
 3.4441   109
 3.4541   123
 3.4641   108
 3.4741    97
 3.4841   107
 3.4941   110
 3.5041   112
 3.5141   110
 3.5241   131
 3.5341   136
 3.5441   168
 3.5541   186
 3.5641   212
 3.5741   207
 3.5841   284
 3.5941   339
 3.6041   447
 3.6141   548
 3.6241   651
 3.6341   844
 3.6441   993
 3.6541  1150
 3.6641  1274
 3.6741  1407
 3.6841  1468
 3.6941  1474
 3.7041  1379
 3.7141  1315
 3.7241  1200
 3.7341  1010
 3.7441   850
 3.7541   694
 3.7641   562
 3.7741   414
 3.7841   293
 3.7941   233
 3.8041   172
 3.8141   149
 3.8241   123
 3.8341   107
 3.8441   106
 3.8541   103
 3.8641   104
 3.8741    95
 3.8841   108
 3.8941   119
 3.9041   109
 3.9141   140
 3.9241   136
 3.9341   171
 3.9441   178
 3.9541   205
 3.9641   242
 3.9741   230
 3.9841   260
 3.9941   294
 4.0041   294
 4.0141   302
 4.0241   301
 4.0341   273
 4.0441   268
 4.0541   251
 4.0641   224
 4.0741   198
 4.0841   170
 4.0941   145
 4.1041   146
 4.1141   110
 4.1241   110
 4.1341    92
 4.1441   104
 4.1541    73
 4.1641    84
 4.1741    97
 4.1841    88
 4.1941    74
 4.2041    86
 4.2141    76
 4.2241    85
 4.2341    83
 4.2441    88
 4.2541    70
 4.2641    71
 4.2741    80
 4.2841    83
 4.2941    73
 4.3041    91
 4.3141    65
 4.3241    97
 4.3341    72
 4.3441    87
 4.3541    90
 4.3641    99
 4.3741    88
 4.3841   101
 4.3941   111
 4.4041   127
 4.4141   134
 4.4241   192
 4.4341   205
 4.4441   262
 4.4541   291
 4.4641   311
 4.4741   376
 4.4841   402
 4.4941   416
 4.5041   421
 4.5141   436
 4.5241   410
 4.5341   387
 4.5441   323
 4.5541   309
 4.5641   291
 4.5741   205
 4.5841   224
 4.5941   182
 4.6041   160
 4.6141   112
 4.6241   128
 4.6341   116
 4.6441    96
 4.6541    93
 4.6641   103
 4.6741   103
 4.6841    84
 4.6941    99
 4.7041    99
 4.7141    93
 4.7241    97
 4.7341   105
 4.7441    86
 4.7541    97
 4.7641    90
 4.7741   101
 4.7841    93
 4.7941    97
 4.8041   117
 4.8141   113
 4.8241   126
 4.8341   130
 4.8441   132
 4.8541   142
 4.8641   135
 4.8741   112
 4.8841   129
 4.8941   156
 4.9041   167
 4.9141   153
 4.9241   172
 4.9341   170
 4.9441   171
 4.9541   174
 4.9641   152
 4.9741   165
 4.9841   156
 4.9941   140
 5.0041   138
 5.0141   136
 5.0241   108
 5.0341   111
 5.0441   102
 5.0541   100
 5.0641   102
 5.0741   105
 5.0841   105
 5.0941   106
 5.1041   106
 5.1141   101
 5.1241    88
 5.1341    93
 5.1441    91
 5.1541    98
 5.1641    89
 5.1741    95
 5.1841    89
 5.1941    95
 5.2041   100
 5.2141    87
 5.2241   104
 5.2341   110
 5.2441    97
 5.2541   108
 5.2641   116
 5.2741   103
 5.2841   112
 5.2941   125
 5.3041   132
 5.3141   138
 5.3241   174
 5.3341   206
 5.3441   215
 5.3541   236
 5.3641   331
 5.3741   304
 5.3841   348
 5.3941   322
 5.4041   328
 5.4141   342
 5.4241   333
 5.4341   317
 5.4441   321
 5.4541   289
 5.4641   250
 5.4741   227
 5.4841   197
 5.4941   184
 5.5041   171
 5.5141   155
 5.5241   151
 5.5341   107
 5.5441   105
 5.5541   115
 5.5641   125
 5.5741   118
 5.5841   116
 5.5941   109
 5.6041    95
 5.6141    99
 5.6241   115
 5.6341    90
 5.6441    94
 5.6541    93
 5.6641   104
 5.6741   105
 5.6841    98
 5.6941   111
 5.7041   106
 5.7141   118
 5.7241   125
 5.7341   108
 5.7441   127
 5.7541   131
 5.7641   166
 5.7741   192
 5.7841   215
 5.7941   254
 5.8041   314
 5.8141   364
 5.8241   394
 5.8341   469
 5.8441   606
 5.8541   609
 5.8641   708
 5.8741   731
 5.8841   735
 5.8941   771
 5.9041   763
 5.9141   753
 5.9241   670
 5.9341   623
 5.9441   577
 5.9541   560
 5.9641   464
 5.9741   396
 5.9841   371
 5.9941   319
 6.0041   266
 6.0141   246
 6.0241   185
 6.0341   166
 6.0441   173
 6.0541   159
 6.0641   136
 6.0741   163
 6.0841   133
 6.0941   149
 6.1041   163
 6.1141   164
 6.1241   180
 6.1341   171
 6.1441   165
 6.1541   195
 6.1641   204
 6.1741   197
 6.1841   239
 6.1941   304
 6.2041   372
 6.2141   447
 6.2241   584
 6.2341   846
 6.2441  1129
 6.2541  1536
 6.2641  2221
 6.2741  2990
 6.2841  4140
 6.2941  5436
 6.3041  6909
 6.3141  9043
 6.3241 10972
 6.3341 13258
 6.3441 15170
 6.3541 17691
 6.3641 19943
 6.3741 21434
 6.3841 22482
 6.3941 23186
 6.4041 23289
 6.4141 22460
 6.4241 21203
 6.4341 19546
 6.4441 17278
 6.4541 15041
 6.4641 12895
 6.4741 10425
 6.4841  8432
 6.4941  6588
 6.5041  5095
 6.5141  3835
 6.5241  2821
 6.5341  2072
 6.5441  1342
 6.5541  1107
 6.5641   639
 6.5741   549
 6.5841   419
 6.5941   290
 6.6041   259
 6.6141   195
 6.6241   176
 6.6341   190
 6.6441   168
 6.6541   179
 6.6641   177
 6.6741   173
 6.6841   154
 6.6941   188
 6.7041   145
 6.7141   173
 6.7241   184
 6.7341   175
 6.7441   201
 6.7541   195
 6.7641   180
 6.7741   192
 6.7841   204
 6.7941   191
 6.8041   230
 6.8141   193
 6.8241   211
 6.8341   234
 6.8441   264
 6.8541   269
 6.8641   280
 6.8741   323
 6.8841   353
 6.8941   418
 6.9041   523
 6.9141   625
 6.9241   740
 6.9341   881
 6.9441  1166
 6.9541  1338
 6.9641  1669
 6.9741  1974
 6.9841  2197
 6.9941  2600
 7.0041  2844
 7.0141  3294
 7.0241  3436
 7.0341  3728
 7.0441  3852
 7.0541  3910
 7.0641  3923
 7.0741  3657
 7.0841  3422
 7.0941  3237
 7.1041  2911
 7.1141  2555
 7.1241  2181
 7.1341  1846
 7.1441  1565
 7.1541  1197
 7.1641  1008
 7.1741   800
 7.1841   659
 7.1941   533
 7.2041   411
 7.2141   378
 7.2241   296
 7.2341   274
 7.2441   250
 7.2541   234
 7.2641   259
 7.2741   251
 7.2841   212
 7.2941   237
 7.3041   247
 7.3141   247
 7.3241   261
 7.3341   267
 7.3441   318
 7.3541   344
 7.3641   386
 7.3741   418
 7.3841   463
 7.3941   516
 7.4041   567
 7.4141   592
 7.4241   655
 7.4341   624
 7.4441   679
 7.4541   676
 7.4641   703
 7.4741   687
 7.4841   704
 7.4941   666
 7.5041   634
 7.5141   592
 7.5241   560
 7.5341   469
 7.5441   456
 7.5541   407
 7.5641   344
 7.5741   324
 7.5841   294
 7.5941   267
 7.6041   258
 7.6141   222
 7.6241   239
 7.6341   201
 7.6441   219
 7.6541   233
 7.6641   226
 7.6741   224
 7.6841   246
 7.6941   202
 7.7041   208
 7.7141   236
 7.7241   222
 7.7341   226
 7.7441   231
 7.7541   256
 7.7641   231
 7.7741   250
 7.7841   251
 7.7941   272
 7.8041   252
 7.8141   270
 7.8241   288
 7.8341   309
 7.8441   293
 7.8541   315
 7.8641   311
 7.8741   289
 7.8841   307
 7.8941   350
 7.9041   360
 7.9141   361
 7.9241   402
 7.9341   412
 7.9441   424
 7.9541   461
 7.9641   504
 7.9741   534
 7.9841   561
 7.9941   567
 8.0041   667
 8.0141   701
 8.0241   669
 8.0341   787
 8.0441   837
 8.0541   876
 8.0641   936
 8.0741  1049
 8.0841  1082
 8.0941  1179
 8.1041  1175
 8.1141  1298
 8.1241  1291
 8.1341  1399
 8.1441  1325
 8.1541  1380
 8.1641  1474
 8.1741  1460
 8.1841  1476
 8.1941  1488
 8.2041  1569
 8.2141  1590
 8.2241  1492
 8.2341  1597
 8.2441  1601
 8.2541  1760
 8.2641  1794
 8.2741  1849
 8.2841  1959
 8.2941  2053
 8.3041  2222
 8.3141  2318
 8.3241  2543
 8.3341  2718
 8.3441  2928
 8.3541  3100
 8.3641  3205
 8.3741  3277
 8.3841  3435
 8.3941  3368
 8.4041  3298
 8.4141  3161
 8.4241  3011
 8.4341  2796
 8.4441  2506
 8.4541  2437
 8.4641  2081
 8.4741  1873
 8.4841  1568
 8.4941  1364
 8.5041  1127
 8.5141   964
 8.5241   795
 8.5341   700
 8.5441   605
 8.5541   574
 8.5641   537
 8.5741   488
 8.5841   462
 8.5941   461
 8.6041   477
 8.6141   435
 8.6241   455
 8.6341   441
 8.6441   437
 8.6541   436
 8.6641   401
 8.6741   430
 8.6841   427
 8.6941   435
 8.7041   426
 8.7141   408
 8.7241   387
 8.7341   418
 8.7441   379
 8.7541   380
 8.7641   374
 8.7741   333
 8.7841   358
 8.7941   330
 8.8041   303
 8.8141   339
 8.8241   332
 8.8341   333
 8.8441   301
 8.8541   311
 8.8641   332
 8.8741   347
 8.8841   370
 8.8941   373
 8.9041   359
 8.9141   344
 8.9241   357
 8.9341   386
 8.9441   363
 8.9541   389
 8.9641   365
 8.9741   368
 8.9841   400
 8.9941   404
 9.0041   400
 9.0141   428
 9.0241   429
 9.0341   421
 9.0441   447
 9.0541   421
 9.0641   420
 9.0741   432
 9.0841   469
 9.0941   475
 9.1041   499
 9.1141   532
 9.1241   548
 9.1341   551
 9.1441   618
 9.1541   653
 9.1641   626
 9.1741   679
 9.1841   760
 9.1941   769
 9.2041   788
 9.2141   815
 9.2241   860
 9.2341   943
 9.2441   947
 9.2541  1035
 9.2641  1030
 9.2741  1067
 9.2841  1124
 9.2941  1152
 9.3041  1179
 9.3141  1234
 9.3241  1314
 9.3341  1360
 9.3441  1316
 9.3541  1340
 9.3641  1436
 9.3741  1396
 9.3841  1446
 9.3941  1406
 9.4041  1481
 9.4141  1469
 9.4241  1497
 9.4341  1538
 9.4441  1535
 9.4541  1543
 9.4641  1501
 9.4741  1603
 9.4841  1644
 9.4941  1752
 9.5041  1720
 9.5141  1776
 9.5241  1831
 9.5341  1904
 9.5441  1981
 9.5541  2047
 9.5641  2218
 9.5741  2293
 9.5841  2437
 9.5941  2606
 9.6041  2809
 9.6141  2945
 9.6241  3004
 9.6341  3075
 9.6441  3250
 9.6541  3254
 9.6641  3243
 9.6741  3258
 9.6841  3334
 9.6941  3184
 9.7041  3129
 9.7141  2949
 9.7241  2808
 9.7341  2559
 9.7441  2406
 9.7541  2227
 9.7641  2081
 9.7741  1841
 9.7841  1723
 9.7941  1620
 9.8041  1529
 9.8141  1427
 9.8241  1368
 9.8341  1371
 9.8441  1313
 9.8541  1320
 9.8641  1396
 9.8741  1400
 9.8841  1375
 9.8941  1405
 9.9041  1456
 9.9141  1490
 9.9241  1537
 9.9341  1495
 9.9441  1518
 9.9541  1546
 9.9641  1521
 9.9741  1503
 9.9841  1462
 9.9941  1324
10.0041  1230
10.0141  1214
10.0241  1146
10.0341  1070
10.0441   934
10.0541   807
10.0641   725
10.0741   669
10.0841   631
10.0941   528
10.1041   485
10.1141   418
10.1241   401
10.1341   372
10.1441   351
10.1541   328
10.1641   304
10.1741   280
10.1841   276
10.1941   282
10.2041   252
10.2141   245
10.2241   236
10.2341   235
10.2441   223
10.2541   230
10.2641   220
10.2741   222
10.2841   229
10.2941   217
10.3041   180
10.3141   186
10.3241   212
10.3341   192
10.3441   185
10.3541   194
10.3641   205
10.3741   196
10.3841   186
10.3941   199
10.4041   177
10.4141   177
10.4241   183
10.4341   182
10.4441   181
10.4541   197
10.4641   209
10.4741   204
10.4841   205
10.4941   206
10.5041   220
10.5141   207
10.5241   202
10.5341   213
10.5441   228
10.5541   200
10.5641   199
10.5741   209
10.5841   212
10.5941   222
10.6041   211
10.6141   227
10.6241   243
10.6341   239
10.6441   229
10.6541   258
10.6641   234
10.6741   242
10.6841   239
10.6941   235
10.7041   237
10.7141   248
10.7241   268
10.7341   256
10.7441   256
10.7541   250
10.7641   271
10.7741   268
10.7841   299
10.7941   292
10.8041   305
10.8141   316
10.8241   298
10.8341   282
10.8441   304
10.8541   334
10.8641   317
10.8741   318
10.8841   334
10.8941   318
10.9041   338
10.9141   319
10.9241   320
10.9341   322
10.9441   323
10.9541   330
10.9641   290
10.9741   329
10.9841   337
10.9941   315
11.0041   298
11.0141   307
11.0241   295
11.0341   299
11.0441   303
11.0541   273
11.0641   288
11.0741   276
11.0841   264
11.0941   275
11.1041   284
11.1141   307
11.1241   311
11.1341   279
11.1441   295
11.1541   306
11.1641   294
11.1741   340
11.1841   365
11.1941   359
11.2041   378
11.2141   396
11.2241   402
11.2341   420
11.2441   430
11.2541   453
11.2641   458
11.2741   466
11.2841   445
11.2941   460
11.3041   475
11.3141   471
11.3241   434
11.3341   438
11.3441   421
11.3541   364
11.3641   348
11.3741   346
11.3841   327
11.3941   322
11.4041   297
11.4141   282
11.4241   251
11.4341   280
11.4441   262
11.4541   238
11.4641   250
11.4741   254
11.4841   245
11.4941   229
11.5041   223
11.5141   237
11.5241   235
11.5341   223
11.5441   228
11.5541   242
11.5641   218
11.5741   225
11.5841   227
11.5941   246
11.6041   241
11.6141   268
11.6241   275
11.6341   279
11.6441   252
11.6541   253
11.6641   241
11.6741   265
11.6841   273
11.6941   243
11.7041   217
11.7141   203
11.7241   211
11.7341   207
11.7441   207
11.7541   206
11.7641   191
11.7741   180
11.7841   182
11.7941   182
11.8041   179
11.8141   180
11.8241   167
11.8341   157
11.8441   170
11.8541   183
11.8641   187
11.8741   173
11.8841   164
11.8941   171
11.9041   163
11.9141   173
11.9241   182
11.9341   174
11.9441   166
11.9541   160
11.9641   175
11.9741   181
11.9841   187
11.9941   177
12.0041   165
12.0141   185
12.0241   175
12.0341   181
12.0441   180
12.0541   191
12.0641   190
12.0741   174
12.0841   170
12.0941   169
12.1041   177
12.1141   189
12.1241   189
12.1341   181
12.1441   169
12.1541   180
12.1641   179
12.1741   176
12.1841   169
12.1941   162
12.2041   166
12.2141   167
12.2241   164
12.2341   154
12.2441   157
12.2541   159
12.2641   169
12.2741   169
12.2841   175
12.2941   177
12.3041   174
12.3141   164
12.3241   173
12.3341   175
12.3441   154
12.3541   164
12.3641   164
12.3741   168
12.3841   182
12.3941   175
12.4041   171
12.4141   158
12.4241   151
12.4341   180
12.4441   180
12.4541   172
12.4641   165
12.4741   174
12.4841   183
12.4941   171
12.5041   160
12.5141   173
12.5241   180
12.5341   168
12.5441   167
12.5541   167
12.5641   173
12.5741   177
12.5841   166
12.5941   186
12.6041   182
12.6141   193
12.6241   195
12.6341   182
12.6441   181
12.6541   194
12.6641   191
12.6741   197
12.6841   207
12.6941   208
12.7041   189
12.7141   190
12.7241   186
12.7341   196
12.7441   199
12.7541   187
12.7641   181
12.7741   181
12.7841   182
12.7941   181
12.8041   181
12.8141   189
12.8241   196
12.8341   197
12.8441   199
12.8541   200
12.8641   201
12.8741   203
12.8841   199
12.8941   195
12.9041   200
12.9141   206
12.9241   204
12.9341   203
12.9441   205
12.9541   208
12.9641   204
12.9741   196
12.9841   190
12.9941   201
13.0041   215
13.0141   213
13.0241   221
13.0341   213
13.0441   205
13.0541   212
13.0641   200
13.0741   185
13.0841   195
13.0941   201
13.1041   210
13.1141   207
13.1241   201
13.1341   199
13.1441   203
13.1541   203
13.1641   200
13.1741   205
13.1841   208
13.1941   214
13.2041   216
13.2141   220
13.2241   240
13.2341   260
13.2441   259
13.2541   270
13.2641   276
13.2741   275
13.2841   282
13.2941   302
13.3041   312
13.3141   316
13.3241   332
13.3341   331
13.3441   337
13.3541   342
13.3641   329
13.3741   323
13.3841   345
13.3941   349
13.4041   338
13.4141   322
13.4241   315
13.4341   316
13.4441   315
13.4541   322
13.4641   312
13.4741   293
13.4841   289
13.4941   281
13.5041   268
13.5141   254
13.5241   257
13.5341   258
13.5441   236
13.5541   233
13.5641   251
13.5741   248
13.5841   242
13.5941   243
13.6041   252
13.6141   253
13.6241   244
13.6341   260
13.6441   262
13.6541   247
13.6641   231
13.6741   228
13.6841   235
13.6941   231
13.7041   229
13.7141   230
13.7241   220
13.7341   226
13.7441   249
13.7541   258
13.7641   251
13.7741   241
13.7841   236
13.7941   240
13.8041   238
13.8141   229
13.8241   239
13.8341   255
13.8441   246
13.8541   238
13.8641   240
13.8741   243
13.8841   239
13.8941   252
13.9041   267
13.9141   253
13.9241   256
13.9341   272
13.9441   287
13.9541   294
13.9641   297
13.9741   298
13.9841   302
13.9941   317
14.0041   337
14.0141   358
14.0241   376
14.0341   379
14.0441   386
14.0541   405
14.0641   417
14.0741   438
14.0841   451
14.0941   458
14.1041   485
14.1141   505
14.1241   522
14.1341   497
14.1441   487
14.1541   494
14.1641   454
14.1741   463
14.1841   476
14.1941   477
14.2041   474
14.2141   447
14.2241   433
14.2341   423
14.2441   404
14.2541   390
14.2641   385
14.2741   358
14.2841   350
14.2941   345
14.3041   315
14.3141   305
14.3241   289
14.3341   293
14.3441   284
14.3541   269
14.3641   290
14.3741   274
14.3841   252
14.3941   252
14.4041   267
14.4141   269
14.4241   272
14.4341   283
14.4441   279
14.4541   272
14.4641   267
14.4741   275
14.4841   273
14.4941   274
14.5041   288
14.5141   304
14.5241   297
14.5341   277
14.5441   267
14.5541   256
14.5641   268
14.5741   290
14.5841   293
14.5941   280
14.6041   286
14.6141   296
14.6241   295
14.6341   290
14.6441   280
14.6541   278
14.6641   277
14.6741   292
14.6841   300
14.6941   294
14.7041   298
14.7141   310
14.7241   309
14.7341   289
14.7441   291
14.7541   300
14.7641   303
14.7741   317
14.7841   314
14.7941   301
14.8041   300
14.8141   303
14.8241   321
14.8341   321
14.8441   312
14.8541   335
14.8641   344
14.8741   337
14.8841   339
14.8941   342
14.9041   334
14.9141   338
14.9241   344
14.9341   335
14.9441   342
14.9541   342
14.9641   344
14.9741   345
14.9841   334
14.9941   334
15.0041   339
15.0141   342
15.0241   324
15.0341   319
15.0441   344
15.0541   355
15.0641   315
15.0741   308
15.0841   321
15.0941   336
15.1041   335
15.1141   314
15.1241   305
15.1341   331
15.1441   319
15.1541   309
15.1641   311
15.1741   307
15.1841   312
15.1941   326
15.2041   326
15.2141   317
15.2241   323
15.2341   326
15.2441   310
15.2541   302
15.2641   310
15.2741   306
15.2841   310
15.2941   305
15.3041   308
15.3141   322
15.3241   337
15.3341   339
15.3441   339
15.3541   329
15.3641   341
15.3741   334
15.3841   312
15.3941   330
15.4041   317
15.4141   346
15.4241   338
15.4341   322
15.4441   327
15.4541   329
15.4641   325
15.4741   332
15.4841   326
15.4941   336
15.5041   349
15.5141   348
15.5241   354
15.5341   351
15.5441   363
15.5541   382
15.5641   380
15.5741   352
15.5841   351
15.5941   364
15.6041   372
15.6141   375
15.6241   401
15.6341   422
15.6441   430
15.6541   431
15.6641   448
15.6741   426
15.6841   427
15.6941   447
15.7041   451
15.7141   465
15.7241   474
15.7341   478
15.7441   498
15.7541   474
15.7641   479
15.7741   506
15.7841   485
15.7941   478
15.8041   506
15.8141   513
15.8241   505
15.8341   498
15.8441   497
15.8541   466
15.8641   463
15.8741   452
15.8841   426
15.8941   438
15.9041   419
15.9141   392
15.9241   380
15.9341   394
15.9441   401
15.9541   383
15.9641   387
15.9741   381
15.9841   399
15.9941   403
16.0041   380
16.0141   369
16.0241   378
16.0341   373
16.0441   378
16.0541   381
16.0641   369
16.0741   346
16.0841   350
16.0941   370
16.1041   373
16.1141   381
16.1241   383
16.1341   381
16.1441   374
16.1541   376
16.1641   372
16.1741   397
16.1841   401
16.1941   388
16.2041   391
16.2141   392
16.2241   365
16.2341   363
16.2441   384
16.2541   377
16.2641   374
16.2741   375
16.2841   388
16.2941   374
16.3041   382
16.3141   349
16.3241   366
16.3341   401
16.3441   394
16.3541   408
16.3641   392
16.3741   389
16.3841   392
16.3941   374
16.4041   401
16.4141   409
16.4241   387
16.4341   401
16.4441   417
16.4541   393
16.4641   415
16.4741   412
16.4841   412
16.4941   420
16.5041   408
16.5141   409
16.5241   418
16.5341   438
16.5441   426
16.5541   414
16.5641   405
16.5741   429
16.5841   424
16.5941   380
16.6041   394
16.6141   423
16.6241   421
16.6341   409
16.6441   426
16.6541   428
16.6641   411
16.6741   419
16.6841   441
16.6941   453
16.7041   447
16.7141   429
16.7241   431
16.7341   436
16.7441   439
16.7541   433
16.7641   449
16.7741   413
16.7841   403
16.7941   405
16.8041   433
16.8141   460
16.8241   439
16.8341   438
16.8441   454
16.8541   450
16.8641   426
16.8741   442
16.8841   449
16.8941   445
16.9041   434
16.9141   446
16.9241   440
16.9341   421
16.9441   434
16.9541   455
16.9641   441
16.9741   452
16.9841   436
16.9941   431
17.0041   431
17.0141   456
17.0241   433
17.0341   425
17.0441   445
17.0541   455
17.0641   445
17.0741   452
17.0841   435
17.0941   433
17.1041   429
17.1141   445
17.1241   434
17.1341   422
17.1441   447
17.1541   443
17.1641   439
17.1741   465
17.1841   484
17.1941   468
17.2041   450
17.2141   465
17.2241   461
17.2341   456
17.2441   464
17.2541   451
17.2641   481
17.2741   489
17.2841   457
17.2941   436
17.3041   480
17.3141   478
17.3241   461
17.3341   457
17.3441   488
17.3541   484
17.3641   466
17.3741   497
17.3841   498
17.3941   506
17.4041   496
17.4141   500
17.4241   516
17.4341   493
17.4441   527
17.4541   506
17.4641   479
17.4741   474
17.4841   471
17.4941   472
17.5041   466
17.5141   471
17.5241   511
17.5341   519
17.5441   501
17.5541   493
17.5641   489
17.5741   477
17.5841   496
17.5941   530
17.6041   524
17.6141   502
17.6241   480
17.6341   515
17.6441   530
17.6541   475
17.6641   512
17.6741   517
17.6841   516
17.6941   520
17.7041   496
17.7141   510
17.7241   512
17.7341   513
17.7441   534
17.7541   501
17.7641   509
17.7741   517
17.7841   504
17.7941   527
17.8041   498
17.8141   441
17.8241   451
17.8341   483
17.8441   486
17.8541   509
17.8641   487
17.8741   499
17.8841   486
17.8941   478
17.9041   517
17.9141   487
17.9241   468
17.9341   474
17.9441   489
17.9541   520
17.9641   516
17.9741   535
17.9841   509
17.9941   507
18.0041   507
18.0141   510
18.0241   487
18.0341   530
18.0441   492
18.0541   464
18.0641   487
18.0741   496
18.0841   518
18.0941   502
18.1041   521
18.1141   557
18.1241   543
18.1341   496
18.1441   511
18.1541   513
18.1641   503
18.1741   515
18.1841   513
18.1941   507
18.2041   541
18.2141   520
18.2241   542
18.2341   516
18.2441   548
18.2541   508
18.2641   531
18.2741   570
18.2841   525
18.2941   513
18.3041   539
18.3141   537
18.3241   527
18.3341   519
18.3441   533
18.3541   553
18.3641   539
18.3741   500
18.3841   523
18.3941   502
18.4041   526
18.4141   520
18.4241   497
18.4341   503
18.4441   542
18.4541   545
18.4641   530
18.4741   522
18.4841   560
18.4941   537
18.5041   537
18.5141   528
18.5241   565
18.5341   570
18.5441   537
18.5541   548
18.5641   532
18.5741   527
18.5841   522
18.5941   551
18.6041   549
18.6141   523
18.6241   522
18.6341   512
18.6441   514
18.6541   521
18.6641   579
18.6741   581
18.6841   519
18.6941   572
18.7041   566
18.7141   567
18.7241   539
18.7341   561
18.7441   534
18.7541   535
18.7641   526
18.7741   527
18.7841   525
18.7941   540
18.8041   553
18.8141   558
18.8241   547
18.8341   551
18.8441   565
18.8541   558
18.8641   549
18.8741   537
18.8841   560
18.8941   550
18.9041   531
18.9141   529
18.9241   567
18.9341   534
18.9441   527
18.9541   583
18.9641   560
18.9741   554
18.9841   577
18.9941   563
19.0041   557
19.0141   565
19.0241   544
19.0341   568
19.0441   549
19.0541   548
19.0641   567
19.0741   571
19.0841   587
19.0941   578
19.1041   560
19.1141   549
19.1241   546
19.1341   598
19.1441   577
19.1541   595
19.1641   594
19.1741   560
19.1841   595
19.1941   593
19.2041   596
19.2141   596
19.2241   565
19.2341   583
19.2441   575
19.2541   569
19.2641   558
19.2741   597
19.2841   581
19.2941   564
19.3041   546
19.3141   568
19.3241   551
19.3341   576
19.3441   591
19.3541   539
19.3641   553
19.3741   591
19.3841   558
19.3941   572
19.4041   594
19.4141   586
19.4241   590
19.4341   598
19.4441   623
19.4541   584
19.4641   575
19.4741   616
19.4841   612
19.4941   568
19.5041   569
19.5141   587
19.5241   561
19.5341   552
19.5441   565
19.5541   594
19.5641   620
19.5741   569
19.5841   599
19.5941   590
19.6041   563
19.6141   574
19.6241   576
19.6341   598
19.6441   602
19.6541   608
19.6641   614
19.6741   569
19.6841   606
19.6941   608
19.7041   596
19.7141   553
19.7241   582
19.7341   586
19.7441   571
19.7541   585
19.7641   598
19.7741   584
19.7841   579
19.7941   594
19.8041   583
19.8141   564
19.8241   613
19.8341   609
19.8441   617
19.8541   565
19.8641   584
19.8741   626
19.8841   632
19.8941   612
19.9041   634
19.9141   615
19.9241   636
19.9341   621
19.9441   600
19.9541   591
19.9641   599
19.9741   635
19.9841   601
19.9941   580
20.0041   607
20.0141   617
20.0241   638
20.0341   629
20.0441   611
20.0541   581
20.0641   592
20.0741   596
20.0841   609
20.0941   600
20.1041   618
20.1141   599
20.1241   585
20.1341   572
20.1441   613
20.1541   591
20.1641   569
20.1741   608
20.1841   616
20.1941   595
20.2041   583
20.2141   568
20.2241   622
20.2341   594
20.2441   609
20.2541   617
20.2641   583
20.2741   623
20.2841   623
20.2941   592
20.3041   606
20.3141   591
20.3241   589
20.3341   604
20.3441   600
20.3541   596
20.3641   628
20.3741   596
20.3841   596
20.3941   583
20.4041   628
20.4141   616
20.4241   603
20.4341   588
20.4441   583
20.4541   611
20.4641   591
20.4741   591
20.4841   628
20.4941   609
20.5041   650
20.5141   656
20.5241   598
20.5341   613
20.5441   632
20.5541   594
20.5641   622
20.5741   593
20.5841   600
20.5941   629
20.6041   591
20.6141   630
20.6241   608
20.6341   607
20.6441   607
20.6541   609
20.6641   614
20.6741   622
20.6841   632
20.6941   613
20.7041   612
20.7141   602
20.7241   575
20.7341   618
20.7441   647
20.7541   593
20.7641   669
20.7741   637
20.7841   651
20.7941   638
20.8041   636
20.8141   647
20.8241   669
20.8341   676
20.8441   627
20.8541   647
20.8641   652
20.8741   673
20.8841   688
20.8941   721
20.9041   749
20.9141   694
20.9241   728
20.9341   709
20.9441   738
20.9541   800
20.9641   757
20.9741   762
20.9841   855
20.9941   845
21.0041   863
21.0141   828
21.0241   862
21.0341   850
21.0441   888
21.0541   930
21.0641   884
21.0741   938
21.0841   934
21.0941   872
21.1041   931
21.1141   939
21.1241   912
21.1341   979
21.1441   916
21.1541   920
21.1641   952
21.1741   991
21.1841   938
21.1941   931
21.2041   902
21.2141   852
21.2241   897
21.2341   856
21.2441   907
21.2541   840
21.2641   801
21.2741   773
21.2841   762
21.2941   808
21.3041   726
21.3141   750
21.3241   690
21.3341   661
21.3441   670
21.3541   648
21.3641   714
21.3741   703
21.3841   630
21.3941   652
21.4041   652
21.4141   657
21.4241   659
21.4341   630
21.4441   642
21.4541   668
21.4641   630
21.4741   640
21.4841   609
21.4941   592
21.5041   618
21.5141   648
21.5241   643
21.5341   621
21.5441   590
21.5541   609
21.5641   679
21.5741   637
21.5841   637
21.5941   658
21.6041   605
21.6141   627
21.6241   646
21.6341   592
21.6441   619
21.6541   657
21.6641   643
21.6741   625
21.6841   582
21.6941   629
21.7041   615
21.7141   631
21.7241   611
21.7341   607
21.7441   650
21.7541   647
21.7641   636
21.7741   657
21.7841   632
21.7941   612
21.8041   621
21.8141   613
21.8241   597
21.8341   610
21.8441   622
21.8541   585
21.8641   594
21.8741   611
21.8841   621
21.8941   612
21.9041   601
21.9141   615
21.9241   638
21.9341   643
21.9441   638
21.9541   625
21.9641   635
21.9741   605
21.9841   646
21.9941   584
22.0041   613
22.0141   610
22.0241   591
22.0341   630
22.0441   599
22.0541   641
22.0641   659
22.0741   584
22.0841   629
22.0941   657
22.1041   635
22.1141   629
22.1241   636
22.1341   619
22.1441   644
22.1541   637
22.1641   634
22.1741   635
22.1841   649
22.1941   622
22.2041   605
22.2141   595
22.2241   616
22.2341   607
22.2441   622
22.2541   606
22.2641   643
22.2741   619
22.2841   610
22.2941   618
22.3041   623
22.3141   599
22.3241   624
22.3341   601
22.3441   640
22.3541   609
22.3641   603
22.3741   635
22.3841   634
22.3941   623
22.4041   619
22.4141   623
22.4241   628
22.4341   655
22.4441   569
22.4541   603
22.4641   579
22.4741   614
22.4841   617
22.4941   641
22.5041   577
22.5141   628
22.5241   615
22.5341   634
22.5441   630
22.5541   580
22.5641   583
22.5741   609
22.5841   618
22.5941   580
22.6041   593
22.6141   648
22.6241   633
22.6341   667
22.6441   589
22.6541   618
22.6641   629
22.6741   591
22.6841   623
22.6941   655
22.7041   590
22.7141   589
22.7241   602
22.7341   670
22.7441   624
22.7541   599
22.7641   628
22.7741   627
22.7841   622
22.7941   610
22.8041   591
22.8141   612
22.8241   605
22.8341   572
22.8441   616
22.8541   642
22.8641   643
22.8741   601
22.8841   583
22.8941   605
22.9041   637
22.9141   635
22.9241   576
22.9341   567
22.9441   586
22.9541   576
22.9641   605
22.9741   624
22.9841   598
22.9941   574
23.0041   616
23.0141   593
23.0241   626
23.0341   601
23.0441   584
23.0541   598
23.0641   617
23.0741   635
23.0841   612
23.0941   639
23.1041   613
23.1141   610
23.1241   602
23.1341   642
23.1441   617
23.1541   550
23.1641   589
23.1741   602
23.1841   577
23.1941   590
23.2041   621
23.2141   585
23.2241   612
23.2341   649
23.2441   613
23.2541   567
23.2641   634
23.2741   636
23.2841   599
23.2941   586
23.3041   632
23.3141   614
23.3241   592
23.3341   650
23.3441   556
23.3541   591
23.3641   557
23.3741   591
23.3841   620
23.3941   630
23.4041   570
23.4141   568
23.4241   557
23.4341   570
23.4441   608
23.4541   596
23.4641   609
23.4741   638
23.4841   584
23.4941   620
23.5041   570
23.5141   572
23.5241   607
23.5341   566
23.5441   604
23.5541   595
23.5641   601
23.5741   569
23.5841   580
23.5941   595
23.6041   619
23.6141   578
23.6241   610
23.6341   615
23.6441   608
23.6541   626
23.6641   619
23.6741   648
23.6841   589
23.6941   607
23.7041   656
23.7141   637
23.7241   625
23.7341   618
23.7441   616
23.7541   634
23.7641   632
23.7741   650
23.7841   659
23.7941   625
23.8041   627
23.8141   603
23.8241   657
23.8341   649
23.8441   641
23.8541   634
23.8641   612
23.8741   593
23.8841   615
23.8941   598
23.9041   632
23.9141   568
23.9241   654
23.9341   632
23.9441   624
23.9541   621
23.9641   614
23.9741   597
23.9841   600
23.9941   633
24.0041   627
24.0141   588
24.0241   610
24.0341   617
24.0441   614
24.0541   562
24.0641   587
24.0741   595
24.0841   620
24.0941   600
24.1041   634
24.1141   574
24.1241   590
24.1341   595
24.1441   610
24.1541   564
24.1641   580
24.1741   594
24.1841   609
24.1941   606
24.2041   599
24.2141   575
24.2241   557
24.2341   609
24.2441   591
24.2541   575
24.2641   564
24.2741   555
24.2841   603
24.2941   592
24.3041   586
24.3141   613
24.3241   622
24.3341   573
24.3441   583
24.3541   592
24.3641   587
24.3741   602
24.3841   574
24.3941   570
24.4041   571
24.4141   537
24.4241   582
24.4341   565
24.4441   571
24.4541   577
24.4641   567
24.4741   550
24.4841   554
24.4941   579
24.5041   548
24.5141   566
24.5241   554
24.5341   580
24.5441   562
24.5541   581
24.5641   563
24.5741   543
24.5841   543
24.5941   583
24.6041   558
24.6141   542
24.6241   546
24.6341   511
24.6441   519
24.6541   567
24.6641   549
24.6741   580
24.6841   521
24.6941   556
24.7041   536
24.7141   519
24.7241   514
24.7341   517
24.7441   548
24.7541   558
24.7641   569
24.7741   553
24.7841   540
24.7941   576
24.8041   551
24.8141   561
24.8241   540
24.8341   563
24.8441   559
24.8541   537
24.8641   524
24.8741   556
24.8841   528
24.8941   541
24.9041   554
24.9141   512
24.9241   522
24.9341   543
24.9441   517
24.9541   551
24.9641   543
24.9741   514
24.9841   529
24.9941   517
25.0041   519
25.0141   587
25.0241   579
25.0341   527
25.0441   536
25.0541   554
25.0641   599
25.0741   550
25.0841   531
25.0941   524
25.1041   559
25.1141   551
25.1241   574
25.1341   560
25.1441   552
25.1541   516
25.1641   581
25.1741   555
25.1841   589
25.1941   546
25.2041   551
25.2141   535
25.2241   559
25.2341   578
25.2441   542
25.2541   564
25.2641   563
25.2741   583
25.2841   562
25.2941   549
25.3041   562
25.3141   541
25.3241   551
25.3341   557
25.3441   599
25.3541   559
25.3641   531
25.3741   532
25.3841   548
25.3941   535
25.4041   539
25.4141   563
25.4241   535
25.4341   521
25.4441   543
25.4541   547
25.4641   526
25.4741   554
25.4841   550
25.4941   505
25.5041   514
25.5141   532
25.5241   521
25.5341   537
25.5441   564
25.5541   535
25.5641   510
25.5741   511
25.5841   516
25.5941   534
25.6041   487
25.6141   529
25.6241   528
25.6341   490
25.6441   526
25.6541   534
25.6641   528
25.6741   509
25.6841   512
25.6941   513
25.7041   515
25.7141   492
25.7241   532
25.7341   511
25.7441   477
25.7541   513
25.7641   528
25.7741   485
25.7841   476
25.7941   526
25.8041   542
25.8141   504
25.8241   523
25.8341   534
25.8441   507
25.8541   509
25.8641   485
25.8741   492
25.8841   517
25.8941   519
25.9041   501
25.9141   531
25.9241   496
25.9341   512
25.9441   506
25.9541   501
25.9641   481
25.9741   483
25.9841   481
25.9941   497
26.0041   524
26.0141   507
26.0241   516
26.0341   495
26.0441   487
26.0541   510
26.0641   489
26.0741   527
26.0841   491
26.0941   482
26.1041   484
26.1141   511
26.1241   486
26.1341   531
26.1441   475
26.1541   463
26.1641   484
26.1741   490
26.1841   475
26.1941   495
26.2041   499
26.2141   493
26.2241   501
26.2341   518
26.2441   536
26.2541   471
26.2641   525
26.2741   478
26.2841   489
26.2941   486
26.3041   486
26.3141   472
26.3241   480
26.3341   489
26.3441   455
26.3541   517
26.3641   479
26.3741   506
26.3841   490
26.3941   505
26.4041   502
26.4141   493
26.4241   477
26.4341   464
26.4441   440
26.4541   450
26.4641   476
26.4741   512
26.4841   495
26.4941   480
26.5041   492
26.5141   462
26.5241   443
26.5341   475
26.5441   478
26.5541   476
26.5641   498
26.5741   464
26.5841   510
26.5941   471
26.6041   461
26.6141   462
26.6241   441
26.6341   452
26.6441   431
26.6541   451
26.6641   452
26.6741   490
26.6841   511
26.6941   444
26.7041   474
26.7141   478
26.7241   492
26.7341   448
26.7441   475
26.7541   434
26.7641   462
26.7741   481
26.7841   457
26.7941   456
26.8041   452
26.8141   495
26.8241   475
26.8341   487
26.8441   496
26.8541   471
26.8641   426
26.8741   463
26.8841   490
26.8941   465
26.9041   502
26.9141   471
26.9241   431
26.9341   419
26.9441   490
26.9541   448
26.9641   444
26.9741   481
26.9841   453
26.9941   427
27.0041   457
27.0141   447
27.0241   433
27.0341   447
27.0441   415
27.0541   416
27.0641   443
27.0741   457
27.0841   469
27.0941   484
27.1041   486
27.1141   444
27.1241   469
27.1341   476
27.1441   470
27.1541   448
27.1641   444
27.1741   407
27.1841   431
27.1941   445
27.2041   433
27.2141   424
27.2241   444
27.2341   445
27.2441   426
27.2541   437
27.2641   407
27.2741   450
27.2841   464
27.2941   436
27.3041   454
27.3141   458
27.3241   453
27.3341   448
27.3441   433
27.3541   451
27.3641   426
27.3741   446
27.3841   438
27.3941   454
27.4041   462
27.4141   446
27.4241   424
27.4341   411
27.4441   435
27.4541   411
27.4641   416
27.4741   425
27.4841   426
27.4941   436
27.5041   444
27.5141   456
27.5241   429
27.5341   443
27.5441   458
27.5541   466
27.5641   419
27.5741   423
27.5841   439
27.5941   400
27.6041   406
27.6141   405
27.6241   395
27.6341   409
27.6441   448
27.6541   434
27.6641   432
27.6741   430
27.6841   434
27.6941   428
27.7041   421
27.7141   453
27.7241   442
27.7341   459
27.7441   399
27.7541   419
27.7641   430
27.7741   436
27.7841   402
27.7941   411
27.8041   423
27.8141   416
27.8241   387
27.8341   399
27.8441   411
27.8541   397
27.8641   419
27.8741   415
27.8841   409
27.8941   430
27.9041   404
27.9141   417
27.9241   421
27.9341   398
27.9441   400
27.9541   425
27.9641   460
27.9741   429
27.9841   427
27.9941   404
28.0041   417
28.0141   421
28.0241   438
28.0341   395
28.0441   393
28.0541   397
28.0641   411
28.0741   415
28.0841   418
28.0941   432
28.1041   413
28.1141   394
28.1241   404
28.1341   399
28.1441   390
28.1541   394
28.1641   387
28.1741   389
28.1841   372
28.1941   401
28.2041   389
28.2141   389
28.2241   396
28.2341   383
28.2441   435
28.2541   443
28.2641   429
28.2741   403
28.2841   381
28.2941   387
28.3041   383
28.3141   403
28.3241   391
28.3341   431
28.3441   389
28.3541   397
28.3641   419
28.3741   398
28.3841   406
28.3941   383
28.4041   406
28.4141   399
28.4241   431
28.4341   409
28.4441   406
28.4541   397
28.4641   380
28.4741   378
28.4841   413
28.4941   362
28.5041   390
28.5141   384
28.5241   352
28.5341   432
28.5441   386
28.5541   405
28.5641   398
28.5741   405
28.5841   388
28.5941   388
28.6041   391
28.6141   352
28.6241   370
28.6341   380
28.6441   399
28.6541   427
28.6641   403
28.6741   394
28.6841   414
28.6941   372
28.7041   353
28.7141   375
28.7241   385
28.7341   397
28.7441   382
28.7541   362
28.7641   394
28.7741   378
28.7841   371
28.7941   372
28.8041   341
28.8141   395
28.8241   384
28.8341   373
28.8441   369
28.8541   371
28.8641   370
28.8741   353
28.8841   352
28.8941   347
28.9041   347
28.9141   348
28.9241   356
28.9341   348
28.9441   376
28.9541   368
28.9641   377
28.9741   358
28.9841   426
28.9941   359
29.0041   349
29.0141   383
29.0241   321
29.0341   349
29.0441   341
29.0541   347
29.0641   339
29.0741   335
29.0841   338
29.0941   350
29.1041   333
29.1141   355
29.1241   357
29.1341   384
29.1441   332
29.1541   362
29.1641   396
29.1741   387
29.1841   360
29.1941   332
29.2041   367
29.2141   342
29.2241   371
29.2341   363
29.2441   343
29.2541   365
29.2641   380
29.2741   320
29.2841   358
29.2941   365
29.3041   322
29.3141   357
29.3241   356
29.3341   343
29.3441   350
29.3541   346
29.3641   333
29.3741   328
29.3841   351
29.3941   346
29.4041   351
29.4141   344
29.4241   303
29.4341   316
29.4441   304
29.4541   328
29.4641   332
29.4741   338
29.4841   333
29.4941   373
29.5041   324
29.5141   357
29.5241   321
29.5341   341
29.5441   323
29.5541   336
29.5641   348
29.5741   328
29.5841   307
29.5941   350
29.6041   311
29.6141   341
29.6241   330
29.6341   324
29.6441   317
29.6541   318
29.6641   342
29.6741   312
29.6841   311
29.6941   347
29.7041   352
29.7141   328
29.7241   330
29.7341   325
29.7441   326
29.7541   296
29.7641   333
29.7741   328
29.7841   359
29.7941   319
29.8041   310
29.8141   276
29.8241   322
29.8341   295
29.8441   306
29.8541   335
29.8641   322
29.8741   340
29.8841   290
29.8941   329
29.9041   309
29.9141   296
29.9241   285
29.9341   299
29.9441   293
29.9541   328
29.9641   340
29.9741   328
29.9841   295
29.9941   315
30.0041   324
30.0141   295
30.0241   327
30.0341   311
30.0441   311
30.0541   312
30.0641   317
30.0741   327
30.0841   315
30.0941   327
30.1041   306
30.1141   295
30.1241   295
30.1341   310
30.1441   332
30.1541   310
30.1641   337
30.1741   311
30.1841   326
30.1941   313
30.2041   316
30.2141   299
30.2241   310
30.2341   313
30.2441   290
30.2541   286
30.2641   299
30.2741   297
30.2841   311
30.2941   279
30.3041   324
30.3141   288
30.3241   346
30.3341   295
30.3441   312
30.3541   322
30.3641   276
30.3741   308
30.3841   285
30.3941   283
30.4041   288
30.4141   300
30.4241   276
30.4341   314
30.4441   284
30.4541   300
30.4641   280
30.4741   291
30.4841   276
30.4941   311
30.5041   288
30.5141   322
30.5241   313
30.5341   289
30.5441   273
30.5541   287
30.5641   290
30.5741   293
30.5841   307
30.5941   286
30.6041   283
30.6141   257
30.6241   284
30.6341   260
30.6441   266
30.6541   276
30.6641   313
30.6741   298
30.6841   254
30.6941   303
30.7041   294
30.7141   288
30.7241   290
30.7341   299
30.7441   286
30.7541   279
30.7641   284
30.7741   271
30.7841   257
30.7941   268
30.8041   296
30.8141   324
30.8241   284
30.8341   305
30.8441   296
30.8541   303
30.8641   293
30.8741   300
30.8841   262
30.8941   295
30.9041   278
30.9141   304
30.9241   300
30.9341   285
30.9441   304
30.9541   305
30.9641   251
30.9741   267
30.9841   295
30.9941   275
31.0041   296
31.0141   254
31.0241   255
31.0341   272
31.0441   277
31.0541   278
31.0641   252
31.0741   276
31.0841   266
31.0941   270
31.1041   263
31.1141   254
31.1241   257
31.1341   260
31.1441   264
31.1541   281
31.1641   255
31.1741   269
31.1841   262
31.1941   275
31.2041   233
31.2141   242
31.2241   249
31.2341   236
31.2441   271
31.2541   264
31.2641   246
31.2741   273
31.2841   282
31.2941   260
31.3041   271
31.3141   241
31.3241   254
31.3341   260
31.3441   249
31.3541   271
31.3641   269
31.3741   248
31.3841   257
31.3941   265
31.4041   238
31.4141   248
31.4241   261
31.4341   253
31.4441   246
31.4541   249
31.4641   249
31.4741   237
31.4841   248
31.4941   239
31.5041   230
31.5141   257
31.5241   256
31.5341   261
31.5441   243
31.5541   235
31.5641   267
31.5741   247
31.5841   219
31.5941   249
31.6041   263
31.6141   241
31.6241   235
31.6341   250
31.6441   227
31.6541   230
31.6641   269
31.6741   239
31.6841   241
31.6941   259
31.7041   225
31.7141   224
31.7241   269
31.7341   236
31.7441   250
31.7541   251
31.7641   253
31.7741   250
31.7841   249
31.7941   240
31.8041   243
31.8141   253
31.8241   232
31.8341   263
31.8441   244
31.8541   246
31.8641   256
31.8741   235
31.8841   252
31.8941   231
31.9041   245
31.9141   233
31.9241   256
31.9341   238
31.9441   229
31.9541   253
31.9641   252
31.9741   238
31.9841   229
31.9941   239
32.0041   240
32.0141   230
32.0241   243
32.0341   235
32.0441   250
32.0541   238
32.0641   217
32.0741   223
32.0841   261
32.0941   251
32.1041   269
32.1141   222
32.1241   257
32.1341   249
32.1441   247
32.1541   235
32.1641   232
32.1741   262
32.1841   216
32.1941   242
32.2041   215
32.2141   228
32.2241   221
32.2341   221
32.2441   242
32.2541   238
32.2641   231
32.2741   240
32.2841   265
32.2941   219
32.3041   229
32.3141   216
32.3241   242
32.3341   233
32.3441   250
32.3541   261
32.3641   239
32.3741   236
32.3841   205
32.3941   206
32.4041   198
32.4141   210
32.4241   232
32.4341   222
32.4441   193
32.4541   211
32.4641   203
32.4741   241
32.4841   223
32.4941   230
32.5041   223
32.5141   219
32.5241   212
32.5341   216
32.5441   207
32.5541   236
32.5641   213
32.5741   224
32.5841   198
32.5941   222
32.6041   214
32.6141   216
32.6241   192
32.6341   204
32.6441   178
32.6541   200
32.6641   206
32.6741   219
32.6841   189
32.6941   211
32.7041   205
32.7141   182
32.7241   192
32.7341   191
32.7441   204
32.7541   183
32.7641   206
32.7741   205
32.7841   207
32.7941   205
32.8041   219
32.8141   188
32.8241   206
32.8341   215
32.8441   194
32.8541   170
32.8641   188
32.8741   188
32.8841   224
32.8941   201
32.9041   202
32.9141   189
32.9241   203
32.9341   207
32.9441   211
32.9541   209
32.9641   204
32.9741   189
32.9841   196
32.9941   211
33.0041   196
33.0141   187
33.0241   197
33.0341   182
33.0441   173
33.0541   197
33.0641   215
33.0741   194
33.0841   182
33.0941   189
33.1041   202
33.1141   190
33.1241   182
33.1341   200
33.1441   203
33.1541   185
33.1641   199
33.1741   201
33.1841   209
33.1941   202
33.2041   198
33.2141   199
33.2241   216
33.2341   186
33.2441   180
33.2541   197
33.2641   177
33.2741   175
33.2841   197
33.2941   191
33.3041   171
33.3141   175
33.3241   174
33.3341   208
33.3441   210
33.3541   184
33.3641   189
33.3741   162
33.3841   200
33.3941   160
33.4041   197
33.4141   184
33.4241   181
33.4341   183
33.4441   184
33.4541   185
33.4641   163
33.4741   191
33.4841   169
33.4941   187
33.5041   177
33.5141   175
33.5241   174
33.5341   184
33.5441   185
33.5541   174
33.5641   205
33.5741   177
33.5841   166
33.5941   157
33.6041   180
33.6141   160
33.6241   172
33.6341   170
33.6441   177
33.6541   192
33.6641   157
33.6741   160
33.6841   177
33.6941   166
33.7041   170
33.7141   155
33.7241   175
33.7341   168
33.7441   164
33.7541   165
33.7641   170
33.7741   170
33.7841   168
33.7941   174
33.8041   175
33.8141   154
33.8241   176
33.8341   178
33.8441   155
33.8541   174
33.8641   174
33.8741   178
33.8841   159
33.8941   162
33.9041   173
33.9141   167
33.9241   168
33.9341   169
33.9441   170
33.9541   158
33.9641   165
33.9741   183
33.9841   160
33.9941   174
34.0041   183
34.0141   180
34.0241   150
34.0341   146
34.0441   154
34.0541   158
34.0641   153
34.0741   162
34.0841   167
34.0941   159
34.1041   167
34.1141   143
34.1241   151
34.1341   153
34.1441   162
34.1541   158
34.1641   154
34.1741   157
34.1841   140
34.1941   146
34.2041   160
34.2141   162
34.2241   178
34.2341   167
34.2441   155
34.2541   165
34.2641   153
34.2741   160
34.2841   158
34.2941   156
34.3041   155
34.3141   158
34.3241   141
34.3341   153
34.3441   162
34.3541   140
34.3641   154
34.3741   174
34.3841   145
34.3941   132
34.4041   145
34.4141   157
34.4241   166
34.4341   136
34.4441   156
34.4541   154
34.4641   147
34.4741   140
34.4841   156
34.4941   134
34.5041   157
34.5141   156
34.5241   156
34.5341   151
34.5441   133
34.5541   154
34.5641   143
34.5741   141
34.5841   149
34.5941   135
34.6041   149
34.6141   157
34.6241   140
34.6341   144
34.6441   135
34.6541   141
34.6641   149
34.6741   142
34.6841   164
34.6941   163
34.7041   167
34.7141   126
34.7241   144
34.7341   132
34.7441   151
34.7541   160
34.7641   132
34.7741   148
34.7841   134
34.7941   143
34.8041   133
34.8141   137
34.8241   133
34.8341   145
34.8441   146
34.8541   135
34.8641   126
34.8741   142
34.8841   116
34.8941   132
34.9041   148
34.9141   146
34.9241   110
34.9341   133
34.9441   123
34.9541   137
34.9641   138
34.9741   155
34.9841   141
34.9941   144
35.0041   137
35.0141   120
35.0241   130
35.0341   145
35.0441   140
35.0541   134
35.0641   120
35.0741   120
35.0841   129
35.0941   122
35.1041   124
35.1141   145
35.1241   124
35.1341   119
35.1441   118
35.1541   137
35.1641   142
35.1741   114
35.1841   117
35.1941   132
35.2041   128
35.2141   127
35.2241   133
35.2341   135
35.2441   127
35.2541   120
35.2641   117
35.2741   127
35.2841   129
35.2941   115
35.3041   137
35.3141   125
35.3241   157
35.3341   134
35.3441   106
35.3541   115
35.3641   121
35.3741   116
35.3841   116
35.3941   124
35.4041   122
35.4141   128
35.4241   143
35.4341   109
35.4441   106
35.4541   133
35.4641   106
35.4741   126
35.4841   113
35.4941    99
35.5041   108
35.5141   112
35.5241   112
35.5341   129
35.5441   121
35.5541   117
35.5641   125
35.5741   122
35.5841   120
35.5941   107
35.6041   137
35.6141   123
35.6241   145
35.6341   143
35.6441   104
35.6541   124
35.6641   104
35.6741   128
35.6841   133
35.6941   118
35.7041   123
35.7141   122
35.7241   109
35.7341   121
35.7441   133
35.7541   108
35.7641   120
35.7741    96
35.7841   117
35.7941   130
35.8041   126
35.8141   115
35.8241   112
35.8341   125
35.8441   109
35.8541   107
35.8641   122
35.8741   103
35.8841   116
35.8941   112
35.9041   121
35.9141   116
35.9241   115
35.9341   109
35.9441   111
35.9541   123
35.9641    99
35.9741   113
35.9841   107
35.9941   112
36.0041   113
36.0141   111
36.0241   102
36.0341    94
36.0441   111
36.0541   105
36.0641   116
36.0741    98
36.0841   112
36.0941   103
36.1041   112
36.1141   105
36.1241   116
36.1341   119
36.1441    89
36.1541   104
36.1641   100
36.1741   120
36.1841   101
36.1941   112
36.2041   102
36.2141   102
36.2241   111
36.2341   111
36.2441   112
36.2541   125
36.2641   113
36.2741   109
36.2841   113
36.2941   104
36.3041   113
36.3141   112
36.3241   102
36.3341    96
36.3441   110
36.3541    96
36.3641   111
36.3741   109
36.3841    97
36.3941   100
36.4041    93
36.4141   101
36.4241    96
36.4341   116
36.4441    88
36.4541    86
36.4641    92
36.4741   102
36.4841   115
36.4941    95
36.5041   103
36.5141    98
36.5241    99
36.5341    88
36.5441    94
36.5541    98
36.5641    97
36.5741    84
36.5841    95
36.5941    94
36.6041    93
36.6141   103
36.6241    86
36.6341    88
36.6441    77
36.6541    84
36.6641    95
36.6741    98
36.6841    96
36.6941    92
36.7041    73
36.7141    94
36.7241    89
36.7341    84
36.7441    85
36.7541    91
36.7641    90
36.7741    77
36.7841    93
36.7941    88
36.8041    85
36.8141   101
36.8241    82
36.8341    87
36.8441    77
36.8541    89
36.8641    78
36.8741    85
36.8841    98
36.8941    67
36.9041    90
36.9141    88
36.9241    74
36.9341    76
36.9441    95
36.9541    87
36.9641   100
36.9741    93
36.9841    86
36.9941    67
37.0041    92
37.0141    76
37.0241    84
37.0341    92
37.0441   100
37.0541    84
37.0641    94
37.0741    77
37.0841    81
37.0941    91
37.1041    83
37.1141    74
37.1241    80
37.1341    96
37.1441    68
37.1541    99
37.1641    71
37.1741    85
37.1841    87
37.1941    80
37.2041    79
37.2141    93
37.2241    77
37.2341    71
37.2441    88
37.2541    68
37.2641    83
37.2741    82
37.2841    94
37.2941    68
37.3041    79
37.3141    89
37.3241    86
37.3341    71
37.3441    72
37.3541    81
37.3641    72
37.3741    79
37.3841    91
37.3941    80
37.4041    94
37.4141    89
37.4241    82
37.4341    90
37.4441    68
37.4541    76
37.4641    77
37.4741    86
37.4841    82
37.4941    83
37.5041    75
37.5141    71
37.5241    79
37.5341    70
37.5441    78
37.5541    69
37.5641    80
37.5741    59
37.5841    81
37.5941    70
37.6041    60
37.6141    78
37.6241    77
37.6341    73
37.6441    82
37.6541    76
37.6641    72
37.6741    85
37.6841    82
37.6941    63
37.7041    82
37.7141    77
37.7241    67
37.7341    72
37.7441    60
37.7541    77
37.7641    73
37.7741    67
37.7841    68
37.7941    63
37.8041    70
37.8141    54
37.8241    69
37.8341    72
37.8441    71
37.8541    58
37.8641    74
37.8741    61
37.8841    60
37.8941    78
37.9041    70
37.9141    67
37.9241    81
37.9341    68
37.9441    73
37.9541    63
37.9641    59
37.9741    62
37.9841    63
37.9941    51
38.0041    48
38.0141    65
38.0241    70
38.0341    43
38.0441    77
38.0541    67
38.0641    63
38.0741    56
38.0841    60
38.0941    76
38.1041    50
38.1141    62
38.1241    61
38.1341    83
38.1441    78
38.1541    75
38.1641    63
38.1741    68
38.1841    61
38.1941    62
38.2041    61
38.2141    69
38.2241    65
38.2341    51
38.2441    54
38.2541    63
38.2641    64
38.2741    69
38.2841    57
38.2941    64
38.3041    66
38.3141    50
38.3241    65
38.3341    59
38.3441    66
38.3541    57
38.3641    71
38.3741    50
38.3841    44
38.3941    51
38.4041    51
38.4141    71
38.4241    72
38.4341    66
38.4441    64
38.4541    50
38.4641    45
38.4741    54
38.4841    70
38.4941    49
38.5041    50
38.5141    40
38.5241    46
38.5341    54
38.5441    60
38.5541    48
38.5641    54
38.5741    51
38.5841    51
38.5941    59
38.6041    57
38.6141    61
38.6241    53
38.6341    50
38.6441    70
38.6541    53
38.6641    52
38.6741    54
38.6841    53
38.6941    56
38.7041    43
38.7141    62
38.7241    59
38.7341    51
38.7441    69
38.7541    48
38.7641    48
38.7741    62
38.7841    61
38.7941    49
38.8041    48
38.8141    58
38.8241    53
38.8341    58
38.8441    48
38.8541    54
38.8641    54
38.8741    58
38.8841    61
38.8941    53
38.9041    52
38.9141    48
38.9241    44
38.9341    43
38.9441    54
38.9541    44
38.9641    48
38.9741    52
38.9841    34
38.9941    44
39.0041    48
39.0141    49
39.0241    40
39.0341    41
39.0441    49
39.0541    61
39.0641    47
39.0741    54
39.0841    48
39.0941    47
39.1041    54
39.1141    62
39.1241    37
39.1341    48
39.1441    54
39.1541    47
39.1641    43
39.1741    57
39.1841    44
39.1941    43
39.2041    59
39.2141    53
39.2241    48
39.2341    47
39.2441    43
39.2541    50
39.2641    55
39.2741    47
39.2841    55
39.2941    46
39.3041    46
39.3141    44
39.3241    39
39.3341    39
39.3441    40
39.3541    43
39.3641    44
39.3741    42
39.3841    42
39.3941    48
39.4041    59
39.4141    39
39.4241    32
39.4341    46
39.4441    42
39.4541    42
39.4641    41
39.4741    40
39.4841    41
39.4941    37
39.5041    41
39.5141    38
39.5241    40
39.5341    36
39.5441    49
39.5541    39
39.5641    31
39.5741    39
39.5841    43
39.5941    27
39.6041    45
39.6141    47
39.6241    42
39.6341    46
39.6441    46
39.6541    47
39.6641    35
39.6741    37
39.6841    41
39.6941    42
39.7041    42
39.7141    38
39.7241    43
39.7341    38
39.7441    36
39.7541    37
39.7641    32
39.7741    34
39.7841    37
39.7941    41
39.8041    35
39.8141    37
39.8241    47
39.8341    31
39.8441    29
39.8541    40
39.8641    29
39.8741    37
39.8841    32
39.8941    34
39.9041    43
39.9141    41
39.9241    49
39.9341    39
39.9441    39
39.9541    34
39.9641    44
39.9741    28
39.9841    20
