Bruker Nano GmbH Berlin, Germany
Esprit 1.9

Date: 4/1/2021 5:04:47 PM
Real time: 20727
Life time: 19390
Pulse density: 96016


Detector type: XFlash 430
Window type: Custom type
Detector thickness: 0.45
Si dead layer:0.029

Calibration, lin.: 10
Calibration, abs.: -955.9
Mn FWHM: 137.05
Fano factor: 0.121
Channels: 4095

Energy Counts
-0.9559     0
-0.9459     0
-0.9359     0
-0.9259     0
-0.9159     0
-0.9059     0
-0.8959     0
-0.8859     0
-0.8759     0
-0.8659     0
-0.8559     0
-0.8459     0
-0.8359     0
-0.8259     0
-0.8159     0
-0.8059     0
-0.7959     0
-0.7859     0
-0.7759     0
-0.7659     0
-0.7559     0
-0.7459     0
-0.7359     0
-0.7259     0
-0.7159     0
-0.7059     0
-0.6959     0
-0.6859     0
-0.6759     0
-0.6659     0
-0.6559     0
-0.6459     0
-0.6359     0
-0.6259     0
-0.6159     0
-0.6059     0
-0.5959     0
-0.5859     0
-0.5759     0
-0.5659     0
-0.5559     0
-0.5459     0
-0.5359     0
-0.5259     0
-0.5159     0
-0.5059     0
-0.4959     0
-0.4859     0
-0.4759     0
-0.4659     0
-0.4559     0
-0.4459     0
-0.4359     0
-0.4259     0
-0.4159     0
-0.4059     0
-0.3959     0
-0.3859     0
-0.3759     0
-0.3659     0
-0.3559     0
-0.3459     0
-0.3359     0
-0.3259     0
-0.3159     0
-0.3059     0
-0.2959     0
-0.2859     0
-0.2759     0
-0.2659     0
-0.2559     0
-0.2459     0
-0.2359     0
-0.2259     0
-0.2159     0
-0.2059     0
-0.1959     0
-0.1859     0
-0.1759     0
-0.1659     0
-0.1559     0
-0.1459     0
-0.1359     1
-0.1259     1
-0.1159     4
-0.1059     8
-0.0959    49
-0.0859   219
-0.0759   756
-0.0659  2290
-0.0559  5583
-0.0459 12469
-0.0359 22810
-0.0259 36973
-0.0159 50624
-0.0059 59189
 0.0041 59594
 0.0141 51695
 0.0241 38060
 0.0341 24253
 0.0441 12968
 0.0541  6083
 0.0641  2496
 0.0741   789
 0.0841   257
 0.0941    67
 0.1041    22
 0.1141    14
 0.1241    13
 0.1341    11
 0.1441     9
 0.1541     1
 0.1641     1
 0.1741    17
 0.1841   162
 0.1941   330
 0.2041   280
 0.2141   278
 0.2241   286
 0.2341   299
 0.2441   305
 0.2541   278
 0.2641   282
 0.2741   303
 0.2841   293
 0.2941   284
 0.3041   282
 0.3141   284
 0.3241   280
 0.3341   269
 0.3441   269
 0.3541   268
 0.3641   291
 0.3741   265
 0.3841   266
 0.3941   282
 0.4041   259
 0.4141   263
 0.4241   250
 0.4341   249
 0.4441   246
 0.4541   242
 0.4641   249
 0.4741   267
 0.4841   237
 0.4941   219
 0.5041   249
 0.5141   256
 0.5241   245
 0.5341   231
 0.5441   234
 0.5541   238
 0.5641   232
 0.5741   235
 0.5841   242
 0.5941   235
 0.6041   221
 0.6141   237
 0.6241   234
 0.6341   214
 0.6441   221
 0.6541   240
 0.6641   235
 0.6741   225
 0.6841   214
 0.6941   228
 0.7041   230
 0.7141   214
 0.7241   218
 0.7341   231
 0.7441   228
 0.7541   212
 0.7641   209
 0.7741   229
 0.7841   217
 0.7941   218
 0.8041   223
 0.8141   210
 0.8241   210
 0.8341   225
 0.8441   211
 0.8541   200
 0.8641   197
 0.8741   210
 0.8841   209
 0.8941   203
 0.9041   210
 0.9141   195
 0.9241   191
 0.9341   197
 0.9441   212
 0.9541   209
 0.9641   206
 0.9741   198
 0.9841   192
 0.9941   191
 1.0041   201
 1.0141   204
 1.0241   199
 1.0341   211
 1.0441   194
 1.0541   206
 1.0641   187
 1.0741   191
 1.0841   174
 1.0941   195
 1.1041   189
 1.1141   191
 1.1241   193
 1.1341   197
 1.1441   180
 1.1541   170
 1.1641   178
 1.1741   192
 1.1841   182
 1.1941   184
 1.2041   185
 1.2141   194
 1.2241   182
 1.2341   177
 1.2441   170
 1.2541   177
 1.2641   186
 1.2741   197
 1.2841   180
 1.2941   174
 1.3041   175
 1.3141   182
 1.3241   205
 1.3341   193
 1.3441   170
 1.3541   157
 1.3641   171
 1.3741   160
 1.3841   177
 1.3941   170
 1.4041   166
 1.4141   166
 1.4241   167
 1.4341   176
 1.4441   181
 1.4541   182
 1.4641   176
 1.4741   177
 1.4841   183
 1.4941   161
 1.5041   170
 1.5141   188
 1.5241   197
 1.5341   141
 1.5441   186
 1.5541   168
 1.5641   166
 1.5741   173
 1.5841   159
 1.5941   167
 1.6041   159
 1.6141   162
 1.6241   160
 1.6341   186
 1.6441   178
 1.6541   192
 1.6641   259
 1.6741   306
 1.6841   367
 1.6941   484
 1.7041   629
 1.7141   677
 1.7241   773
 1.7341   792
 1.7441   778
 1.7541   746
 1.7641   673
 1.7741   561
 1.7841   471
 1.7941   391
 1.8041   304
 1.8141   261
 1.8241   269
 1.8341   256
 1.8441   221
 1.8541   228
 1.8641   199
 1.8741   188
 1.8841   191
 1.8941   168
 1.9041   188
 1.9141   171
 1.9241   190
 1.9341   155
 1.9441   168
 1.9541   188
 1.9641   168
 1.9741   182
 1.9841   201
 1.9941   217
 2.0041   204
 2.0141   207
 2.0241   183
 2.0341   181
 2.0441   191
 2.0541   172
 2.0641   173
 2.0741   158
 2.0841   171
 2.0941   163
 2.1041   150
 2.1141   156
 2.1241   158
 2.1341   188
 2.1441   157
 2.1541   151
 2.1641   150
 2.1741   154
 2.1841   149
 2.1941   137
 2.2041   140
 2.2141   156
 2.2241   133
 2.2341   160
 2.2441   162
 2.2541   148
 2.2641   141
 2.2741   162
 2.2841   146
 2.2941   131
 2.3041   122
 2.3141   145
 2.3241   120
 2.3341   152
 2.3441   145
 2.3541   139
 2.3641   131
 2.3741   153
 2.3841   159
 2.3941   112
 2.4041   172
 2.4141   165
 2.4241   130
 2.4341   140
 2.4441   129
 2.4541   138
 2.4641   133
 2.4741   141
 2.4841   125
 2.4941   134
 2.5041   151
 2.5141   122
 2.5241   111
 2.5341   135
 2.5441   122
 2.5541   123
 2.5641   119
 2.5741   123
 2.5841   121
 2.5941   107
 2.6041   110
 2.6141   138
 2.6241   118
 2.6341   117
 2.6441   132
 2.6541   133
 2.6641   127
 2.6741   121
 2.6841   112
 2.6941   124
 2.7041   104
 2.7141   124
 2.7241   128
 2.7341    99
 2.7441   133
 2.7541   122
 2.7641   123
 2.7741   148
 2.7841   133
 2.7941   111
 2.8041   133
 2.8141   130
 2.8241   127
 2.8341   132
 2.8441   133
 2.8541   149
 2.8641   133
 2.8741   129
 2.8841   141
 2.8941   118
 2.9041   138
 2.9141   106
 2.9241   131
 2.9341    96
 2.9441   117
 2.9541   125
 2.9641   117
 2.9741   118
 2.9841   129
 2.9941   136
 3.0041   113
 3.0141   119
 3.0241   104
 3.0341   122
 3.0441   108
 3.0541   102
 3.0641   109
 3.0741   108
 3.0841   111
 3.0941    94
 3.1041   102
 3.1141    83
 3.1241   125
 3.1341   109
 3.1441    98
 3.1541    96
 3.1641    86
 3.1741   110
 3.1841   108
 3.1941   117
 3.2041   111
 3.2141   111
 3.2241   115
 3.2341   141
 3.2441   142
 3.2541   159
 3.2641   173
 3.2741   202
 3.2841   226
 3.2941   244
 3.3041   217
 3.3141   226
 3.3241   239
 3.3341   213
 3.3441   207
 3.3541   175
 3.3641   185
 3.3741   154
 3.3841   157
 3.3941   124
 3.4041   125
 3.4141   101
 3.4241   115
 3.4341    92
 3.4441    94
 3.4541   112
 3.4641    94
 3.4741    95
 3.4841    93
 3.4941   100
 3.5041   110
 3.5141   114
 3.5241   113
 3.5341   119
 3.5441   139
 3.5541   169
 3.5641   176
 3.5741   210
 3.5841   266
 3.5941   323
 3.6041   413
 3.6141   521
 3.6241   696
 3.6341   766
 3.6441   914
 3.6541  1159
 3.6641  1264
 3.6741  1342
 3.6841  1423
 3.6941  1421
 3.7041  1437
 3.7141  1305
 3.7241  1155
 3.7341  1028
 3.7441   786
 3.7541   665
 3.7641   497
 3.7741   395
 3.7841   278
 3.7941   201
 3.8041   182
 3.8141   134
 3.8241   105
 3.8341   104
 3.8441    93
 3.8541    94
 3.8641    82
 3.8741   103
 3.8841   100
 3.8941    98
 3.9041   114
 3.9141   118
 3.9241   132
 3.9341   128
 3.9441   177
 3.9541   193
 3.9641   199
 3.9741   245
 3.9841   255
 3.9941   278
 4.0041   290
 4.0141   300
 4.0241   276
 4.0341   270
 4.0441   285
 4.0541   236
 4.0641   194
 4.0741   175
 4.0841   158
 4.0941   135
 4.1041   119
 4.1141   109
 4.1241   102
 4.1341    81
 4.1441   106
 4.1541    80
 4.1641    79
 4.1741    71
 4.1841    79
 4.1941    69
 4.2041    58
 4.2141    79
 4.2241    77
 4.2341    82
 4.2441    72
 4.2541    71
 4.2641    79
 4.2741    76
 4.2841    89
 4.2941    75
 4.3041    58
 4.3141    91
 4.3241    81
 4.3341    82
 4.3441    90
 4.3541    85
 4.3641    79
 4.3741    85
 4.3841   117
 4.3941   130
 4.4041   130
 4.4141   146
 4.4241   174
 4.4341   202
 4.4441   248
 4.4541   307
 4.4641   343
 4.4741   375
 4.4841   407
 4.4941   435
 4.5041   435
 4.5141   450
 4.5241   435
 4.5341   393
 4.5441   349
 4.5541   313
 4.5641   286
 4.5741   250
 4.5841   199
 4.5941   163
 4.6041   134
 4.6141   138
 4.6241   129
 4.6341   128
 4.6441   130
 4.6541   122
 4.6641    88
 4.6741    92
 4.6841   103
 4.6941    75
 4.7041    83
 4.7141    95
 4.7241    84
 4.7341    93
 4.7441   101
 4.7541    89
 4.7641    96
 4.7741   101
 4.7841    86
 4.7941   110
 4.8041   106
 4.8141    99
 4.8241   111
 4.8341    91
 4.8441   107
 4.8541   132
 4.8641   119
 4.8741   132
 4.8841   143
 4.8941   139
 4.9041   139
 4.9141   179
 4.9241   168
 4.9341   170
 4.9441   172
 4.9541   147
 4.9641   149
 4.9741   135
 4.9841   138
 4.9941   144
 5.0041   140
 5.0141   115
 5.0241    96
 5.0341   104
 5.0441   114
 5.0541    88
 5.0641   104
 5.0741    86
 5.0841    98
 5.0941    85
 5.1041   102
 5.1141    96
 5.1241    88
 5.1341    87
 5.1441    82
 5.1541    96
 5.1641    99
 5.1741    95
 5.1841    64
 5.1941    83
 5.2041   102
 5.2141    93
 5.2241   103
 5.2341    87
 5.2441   114
 5.2541    93
 5.2641    86
 5.2741   112
 5.2841    96
 5.2941   107
 5.3041   109
 5.3141   129
 5.3241   124
 5.3341   126
 5.3441   132
 5.3541   136
 5.3641   142
 5.3741   149
 5.3841   134
 5.3941   164
 5.4041   156
 5.4141   179
 5.4241   164
 5.4341   141
 5.4441   153
 5.4541   141
 5.4641   137
 5.4741   118
 5.4841   146
 5.4941   133
 5.5041   118
 5.5141   108
 5.5241   102
 5.5341   108
 5.5441   102
 5.5541   117
 5.5641   112
 5.5741   105
 5.5841   106
 5.5941   112
 5.6041   104
 5.6141    98
 5.6241   108
 5.6341    96
 5.6441    87
 5.6541    94
 5.6641   110
 5.6741    95
 5.6841    90
 5.6941    84
 5.7041   100
 5.7141    99
 5.7241   116
 5.7341    93
 5.7441   150
 5.7541   153
 5.7641   177
 5.7741   170
 5.7841   218
 5.7941   283
 5.8041   290
 5.8141   372
 5.8241   450
 5.8341   555
 5.8441   594
 5.8541   633
 5.8641   760
 5.8741   757
 5.8841   798
 5.8941   732
 5.9041   798
 5.9141   751
 5.9241   691
 5.9341   631
 5.9441   600
 5.9541   509
 5.9641   410
 5.9741   355
 5.9841   339
 5.9941   264
 6.0041   236
 6.0141   196
 6.0241   162
 6.0341   159
 6.0441   149
 6.0541   154
 6.0641   123
 6.0741   140
 6.0841   149
 6.0941   138
 6.1041   117
 6.1141   159
 6.1241   149
 6.1341   156
 6.1441   156
 6.1541   184
 6.1641   215
 6.1741   232
 6.1841   262
 6.1941   306
 6.2041   395
 6.2141   496
 6.2241   675
 6.2341   933
 6.2441  1323
 6.2541  1736
 6.2641  2447
 6.2741  3484
 6.2841  4614
 6.2941  6064
 6.3041  7974
 6.3141  9998
 6.3241 12261
 6.3341 14878
 6.3441 17279
 6.3541 19888
 6.3641 21949
 6.3741 23656
 6.3841 24881
 6.3941 25676
 6.4041 25229
 6.4141 24952
 6.4241 23285
 6.4341 21365
 6.4441 19114
 6.4541 16494
 6.4641 13961
 6.4741 11403
 6.4841  9219
 6.4941  7322
 6.5041  5464
 6.5141  4169
 6.5241  2966
 6.5341  2098
 6.5441  1485
 6.5541  1064
 6.5641   775
 6.5741   535
 6.5841   401
 6.5941   350
 6.6041   245
 6.6141   204
 6.6241   181
 6.6341   173
 6.6441   175
 6.6541   165
 6.6641   176
 6.6741   166
 6.6841   160
 6.6941   155
 6.7041   151
 6.7141   159
 6.7241   161
 6.7341   185
 6.7441   145
 6.7541   155
 6.7641   172
 6.7741   186
 6.7841   174
 6.7941   199
 6.8041   185
 6.8141   230
 6.8241   227
 6.8341   232
 6.8441   243
 6.8541   280
 6.8641   302
 6.8741   340
 6.8841   398
 6.8941   463
 6.9041   505
 6.9141   655
 6.9241   812
 6.9341  1047
 6.9441  1222
 6.9541  1533
 6.9641  1791
 6.9741  2045
 6.9841  2503
 6.9941  2827
 7.0041  3147
 7.0141  3542
 7.0241  3852
 7.0341  4104
 7.0441  4279
 7.0541  4118
 7.0641  4157
 7.0741  4036
 7.0841  3659
 7.0941  3518
 7.1041  3025
 7.1141  2648
 7.1241  2329
 7.1341  1907
 7.1441  1535
 7.1541  1297
 7.1641  1024
 7.1741   797
 7.1841   636
 7.1941   518
 7.2041   451
 7.2141   377
 7.2241   297
 7.2341   254
 7.2441   227
 7.2541   224
 7.2641   200
 7.2741   186
 7.2841   233
 7.2941   216
 7.3041   205
 7.3141   240
 7.3241   246
 7.3341   238
 7.3441   226
 7.3541   262
 7.3641   246
 7.3741   280
 7.3841   288
 7.3941   294
 7.4041   323
 7.4141   279
 7.4241   315
 7.4341   282
 7.4441   323
 7.4541   324
 7.4641   316
 7.4741   283
 7.4841   263
 7.4941   272
 7.5041   289
 7.5141   240
 7.5241   257
 7.5341   221
 7.5441   217
 7.5541   219
 7.5641   196
 7.5741   228
 7.5841   180
 7.5941   209
 7.6041   193
 7.6141   210
 7.6241   202
 7.6341   178
 7.6441   205
 7.6541   208
 7.6641   209
 7.6741   213
 7.6841   209
 7.6941   212
 7.7041   207
 7.7141   203
 7.7241   223
 7.7341   241
 7.7441   198
 7.7541   232
 7.7641   239
 7.7741   249
 7.7841   257
 7.7941   257
 7.8041   246
 7.8141   268
 7.8241   267
 7.8341   279
 7.8441   267
 7.8541   283
 7.8641   309
 7.8741   302
 7.8841   290
 7.8941   307
 7.9041   322
 7.9141   350
 7.9241   386
 7.9341   382
 7.9441   397
 7.9541   453
 7.9641   488
 7.9741   511
 7.9841   529
 7.9941   557
 8.0041   570
 8.0141   598
 8.0241   705
 8.0341   739
 8.0441   804
 8.0541   813
 8.0641   893
 8.0741  1027
 8.0841  1034
 8.0941  1024
 8.1041  1137
 8.1141  1166
 8.1241  1226
 8.1341  1222
 8.1441  1247
 8.1541  1253
 8.1641  1311
 8.1741  1314
 8.1841  1386
 8.1941  1434
 8.2041  1421
 8.2141  1402
 8.2241  1470
 8.2341  1563
 8.2441  1536
 8.2541  1588
 8.2641  1632
 8.2741  1787
 8.2841  1880
 8.2941  2011
 8.3041  2212
 8.3141  2369
 8.3241  2624
 8.3341  2822
 8.3441  2927
 8.3541  3187
 8.3641  3301
 8.3741  3342
 8.3841  3405
 8.3941  3312
 8.4041  3212
 8.4141  3160
 8.4241  2939
 8.4341  2750
 8.4441  2533
 8.4541  2330
 8.4641  2037
 8.4741  1707
 8.4841  1465
 8.4941  1331
 8.5041  1070
 8.5141   913
 8.5241   745
 8.5341   683
 8.5441   566
 8.5541   540
 8.5641   431
 8.5741   426
 8.5841   390
 8.5941   385
 8.6041   386
 8.6141   402
 8.6241   372
 8.6341   385
 8.6441   356
 8.6541   387
 8.6641   366
 8.6741   384
 8.6841   340
 8.6941   339
 8.7041   359
 8.7141   327
 8.7241   344
 8.7341   332
 8.7441   299
 8.7541   316
 8.7641   291
 8.7741   274
 8.7841   287
 8.7941   273
 8.8041   269
 8.8141   298
 8.8241   285
 8.8341   286
 8.8441   283
 8.8541   281
 8.8641   271
 8.8741   277
 8.8841   290
 8.8941   312
 8.9041   296
 8.9141   313
 8.9241   299
 8.9341   297
 8.9441   335
 8.9541   338
 8.9641   319
 8.9741   333
 8.9841   363
 8.9941   362
 9.0041   349
 9.0141   377
 9.0241   355
 9.0341   369
 9.0441   377
 9.0541   422
 9.0641   423
 9.0741   422
 9.0841   438
 9.0941   446
 9.1041   450
 9.1141   487
 9.1241   529
 9.1341   539
 9.1441   516
 9.1541   590
 9.1641   625
 9.1741   588
 9.1841   654
 9.1941   724
 9.2041   711
 9.2141   762
 9.2241   813
 9.2341   841
 9.2441   848
 9.2541   931
 9.2641   938
 9.2741   973
 9.2841  1050
 9.2941  1084
 9.3041  1126
 9.3141  1202
 9.3241  1142
 9.3341  1181
 9.3441  1258
 9.3541  1251
 9.3641  1291
 9.3741  1346
 9.3841  1385
 9.3941  1422
 9.4041  1383
 9.4141  1395
 9.4241  1493
 9.4341  1456
 9.4441  1449
 9.4541  1506
 9.4641  1489
 9.4741  1541
 9.4841  1503
 9.4941  1544
 9.5041  1574
 9.5141  1613
 9.5241  1670
 9.5341  1725
 9.5441  1826
 9.5541  1895
 9.5641  1994
 9.5741  2049
 9.5841  2256
 9.5941  2339
 9.6041  2509
 9.6141  2640
 9.6241  2609
 9.6341  2720
 9.6441  2800
 9.6541  2853
 9.6641  2838
 9.6741  2863
 9.6841  2798
 9.6941  2773
 9.7041  2643
 9.7141  2531
 9.7241  2375
 9.7341  2179
 9.7441  2006
 9.7541  1889
 9.7641  1649
 9.7741  1561
 9.7841  1476
 9.7941  1367
 9.8041  1247
 9.8141  1221
 9.8241  1172
 9.8341  1118
 9.8441  1106
 9.8541  1094
 9.8641  1112
 9.8741  1133
 9.8841  1135
 9.8941  1203
 9.9041  1261
 9.9141  1202
 9.9241  1270
 9.9341  1282
 9.9441  1272
 9.9541  1232
 9.9641  1254
 9.9741  1219
 9.9841  1253
 9.9941  1100
10.0041  1075
10.0141   997
10.0241   884
10.0341   857
10.0441   803
10.0541   693
10.0641   594
10.0741   540
10.0841   537
10.0941   434
10.1041   411
10.1141   396
10.1241   347
10.1341   313
10.1441   263
10.1541   291
10.1641   270
10.1741   282
10.1841   271
10.1941   219
10.2041   206
10.2141   220
10.2241   228
10.2341   215
10.2441   202
10.2541   206
10.2641   186
10.2741   185
10.2841   200
10.2941   187
10.3041   194
10.3141   193
10.3241   194
10.3341   150
10.3441   159
10.3541   169
10.3641   169
10.3741   160
10.3841   169
10.3941   184
10.4041   191
10.4141   177
10.4241   174
10.4341   174
10.4441   194
10.4541   179
10.4641   175
10.4741   189
10.4841   177
10.4941   166
10.5041   170
10.5141   194
10.5241   190
10.5341   184
10.5441   183
10.5541   180
10.5641   174
10.5741   192
10.5841   199
10.5941   199
10.6041   198
10.6141   203
10.6241   201
10.6341   211
10.6441   210
10.6541   202
10.6641   203
10.6741   211
10.6841   216
10.6941   218
10.7041   228
10.7141   231
10.7241   236
10.7341   239
10.7441   238
10.7541   263
10.7641   271
10.7741   249
10.7841   274
10.7941   264
10.8041   261
10.8141   268
10.8241   278
10.8341   288
10.8441   275
10.8541   269
10.8641   278
10.8741   299
10.8841   318
10.8941   308
10.9041   287
10.9141   330
10.9241   335
10.9341   320
10.9441   311
10.9541   304
10.9641   305
10.9741   299
10.9841   295
10.9941   272
11.0041   286
11.0141   297
11.0241   278
11.0341   267
11.0441   265
11.0541   260
11.0641   249
11.0741   273
11.0841   256
11.0941   244
11.1041   264
11.1141   258
11.1241   270
11.1341   297
11.1441   294
11.1541   289
11.1641   304
11.1741   321
11.1841   324
11.1941   340
11.2041   359
11.2141   366
11.2241   394
11.2341   417
11.2441   447
11.2541   451
11.2641   451
11.2741   432
11.2841   433
11.2941   448
11.3041   446
11.3141   434
11.3241   397
11.3341   383
11.3441   404
11.3541   366
11.3641   341
11.3741   314
11.3841   304
11.3941   279
11.4041   275
11.4141   256
11.4241   242
11.4341   242
11.4441   226
11.4541   238
11.4641   226
11.4741   207
11.4841   194
11.4941   196
11.5041   195
11.5141   207
11.5241   236
11.5341   232
11.5441   245
11.5541   238
11.5641   221
11.5741   216
11.5841   214
11.5941   222
11.6041   227
11.6141   243
11.6241   234
11.6341   224
11.6441   239
11.6541   244
11.6641   238
11.6741   231
11.6841   221
11.6941   212
11.7041   219
11.7141   212
11.7241   200
11.7341   189
11.7441   184
11.7541   167
11.7641   182
11.7741   184
11.7841   182
11.7941   172
11.8041   154
11.8141   161
11.8241   172
11.8341   161
11.8441   163
11.8541   153
11.8641   160
11.8741   167
11.8841   159
11.8941   159
11.9041   155
11.9141   154
11.9241   163
11.9341   160
11.9441   166
11.9541   164
11.9641   157
11.9741   160
11.9841   184
11.9941   179
12.0041   166
12.0141   164
12.0241   165
12.0341   144
12.0441   170
12.0541   190
12.0641   177
12.0741   191
12.0841   193
12.0941   168
12.1041   166
12.1141   173
12.1241   164
12.1341   162
12.1441   148
12.1541   155
12.1641   178
12.1741   183
12.1841   174
12.1941   173
12.2041   168
12.2141   162
12.2241   162
12.2341   150
12.2441   160
12.2541   163
12.2641   147
12.2741   144
12.2841   162
12.2941   170
12.3041   162
12.3141   161
12.3241   159
12.3341   159
12.3441   149
12.3541   151
12.3641   159
12.3741   168
12.3841   161
12.3941   169
12.4041   170
12.4141   155
12.4241   152
12.4341   150
12.4441   164
12.4541   174
12.4641   162
12.4741   151
12.4841   166
12.4941   159
12.5041   158
12.5141   167
12.5241   164
12.5341   153
12.5441   169
12.5541   187
12.5641   170
12.5741   181
12.5841   175
12.5941   185
12.6041   183
12.6141   164
12.6241   166
12.6341   172
12.6441   172
12.6541   181
12.6641   177
12.6741   166
12.6841   174
12.6941   176
12.7041   165
12.7141   181
12.7241   195
12.7341   191
12.7441   186
12.7541   181
12.7641   174
12.7741   171
12.7841   173
12.7941   176
12.8041   175
12.8141   175
12.8241   180
12.8341   189
12.8441   193
12.8541   192
12.8641   188
12.8741   184
12.8841   189
12.8941   200
12.9041   201
12.9141   187
12.9241   173
12.9341   167
12.9441   190
12.9541   197
12.9641   199
12.9741   209
12.9841   190
12.9941   172
13.0041   181
13.0141   202
13.0241   191
13.0341   177
13.0441   187
13.0541   195
13.0641   198
13.0741   187
13.0841   179
13.0941   200
13.1041   208
13.1141   207
13.1241   210
13.1341   202
13.1441   199
13.1541   200
13.1641   195
13.1741   214
13.1841   219
13.1941   220
13.2041   225
13.2141   225
13.2241   227
13.2341   241
13.2441   256
13.2541   263
13.2641   266
13.2741   264
13.2841   267
13.2941   277
13.3041   288
13.3141   299
13.3241   327
13.3341   315
13.3441   301
13.3541   309
13.3641   320
13.3741   333
13.3841   331
13.3941   340
13.4041   330
13.4141   332
13.4241   339
13.4341   314
13.4441   312
13.4541   296
13.4641   284
13.4741   283
13.4841   269
13.4941   259
13.5041   257
13.5141   267
13.5241   255
13.5341   238
13.5441   240
13.5541   251
13.5641   246
13.5741   246
13.5841   236
13.5941   217
13.6041   219
13.6141   229
13.6241   237
13.6341   249
13.6441   225
13.6541   218
13.6641   223
13.6741   217
13.6841   232
13.6941   250
13.7041   250
13.7141   242
13.7241   231
13.7341   236
13.7441   234
13.7541   230
13.7641   244
13.7741   258
13.7841   255
13.7941   249
13.8041   253
13.8141   256
13.8241   256
13.8341   267
13.8441   275
13.8541   255
13.8641   257
13.8741   278
13.8841   281
13.8941   287
13.9041   294
13.9141   286
13.9241   299
13.9341   305
13.9441   305
13.9541   319
13.9641   321
13.9741   345
13.9841   396
13.9941   407
14.0041   427
14.0141   485
14.0241   522
14.0341   567
14.0441   602
14.0541   632
14.0641   673
14.0741   715
14.0841   741
14.0941   764
14.1041   790
14.1141   789
14.1241   819
14.1341   837
14.1441   808
14.1541   805
14.1641   787
14.1741   782
14.1841   823
14.1941   785
14.2041   710
14.2141   691
14.2241   650
14.2341   587
14.2441   547
14.2541   538
14.2641   526
14.2741   490
14.2841   454
14.2941   421
14.3041   431
14.3141   404
14.3241   350
14.3341   341
14.3441   315
14.3541   291
14.3641   286
14.3741   293
14.3841   314
14.3941   302
14.4041   290
14.4141   298
14.4241   284
14.4341   273
14.4441   259
14.4541   255
14.4641   263
14.4741   280
14.4841   275
14.4941   268
14.5041   295
14.5141   293
14.5241   287
14.5341   272
14.5441   264
14.5541   298
14.5641   283
14.5741   268
14.5841   291
14.5941   280
14.6041   275
14.6141   275
14.6241   272
14.6341   289
14.6441   292
14.6541   297
14.6641   293
14.6741   281
14.6841   289
14.6941   298
14.7041   302
14.7141   302
14.7241   294
14.7341   295
14.7441   307
14.7541   308
14.7641   302
14.7741   287
14.7841   284
14.7941   308
14.8041   312
14.8141   318
14.8241   329
14.8341   317
14.8441   302
14.8541   322
14.8641   347
14.8741   354
14.8841   371
14.8941   383
14.9041   354
14.9141   336
14.9241   338
14.9341   367
14.9441   343
14.9541   344
14.9641   370
14.9741   380
14.9841   360
14.9941   345
15.0041   353
15.0141   335
15.0241   309
15.0341   322
15.0441   321
15.0541   304
15.0641   337
15.0741   329
15.0841   306
15.0941   318
15.1041   316
15.1141   316
15.1241   336
15.1341   348
15.1441   305
15.1541   301
15.1641   316
15.1741   320
15.1841   330
15.1941   323
15.2041   325
15.2141   335
15.2241   342
15.2341   342
15.2441   335
15.2541   350
15.2641   335
15.2741   312
15.2841   313
15.2941   323
15.3041   292
15.3141   307
15.3241   321
15.3341   339
15.3441   328
15.3541   310
15.3641   331
15.3741   339
15.3841   335
15.3941   346
15.4041   350
15.4141   359
15.4241   352
15.4341   338
15.4441   343
15.4541   347
15.4641   354
15.4741   351
15.4841   353
15.4941   369
15.5041   358
15.5141   354
15.5241   360
15.5341   376
15.5441   377
15.5541   414
15.5641   405
15.5741   408
15.5841   420
15.5941   433
15.6041   441
15.6141   459
15.6241   492
15.6341   502
15.6441   531
15.6541   560
15.6641   567
15.6741   599
15.6841   639
15.6941   635
15.7041   641
15.7141   655
15.7241   649
15.7341   672
15.7441   690
15.7541   663
15.7641   681
15.7741   708
15.7841   699
15.7941   714
15.8041   689
15.8141   677
15.8241   680
15.8341   650
15.8441   618
15.8541   626
15.8641   604
15.8741   572
15.8841   547
15.8941   536
15.9041   513
15.9141   485
15.9241   461
15.9341   477
15.9441   450
15.9541   433
15.9641   442
15.9741   451
15.9841   428
15.9941   412
16.0041   420
16.0141   439
16.0241   421
16.0341   387
16.0441   369
16.0541   391
16.0641   372
16.0741   351
16.0841   368
16.0941   365
16.1041   390
16.1141   395
16.1241   390
16.1341   396
16.1441   385
16.1541   397
16.1641   375
16.1741   395
16.1841   393
16.1941   393
16.2041   375
16.2141   385
16.2241   400
16.2341   414
16.2441   397
16.2541   381
16.2641   404
16.2741   396
16.2841   398
16.2941   398
16.3041   392
16.3141   402
16.3241   391
16.3341   393
16.3441   414
16.3541   436
16.3641   415
16.3741   409
16.3841   436
16.3941   442
16.4041   426
16.4141   425
16.4241   428
16.4341   400
16.4441   403
16.4541   403
16.4641   404
16.4741   438
16.4841   437
16.4941   407
16.5041   402
16.5141   414
16.5241   446
16.5341   432
16.5441   431
16.5541   415
16.5641   403
16.5741   409
16.5841   411
16.5941   426
16.6041   427
16.6141   409
16.6241   414
16.6341   406
16.6441   415
16.6541   419
16.6641   420
16.6741   416
16.6841   443
16.6941   423
16.7041   431
16.7141   435
16.7241   440
16.7341   418
16.7441   439
16.7541   447
16.7641   425
16.7741   451
16.7841   462
16.7941   431
16.8041   426
16.8141   435
16.8241   439
16.8341   453
16.8441   430
16.8541   427
16.8641   438
16.8741   431
16.8841   444
16.8941   452
16.9041   428
16.9141   402
16.9241   447
16.9341   455
16.9441   428
16.9541   437
16.9641   460
16.9741   441
16.9841   414
16.9941   434
17.0041   458
17.0141   480
17.0241   468
17.0341   474
17.0441   489
17.0541   462
17.0641   437
17.0741   443
17.0841   446
17.0941   460
17.1041   453
17.1141   467
17.1241   453
17.1341   474
17.1441   460
17.1541   433
17.1641   423
17.1741   456
17.1841   458
17.1941   475
17.2041   473
17.2141   450
17.2241   461
17.2341   483
17.2441   435
17.2541   445
17.2641   484
17.2741   478
17.2841   466
17.2941   481
17.3041   480
17.3141   475
17.3241   467
17.3341   465
17.3441   463
17.3541   458
17.3641   464
17.3741   472
17.3841   476
17.3941   504
17.4041   501
17.4141   483
17.4241   490
17.4341   504
17.4441   493
17.4541   489
17.4641   519
17.4741   510
17.4841   503
17.4941   505
17.5041   516
17.5141   527
17.5241   526
17.5341   498
17.5441   508
17.5541   511
17.5641   518
17.5741   521
17.5841   511
17.5941   541
17.6041   529
17.6141   523
17.6241   536
17.6341   516
17.6441   504
17.6541   524
17.6641   542
17.6741   531
17.6841   537
17.6941   538
17.7041   514
17.7141   530
17.7241   561
17.7341   537
17.7441   552
17.7541   537
17.7641   529
17.7741   545
17.7841   514
17.7941   501
17.8041   497
17.8141   521
17.8241   504
17.8341   494
17.8441   532
17.8541   529
17.8641   513
17.8741   504
17.8841   506
17.8941   497
17.9041   481
17.9141   523
17.9241   537
17.9341   542
17.9441   556
17.9541   523
17.9641   530
17.9741   475
17.9841   508
17.9941   522
18.0041   515
18.0141   477
18.0241   525
18.0341   562
18.0441   539
18.0541   510
18.0641   503
18.0741   507
18.0841   498
18.0941   508
18.1041   533
18.1141   529
18.1241   504
18.1341   533
18.1441   554
18.1541   527
18.1641   503
18.1741   518
18.1841   547
18.1941   535
18.2041   531
18.2141   535
18.2241   508
18.2341   526
18.2441   513
18.2541   549
18.2641   578
18.2741   535
18.2841   518
18.2941   532
18.3041   534
18.3141   542
18.3241   549
18.3341   546
18.3441   571
18.3541   551
18.3641   526
18.3741   536
18.3841   495
18.3941   511
18.4041   514
18.4141   524
18.4241   541
18.4341   528
18.4441   526
18.4541   542
18.4641   538
18.4741   539
18.4841   555
18.4941   551
18.5041   513
18.5141   539
18.5241   547
18.5341   539
18.5441   516
18.5541   547
18.5641   533
18.5741   541
18.5841   549
18.5941   545
18.6041   514
18.6141   536
18.6241   593
18.6341   567
18.6441   566
18.6541   564
18.6641   530
18.6741   527
18.6841   517
18.6941   542
18.7041   575
18.7141   543
18.7241   559
18.7341   547
18.7441   559
18.7541   582
18.7641   572
18.7741   554
18.7841   536
18.7941   533
18.8041   586
18.8141   561
18.8241   544
18.8341   529
18.8441   543
18.8541   520
18.8641   538
18.8741   560
18.8841   556
18.8941   561
18.9041   554
18.9141   530
18.9241   556
18.9341   567
18.9441   532
18.9541   559
18.9641   562
18.9741   525
18.9841   516
18.9941   528
19.0041   544
19.0141   559
19.0241   559
19.0341   568
19.0441   555
19.0541   549
19.0641   528
19.0741   533
19.0841   535
19.0941   558
19.1041   587
19.1141   569
19.1241   578
19.1341   548
19.1441   574
19.1541   565
19.1641   584
19.1741   586
19.1841   590
19.1941   573
19.2041   572
19.2141   594
19.2241   574
19.2341   537
19.2441   549
19.2541   573
19.2641   570
19.2741   564
19.2841   586
19.2941   591
19.3041   578
19.3141   577
19.3241   598
19.3341   569
19.3441   606
19.3541   561
19.3641   584
19.3741   555
19.3841   561
19.3941   575
19.4041   560
19.4141   541
19.4241   562
19.4341   616
19.4441   580
19.4541   574
19.4641   539
19.4741   569
19.4841   585
19.4941   571
19.5041   586
19.5141   568
19.5241   578
19.5341   595
19.5441   595
19.5541   595
19.5641   565
19.5741   581
19.5841   548
19.5941   576
19.6041   587
19.6141   601
19.6241   585
19.6341   629
19.6441   529
19.6541   578
19.6641   572
19.6741   554
19.6841   537
19.6941   565
19.7041   533
19.7141   582
19.7241   581
19.7341   597
19.7441   580
19.7541   603
19.7641   586
19.7741   602
19.7841   597
19.7941   597
19.8041   589
19.8141   572
19.8241   528
19.8341   573
19.8441   593
19.8541   576
19.8641   590
19.8741   601
19.8841   575
19.8941   574
19.9041   587
19.9141   577
19.9241   599
19.9341   579
19.9441   552
19.9541   576
19.9641   597
19.9741   590
19.9841   602
19.9941   593
20.0041   593
20.0141   623
20.0241   597
20.0341   595
20.0441   568
20.0541   571
20.0641   587
20.0741   556
20.0841   568
20.0941   581
20.1041   599
20.1141   595
20.1241   571
20.1341   581
20.1441   604
20.1541   602
20.1641   618
20.1741   590
20.1841   585
20.1941   546
20.2041   543
20.2141   610
20.2241   637
20.2341   614
20.2441   592
20.2541   591
20.2641   639
20.2741   642
20.2841   601
20.2941   564
20.3041   591
20.3141   631
20.3241   607
20.3341   550
20.3441   572
20.3541   578
20.3641   613
20.3741   582
20.3841   565
20.3941   606
20.4041   589
20.4141   596
20.4241   621
20.4341   597
20.4441   603
20.4541   568
20.4641   559
20.4741   587
20.4841   614
20.4941   630
20.5041   626
20.5141   620
20.5241   589
20.5341   569
20.5441   610
20.5541   588
20.5641   601
20.5741   623
20.5841   607
20.5941   573
20.6041   594
20.6141   612
20.6241   615
20.6341   579
20.6441   619
20.6541   591
20.6641   600
20.6741   602
20.6841   577
20.6941   580
20.7041   576
20.7141   597
20.7241   616
20.7341   591
20.7441   602
20.7541   574
20.7641   585
20.7741   601
20.7841   601
20.7941   616
20.8041   589
20.8141   591
20.8241   579
20.8341   604
20.8441   619
20.8541   619
20.8641   651
20.8741   679
20.8841   637
20.8941   671
20.9041   691
20.9141   723
20.9241   652
20.9341   683
20.9441   725
20.9541   706
20.9641   743
20.9741   723
20.9841   756
20.9941   770
21.0041   796
21.0141   753
21.0241   797
21.0341   804
21.0441   802
21.0541   803
21.0641   812
21.0741   836
21.0841   869
21.0941   809
21.1041   834
21.1141   869
21.1241   863
21.1341   857
21.1441   823
21.1541   836
21.1641   844
21.1741   861
21.1841   869
21.1941   853
21.2041   856
21.2141   851
21.2241   810
21.2341   845
21.2441   784
21.2541   734
21.2641   755
21.2741   762
21.2841   742
21.2941   770
21.3041   709
21.3141   665
21.3241   697
21.3341   679
21.3441   653
21.3541   642
21.3641   631
21.3741   645
21.3841   652
21.3941   653
21.4041   626
21.4141   617
21.4241   620
21.4341   632
21.4441   609
21.4541   600
21.4641   613
21.4741   628
21.4841   597
21.4941   600
21.5041   615
21.5141   618
21.5241   594
21.5341   628
21.5441   621
21.5541   576
21.5641   616
21.5741   557
21.5841   609
21.5941   651
21.6041   593
21.6141   600
21.6241   561
21.6341   608
21.6441   561
21.6541   646
21.6641   618
21.6741   566
21.6841   633
21.6941   627
21.7041   612
21.7141   588
21.7241   575
21.7341   564
21.7441   591
21.7541   562
21.7641   578
21.7741   647
21.7841   582
21.7941   530
21.8041   589
21.8141   579
21.8241   630
21.8341   590
21.8441   596
21.8541   609
21.8641   580
21.8741   634
21.8841   608
21.8941   614
21.9041   616
21.9141   624
21.9241   605
21.9341   595
21.9441   618
21.9541   591
21.9641   622
21.9741   633
21.9841   603
21.9941   588
22.0041   581
22.0141   590
22.0241   570
22.0341   569
22.0441   567
22.0541   572
22.0641   619
22.0741   610
22.0841   584
22.0941   545
22.1041   616
22.1141   628
22.1241   593
22.1341   584
22.1441   604
22.1541   570
22.1641   613
22.1741   579
22.1841   539
22.1941   596
22.2041   601
22.2141   592
22.2241   576
22.2341   571
22.2441   569
22.2541   599
22.2641   607
22.2741   616
22.2841   584
22.2941   642
22.3041   572
22.3141   619
22.3241   589
22.3341   603
22.3441   593
22.3541   578
22.3641   598
22.3741   589
22.3841   617
22.3941   597
22.4041   595
22.4141   611
22.4241   556
22.4341   560
22.4441   580
22.4541   585
22.4641   592
22.4741   575
22.4841   580
22.4941   560
22.5041   571
22.5141   578
22.5241   572
22.5341   628
22.5441   556
22.5541   546
22.5641   556
22.5741   573
22.5841   552
22.5941   595
22.6041   580
22.6141   577
22.6241   611
22.6341   584
22.6441   568
22.6541   568
22.6641   578
22.6741   572
22.6841   552
22.6941   568
22.7041   581
22.7141   593
22.7241   569
22.7341   586
22.7441   547
22.7541   528
22.7641   628
22.7741   603
22.7841   585
22.7941   578
22.8041   590
22.8141   562
22.8241   588
22.8341   535
22.8441   599
22.8541   584
22.8641   582
22.8741   552
22.8841   542
22.8941   568
22.9041   595
22.9141   536
22.9241   564
22.9341   527
22.9441   551
22.9541   545
22.9641   583
22.9741   587
22.9841   594
22.9941   547
23.0041   588
23.0141   525
23.0241   534
23.0341   564
23.0441   549
23.0541   556
23.0641   561
23.0741   518
23.0841   610
23.0941   570
23.1041   520
23.1141   546
23.1241   579
23.1341   578
23.1441   526
23.1541   592
23.1641   592
23.1741   576
23.1841   594
23.1941   547
23.2041   565
23.2141   544
23.2241   581
23.2341   506
23.2441   580
23.2541   530
23.2641   536
23.2741   512
23.2841   520
23.2941   519
23.3041   536
23.3141   563
23.3241   591
23.3341   566
23.3441   538
23.3541   609
23.3641   523
23.3741   578
23.3841   556
23.3941   575
23.4041   624
23.4141   569
23.4241   548
23.4341   504
23.4441   528
23.4541   578
23.4641   540
23.4741   590
23.4841   588
23.4941   543
23.5041   555
23.5141   523
23.5241   587
23.5341   582
23.5441   597
23.5541   536
23.5641   531
23.5741   566
23.5841   574
23.5941   573
23.6041   597
23.6141   552
23.6241   557
23.6341   523
23.6441   551
23.6541   533
23.6641   565
23.6741   574
23.6841   560
23.6941   581
23.7041   607
23.7141   527
23.7241   567
23.7341   570
23.7441   586
23.7541   609
23.7641   608
23.7741   561
23.7841   618
23.7941   591
23.8041   599
23.8141   568
23.8241   629
23.8341   577
23.8441   571
23.8541   565
23.8641   550
23.8741   557
23.8841   588
23.8941   596
23.9041   586
23.9141   550
23.9241   552
23.9341   538
23.9441   548
23.9541   579
23.9641   594
23.9741   548
23.9841   537
23.9941   517
24.0041   525
24.0141   524
24.0241   551
24.0341   543
24.0441   516
24.0541   522
24.0641   525
24.0741   531
24.0841   499
24.0941   558
24.1041   537
24.1141   520
24.1241   524
24.1341   545
24.1441   523
24.1541   502
24.1641   517
24.1741   495
24.1841   529
24.1941   534
24.2041   503
24.2141   529
24.2241   525
24.2341   536
24.2441   535
24.2541   533
24.2641   515
24.2741   527
24.2841   547
24.2941   517
24.3041   495
24.3141   500
24.3241   543
24.3341   519
24.3441   501
24.3541   508
24.3641   501
24.3741   502
24.3841   543
24.3941   538
24.4041   540
24.4141   540
24.4241   541
24.4341   534
24.4441   499
24.4541   503
24.4641   510
24.4741   533
24.4841   505
24.4941   502
24.5041   532
24.5141   521
24.5241   494
24.5341   483
24.5441   503
24.5541   518
24.5641   524
24.5741   515
24.5841   473
24.5941   516
24.6041   495
24.6141   500
24.6241   510
24.6341   530
24.6441   477
24.6541   506
24.6641   520
24.6741   524
24.6841   463
24.6941   510
24.7041   473
24.7141   515
24.7241   483
24.7341   508
24.7441   515
24.7541   511
24.7641   509
24.7741   547
24.7841   468
24.7941   515
24.8041   530
24.8141   505
24.8241   487
24.8341   502
24.8441   452
24.8541   506
24.8641   497
24.8741   504
24.8841   503
24.8941   505
24.9041   490
24.9141   534
24.9241   477
24.9341   513
24.9441   511
24.9541   525
24.9641   518
24.9741   517
24.9841   482
24.9941   502
25.0041   498
25.0141   525
25.0241   508
25.0341   521
25.0441   538
25.0541   488
25.0641   499
25.0741   520
25.0841   532
25.0941   466
25.1041   499
25.1141   506
25.1241   496
25.1341   509
25.1441   493
25.1541   476
25.1641   516
25.1741   500
25.1841   460
25.1941   479
25.2041   520
25.2141   519
25.2241   511
25.2341   517
25.2441   476
25.2541   508
25.2641   479
25.2741   507
25.2841   517
25.2941   541
25.3041   492
25.3141   478
25.3241   505
25.3341   501
25.3441   479
25.3541   479
25.3641   478
25.3741   483
25.3841   463
25.3941   456
25.4041   491
25.4141   495
25.4241   525
25.4341   484
25.4441   453
25.4541   518
25.4641   454
25.4741   483
25.4841   494
25.4941   436
25.5041   479
25.5141   492
25.5241   454
25.5341   471
25.5441   434
25.5541   456
25.5641   506
25.5741   468
25.5841   457
25.5941   486
25.6041   491
25.6141   459
25.6241   452
25.6341   453
25.6441   484
25.6541   433
25.6641   469
25.6741   474
25.6841   444
25.6941   464
25.7041   435
25.7141   492
25.7241   493
25.7341   468
25.7441   446
25.7541   435
25.7641   430
25.7741   459
25.7841   439
25.7941   431
25.8041   480
25.8141   457
25.8241   480
25.8341   416
25.8441   418
25.8541   454
25.8641   493
25.8741   430
25.8841   475
25.8941   452
25.9041   450
25.9141   460
25.9241   458
25.9341   473
25.9441   467
25.9541   443
25.9641   413
25.9741   413
25.9841   456
25.9941   457
26.0041   419
26.0141   454
26.0241   439
26.0341   470
26.0441   425
26.0541   425
26.0641   471
26.0741   450
26.0841   450
26.0941   426
26.1041   439
26.1141   438
26.1241   432
26.1341   482
26.1441   465
26.1541   452
26.1641   455
26.1741   453
26.1841   412
26.1941   471
26.2041   453
26.2141   456
26.2241   453
26.2341   417
26.2441   387
26.2541   454
26.2641   445
26.2741   452
26.2841   415
26.2941   442
26.3041   426
26.3141   439
26.3241   457
26.3341   393
26.3441   449
26.3541   489
26.3641   428
26.3741   396
26.3841   431
26.3941   438
26.4041   422
26.4141   392
26.4241   430
26.4341   427
26.4441   434
26.4541   445
26.4641   392
26.4741   462
26.4841   484
26.4941   410
26.5041   429
26.5141   453
26.5241   437
26.5341   439
26.5441   398
26.5541   427
26.5641   402
26.5741   410
26.5841   412
26.5941   429
26.6041   425
26.6141   408
26.6241   433
26.6341   463
26.6441   392
26.6541   401
26.6641   425
26.6741   451
26.6841   400
26.6941   411
26.7041   401
26.7141   391
26.7241   387
26.7341   434
26.7441   393
26.7541   387
26.7641   382
26.7741   434
26.7841   404
26.7941   424
26.8041   426
26.8141   408
26.8241   419
26.8341   399
26.8441   404
26.8541   390
26.8641   434
26.8741   418
26.8841   380
26.8941   432
26.9041   409
26.9141   380
26.9241   432
26.9341   434
26.9441   440
26.9541   393
26.9641   411
26.9741   352
26.9841   418
26.9941   395
27.0041   385
27.0141   374
27.0241   377
27.0341   434
27.0441   420
27.0541   393
27.0641   368
27.0741   401
27.0841   381
27.0941   361
27.1041   353
27.1141   405
27.1241   425
27.1341   406
27.1441   380
27.1541   400
27.1641   375
27.1741   367
27.1841   412
27.1941   409
27.2041   392
27.2141   385
27.2241   389
27.2341   398
27.2441   375
27.2541   371
27.2641   363
27.2741   395
27.2841   400
27.2941   363
27.3041   379
27.3141   361
27.3241   424
27.3341   437
27.3441   361
27.3541   403
27.3641   385
27.3741   370
27.3841   365
27.3941   384
27.4041   355
27.4141   380
27.4241   370
27.4341   402
27.4441   395
27.4541   402
27.4641   335
27.4741   367
27.4841   374
27.4941   379
27.5041   396
27.5141   372
27.5241   395
27.5341   372
27.5441   404
27.5541   381
27.5641   399
27.5741   353
27.5841   375
27.5941   393
27.6041   400
27.6141   344
27.6241   396
27.6341   390
27.6441   380
27.6541   386
27.6641   374
27.6741   361
27.6841   353
27.6941   354
27.7041   378
27.7141   379
27.7241   360
27.7341   345
27.7441   359
27.7541   350
27.7641   380
27.7741   375
27.7841   330
27.7941   367
27.8041   330
27.8141   360
27.8241   356
27.8341   343
27.8441   349
27.8541   354
27.8641   387
27.8741   349
27.8841   345
27.8941   351
27.9041   365
27.9141   367
27.9241   338
27.9341   337
27.9441   366
27.9541   347
27.9641   345
27.9741   346
27.9841   373
27.9941   345
28.0041   341
28.0141   355
28.0241   381
28.0341   370
28.0441   347
28.0541   346
28.0641   350
28.0741   293
28.0841   336
28.0941   353
28.1041   366
28.1141   341
28.1241   344
28.1341   350
28.1441   337
28.1541   352
28.1641   334
28.1741   367
28.1841   338
28.1941   332
28.2041   324
28.2141   355
28.2241   375
28.2341   347
28.2441   362
28.2541   354
28.2641   329
28.2741   315
28.2841   344
28.2941   361
28.3041   355
28.3141   378
28.3241   329
28.3341   348
28.3441   355
28.3541   357
28.3641   342
28.3741   359
28.3841   352
28.3941   386
28.4041   322
28.4141   342
28.4241   340
28.4341   334
28.4441   356
28.4541   326
28.4641   357
28.4741   375
28.4841   337
28.4941   326
28.5041   336
28.5141   327
28.5241   361
28.5341   345
28.5441   325
28.5541   371
28.5641   305
28.5741   344
28.5841   343
28.5941   299
28.6041   328
28.6141   336
28.6241   336
28.6341   319
28.6441   300
28.6541   367
28.6641   319
28.6741   321
28.6841   301
28.6941   313
28.7041   307
28.7141   320
28.7241   326
28.7341   300
28.7441   341
28.7541   310
28.7641   342
28.7741   305
28.7841   331
28.7941   314
28.8041   322
28.8141   344
28.8241   337
28.8341   299
28.8441   301
28.8541   319
28.8641   326
28.8741   288
28.8841   309
28.8941   324
28.9041   326
28.9141   314
28.9241   308
28.9341   327
28.9441   323
28.9541   332
28.9641   324
28.9741   320
28.9841   306
28.9941   314
29.0041   321
29.0141   314
29.0241   344
29.0341   279
29.0441   310
29.0541   301
29.0641   304
29.0741   319
29.0841   308
29.0941   321
29.1041   298
29.1141   277
29.1241   306
29.1341   307
29.1441   300
29.1541   288
29.1641   310
29.1741   283
29.1841   278
29.1941   302
29.2041   305
29.2141   305
29.2241   317
29.2341   327
29.2441   309
29.2541   305
29.2641   307
29.2741   302
29.2841   278
29.2941   278
29.3041   291
29.3141   300
29.3241   297
29.3341   310
29.3441   289
29.3541   309
29.3641   294
29.3741   287
29.3841   270
29.3941   279
29.4041   325
29.4141   314
29.4241   280
29.4341   316
29.4441   326
29.4541   321
29.4641   294
29.4741   272
29.4841   305
29.4941   297
29.5041   283
29.5141   282
29.5241   281
29.5341   305
29.5441   280
29.5541   290
29.5641   252
29.5741   296
29.5841   283
29.5941   292
29.6041   285
29.6141   286
29.6241   299
29.6341   286
29.6441   277
29.6541   267
29.6641   247
29.6741   279
29.6841   274
29.6941   276
29.7041   290
29.7141   283
29.7241   274
29.7341   265
29.7441   294
29.7541   237
29.7641   263
29.7741   247
29.7841   256
29.7941   287
29.8041   283
29.8141   278
29.8241   270
29.8341   278
29.8441   271
29.8541   285
29.8641   277
29.8741   278
29.8841   257
29.8941   285
29.9041   280
29.9141   271
29.9241   286
29.9341   293
29.9441   274
29.9541   274
29.9641   254
29.9741   274
29.9841   271
29.9941   262
30.0041   286
30.0141   235
30.0241   259
30.0341   282
30.0441   265
30.0541   256
30.0641   239
30.0741   307
30.0841   258
30.0941   254
30.1041   248
30.1141   253
30.1241   258
30.1341   274
30.1441   265
30.1541   251
30.1641   275
30.1741   248
30.1841   231
30.1941   225
30.2041   259
30.2141   252
30.2241   272
30.2341   235
30.2441   288
30.2541   241
30.2641   255
30.2741   226
30.2841   260
30.2941   251
30.3041   243
30.3141   243
30.3241   286
30.3341   267
30.3441   233
30.3541   245
30.3641   261
30.3741   261
30.3841   254
30.3941   269
30.4041   263
30.4141   267
30.4241   231
30.4341   276
30.4441   272
30.4541   245
30.4641   234
30.4741   247
30.4841   244
30.4941   242
30.5041   257
30.5141   232
30.5241   277
30.5341   227
30.5441   267
30.5541   231
30.5641   238
30.5741   243
30.5841   251
30.5941   248
30.6041   250
30.6141   252
30.6241   256
30.6341   247
30.6441   261
30.6541   230
30.6641   231
30.6741   239
30.6841   253
30.6941   231
30.7041   217
30.7141   252
30.7241   261
30.7341   249
30.7441   219
30.7541   244
30.7641   261
30.7741   250
30.7841   213
30.7941   249
30.8041   261
30.8141   238
30.8241   252
30.8341   234
30.8441   251
30.8541   233
30.8641   230
30.8741   262
30.8841   229
30.8941   248
30.9041   252
30.9141   231
30.9241   226
30.9341   242
30.9441   252
30.9541   234
30.9641   237
30.9741   236
30.9841   226
30.9941   223
31.0041   242
31.0141   244
31.0241   258
31.0341   245
31.0441   240
31.0541   219
31.0641   253
31.0741   226
31.0841   203
31.0941   235
31.1041   248
31.1141   235
31.1241   251
31.1341   244
31.1441   223
31.1541   252
31.1641   229
31.1741   219
31.1841   233
31.1941   209
31.2041   186
31.2141   230
31.2241   194
31.2341   194
31.2441   235
31.2541   216
31.2641   246
31.2741   241
31.2841   212
31.2941   194
31.3041   197
31.3141   232
31.3241   225
31.3341   211
31.3441   207
31.3541   215
31.3641   219
31.3741   222
31.3841   216
31.3941   226
31.4041   207
31.4141   232
31.4241   218
31.4341   203
31.4441   204
31.4541   199
31.4641   204
31.4741   215
31.4841   221
31.4941   205
31.5041   208
31.5141   203
31.5241   196
31.5341   201
31.5441   199
31.5541   217
31.5641   199
31.5741   186
31.5841   188
31.5941   217
31.6041   224
31.6141   217
31.6241   204
31.6341   211
31.6441   206
31.6541   222
31.6641   200
31.6741   207
31.6841   228
31.6941   223
31.7041   228
31.7141   204
31.7241   225
31.7341   199
31.7441   215
31.7541   205
31.7641   222
31.7741   226
31.7841   229
31.7941   205
31.8041   216
31.8141   217
31.8241   204
31.8341   211
31.8441   197
31.8541   199
31.8641   212
31.8741   195
31.8841   187
31.8941   217
31.9041   217
31.9141   199
31.9241   200
31.9341   204
31.9441   201
31.9541   206
31.9641   211
31.9741   197
31.9841   213
31.9941   207
32.0041   199
32.0141   192
32.0241   198
32.0341   205
32.0441   216
32.0541   206
32.0641   191
32.0741   213
32.0841   193
32.0941   209
32.1041   184
32.1141   200
32.1241   204
32.1341   213
32.1441   191
32.1541   192
32.1641   203
32.1741   208
32.1841   205
32.1941   208
32.2041   193
32.2141   222
32.2241   204
32.2341   207
32.2441   202
32.2541   208
32.2641   217
32.2741   171
32.2841   217
32.2941   206
32.3041   216
32.3141   180
32.3241   180
32.3341   191
32.3441   180
32.3541   220
32.3641   174
32.3741   184
32.3841   192
32.3941   218
32.4041   203
32.4141   175
32.4241   184
32.4341   187
32.4441   191
32.4541   184
32.4641   178
32.4741   190
32.4841   184
32.4941   163
32.5041   197
32.5141   172
32.5241   194
32.5341   196
32.5441   172
32.5541   173
32.5641   158
32.5741   189
32.5841   176
32.5941   166
32.6041   185
32.6141   167
32.6241   177
32.6341   147
32.6441   171
32.6541   167
32.6641   186
32.6741   155
32.6841   173
32.6941   183
32.7041   184
32.7141   172
32.7241   173
32.7341   169
32.7441   178
32.7541   181
32.7641   157
32.7741   167
32.7841   161
32.7941   164
32.8041   163
32.8141   163
32.8241   164
32.8341   187
32.8441   183
32.8541   163
32.8641   159
32.8741   142
32.8841   163
32.8941   153
32.9041   183
32.9141   175
32.9241   188
32.9341   156
32.9441   167
32.9541   140
32.9641   146
32.9741   155
32.9841   163
32.9941   155
33.0041   159
33.0141   174
33.0241   143
33.0341   156
33.0441   159
33.0541   167
33.0641   147
33.0741   170
33.0841   163
33.0941   165
33.1041   157
33.1141   154
33.1241   160
33.1341   171
33.1441   153
33.1541   145
33.1641   143
33.1741   157
33.1841   174
33.1941   154
33.2041   143
33.2141   142
33.2241   156
33.2341   138
33.2441   157
33.2541   186
33.2641   152
33.2741   143
33.2841   148
33.2941   149
33.3041   140
33.3141   163
33.3241   167
33.3341   175
33.3441   157
33.3541   154
33.3641   148
33.3741   151
33.3841   151
33.3941   144
33.4041   151
33.4141   149
33.4241   158
33.4341   150
33.4441   165
33.4541   161
33.4641   139
33.4741   145
33.4841   152
33.4941   161
33.5041   162
33.5141   165
33.5241   156
33.5341   131
33.5441   159
33.5541   144
33.5641   161
33.5741   153
33.5841   141
33.5941   150
33.6041   139
33.6141   147
33.6241   134
33.6341   152
33.6441   145
33.6541   128
33.6641   138
33.6741   150
33.6841   123
33.6941   148
33.7041   156
33.7141   134
33.7241   135
33.7341   165
33.7441   146
33.7541   141
33.7641   135
33.7741   149
33.7841   145
33.7941   146
33.8041   124
33.8141   138
33.8241   138
33.8341   163
33.8441   154
33.8541   146
33.8641   152
33.8741   126
33.8841   138
33.8941   138
33.9041   138
33.9141   134
33.9241   119
33.9341   138
33.9441   144
33.9541   142
33.9641   132
33.9741   141
33.9841   128
33.9941   142
34.0041   145
34.0141   152
34.0241   112
34.0341   134
34.0441   128
34.0541   126
34.0641   135
34.0741   141
34.0841   132
34.0941   137
34.1041   119
34.1141   127
34.1241   130
34.1341   125
34.1441   142
34.1541   140
34.1641   124
34.1741   133
34.1841   160
34.1941   123
34.2041   133
34.2141   119
34.2241   134
34.2341   118
34.2441   157
34.2541   124
34.2641   137
34.2741   127
34.2841   144
34.2941   128
34.3041   123
34.3141   130
34.3241   125
34.3341   128
34.3441   130
34.3541   115
34.3641   142
34.3741   131
34.3841   142
34.3941   131
34.4041   115
34.4141   141
34.4241   147
34.4341   114
34.4441    98
34.4541   112
34.4641   133
34.4741   125
34.4841   135
34.4941   121
34.5041   136
34.5141   111
34.5241   119
34.5341   115
34.5441   136
34.5541   117
34.5641   121
34.5741   142
34.5841   114
34.5941   101
34.6041   131
34.6141   154
34.6241   132
34.6341   129
34.6441   114
34.6541   127
34.6641   133
34.6741   114
34.6841   131
34.6941   148
34.7041   124
34.7141   118
34.7241   118
34.7341   129
34.7441   114
34.7541   142
34.7641   103
34.7741   121
34.7841   118
34.7941   125
34.8041   109
34.8141   122
34.8241   132
34.8341   113
34.8441   123
34.8541   110
34.8641    96
34.8741   104
34.8841   111
34.8941   102
34.9041   103
34.9141   121
34.9241   106
34.9341   108
34.9441   126
34.9541   127
34.9641   124
34.9741   104
34.9841   133
34.9941   129
35.0041   129
35.0141   114
35.0241   109
35.0341    94
35.0441   116
35.0541   115
35.0641   106
35.0741   104
35.0841   111
35.0941   114
35.1041   113
35.1141   112
35.1241   118
35.1341   119
35.1441   119
35.1541   110
35.1641   130
35.1741   119
35.1841   110
35.1941   114
35.2041   115
35.2141   111
35.2241   108
35.2341   114
35.2441   125
35.2541   103
35.2641   113
35.2741    94
35.2841    95
35.2941   108
35.3041   107
35.3141   113
35.3241   117
35.3341   117
35.3441   106
35.3541   107
35.3641   103
35.3741    92
35.3841   108
35.3941   107
35.4041   104
35.4141    99
35.4241   102
35.4341    96
35.4441   107
35.4541   104
35.4641    93
35.4741   112
35.4841    79
35.4941    84
35.5041   108
35.5141   120
35.5241    99
35.5341    88
35.5441    95
35.5541    88
35.5641   104
35.5741   102
35.5841    99
35.5941    96
35.6041   101
35.6141   108
35.6241    87
35.6341    84
35.6441    85
35.6541   100
35.6641    78
35.6741    92
35.6841    94
35.6941   111
35.7041    99
35.7141    85
35.7241    91
35.7341    83
35.7441   110
35.7541    94
35.7641    95
35.7741    98
35.7841    81
35.7941   110
35.8041    97
35.8141   105
35.8241    78
35.8341    98
35.8441    94
35.8541    93
35.8641   107
35.8741    90
35.8841    94
35.8941    83
35.9041    91
35.9141    90
35.9241    98
35.9341    87
35.9441    93
35.9541    88
35.9641   109
35.9741    99
35.9841    91
35.9941    88
36.0041    96
36.0141    89
36.0241    80
36.0341   107
36.0441    84
36.0541    73
36.0641    81
36.0741    93
36.0841    82
36.0941    95
36.1041    81
36.1141    81
36.1241   105
36.1341    90
36.1441    76
36.1541    81
36.1641    76
36.1741    88
36.1841    99
36.1941    96
36.2041   100
36.2141    99
36.2241    93
36.2341   105
36.2441    92
36.2541   101
36.2641    91
36.2741    90
36.2841    90
36.2941    64
36.3041    82
36.3141    79
36.3241    87
36.3341   101
36.3441    89
36.3541    83
36.3641    78
36.3741    82
36.3841    81
36.3941    79
36.4041    86
36.4141    89
36.4241    79
36.4341    79
36.4441    94
36.4541    79
36.4641    77
36.4741    78
36.4841    87
36.4941    75
36.5041    87
36.5141    85
36.5241    73
36.5341    90
36.5441    83
36.5541    97
36.5641    89
36.5741    69
36.5841    94
36.5941    83
36.6041    85
36.6141    71
36.6241    93
36.6341    76
36.6441    72
36.6541    72
36.6641    89
36.6741    81
36.6841    92
36.6941    79
36.7041    87
36.7141    94
36.7241    65
36.7341    71
36.7441    64
36.7541    62
36.7641    69
36.7741    74
36.7841    77
36.7941    83
36.8041    64
36.8141    69
36.8241    81
36.8341    85
36.8441    79
36.8541    80
36.8641    67
36.8741    70
36.8841    79
36.8941    83
36.9041    77
36.9141    60
36.9241    59
36.9341    67
36.9441    69
36.9541    86
36.9641    69
36.9741    66
36.9841    71
36.9941    76
37.0041    78
37.0141    83
37.0241    80
37.0341    72
37.0441    81
37.0541    74
37.0641    78
37.0741    64
37.0841    72
37.0941    71
37.1041    66
37.1141    74
37.1241    68
37.1341    75
37.1441    58
37.1541    65
37.1641    68
37.1741    74
37.1841    64
37.1941    80
37.2041    72
37.2141    76
37.2241    66
37.2341    87
37.2441    73
37.2541    76
37.2641    53
37.2741    52
37.2841    71
37.2941    62
37.3041    59
37.3141    82
37.3241    71
37.3341    72
37.3441    67
37.3541    69
37.3641    78
37.3741    77
37.3841    70
37.3941    67
37.4041    66
37.4141    70
37.4241    53
37.4341    54
37.4441    63
37.4541    60
37.4641    57
37.4741    82
37.4841    80
37.4941    64
37.5041    60
37.5141    76
37.5241    75
37.5341    77
37.5441    48
37.5541    63
37.5641    45
37.5741    54
37.5841    67
37.5941    56
37.6041    68
37.6141    65
37.6241    65
37.6341    46
37.6441    64
37.6541    58
37.6641    58
37.6741    69
37.6841    67
37.6941    63
37.7041    59
37.7141    55
37.7241    53
37.7341    55
37.7441    58
37.7541    62
37.7641    58
37.7741    52
37.7841    52
37.7941    61
37.8041    51
37.8141    60
37.8241    61
37.8341    48
37.8441    57
37.8541    51
37.8641    53
37.8741    63
37.8841    62
37.8941    66
37.9041    55
37.9141    57
37.9241    56
37.9341    57
37.9441    55
37.9541    55
37.9641    55
37.9741    56
37.9841    39
37.9941    51
38.0041    57
38.0141    45
38.0241    49
38.0341    55
38.0441    56
38.0541    51
38.0641    43
38.0741    58
38.0841    44
38.0941    55
38.1041    66
38.1141    44
38.1241    63
38.1341    38
38.1441    45
38.1541    48
38.1641    56
38.1741    53
38.1841    60
38.1941    59
38.2041    50
38.2141    56
38.2241    49
38.2341    51
38.2441    44
38.2541    47
38.2641    53
38.2741    43
38.2841    39
38.2941    48
38.3041    42
38.3141    49
38.3241    54
38.3341    57
38.3441    50
38.3541    46
38.3641    41
38.3741    45
38.3841    56
38.3941    42
38.4041    49
38.4141    48
38.4241    49
38.4341    43
38.4441    59
38.4541    56
38.4641    54
38.4741    52
38.4841    57
38.4941    43
38.5041    39
38.5141    52
38.5241    51
38.5341    46
38.5441    46
38.5541    38
38.5641    44
38.5741    52
38.5841    50
38.5941    50
38.6041    47
38.6141    53
38.6241    48
38.6341    54
38.6441    47
38.6541    46
38.6641    53
38.6741    49
38.6841    62
38.6941    36
38.7041    46
38.7141    33
38.7241    58
38.7341    41
38.7441    50
38.7541    42
38.7641    47
38.7741    38
38.7841    50
38.7941    42
38.8041    38
38.8141    53
38.8241    60
38.8341    37
38.8441    43
38.8541    44
38.8641    41
38.8741    42
38.8841    42
38.8941    41
38.9041    41
38.9141    35
38.9241    49
38.9341    44
38.9441    39
38.9541    44
38.9641    45
38.9741    49
38.9841    47
38.9941    35
39.0041    41
39.0141    38
39.0241    38
39.0341    32
39.0441    43
39.0541    33
39.0641    34
39.0741    35
39.0841    44
39.0941    39
39.1041    42
39.1141    31
39.1241    34
39.1341    40
39.1441    53
39.1541    33
39.1641    36
39.1741    36
39.1841    38
39.1941    41
39.2041    30
39.2141    46
39.2241    39
39.2341    32
39.2441    42
39.2541    31
39.2641    35
39.2741    40
39.2841    40
39.2941    45
39.3041    40
39.3141    40
39.3241    27
39.3341    40
39.3441    33
39.3541    32
39.3641    46
39.3741    39
39.3841    33
39.3941    39
39.4041    41
39.4141    46
39.4241    50
39.4341    41
39.4441    30
39.4541    33
39.4641    36
39.4741    35
39.4841    51
39.4941    32
39.5041    37
39.5141    28
39.5241    28
39.5341    43
39.5441    29
39.5541    33
39.5641    29
39.5741    38
39.5841    27
39.5941    38
39.6041    39
39.6141    37
39.6241    31
39.6341    29
39.6441    26
39.6541    31
39.6641    36
39.6741    23
39.6841    31
39.6941    37
39.7041    25
39.7141    31
39.7241    30
39.7341    28
39.7441    34
39.7541    40
39.7641    33
39.7741    33
39.7841    41
39.7941    29
39.8041    34
39.8141    28
39.8241    42
39.8341    31
39.8441    28
39.8541    31
39.8641    36
39.8741    31
39.8841    31
39.8941    27
39.9041    32
39.9141    35
39.9241    30
39.9341    22
39.9441    30
39.9541    33
39.9641    20
39.9741    26
39.9841    25
