Bruker Nano GmbH Berlin, Germany
Esprit 1.9

Date: 4/21/2021 1:35:53 PM
Real time: 15365
Life time: 14189
Pulse density: 115621


Detector type: XFlash 430
Window type: Custom type
Detector thickness: 0.45
Si dead layer:0.029

Calibration, lin.: 10
Calibration, abs.: -955.9
Mn FWHM: 137.05
Fano factor: 0.121
Channels: 4095

Energy Counts
-0.9559     0
-0.9459     0
-0.9359     0
-0.9259     0
-0.9159     0
-0.9059     0
-0.8959     0
-0.8859     0
-0.8759     0
-0.8659     0
-0.8559     0
-0.8459     0
-0.8359     0
-0.8259     0
-0.8159     0
-0.8059     0
-0.7959     0
-0.7859     0
-0.7759     0
-0.7659     0
-0.7559     0
-0.7459     0
-0.7359     0
-0.7259     0
-0.7159     0
-0.7059     0
-0.6959     0
-0.6859     0
-0.6759     0
-0.6659     0
-0.6559     0
-0.6459     0
-0.6359     0
-0.6259     0
-0.6159     0
-0.6059     0
-0.5959     0
-0.5859     0
-0.5759     0
-0.5659     0
-0.5559     0
-0.5459     0
-0.5359     0
-0.5259     0
-0.5159     0
-0.5059     0
-0.4959     0
-0.4859     0
-0.4759     0
-0.4659     0
-0.4559     0
-0.4459     0
-0.4359     0
-0.4259     0
-0.4159     0
-0.4059     0
-0.3959     0
-0.3859     0
-0.3759     0
-0.3659     0
-0.3559     0
-0.3459     0
-0.3359     0
-0.3259     0
-0.3159     0
-0.3059     0
-0.2959     0
-0.2859     0
-0.2759     0
-0.2659     0
-0.2559     0
-0.2459     0
-0.2359     0
-0.2259     0
-0.2159     0
-0.2059     0
-0.1959     0
-0.1859     0
-0.1759     0
-0.1659     0
-0.1559     0
-0.1459     0
-0.1359     0
-0.1259     0
-0.1159     3
-0.1059     5
-0.0959    46
-0.0859   174
-0.0759   545
-0.0659  1573
-0.0559  4155
-0.0459  8878
-0.0359 16869
-0.0259 26870
-0.0159 36865
-0.0059 43343
 0.0041 43668
 0.0141 37956
 0.0241 27916
 0.0341 17859
 0.0441  9638
 0.0541  4363
 0.0641  1790
 0.0741   652
 0.0841   173
 0.0941    54
 0.1041    14
 0.1141     9
 0.1241     8
 0.1341     7
 0.1441     2
 0.1541     0
 0.1641     0
 0.1741    18
 0.1841   144
 0.1941   240
 0.2041   224
 0.2141   237
 0.2241   252
 0.2341   235
 0.2441   224
 0.2541   240
 0.2641   230
 0.2741   224
 0.2841   245
 0.2941   209
 0.3041   212
 0.3141   208
 0.3241   211
 0.3341   213
 0.3441   186
 0.3541   180
 0.3641   196
 0.3741   223
 0.3841   221
 0.3941   181
 0.4041   183
 0.4141   198
 0.4241   207
 0.4341   190
 0.4441   179
 0.4541   177
 0.4641   191
 0.4741   195
 0.4841   205
 0.4941   193
 0.5041   193
 0.5141   203
 0.5241   196
 0.5341   180
 0.5441   166
 0.5541   172
 0.5641   182
 0.5741   171
 0.5841   177
 0.5941   193
 0.6041   185
 0.6141   189
 0.6241   191
 0.6341   193
 0.6441   203
 0.6541   182
 0.6641   168
 0.6741   174
 0.6841   169
 0.6941   169
 0.7041   174
 0.7141   163
 0.7241   181
 0.7341   185
 0.7441   181
 0.7541   189
 0.7641   171
 0.7741   161
 0.7841   159
 0.7941   163
 0.8041   166
 0.8141   162
 0.8241   164
 0.8341   174
 0.8441   162
 0.8541   152
 0.8641   150
 0.8741   146
 0.8841   157
 0.8941   163
 0.9041   176
 0.9141   168
 0.9241   157
 0.9341   154
 0.9441   160
 0.9541   161
 0.9641   136
 0.9741   146
 0.9841   158
 0.9941   144
 1.0041   160
 1.0141   159
 1.0241   149
 1.0341   128
 1.0441   160
 1.0541   132
 1.0641   150
 1.0741   146
 1.0841   140
 1.0941   159
 1.1041   145
 1.1141   138
 1.1241   157
 1.1341   150
 1.1441   142
 1.1541   135
 1.1641   154
 1.1741   148
 1.1841   146
 1.1941   143
 1.2041   170
 1.2141   145
 1.2241   132
 1.2341   156
 1.2441   154
 1.2541   140
 1.2641   141
 1.2741   149
 1.2841   158
 1.2941   129
 1.3041   122
 1.3141   134
 1.3241   140
 1.3341   148
 1.3441   140
 1.3541   141
 1.3641   125
 1.3741   140
 1.3841   133
 1.3941   138
 1.4041   141
 1.4141   150
 1.4241   153
 1.4341   145
 1.4441   126
 1.4541   127
 1.4641   118
 1.4741   134
 1.4841   152
 1.4941   151
 1.5041   122
 1.5141   123
 1.5241   146
 1.5341   140
 1.5441   124
 1.5541   100
 1.5641   129
 1.5741   133
 1.5841   122
 1.5941   143
 1.6041   136
 1.6141   120
 1.6241   145
 1.6341   141
 1.6441   154
 1.6541   132
 1.6641   189
 1.6741   251
 1.6841   316
 1.6941   359
 1.7041   457
 1.7141   547
 1.7241   599
 1.7341   621
 1.7441   577
 1.7541   556
 1.7641   511
 1.7741   451
 1.7841   351
 1.7941   290
 1.8041   252
 1.8141   217
 1.8241   213
 1.8341   169
 1.8441   167
 1.8541   171
 1.8641   168
 1.8741   139
 1.8841   164
 1.8941   150
 1.9041   138
 1.9141   126
 1.9241   124
 1.9341   128
 1.9441   147
 1.9541   142
 1.9641   153
 1.9741   160
 1.9841   150
 1.9941   170
 2.0041   146
 2.0141   153
 2.0241   186
 2.0341   138
 2.0441   144
 2.0541   131
 2.0641   136
 2.0741   116
 2.0841   117
 2.0941   122
 2.1041   141
 2.1141   120
 2.1241   120
 2.1341   116
 2.1441   123
 2.1541   125
 2.1641   115
 2.1741   115
 2.1841   145
 2.1941   129
 2.2041   130
 2.2141   105
 2.2241   107
 2.2341   123
 2.2441   123
 2.2541   128
 2.2641   106
 2.2741   125
 2.2841   111
 2.2941   109
 2.3041   113
 2.3141   120
 2.3241   114
 2.3341   115
 2.3441   109
 2.3541   107
 2.3641   127
 2.3741   101
 2.3841    88
 2.3941   111
 2.4041   128
 2.4141   111
 2.4241   102
 2.4341   100
 2.4441   125
 2.4541   116
 2.4641   111
 2.4741   109
 2.4841   107
 2.4941   105
 2.5041   109
 2.5141   125
 2.5241   115
 2.5341   107
 2.5441   117
 2.5541   103
 2.5641    89
 2.5741   106
 2.5841    93
 2.5941   112
 2.6041    95
 2.6141   102
 2.6241   134
 2.6341   102
 2.6441   102
 2.6541   102
 2.6641    91
 2.6741    91
 2.6841    98
 2.6941   105
 2.7041    90
 2.7141   115
 2.7241    98
 2.7341    95
 2.7441    78
 2.7541   101
 2.7641   109
 2.7741   117
 2.7841   133
 2.7941   100
 2.8041   120
 2.8141   113
 2.8241   112
 2.8341   115
 2.8441   101
 2.8541   113
 2.8641   116
 2.8741   100
 2.8841   100
 2.8941    95
 2.9041    95
 2.9141    99
 2.9241    87
 2.9341    95
 2.9441   106
 2.9541    96
 2.9641   103
 2.9741    96
 2.9841    87
 2.9941   107
 3.0041    85
 3.0141   100
 3.0241   104
 3.0341   100
 3.0441   101
 3.0541    97
 3.0641    82
 3.0741   101
 3.0841    95
 3.0941   105
 3.1041    80
 3.1141    84
 3.1241    88
 3.1341    93
 3.1441    95
 3.1541    90
 3.1641    87
 3.1741    91
 3.1841   109
 3.1941    99
 3.2041    79
 3.2141   108
 3.2241   133
 3.2341   148
 3.2441   156
 3.2541   177
 3.2641   185
 3.2741   247
 3.2841   231
 3.2941   251
 3.3041   256
 3.3141   251
 3.3241   255
 3.3341   274
 3.3441   242
 3.3541   226
 3.3641   171
 3.3741   153
 3.3841   142
 3.3941   110
 3.4041   105
 3.4141    80
 3.4241    91
 3.4341    93
 3.4441    91
 3.4541    83
 3.4641    81
 3.4741    80
 3.4841    69
 3.4941    82
 3.5041    90
 3.5141    88
 3.5241   101
 3.5341   103
 3.5441   127
 3.5541   125
 3.5641   173
 3.5741   176
 3.5841   207
 3.5941   246
 3.6041   325
 3.6141   399
 3.6241   456
 3.6341   595
 3.6441   693
 3.6541   843
 3.6641   913
 3.6741   994
 3.6841  1058
 3.6941  1038
 3.7041  1031
 3.7141   917
 3.7241   811
 3.7341   703
 3.7441   578
 3.7541   459
 3.7641   332
 3.7741   251
 3.7841   206
 3.7941   140
 3.8041   126
 3.8141   103
 3.8241    85
 3.8341    81
 3.8441    74
 3.8541    74
 3.8641    78
 3.8741    83
 3.8841    84
 3.8941    85
 3.9041    86
 3.9141   101
 3.9241    94
 3.9341    92
 3.9441   132
 3.9541   166
 3.9641   177
 3.9741   186
 3.9841   178
 3.9941   187
 4.0041   202
 4.0141   211
 4.0241   202
 4.0341   171
 4.0441   167
 4.0541   150
 4.0641   129
 4.0741   122
 4.0841   112
 4.0941   112
 4.1041    90
 4.1141    86
 4.1241    72
 4.1341    77
 4.1441    67
 4.1541    76
 4.1641    66
 4.1741    78
 4.1841    68
 4.1941    60
 4.2041    60
 4.2141    59
 4.2241    80
 4.2341    68
 4.2441    57
 4.2541    68
 4.2641    63
 4.2741    51
 4.2841    62
 4.2941    62
 4.3041    52
 4.3141    64
 4.3241    62
 4.3341    63
 4.3441    85
 4.3541    79
 4.3641    86
 4.3741    97
 4.3841   118
 4.3941   142
 4.4041   169
 4.4141   224
 4.4241   306
 4.4341   343
 4.4441   456
 4.4541   534
 4.4641   624
 4.4741   708
 4.4841   793
 4.4941   810
 4.5041   858
 4.5141   880
 4.5241   801
 4.5341   856
 4.5441   721
 4.5541   644
 4.5641   530
 4.5741   407
 4.5841   357
 4.5941   267
 4.6041   274
 4.6141   171
 4.6241   167
 4.6341   125
 4.6441   103
 4.6541   110
 4.6641    84
 4.6741    74
 4.6841    95
 4.6941    78
 4.7041    86
 4.7141    87
 4.7241    86
 4.7341    91
 4.7441    64
 4.7541    84
 4.7641    68
 4.7741   102
 4.7841   102
 4.7941   111
 4.8041    99
 4.8141   117
 4.8241   120
 4.8341   130
 4.8441   146
 4.8541   162
 4.8641   167
 4.8741   189
 4.8841   187
 4.8941   215
 4.9041   236
 4.9141   267
 4.9241   251
 4.9341   257
 4.9441   255
 4.9541   234
 4.9641   201
 4.9741   175
 4.9841   173
 4.9941   171
 5.0041   164
 5.0141   136
 5.0241   112
 5.0341   110
 5.0441   111
 5.0541    98
 5.0641    96
 5.0741    91
 5.0841    85
 5.0941    75
 5.1041    72
 5.1141    71
 5.1241    61
 5.1341    85
 5.1441    82
 5.1541    64
 5.1641    86
 5.1741    84
 5.1841    92
 5.1941    81
 5.2041    72
 5.2141    96
 5.2241    80
 5.2341    79
 5.2441    92
 5.2541    85
 5.2641    89
 5.2741    81
 5.2841    81
 5.2941   108
 5.3041   119
 5.3141   105
 5.3241   161
 5.3341   145
 5.3441   192
 5.3541   190
 5.3641   236
 5.3741   229
 5.3841   259
 5.3941   284
 5.4041   255
 5.4141   292
 5.4241   293
 5.4341   287
 5.4441   275
 5.4541   253
 5.4641   244
 5.4741   192
 5.4841   181
 5.4941   148
 5.5041   155
 5.5141   136
 5.5241   133
 5.5341   101
 5.5441    96
 5.5541    86
 5.5641    83
 5.5741    90
 5.5841    82
 5.5941    80
 5.6041    85
 5.6141    86
 5.6241    66
 5.6341    86
 5.6441    77
 5.6541    65
 5.6641    85
 5.6741    91
 5.6841    88
 5.6941   101
 5.7041    76
 5.7141    87
 5.7241    92
 5.7341   119
 5.7441   124
 5.7541   144
 5.7641   189
 5.7741   230
 5.7841   259
 5.7941   337
 5.8041   405
 5.8141   488
 5.8241   637
 5.8341   698
 5.8441   870
 5.8541   942
 5.8641   993
 5.8741  1080
 5.8841  1112
 5.8941  1197
 5.9041  1117
 5.9141  1104
 5.9241  1042
 5.9341   949
 5.9441   817
 5.9541   733
 5.9641   628
 5.9741   487
 5.9841   428
 5.9941   338
 6.0041   281
 6.0141   237
 6.0241   197
 6.0341   168
 6.0441   166
 6.0541   158
 6.0641   126
 6.0741   139
 6.0841   146
 6.0941   153
 6.1041   136
 6.1141   141
 6.1241   165
 6.1341   173
 6.1441   178
 6.1541   205
 6.1641   212
 6.1741   251
 6.1841   276
 6.1941   333
 6.2041   422
 6.2141   591
 6.2241   810
 6.2341  1028
 6.2441  1539
 6.2541  2127
 6.2641  2978
 6.2741  4207
 6.2841  5675
 6.2941  7611
 6.3041  9726
 6.3141 12197
 6.3241 15312
 6.3341 18285
 6.3441 21608
 6.3541 24653
 6.3641 27226
 6.3741 29956
 6.3841 31466
 6.3941 32051
 6.4041 32031
 6.4141 31290
 6.4241 29821
 6.4341 27318
 6.4441 24616
 6.4541 21101
 6.4641 17991
 6.4741 14654
 6.4841 12013
 6.4941  9312
 6.5041  7109
 6.5141  5415
 6.5241  3869
 6.5341  2777
 6.5441  1986
 6.5541  1349
 6.5641   984
 6.5741   648
 6.5841   478
 6.5941   339
 6.6041   314
 6.6141   223
 6.6241   223
 6.6341   184
 6.6441   173
 6.6541   152
 6.6641   149
 6.6741   154
 6.6841   161
 6.6941   184
 6.7041   154
 6.7141   156
 6.7241   161
 6.7341   155
 6.7441   180
 6.7541   158
 6.7641   168
 6.7741   187
 6.7841   172
 6.7941   193
 6.8041   213
 6.8141   196
 6.8241   250
 6.8341   232
 6.8441   237
 6.8541   304
 6.8641   333
 6.8741   330
 6.8841   421
 6.8941   471
 6.9041   672
 6.9141   749
 6.9241   941
 6.9341  1227
 6.9441  1475
 6.9541  1875
 6.9641  2212
 6.9741  2534
 6.9841  3080
 6.9941  3510
 7.0041  4013
 7.0141  4516
 7.0241  4931
 7.0341  5116
 7.0441  5264
 7.0541  5257
 7.0641  5324
 7.0741  5063
 7.0841  4850
 7.0941  4381
 7.1041  3888
 7.1141  3389
 7.1241  3001
 7.1341  2470
 7.1441  2102
 7.1541  1665
 7.1641  1279
 7.1741   970
 7.1841   833
 7.1941   618
 7.2041   460
 7.2141   347
 7.2241   292
 7.2341   240
 7.2441   199
 7.2541   211
 7.2641   161
 7.2741   168
 7.2841   167
 7.2941   164
 7.3041   171
 7.3141   185
 7.3241   185
 7.3341   214
 7.3441   200
 7.3541   249
 7.3641   308
 7.3741   266
 7.3841   281
 7.3941   320
 7.4041   318
 7.4141   389
 7.4241   390
 7.4341   394
 7.4441   432
 7.4541   427
 7.4641   458
 7.4741   407
 7.4841   402
 7.4941   392
 7.5041   390
 7.5141   374
 7.5241   329
 7.5341   320
 7.5441   271
 7.5541   254
 7.5641   245
 7.5741   215
 7.5841   215
 7.5941   194
 7.6041   195
 7.6141   157
 7.6241   172
 7.6341   152
 7.6441   158
 7.6541   145
 7.6641   169
 7.6741   175
 7.6841   166
 7.6941   157
 7.7041   173
 7.7141   165
 7.7241   146
 7.7341   176
 7.7441   170
 7.7541   161
 7.7641   184
 7.7741   205
 7.7841   187
 7.7941   204
 7.8041   186
 7.8141   169
 7.8241   177
 7.8341   202
 7.8441   197
 7.8541   200
 7.8641   230
 7.8741   236
 7.8841   217
 7.8941   236
 7.9041   249
 7.9141   239
 7.9241   241
 7.9341   280
 7.9441   314
 7.9541   306
 7.9641   319
 7.9741   349
 7.9841   403
 7.9941   423
 8.0041   458
 8.0141   495
 8.0241   525
 8.0341   533
 8.0441   577
 8.0541   609
 8.0641   617
 8.0741   727
 8.0841   708
 8.0941   720
 8.1041   810
 8.1141   862
 8.1241   889
 8.1341   966
 8.1441   925
 8.1541   992
 8.1641   978
 8.1741  1009
 8.1841  1111
 8.1941   984
 8.2041  1034
 8.2141  1013
 8.2241  1054
 8.2341  1082
 8.2441  1111
 8.2541  1187
 8.2641  1156
 8.2741  1298
 8.2841  1348
 8.2941  1472
 8.3041  1575
 8.3141  1695
 8.3241  1781
 8.3341  1947
 8.3441  2050
 8.3541  2214
 8.3641  2322
 8.3741  2371
 8.3841  2523
 8.3941  2427
 8.4041  2374
 8.4141  2222
 8.4241  2136
 8.4341  1994
 8.4441  1844
 8.4541  1635
 8.4641  1477
 8.4741  1342
 8.4841  1132
 8.4941   909
 8.5041   837
 8.5141   710
 8.5241   664
 8.5341   595
 8.5441   510
 8.5541   460
 8.5641   447
 8.5741   442
 8.5841   430
 8.5941   448
 8.6041   458
 8.6141   436
 8.6241   472
 8.6341   466
 8.6441   514
 8.6541   485
 8.6641   462
 8.6741   449
 8.6841   395
 8.6941   383
 8.7041   377
 8.7141   354
 8.7241   326
 8.7341   311
 8.7441   307
 8.7541   259
 8.7641   273
 8.7741   246
 8.7841   240
 8.7941   244
 8.8041   236
 8.8141   235
 8.8241   248
 8.8341   239
 8.8441   215
 8.8541   211
 8.8641   243
 8.8741   226
 8.8841   230
 8.8941   240
 8.9041   236
 8.9141   226
 8.9241   232
 8.9341   264
 8.9441   221
 8.9541   221
 8.9641   234
 8.9741   273
 8.9841   263
 8.9941   257
 9.0041   277
 9.0141   238
 9.0241   243
 9.0341   277
 9.0441   287
 9.0541   269
 9.0641   303
 9.0741   318
 9.0841   314
 9.0941   353
 9.1041   356
 9.1141   385
 9.1241   370
 9.1341   380
 9.1441   396
 9.1541   423
 9.1641   402
 9.1741   455
 9.1841   456
 9.1941   503
 9.2041   513
 9.2141   510
 9.2241   595
 9.2341   601
 9.2441   652
 9.2541   634
 9.2641   677
 9.2741   725
 9.2841   785
 9.2941   763
 9.3041   800
 9.3141   797
 9.3241   799
 9.3341   806
 9.3441   872
 9.3541   904
 9.3641   880
 9.3741   930
 9.3841   971
 9.3941   900
 9.4041   968
 9.4141   971
 9.4241   994
 9.4341   976
 9.4441  1024
 9.4541  1043
 9.4641  1044
 9.4741  1027
 9.4841  1042
 9.4941  1068
 9.5041  1045
 9.5141  1112
 9.5241  1156
 9.5341  1213
 9.5441  1231
 9.5541  1339
 9.5641  1393
 9.5741  1454
 9.5841  1511
 9.5941  1596
 9.6041  1761
 9.6141  1833
 9.6241  1873
 9.6341  1973
 9.6441  2064
 9.6541  2035
 9.6641  2076
 9.6741  2039
 9.6841  2025
 9.6941  2004
 9.7041  1928
 9.7141  1847
 9.7241  1712
 9.7341  1625
 9.7441  1504
 9.7541  1438
 9.7641  1267
 9.7741  1207
 9.7841  1086
 9.7941  1046
 9.8041   982
 9.8141   969
 9.8241   926
 9.8341   874
 9.8441   862
 9.8541   883
 9.8641   871
 9.8741   845
 9.8841   872
 9.8941   926
 9.9041   943
 9.9141   950
 9.9241   918
 9.9341   941
 9.9441   947
 9.9541   980
 9.9641   930
 9.9741   862
 9.9841   889
 9.9941   805
10.0041   739
10.0141   751
10.0241   648
10.0341   622
10.0441   553
10.0541   471
10.0641   406
10.0741   379
10.0841   373
10.0941   320
10.1041   288
10.1141   261
10.1241   234
10.1341   213
10.1441   202
10.1541   209
10.1641   208
10.1741   178
10.1841   156
10.1941   166
10.2041   174
10.2141   172
10.2241   152
10.2341   148
10.2441   142
10.2541   144
10.2641   138
10.2741   129
10.2841   127
10.2941   113
10.3041   129
10.3141   145
10.3241   143
10.3341   136
10.3441   108
10.3541   111
10.3641   105
10.3741   114
10.3841   119
10.3941   125
10.4041   121
10.4141   121
10.4241   118
10.4341   120
10.4441   135
10.4541   120
10.4641   133
10.4741   131
10.4841   125
10.4941   128
10.5041   138
10.5141   130
10.5241   117
10.5341   132
10.5441   145
10.5541   137
10.5641   138
10.5741   128
10.5841   125
10.5941   152
10.6041   153
10.6141   152
10.6241   140
10.6341   146
10.6441   143
10.6541   135
10.6641   135
10.6741   147
10.6841   140
10.6941   143
10.7041   142
10.7141   153
10.7241   167
10.7341   156
10.7441   160
10.7541   166
10.7641   170
10.7741   176
10.7841   196
10.7941   181
10.8041   191
10.8141   186
10.8241   197
10.8341   216
10.8441   198
10.8541   207
10.8641   203
10.8741   181
10.8841   191
10.8941   201
10.9041   209
10.9141   227
10.9241   217
10.9341   204
10.9441   207
10.9541   238
10.9641   222
10.9741   214
10.9841   219
10.9941   220
11.0041   220
11.0141   209
11.0241   210
11.0341   192
11.0441   198
11.0541   193
11.0641   183
11.0741   169
11.0841   180
11.0941   181
11.1041   169
11.1141   174
11.1241   201
11.1341   177
11.1441   184
11.1541   205
11.1641   207
11.1741   207
11.1841   223
11.1941   231
11.2041   220
11.2141   242
11.2241   257
11.2341   267
11.2441   280
11.2541   268
11.2641   257
11.2741   314
11.2841   319
11.2941   304
11.3041   297
11.3141   293
11.3241   273
11.3341   260
11.3441   273
11.3541   248
11.3641   217
11.3741   194
11.3841   203
11.3941   205
11.4041   184
11.4141   183
11.4241   179
11.4341   173
11.4441   159
11.4541   146
11.4641   141
11.4741   157
11.4841   156
11.4941   132
11.5041   129
11.5141   142
11.5241   148
11.5341   151
11.5441   159
11.5541   149
11.5641   143
11.5741   154
11.5841   156
11.5941   163
11.6041   155
11.6141   151
11.6241   156
11.6341   159
11.6441   165
11.6541   156
11.6641   157
11.6741   160
11.6841   149
11.6941   138
11.7041   146
11.7141   142
11.7241   127
11.7341   121
11.7441   128
11.7541   121
11.7641   124
11.7741   125
11.7841   107
11.7941   102
11.8041   115
11.8141   117
11.8241   112
11.8341   119
11.8441   119
11.8541   113
11.8641    91
11.8741    97
11.8841   115
11.8941   115
11.9041   111
11.9141   106
11.9241    94
11.9341   101
11.9441   103
11.9541   124
11.9641   124
11.9741   110
11.9841   120
11.9941   109
12.0041   100
12.0141   114
12.0241   118
12.0341   120
12.0441   120
12.0541   116
12.0641   116
12.0741    99
12.0841   103
12.0941   107
12.1041   113
12.1141   113
12.1241   106
12.1341   103
12.1441   111
12.1541   105
12.1641   110
12.1741   102
12.1841   105
12.1941   107
12.2041   112
12.2141   122
12.2241   127
12.2341   105
12.2441   110
12.2541   110
12.2641   108
12.2741   107
12.2841   105
12.2941    96
12.3041   103
12.3141   110
12.3241   103
12.3341    90
12.3441   103
12.3541   107
12.3641    97
12.3741   114
12.3841   118
12.3941   115
12.4041   111
12.4141   108
12.4241   103
12.4341   106
12.4441   115
12.4541   124
12.4641   126
12.4741   121
12.4841   116
12.4941   122
12.5041   114
12.5141   114
12.5241   116
12.5341   110
12.5441   113
12.5541   125
12.5641   125
12.5741   119
12.5841   137
12.5941   139
12.6041   123
12.6141   120
12.6241   126
12.6341   134
12.6441   130
12.6541   132
12.6641   137
12.6741   139
12.6841   135
12.6941   128
12.7041   125
12.7141   127
12.7241   133
12.7341   139
12.7441   139
12.7541   138
12.7641   139
12.7741   132
12.7841   124
12.7941   123
12.8041   123
12.8141   127
12.8241   136
12.8341   141
12.8441   138
12.8541   127
12.8641   118
12.8741   120
12.8841   127
12.8941   132
12.9041   137
12.9141   139
12.9241   138
12.9341   129
12.9441   119
12.9541   120
12.9641   128
12.9741   134
12.9841   141
12.9941   132
13.0041   137
13.0141   138
13.0241   130
13.0341   132
13.0441   140
13.0541   145
13.0641   142
13.0741   132
13.0841   123
13.0941   135
13.1041   142
13.1141   141
13.1241   130
13.1341   120
13.1441   126
13.1541   122
13.1641   132
13.1741   142
13.1841   128
13.1941   140
13.2041   155
13.2141   151
13.2241   154
13.2341   157
13.2441   166
13.2541   174
13.2641   164
13.2741   161
13.2841   163
13.2941   179
13.3041   192
13.3141   196
13.3241   202
13.3341   208
13.3441   216
13.3541   214
13.3641   209
13.3741   212
13.3841   214
13.3941   217
13.4041   216
13.4141   210
13.4241   211
13.4341   218
13.4441   210
13.4541   194
13.4641   188
13.4741   188
13.4841   187
13.4941   184
13.5041   181
13.5141   180
13.5241   180
13.5341   176
13.5441   173
13.5541   171
13.5641   167
13.5741   161
13.5841   155
13.5941   156
13.6041   165
13.6141   170
13.6241   162
13.6341   152
13.6441   147
13.6541   142
13.6641   142
13.6741   149
13.6841   155
13.6941   152
13.7041   153
13.7141   160
13.7241   164
13.7341   159
13.7441   154
13.7541   156
13.7641   160
13.7741   159
13.7841   156
13.7941   159
13.8041   167
13.8141   172
13.8241   170
13.8341   165
13.8441   164
13.8541   167
13.8641   171
13.8741   173
13.8841   172
13.8941   173
13.9041   176
13.9141   178
13.9241   179
13.9341   182
13.9441   189
13.9541   200
13.9641   206
13.9741   206
13.9841   207
13.9941   216
14.0041   233
14.0141   244
14.0241   253
14.0341   270
14.0441   287
14.0541   305
14.0641   323
14.0741   344
14.0841   364
14.0941   379
14.1041   399
14.1141   417
14.1241   416
14.1341   409
14.1441   414
14.1541   425
14.1641   422
14.1741   409
14.1841   393
14.1941   377
14.2041   366
14.2141   353
14.2241   328
14.2341   306
14.2441   302
14.2541   302
14.2641   289
14.2741   270
14.2841   256
14.2941   243
14.3041   227
14.3141   223
14.3241   196
14.3341   180
14.3441   200
14.3541   190
14.3641   174
14.3741   162
14.3841   175
14.3941   194
14.4041   185
14.4141   174
14.4241   175
14.4341   179
14.4441   191
14.4541   190
14.4641   167
14.4741   171
14.4841   181
14.4941   180
14.5041   174
14.5141   174
14.5241   184
14.5341   188
14.5441   183
14.5541   186
14.5641   192
14.5741   182
14.5841   177
14.5941   167
14.6041   169
14.6141   171
14.6241   168
14.6341   183
14.6441   180
14.6541   171
14.6641   177
14.6741   188
14.6841   188
14.6941   172
14.7041   187
14.7141   197
14.7241   203
14.7341   206
14.7441   198
14.7541   210
14.7641   199
14.7741   196
14.7841   200
14.7941   205
14.8041   207
14.8141   208
14.8241   206
14.8341   214
14.8441   229
14.8541   237
14.8641   232
14.8741   207
14.8841   225
14.8941   228
14.9041   241
14.9141   257
14.9241   239
14.9341   250
14.9441   255
14.9541   242
14.9641   244
14.9741   241
14.9841   239
14.9941   233
15.0041   234
15.0141   238
15.0241   242
15.0341   235
15.0441   244
15.0541   242
15.0641   224
15.0741   203
15.0841   208
15.0941   208
15.1041   208
15.1141   209
15.1241   208
15.1341   214
15.1441   208
15.1541   201
15.1641   220
15.1741   218
15.1841   204
15.1941   221
15.2041   223
15.2141   210
15.2241   201
15.2341   205
15.2441   212
15.2541   211
15.2641   220
15.2741   216
15.2841   195
15.2941   211
15.3041   193
15.3141   216
15.3241   227
15.3341   223
15.3441   217
15.3541   217
15.3641   214
15.3741   214
15.3841   212
15.3941   212
15.4041   247
15.4141   232
15.4241   211
15.4341   191
15.4441   208
15.4541   233
15.4641   224
15.4741   219
15.4841   221
15.4941   242
15.5041   225
15.5141   223
15.5241   233
15.5341   234
15.5441   227
15.5541   253
15.5641   262
15.5741   247
15.5841   278
15.5941   286
15.6041   302
15.6141   298
15.6241   301
15.6341   306
15.6441   314
15.6541   361
15.6641   366
15.6741   374
15.6841   383
15.6941   386
15.7041   377
15.7141   384
15.7241   405
15.7341   395
15.7441   404
15.7541   415
15.7641   412
15.7741   413
15.7841   409
15.7941   404
15.8041   408
15.8141   398
15.8241   378
15.8341   354
15.8441   363
15.8541   352
15.8641   342
15.8741   348
15.8841   325
15.8941   316
15.9041   297
15.9141   304
15.9241   293
15.9341   292
15.9441   284
15.9541   282
15.9641   273
15.9741   270
15.9841   232
15.9941   250
16.0041   268
16.0141   252
16.0241   251
16.0341   261
16.0441   253
16.0541   266
16.0641   265
16.0741   244
16.0841   220
16.0941   254
16.1041   257
16.1141   255
16.1241   238
16.1341   244
16.1441   251
16.1541   265
16.1641   256
16.1741   272
16.1841   247
16.1941   258
16.2041   260
16.2141   265
16.2241   263
16.2341   248
16.2441   226
16.2541   247
16.2641   261
16.2741   269
16.2841   259
16.2941   251
16.3041   255
16.3141   248
16.3241   254
16.3341   256
16.3441   276
16.3541   280
16.3641   282
16.3741   263
16.3841   273
16.3941   261
16.4041   267
16.4141   277
16.4241   264
16.4341   274
16.4441   274
16.4541   275
16.4641   290
16.4741   277
16.4841   271
16.4941   273
16.5041   255
16.5141   267
16.5241   300
16.5341   297
16.5441   285
16.5541   265
16.5641   263
16.5741   275
16.5841   289
16.5941   310
16.6041   283
16.6141   281
16.6241   292
16.6341   290
16.6441   292
16.6541   308
16.6641   291
16.6741   274
16.6841   267
16.6941   268
16.7041   271
16.7141   281
16.7241   271
16.7341   274
16.7441   305
16.7541   285
16.7641   284
16.7741   297
16.7841   274
16.7941   268
16.8041   287
16.8141   267
16.8241   292
16.8341   286
16.8441   284
16.8541   302
16.8641   308
16.8741   315
16.8841   301
16.8941   297
16.9041   291
16.9141   303
16.9241   295
16.9341   282
16.9441   278
16.9541   307
16.9641   297
16.9741   300
16.9841   296
16.9941   283
17.0041   288
17.0141   294
17.0241   298
17.0341   277
17.0441   286
17.0541   322
17.0641   309
17.0741   287
17.0841   292
17.0941   300
17.1041   306
17.1141   275
17.1241   308
17.1341   331
17.1441   287
17.1541   284
17.1641   297
17.1741   320
17.1841   320
17.1941   317
17.2041   316
17.2141   312
17.2241   322
17.2341   300
17.2441   280
17.2541   301
17.2641   314
17.2741   314
17.2841   337
17.2941   309
17.3041   304
17.3141   310
17.3241   297
17.3341   321
17.3441   317
17.3541   311
17.3641   341
17.3741   330
17.3841   325
17.3941   345
17.4041   323
17.4141   320
17.4241   338
17.4341   334
17.4441   346
17.4541   337
17.4641   332
17.4741   315
17.4841   316
17.4941   335
17.5041   335
17.5141   340
17.5241   363
17.5341   351
17.5441   347
17.5541   347
17.5641   341
17.5741   333
17.5841   351
17.5941   348
17.6041   374
17.6141   380
17.6241   358
17.6341   352
17.6441   338
17.6541   336
17.6641   353
17.6741   363
17.6841   362
17.6941   344
17.7041   345
17.7141   355
17.7241   357
17.7341   367
17.7441   341
17.7541   340
17.7641   345
17.7741   353
17.7841   340
17.7941   330
17.8041   338
17.8141   340
17.8241   345
17.8341   363
17.8441   333
17.8541   326
17.8641   350
17.8741   351
17.8841   345
17.8941   339
17.9041   352
17.9141   348
17.9241   346
17.9341   351
17.9441   353
17.9541   333
17.9641   345
17.9741   358
17.9841   367
17.9941   380
18.0041   337
18.0141   333
18.0241   349
18.0341   336
18.0441   344
18.0541   377
18.0641   346
18.0741   341
18.0841   330
18.0941   338
18.1041   335
18.1141   339
18.1241   342
18.1341   342
18.1441   331
18.1541   350
18.1641   360
18.1741   375
18.1841   353
18.1941   351
18.2041   336
18.2141   363
18.2241   366
18.2341   354
18.2441   342
18.2541   356
18.2641   352
18.2741   346
18.2841   347
18.2941   374
18.3041   336
18.3141   337
18.3241   354
18.3341   359
18.3441   370
18.3541   355
18.3641   366
18.3741   369
18.3841   371
18.3941   348
18.4041   362
18.4141   356
18.4241   361
18.4341   360
18.4441   362
18.4541   346
18.4641   345
18.4741   361
18.4841   327
18.4941   357
18.5041   364
18.5141   368
18.5241   349
18.5341   365
18.5441   387
18.5541   377
18.5641   355
18.5741   366
18.5841   364
18.5941   370
18.6041   360
18.6141   360
18.6241   352
18.6341   354
18.6441   357
18.6541   367
18.6641   357
18.6741   385
18.6841   361
18.6941   371
18.7041   360
18.7141   374
18.7241   375
18.7341   373
18.7441   357
18.7541   370
18.7641   364
18.7741   365
18.7841   367
18.7941   387
18.8041   359
18.8141   373
18.8241   386
18.8341   370
18.8441   395
18.8541   363
18.8641   371
18.8741   385
18.8841   390
18.8941   392
18.9041   351
18.9141   370
18.9241   399
18.9341   381
18.9441   387
18.9541   377
18.9641   391
18.9741   397
18.9841   372
18.9941   359
19.0041   359
19.0141   352
19.0241   375
19.0341   365
19.0441   371
19.0541   369
19.0641   376
19.0741   352
19.0841   375
19.0941   387
19.1041   390
19.1141   356
19.1241   375
19.1341   401
19.1441   404
19.1541   383
19.1641   384
19.1741   379
19.1841   353
19.1941   398
19.2041   373
19.2141   381
19.2241   397
19.2341   424
19.2441   408
19.2541   368
19.2641   409
19.2741   392
19.2841   390
19.2941   409
19.3041   371
19.3141   397
19.3241   410
19.3341   386
19.3441   373
19.3541   399
19.3641   384
19.3741   393
19.3841   393
19.3941   396
19.4041   419
19.4141   405
19.4241   405
19.4341   386
19.4441   369
19.4541   378
19.4641   406
19.4741   414
19.4841   420
19.4941   375
19.5041   391
19.5141   412
19.5241   389
19.5341   412
19.5441   402
19.5541   402
19.5641   411
19.5741   398
19.5841   398
19.5941   382
19.6041   386
19.6141   381
19.6241   409
19.6341   378
19.6441   409
19.6541   408
19.6641   399
19.6741   403
19.6841   418
19.6941   413
19.7041   418
19.7141   444
19.7241   426
19.7341   425
19.7441   384
19.7541   396
19.7641   421
19.7741   400
19.7841   410
19.7941   402
19.8041   372
19.8141   398
19.8241   385
19.8341   380
19.8441   396
19.8541   393
19.8641   399
19.8741   406
19.8841   402
19.8941   409
19.9041   367
19.9141   391
19.9241   383
19.9341   378
19.9441   418
19.9541   435
19.9641   416
19.9741   390
19.9841   416
19.9941   424
20.0041   403
20.0141   415
20.0241   436
20.0341   427
20.0441   413
20.0541   400
20.0641   414
20.0741   417
20.0841   450
20.0941   432
20.1041   440
20.1141   426
20.1241   427
20.1341   439
20.1441   413
20.1541   444
20.1641   436
20.1741   408
20.1841   407
20.1941   370
20.2041   427
20.2141   396
20.2241   424
20.2341   422
20.2441   408
20.2541   437
20.2641   441
20.2741   431
20.2841   417
20.2941   416
20.3041   397
20.3141   404
20.3241   379
20.3341   408
20.3441   435
20.3541   434
20.3641   454
20.3741   430
20.3841   438
20.3941   405
20.4041   424
20.4141   399
20.4241   411
20.4341   434
20.4441   414
20.4541   438
20.4641   432
20.4741   431
20.4841   389
20.4941   403
20.5041   395
20.5141   398
20.5241   438
20.5341   442
20.5441   410
20.5541   448
20.5641   429
20.5741   431
20.5841   418
20.5941   415
20.6041   382
20.6141   384
20.6241   416
20.6341   428
20.6441   418
20.6541   467
20.6641   428
20.6741   390
20.6841   401
20.6941   429
20.7041   433
20.7141   419
20.7241   449
20.7341   445
20.7441   430
20.7541   412
20.7641   418
20.7741   438
20.7841   427
20.7941   455
20.8041   439
20.8141   473
20.8241   421
20.8341   473
20.8441   455
20.8541   434
20.8641   431
20.8741   441
20.8841   461
20.8941   478
20.9041   474
20.9141   483
20.9241   509
20.9341   535
20.9441   551
20.9541   540
20.9641   559
20.9741   526
20.9841   503
20.9941   567
21.0041   612
21.0141   608
21.0241   576
21.0341   603
21.0441   610
21.0541   603
21.0641   609
21.0741   597
21.0841   652
21.0941   623
21.1041   652
21.1141   660
21.1241   624
21.1341   660
21.1441   632
21.1541   616
21.1641   648
21.1741   632
21.1841   659
21.1941   613
21.2041   618
21.2141   621
21.2241   615
21.2341   595
21.2441   554
21.2541   620
21.2641   555
21.2741   527
21.2841   505
21.2941   505
21.3041   494
21.3141   454
21.3241   509
21.3341   472
21.3441   473
21.3541   480
21.3641   464
21.3741   457
21.3841   460
21.3941   466
21.4041   456
21.4141   428
21.4241   416
21.4341   416
21.4441   418
21.4541   433
21.4641   425
21.4741   429
21.4841   442
21.4941   440
21.5041   418
21.5141   421
21.5241   451
21.5341   460
21.5441   438
21.5541   430
21.5641   437
21.5741   459
21.5841   426
21.5941   411
21.6041   415
21.6141   407
21.6241   414
21.6341   428
21.6441   454
21.6541   430
21.6641   436
21.6741   413
21.6841   423
21.6941   432
21.7041   402
21.7141   405
21.7241   418
21.7341   387
21.7441   409
21.7541   446
21.7641   440
21.7741   439
21.7841   426
21.7941   417
21.8041   416
21.8141   424
21.8241   416
21.8341   417
21.8441   445
21.8541   431
21.8641   430
21.8741   431
21.8841   396
21.8941   424
21.9041   415
21.9141   417
21.9241   425
21.9341   468
21.9441   395
21.9541   417
21.9641   438
21.9741   435
21.9841   451
21.9941   457
22.0041   403
22.0141   468
22.0241   418
22.0341   414
22.0441   433
22.0541   428
22.0641   439
22.0741   450
22.0841   447
22.0941   436
22.1041   467
22.1141   466
22.1241   431
22.1341   383
22.1441   423
22.1541   446
22.1641   454
22.1741   433
22.1841   429
22.1941   434
22.2041   386
22.2141   421
22.2241   411
22.2341   437
22.2441   411
22.2541   413
22.2641   436
22.2741   433
22.2841   437
22.2941   433
22.3041   451
22.3141   417
22.3241   419
22.3341   442
22.3441   420
22.3541   421
22.3641   443
22.3741   437
22.3841   417
22.3941   406
22.4041   420
22.4141   410
22.4241   397
22.4341   419
22.4441   435
22.4541   445
22.4641   407
22.4741   455
22.4841   430
22.4941   407
22.5041   423
22.5141   454
22.5241   419
22.5341   426
22.5441   401
22.5541   445
22.5641   465
22.5741   421
22.5841   452
22.5941   412
22.6041   469
22.6141   428
22.6241   436
22.6341   434
22.6441   432
22.6541   443
22.6641   440
22.6741   467
22.6841   444
22.6941   434
22.7041   438
22.7141   438
22.7241   410
22.7341   413
22.7441   461
22.7541   400
22.7641   417
22.7741   420
22.7841   421
22.7941   435
22.8041   427
22.8141   430
22.8241   442
22.8341   407
22.8441   422
22.8541   428
22.8641   436
22.8741   431
22.8841   434
22.8941   386
22.9041   418
22.9141   426
22.9241   380
22.9341   431
22.9441   446
22.9541   405
22.9641   445
22.9741   386
22.9841   442
22.9941   427
23.0041   416
23.0141   406
23.0241   415
23.0341   387
23.0441   408
23.0541   422
23.0641   421
23.0741   448
23.0841   412
23.0941   434
23.1041   465
23.1141   422
23.1241   417
23.1341   413
23.1441   418
23.1541   430
23.1641   402
23.1741   391
23.1841   445
23.1941   426
23.2041   415
23.2141   407
23.2241   407
23.2341   441
23.2441   414
23.2541   429
23.2641   460
23.2741   416
23.2841   450
23.2941   386
23.3041   436
23.3141   408
23.3241   393
23.3341   406
23.3441   419
23.3541   408
23.3641   402
23.3741   414
23.3841   436
23.3941   412
23.4041   400
23.4141   409
23.4241   439
23.4341   379
23.4441   393
23.4541   409
23.4641   410
23.4741   458
23.4841   374
23.4941   412
23.5041   419
23.5141   382
23.5241   374
23.5341   408
23.5441   380
23.5541   396
23.5641   421
23.5741   398
23.5841   396
23.5941   429
23.6041   409
23.6141   455
23.6241   410
23.6341   466
23.6441   450
23.6541   458
23.6641   438
23.6741   429
23.6841   425
23.6941   443
23.7041   406
23.7141   446
23.7241   416
23.7341   436
23.7441   417
23.7541   433
23.7641   454
23.7741   391
23.7841   488
23.7941   434
23.8041   461
23.8141   482
23.8241   452
23.8341   462
23.8441   420
23.8541   442
23.8641   460
23.8741   430
23.8841   435
23.8941   441
23.9041   451
23.9141   449
23.9241   411
23.9341   422
23.9441   426
23.9541   429
23.9641   396
23.9741   379
23.9841   416
23.9941   404
24.0041   403
24.0141   398
24.0241   407
24.0341   412
24.0441   402
24.0541   410
24.0641   398
24.0741   410
24.0841   400
24.0941   397
24.1041   392
24.1141   385
24.1241   391
24.1341   371
24.1441   413
24.1541   395
24.1641   407
24.1741   409
24.1841   420
24.1941   396
24.2041   410
24.2141   412
24.2241   429
24.2341   366
24.2441   382
24.2541   409
24.2641   384
24.2741   401
24.2841   395
24.2941   422
24.3041   425
24.3141   406
24.3241   384
24.3341   400
24.3441   397
24.3541   363
24.3641   384
24.3741   411
24.3841   407
24.3941   381
24.4041   356
24.4141   384
24.4241   387
24.4341   411
24.4441   410
24.4541   403
24.4641   378
24.4741   387
24.4841   397
24.4941   407
24.5041   387
24.5141   397
24.5241   381
24.5341   406
24.5441   388
24.5541   386
24.5641   400
24.5741   363
24.5841   404
24.5941   395
24.6041   382
24.6141   370
24.6241   393
24.6341   411
24.6441   356
24.6541   394
24.6641   359
24.6741   339
24.6841   380
24.6941   386
24.7041   381
24.7141   364
24.7241   380
24.7341   403
24.7441   380
24.7541   380
24.7641   361
24.7741   410
24.7841   423
24.7941   355
24.8041   391
24.8141   382
24.8241   376
24.8341   381
24.8441   396
24.8541   405
24.8641   425
24.8741   364
24.8841   390
24.8941   425
24.9041   376
24.9141   408
24.9241   386
24.9341   387
24.9441   403
24.9541   377
24.9641   391
24.9741   384
24.9841   384
24.9941   389
25.0041   378
25.0141   368
25.0241   395
25.0341   376
25.0441   382
25.0541   380
25.0641   404
25.0741   408
25.0841   397
25.0941   394
25.1041   406
25.1141   384
25.1241   394
25.1341   369
25.1441   395
25.1541   379
25.1641   387
25.1741   408
25.1841   397
25.1941   429
25.2041   385
25.2141   397
25.2241   377
25.2341   359
25.2441   396
25.2541   380
25.2641   389
25.2741   384
25.2841   382
25.2941   406
25.3041   374
25.3141   388
25.3241   392
25.3341   366
25.3441   377
25.3541   377
25.3641   376
25.3741   381
25.3841   367
25.3941   349
25.4041   347
25.4141   382
25.4241   370
25.4341   380
25.4441   338
25.4541   358
25.4641   357
25.4741   365
25.4841   392
25.4941   373
25.5041   366
25.5141   368
25.5241   349
25.5341   372
25.5441   352
25.5541   345
25.5641   352
25.5741   348
25.5841   352
25.5941   356
25.6041   355
25.6141   375
25.6241   327
25.6341   367
25.6441   364
25.6541   361
25.6641   344
25.6741   376
25.6841   352
25.6941   354
25.7041   369
25.7141   365
25.7241   353
25.7341   348
25.7441   380
25.7541   325
25.7641   376
25.7741   356
25.7841   355
25.7941   318
25.8041   360
25.8141   331
25.8241   366
25.8341   344
25.8441   359
25.8541   370
25.8641   352
25.8741   375
25.8841   337
25.8941   333
25.9041   347
25.9141   350
25.9241   353
25.9341   330
25.9441   354
25.9541   380
25.9641   384
25.9741   366
25.9841   345
25.9941   348
26.0041   356
26.0141   364
26.0241   330
26.0341   328
26.0441   327
26.0541   332
26.0641   319
26.0741   343
26.0841   340
26.0941   326
26.1041   352
26.1141   337
26.1241   359
26.1341   358
26.1441   371
26.1541   355
26.1641   341
26.1741   347
26.1841   377
26.1941   328
26.2041   326
26.2141   353
26.2241   346
26.2341   335
26.2441   338
26.2541   352
26.2641   327
26.2741   347
26.2841   360
26.2941   371
26.3041   335
26.3141   330
26.3241   347
26.3341   331
26.3441   333
26.3541   372
26.3641   343
26.3741   310
26.3841   339
26.3941   333
26.4041   325
26.4141   336
26.4241   343
26.4341   351
26.4441   305
26.4541   300
26.4641   351
26.4741   367
26.4841   350
26.4941   352
26.5041   316
26.5141   340
26.5241   327
26.5341   336
26.5441   316
26.5541   340
26.5641   351
26.5741   339
26.5841   312
26.5941   333
26.6041   328
26.6141   336
26.6241   318
26.6341   367
26.6441   345
26.6541   333
26.6641   323
26.6741   348
26.6841   313
26.6941   315
26.7041   318
26.7141   339
26.7241   345
26.7341   339
26.7441   312
26.7541   338
26.7641   332
26.7741   311
26.7841   343
26.7941   344
26.8041   307
26.8141   315
26.8241   341
26.8341   324
26.8441   319
26.8541   347
26.8641   284
26.8741   295
26.8841   337
26.8941   313
26.9041   316
26.9141   311
26.9241   354
26.9341   331
26.9441   341
26.9541   307
26.9641   303
26.9741   307
26.9841   298
26.9941   329
27.0041   294
27.0141   329
27.0241   313
27.0341   334
27.0441   346
27.0541   321
27.0641   317
27.0741   325
27.0841   319
27.0941   341
27.1041   331
27.1141   309
27.1241   308
27.1341   303
27.1441   306
27.1541   318
27.1641   304
27.1741   333
27.1841   341
27.1941   323
27.2041   300
27.2141   299
27.2241   285
27.2341   294
27.2441   296
27.2541   301
27.2641   306
27.2741   294
27.2841   324
27.2941   314
27.3041   327
27.3141   283
27.3241   296
27.3341   281
27.3441   311
27.3541   293
27.3641   284
27.3741   289
27.3841   301
27.3941   310
27.4041   291
27.4141   328
27.4241   298
27.4341   271
27.4441   295
27.4541   302
27.4641   319
27.4741   303
27.4841   321
27.4941   307
27.5041   313
27.5141   325
27.5241   316
27.5341   314
27.5441   302
27.5541   315
27.5641   278
27.5741   304
27.5841   277
27.5941   309
27.6041   304
27.6141   294
27.6241   308
27.6341   324
27.6441   269
27.6541   293
27.6641   297
27.6741   289
27.6841   292
27.6941   303
27.7041   281
27.7141   308
27.7241   313
27.7341   284
27.7441   262
27.7541   312
27.7641   290
27.7741   306
27.7841   320
27.7941   302
27.8041   276
27.8141   296
27.8241   300
27.8341   295
27.8441   292
27.8541   274
27.8641   274
27.8741   261
27.8841   301
27.8941   280
27.9041   298
27.9141   277
27.9241   275
27.9341   266
27.9441   259
27.9541   294
27.9641   279
27.9741   288
27.9841   260
27.9941   294
28.0041   295
28.0141   295
28.0241   253
28.0341   290
28.0441   271
28.0541   250
28.0641   301
28.0741   264
28.0841   299
28.0941   306
28.1041   290
28.1141   281
28.1241   299
28.1341   255
28.1441   283
28.1541   285
28.1641   286
28.1741   255
28.1841   260
28.1941   232
28.2041   297
28.2141   286
28.2241   287
28.2341   297
28.2441   280
28.2541   260
28.2641   296
28.2741   281
28.2841   281
28.2941   243
28.3041   288
28.3141   306
28.3241   294
28.3341   297
28.3441   258
28.3541   297
28.3641   297
28.3741   281
28.3841   273
28.3941   262
28.4041   274
28.4141   263
28.4241   266
28.4341   280
28.4441   309
28.4541   255
28.4641   273
28.4741   267
28.4841   303
28.4941   260
28.5041   279
28.5141   279
28.5241   274
28.5341   284
28.5441   258
28.5541   247
28.5641   238
28.5741   270
28.5841   246
28.5941   236
28.6041   284
28.6141   244
28.6241   300
28.6341   274
28.6441   265
28.6541   250
28.6641   267
28.6741   297
28.6841   254
28.6941   251
28.7041   278
28.7141   275
28.7241   260
28.7341   231
28.7441   258
28.7541   249
28.7641   257
28.7741   277
28.7841   258
28.7941   245
28.8041   241
28.8141   274
28.8241   279
28.8341   271
28.8441   266
28.8541   265
28.8641   269
28.8741   257
28.8841   245
28.8941   223
28.9041   257
28.9141   264
28.9241   278
28.9341   240
28.9441   267
28.9541   263
28.9641   261
28.9741   244
28.9841   259
28.9941   244
29.0041   248
29.0141   242
29.0241   227
29.0341   238
29.0441   258
29.0541   258
29.0641   249
29.0741   257
29.0841   249
29.0941   262
29.1041   271
29.1141   241
29.1241   267
29.1341   238
29.1441   240
29.1541   248
29.1641   270
29.1741   247
29.1841   252
29.1941   255
29.2041   248
29.2141   230
29.2241   228
29.2341   234
29.2441   263
29.2541   236
29.2641   251
29.2741   259
29.2841   227
29.2941   243
29.3041   205
29.3141   226
29.3241   225
29.3341   214
29.3441   224
29.3541   249
29.3641   237
29.3741   241
29.3841   248
29.3941   228
29.4041   218
29.4141   228
29.4241   234
29.4341   249
29.4441   212
29.4541   235
29.4641   217
29.4741   228
29.4841   259
29.4941   229
29.5041   231
29.5141   242
29.5241   244
29.5341   235
29.5441   237
29.5541   253
29.5641   260
29.5741   241
29.5841   233
29.5941   213
29.6041   246
29.6141   231
29.6241   254
29.6341   205
29.6441   238
29.6541   225
29.6641   208
29.6741   243
29.6841   237
29.6941   239
29.7041   249
29.7141   235
29.7241   207
29.7341   230
29.7441   251
29.7541   222
29.7641   223
29.7741   234
29.7841   237
29.7941   211
29.8041   215
29.8141   221
29.8241   213
29.8341   224
29.8441   200
29.8541   206
29.8641   200
29.8741   233
29.8841   230
29.8941   222
29.9041   219
29.9141   225
29.9241   214
29.9341   230
29.9441   242
29.9541   223
29.9641   219
29.9741   217
29.9841   235
29.9941   183
30.0041   213
30.0141   221
30.0241   210
30.0341   227
30.0441   211
30.0541   216
30.0641   207
30.0741   209
30.0841   201
30.0941   226
30.1041   230
30.1141   221
30.1241   213
30.1341   226
30.1441   233
30.1541   212
30.1641   211
30.1741   199
30.1841   199
30.1941   215
30.2041   219
30.2141   233
30.2241   227
30.2341   230
30.2441   196
30.2541   193
30.2641   209
30.2741   232
30.2841   210
30.2941   207
30.3041   227
30.3141   208
30.3241   205
30.3341   214
30.3441   232
30.3541   210
30.3641   215
30.3741   204
30.3841   241
30.3941   235
30.4041   197
30.4141   202
30.4241   197
30.4341   202
30.4441   233
30.4541   212
30.4641   196
30.4741   203
30.4841   198
30.4941   194
30.5041   184
30.5141   222
30.5241   181
30.5341   174
30.5441   178
30.5541   198
30.5641   194
30.5741   203
30.5841   207
30.5941   198
30.6041   226
30.6141   205
30.6241   234
30.6341   221
30.6441   210
30.6541   175
30.6641   182
30.6741   197
30.6841   213
30.6941   195
30.7041   205
30.7141   193
30.7241   187
30.7341   197
30.7441   196
30.7541   195
30.7641   156
30.7741   191
30.7841   201
30.7941   194
30.8041   187
30.8141   181
30.8241   207
30.8341   184
30.8441   184
30.8541   186
30.8641   201
30.8741   193
30.8841   193
30.8941   183
30.9041   209
30.9141   205
30.9241   193
30.9341   183
30.9441   184
30.9541   185
30.9641   198
30.9741   181
30.9841   203
30.9941   188
31.0041   189
31.0141   199
31.0241   175
31.0341   198
31.0441   196
31.0541   209
31.0641   182
31.0741   196
31.0841   209
31.0941   197
31.1041   193
31.1141   213
31.1241   182
31.1341   181
31.1441   191
31.1541   167
31.1641   193
31.1741   175
31.1841   176
31.1941   192
31.2041   209
31.2141   179
31.2241   188
31.2341   164
31.2441   164
31.2541   173
31.2641   213
31.2741   166
31.2841   165
31.2941   160
31.3041   163
31.3141   185
31.3241   176
31.3341   173
31.3441   185
31.3541   198
31.3641   165
31.3741   195
31.3841   159
31.3941   180
31.4041   174
31.4141   169
31.4241   190
31.4341   160
31.4441   193
31.4541   177
31.4641   203
31.4741   181
31.4841   192
31.4941   182
31.5041   179
31.5141   185
31.5241   186
31.5341   185
31.5441   171
31.5541   174
31.5641   173
31.5741   181
31.5841   175
31.5941   148
31.6041   166
31.6141   172
31.6241   170
31.6341   179
31.6441   181
31.6541   180
31.6641   186
31.6741   170
31.6841   156
31.6941   162
31.7041   189
31.7141   179
31.7241   166
31.7341   162
31.7441   190
31.7541   182
31.7641   205
31.7741   171
31.7841   171
31.7941   171
31.8041   193
31.8141   168
31.8241   172
31.8341   180
31.8441   160
31.8541   174
31.8641   168
31.8741   200
31.8841   185
31.8941   178
31.9041   184
31.9141   177
31.9241   188
31.9341   179
31.9441   158
31.9541   164
31.9641   152
31.9741   187
31.9841   183
31.9941   156
32.0041   154
32.0141   150
32.0241   160
32.0341   176
32.0441   173
32.0541   169
32.0641   197
32.0741   171
32.0841   155
32.0941   174
32.1041   181
32.1141   165
32.1241   157
32.1341   180
32.1441   179
32.1541   198
32.1641   169
32.1741   184
32.1841   172
32.1941   170
32.2041   190
32.2141   193
32.2241   151
32.2341   165
32.2441   174
32.2541   181
32.2641   184
32.2741   180
32.2841   166
32.2941   181
32.3041   174
32.3141   153
32.3241   144
32.3341   143
32.3441   161
32.3541   173
32.3641   157
32.3741   159
32.3841   164
32.3941   158
32.4041   148
32.4141   151
32.4241   187
32.4341   159
32.4441   152
32.4541   154
32.4641   163
32.4741   171
32.4841   160
32.4941   159
32.5041   176
32.5141   153
32.5241   150
32.5341   141
32.5441   142
32.5541   127
32.5641   155
32.5741   167
32.5841   165
32.5941   141
32.6041   161
32.6141   146
32.6241   147
32.6341   125
32.6441   142
32.6541   140
32.6641   163
32.6741   144
32.6841   132
32.6941   132
32.7041   126
32.7141   140
32.7241   136
32.7341   140
32.7441   134
32.7541   137
32.7641   133
32.7741   161
32.7841   141
32.7941   124
32.8041   130
32.8141   132
32.8241   146
32.8341   146
32.8441   159
32.8541   130
32.8641   129
32.8741   146
32.8841   133
32.8941   138
32.9041   156
32.9141   138
32.9241   141
32.9341   139
32.9441   136
32.9541   134
32.9641   148
32.9741   118
32.9841   121
32.9941   151
33.0041   158
33.0141   153
33.0241   147
33.0341   137
33.0441   125
33.0541   132
33.0641   135
33.0741   128
33.0841   117
33.0941   111
33.1041   132
33.1141   127
33.1241   135
33.1341   144
33.1441   115
33.1541   116
33.1641   128
33.1741   135
33.1841   135
33.1941   139
33.2041   145
33.2141   133
33.2241   153
33.2341   137
33.2441   123
33.2541   135
33.2641   155
33.2741   159
33.2841   138
33.2941   135
33.3041   128
33.3141   130
33.3241   124
33.3341   128
33.3441   134
33.3541   116
33.3641   137
33.3741   141
33.3841   109
33.3941   119
33.4041   123
33.4141   120
33.4241   128
33.4341   117
33.4441   137
33.4541   113
33.4641   149
33.4741   142
33.4841   145
33.4941   131
33.5041   114
33.5141   131
33.5241   117
33.5341   109
33.5441   120
33.5541   124
33.5641   123
33.5741   131
33.5841   147
33.5941   121
33.6041   125
33.6141   137
33.6241   132
33.6341   106
33.6441   124
33.6541   111
33.6641   126
33.6741   132
33.6841   109
33.6941    94
33.7041   112
33.7141   115
33.7241   133
33.7341   128
33.7441   126
33.7541    87
33.7641   136
33.7741   126
33.7841   118
33.7941   112
33.8041   113
33.8141   124
33.8241   112
33.8341   108
33.8441   128
33.8541   110
33.8641   110
33.8741   101
33.8841    94
33.8941   104
33.9041   127
33.9141   132
33.9241   105
33.9341   123
33.9441   119
33.9541   103
33.9641   117
33.9741   137
33.9841   124
33.9941   101
34.0041   105
34.0141   117
34.0241    90
34.0341   107
34.0441   111
34.0541   126
34.0641    93
34.0741   103
34.0841    99
34.0941   114
34.1041   111
34.1141   113
34.1241   111
34.1341   109
34.1441   106
34.1541   108
34.1641   108
34.1741    93
34.1841   117
34.1941   102
34.2041   115
34.2141    98
34.2241   103
34.2341   105
34.2441   108
34.2541    99
34.2641   115
34.2741   102
34.2841    96
34.2941   118
34.3041   103
34.3141   107
34.3241   110
34.3341    96
34.3441   115
34.3541    83
34.3641   117
34.3741    99
34.3841    91
34.3941   108
34.4041   116
34.4141   107
34.4241    99
34.4341   126
34.4441   119
34.4541   106
34.4641   105
34.4741   109
34.4841    99
34.4941   124
34.5041    93
34.5141   110
34.5241    97
34.5341   109
34.5441    96
34.5541    92
34.5641   109
34.5741   112
34.5841    96
34.5941   109
34.6041   109
34.6141   100
34.6241   109
34.6341   107
34.6441   115
34.6541   106
34.6641   107
34.6741   101
34.6841   107
34.6941    94
34.7041   109
34.7141   108
34.7241   118
34.7341   117
34.7441    95
34.7541   100
34.7641   101
34.7741   114
34.7841   124
34.7941   116
34.8041    77
34.8141    93
34.8241   108
34.8341    92
34.8441    71
34.8541    86
34.8641    89
34.8741   107
34.8841    82
34.8941    92
34.9041    99
34.9141    97
34.9241    96
34.9341   100
34.9441    86
34.9541    89
34.9641   102
34.9741    94
34.9841   108
34.9941   120
35.0041    94
35.0141   103
35.0241    82
35.0341    85
35.0441    95
35.0541    93
35.0641    90
35.0741    77
35.0841    91
35.0941    75
35.1041   102
35.1141   104
35.1241    96
35.1341   116
35.1441    99
35.1541    92
35.1641   103
35.1741    74
35.1841    95
35.1941   116
35.2041   103
35.2141    88
35.2241    72
35.2341    84
35.2441    82
35.2541    96
35.2641    69
35.2741   102
35.2841   101
35.2941    84
35.3041    80
35.3141    93
35.3241    92
35.3341    94
35.3441    82
35.3541   108
35.3641    79
35.3741    83
35.3841    84
35.3941    81
35.4041    83
35.4141   103
35.4241    85
35.4341    85
35.4441    83
35.4541    90
35.4641    80
35.4741    77
35.4841   101
35.4941    83
35.5041    79
35.5141    96
35.5241    80
35.5341    86
35.5441    79
35.5541    83
35.5641    68
35.5741    81
35.5841    81
35.5941    83
35.6041    72
35.6141    77
35.6241    83
35.6341    96
35.6441    75
35.6541    74
35.6641    76
35.6741    83
35.6841    95
35.6941    73
35.7041    85
35.7141    81
35.7241    74
35.7341    66
35.7441    78
35.7541    80
35.7641    97
35.7741    76
35.7841    86
35.7941    85
35.8041    88
35.8141    64
35.8241    59
35.8341    83
35.8441    80
35.8541    76
35.8641    71
35.8741    71
35.8841    81
35.8941    77
35.9041    76
35.9141    74
35.9241    54
35.9341    74
35.9441    66
35.9541    65
35.9641    73
35.9741    72
35.9841    70
35.9941    59
36.0041    70
36.0141    79
36.0241    78
36.0341    64
36.0441    78
36.0541    66
36.0641    82
36.0741    86
36.0841    86
36.0941    65
36.1041    77
36.1141    76
36.1241    64
36.1341    91
36.1441    79
36.1541    65
36.1641    80
36.1741    73
36.1841    79
36.1941    73
36.2041    75
36.2141    74
36.2241    71
36.2341    88
36.2441    63
36.2541    77
36.2641    77
36.2741    84
36.2841    84
36.2941    88
36.3041    65
36.3141    71
36.3241    66
36.3341    72
36.3441    74
36.3541    78
36.3641    72
36.3741    74
36.3841    91
36.3941    79
36.4041    73
36.4141    71
36.4241    68
36.4341    84
36.4441    82
36.4541    61
36.4641    59
36.4741    80
36.4841    60
36.4941    55
36.5041    71
36.5141    67
36.5241    58
36.5341    65
36.5441    65
36.5541    54
36.5641    64
36.5741    65
36.5841    76
36.5941    64
36.6041    67
36.6141    71
36.6241    76
36.6341    76
36.6441    53
36.6541    63
36.6641    47
36.6741    58
36.6841    63
36.6941    49
36.7041    65
36.7141    73
36.7241    55
36.7341    65
36.7441    73
36.7541    59
36.7641    59
36.7741    60
36.7841    52
36.7941    54
36.8041    49
36.8141    76
36.8241    68
36.8341    68
36.8441    61
36.8541    68
36.8641    51
36.8741    49
36.8841    54
36.8941    55
36.9041    56
36.9141    62
36.9241    52
36.9341    63
36.9441    64
36.9541    65
36.9641    66
36.9741    56
36.9841    56
36.9941    54
37.0041    61
37.0141    72
37.0241    61
37.0341    56
37.0441    47
37.0541    53
37.0641    63
37.0741    70
37.0841    62
37.0941    55
37.1041    57
37.1141    58
37.1241    63
37.1341    54
37.1441    48
37.1541    56
37.1641    61
37.1741    53
37.1841    49
37.1941    49
37.2041    61
37.2141    66
37.2241    50
37.2341    52
37.2441    54
37.2541    54
37.2641    47
37.2741    60
37.2841    56
37.2941    60
37.3041    53
37.3141    60
37.3241    48
37.3341    62
37.3441    55
37.3541    69
37.3641    59
37.3741    54
37.3841    48
37.3941    55
37.4041    58
37.4141    62
37.4241    43
37.4341    52
37.4441    49
37.4541    63
37.4641    63
37.4741    58
37.4841    55
37.4941    30
37.5041    54
37.5141    60
37.5241    46
37.5341    47
37.5441    54
37.5541    54
37.5641    47
37.5741    50
37.5841    62
37.5941    55
37.6041    58
37.6141    50
37.6241    60
37.6341    43
37.6441    57
37.6541    54
37.6641    49
37.6741    50
37.6841    51
37.6941    60
37.7041    42
37.7141    47
37.7241    52
37.7341    49
37.7441    44
37.7541    59
37.7641    47
37.7741    44
37.7841    70
37.7941    50
37.8041    51
37.8141    57
37.8241    55
37.8341    54
37.8441    47
37.8541    45
37.8641    47
37.8741    46
37.8841    49
37.8941    41
37.9041    49
37.9141    46
37.9241    49
37.9341    37
37.9441    47
37.9541    58
37.9641    61
37.9741    49
37.9841    51
37.9941    56
38.0041    52
38.0141    48
38.0241    45
38.0341    47
38.0441    56
38.0541    41
38.0641    46
38.0741    48
38.0841    35
38.0941    43
38.1041    41
38.1141    56
38.1241    40
38.1341    42
38.1441    25
38.1541    43
38.1641    40
38.1741    51
38.1841    47
38.1941    49
38.2041    47
38.2141    45
38.2241    47
38.2341    36
38.2441    37
38.2541    38
38.2641    39
38.2741    49
38.2841    43
38.2941    39
38.3041    38
38.3141    36
38.3241    48
38.3341    41
38.3441    41
38.3541    34
38.3641    34
38.3741    40
38.3841    49
38.3941    44
38.4041    46
38.4141    46
38.4241    34
38.4341    41
38.4441    45
38.4541    41
38.4641    43
38.4741    37
38.4841    59
38.4941    37
38.5041    39
38.5141    37
38.5241    30
38.5341    37
38.5441    41
38.5541    35
38.5641    42
38.5741    46
38.5841    38
38.5941    41
38.6041    46
38.6141    30
38.6241    31
38.6341    37
38.6441    31
38.6541    35
38.6641    38
38.6741    40
38.6841    44
38.6941    45
38.7041    35
38.7141    27
38.7241    28
38.7341    37
38.7441    46
38.7541    40
38.7641    34
38.7741    36
38.7841    40
38.7941    30
38.8041    39
38.8141    32
38.8241    39
38.8341    30
38.8441    35
38.8541    44
38.8641    40
38.8741    44
38.8841    33
38.8941    30
38.9041    43
38.9141    24
38.9241    35
38.9341    38
38.9441    31
38.9541    39
38.9641    38
38.9741    31
38.9841    30
38.9941    37
39.0041    29
39.0141    44
39.0241    31
39.0341    40
39.0441    46
39.0541    30
39.0641    30
39.0741    30
39.0841    40
39.0941    38
39.1041    33
39.1141    32
39.1241    31
39.1341    43
39.1441    22
39.1541    27
39.1641    37
39.1741    30
39.1841    29
39.1941    34
39.2041    29
39.2141    44
39.2241    38
39.2341    23
39.2441    31
39.2541    37
39.2641    27
39.2741    43
39.2841    27
39.2941    30
39.3041    27
39.3141    38
39.3241    34
39.3341    25
39.3441    35
39.3541    23
39.3641    26
39.3741    36
39.3841    25
39.3941    27
39.4041    43
39.4141    31
39.4241    30
39.4341    31
39.4441    30
39.4541    33
39.4641    27
39.4741    30
39.4841    25
39.4941    38
39.5041    30
39.5141    25
39.5241    34
39.5341    27
39.5441    36
39.5541    22
39.5641    32
39.5741    32
39.5841    33
39.5941    22
39.6041    22
39.6141    30
39.6241    29
39.6341    29
39.6441    22
39.6541    21
39.6641    23
39.6741    30
39.6841    14
39.6941    19
39.7041    36
39.7141    18
39.7241    20
39.7341    30
39.7441    30
39.7541    15
39.7641    24
39.7741    26
39.7841    22
39.7941    27
39.8041    23
39.8141    26
39.8241    27
39.8341    26
39.8441    29
39.8541    17
39.8641    26
39.8741    18
39.8841    16
39.8941    24
39.9041    26
39.9141    23
39.9241    30
39.9341    18
39.9441    29
39.9541    25
39.9641    29
39.9741    19
39.9841    13
