Bruker Nano GmbH Berlin, Germany
Esprit 1.9

Date: 4/21/2021 2:38:10 PM
Real time: 25528
Life time: 24004
Pulse density: 87550


Detector type: XFlash 430
Window type: Custom type
Detector thickness: 0.45
Si dead layer:0.029

Calibration, lin.: 10
Calibration, abs.: -955.9
Mn FWHM: 137.05
Fano factor: 0.121
Channels: 4095

Energy Counts
-0.9559     0
-0.9459     0
-0.9359     0
-0.9259     0
-0.9159     0
-0.9059     0
-0.8959     0
-0.8859     0
-0.8759     0
-0.8659     0
-0.8559     0
-0.8459     0
-0.8359     0
-0.8259     0
-0.8159     0
-0.8059     0
-0.7959     0
-0.7859     0
-0.7759     0
-0.7659     0
-0.7559     0
-0.7459     0
-0.7359     0
-0.7259     0
-0.7159     0
-0.7059     0
-0.6959     0
-0.6859     0
-0.6759     0
-0.6659     0
-0.6559     0
-0.6459     0
-0.6359     0
-0.6259     0
-0.6159     0
-0.6059     0
-0.5959     0
-0.5859     0
-0.5759     0
-0.5659     0
-0.5559     0
-0.5459     0
-0.5359     0
-0.5259     0
-0.5159     0
-0.5059     0
-0.4959     0
-0.4859     0
-0.4759     0
-0.4659     0
-0.4559     0
-0.4459     0
-0.4359     0
-0.4259     0
-0.4159     0
-0.4059     0
-0.3959     0
-0.3859     0
-0.3759     0
-0.3659     0
-0.3559     0
-0.3459     0
-0.3359     0
-0.3259     0
-0.3159     0
-0.3059     0
-0.2959     0
-0.2859     0
-0.2759     0
-0.2659     0
-0.2559     0
-0.2459     0
-0.2359     0
-0.2259     0
-0.2159     0
-0.2059     0
-0.1959     0
-0.1859     0
-0.1759     0
-0.1659     0
-0.1559     0
-0.1459     0
-0.1359     1
-0.1259     0
-0.1159     5
-0.1059    14
-0.0959    84
-0.0859   278
-0.0759   923
-0.0659  2698
-0.0559  6946
-0.0459 15310
-0.0359 28525
-0.0259 45607
-0.0159 62380
-0.0059 73506
 0.0041 73928
 0.0141 63999
 0.0241 46938
 0.0341 30343
 0.0441 16157
 0.0541  7269
 0.0641  2964
 0.0741  1043
 0.0841   297
 0.0941    81
 0.1041    29
 0.1141    23
 0.1241    10
 0.1341     6
 0.1441     7
 0.1541    11
 0.1641     7
 0.1741     3
 0.1841   221
 0.1941   405
 0.2041   379
 0.2141   404
 0.2241   380
 0.2341   383
 0.2441   369
 0.2541   384
 0.2641   372
 0.2741   376
 0.2841   384
 0.2941   398
 0.3041   372
 0.3141   376
 0.3241   359
 0.3341   351
 0.3441   390
 0.3541   364
 0.3641   329
 0.3741   334
 0.3841   341
 0.3941   358
 0.4041   335
 0.4141   360
 0.4241   352
 0.4341   326
 0.4441   320
 0.4541   329
 0.4641   312
 0.4741   314
 0.4841   354
 0.4941   365
 0.5041   320
 0.5141   303
 0.5241   307
 0.5341   311
 0.5441   340
 0.5541   329
 0.5641   328
 0.5741   315
 0.5841   292
 0.5941   305
 0.6041   306
 0.6141   321
 0.6241   311
 0.6341   281
 0.6441   292
 0.6541   302
 0.6641   303
 0.6741   299
 0.6841   285
 0.6941   291
 0.7041   303
 0.7141   301
 0.7241   289
 0.7341   277
 0.7441   274
 0.7541   284
 0.7641   282
 0.7741   272
 0.7841   297
 0.7941   297
 0.8041   294
 0.8141   284
 0.8241   248
 0.8341   249
 0.8441   271
 0.8541   272
 0.8641   275
 0.8741   274
 0.8841   270
 0.8941   265
 0.9041   265
 0.9141   255
 0.9241   272
 0.9341   259
 0.9441   271
 0.9541   248
 0.9641   265
 0.9741   265
 0.9841   257
 0.9941   253
 1.0041   240
 1.0141   271
 1.0241   257
 1.0341   273
 1.0441   232
 1.0541   257
 1.0641   241
 1.0741   225
 1.0841   230
 1.0941   238
 1.1041   233
 1.1141   218
 1.1241   208
 1.1341   231
 1.1441   242
 1.1541   220
 1.1641   242
 1.1741   255
 1.1841   205
 1.1941   224
 1.2041   230
 1.2141   213
 1.2241   254
 1.2341   240
 1.2441   241
 1.2541   219
 1.2641   221
 1.2741   243
 1.2841   246
 1.2941   240
 1.3041   224
 1.3141   209
 1.3241   237
 1.3341   227
 1.3441   230
 1.3541   224
 1.3641   239
 1.3741   209
 1.3841   235
 1.3941   224
 1.4041   219
 1.4141   245
 1.4241   218
 1.4341   206
 1.4441   189
 1.4541   223
 1.4641   212
 1.4741   225
 1.4841   237
 1.4941   236
 1.5041   212
 1.5141   226
 1.5241   214
 1.5341   202
 1.5441   217
 1.5541   217
 1.5641   214
 1.5741   205
 1.5841   209
 1.5941   210
 1.6041   206
 1.6141   219
 1.6241   256
 1.6341   214
 1.6441   252
 1.6541   272
 1.6641   309
 1.6741   365
 1.6841   465
 1.6941   563
 1.7041   679
 1.7141   802
 1.7241   862
 1.7341   894
 1.7441   920
 1.7541   863
 1.7641   800
 1.7741   691
 1.7841   564
 1.7941   483
 1.8041   418
 1.8141   349
 1.8241   318
 1.8341   264
 1.8441   286
 1.8541   278
 1.8641   253
 1.8741   255
 1.8841   231
 1.8941   227
 1.9041   211
 1.9141   203
 1.9241   205
 1.9341   227
 1.9441   219
 1.9541   242
 1.9641   254
 1.9741   251
 1.9841   264
 1.9941   258
 2.0041   283
 2.0141   272
 2.0241   282
 2.0341   237
 2.0441   250
 2.0541   262
 2.0641   220
 2.0741   221
 2.0841   188
 2.0941   200
 2.1041   215
 2.1141   191
 2.1241   180
 2.1341   192
 2.1441   217
 2.1541   195
 2.1641   187
 2.1741   205
 2.1841   176
 2.1941   187
 2.2041   172
 2.2141   185
 2.2241   176
 2.2341   178
 2.2441   171
 2.2541   157
 2.2641   186
 2.2741   183
 2.2841   192
 2.2941   182
 2.3041   210
 2.3141   207
 2.3241   183
 2.3341   173
 2.3441   181
 2.3541   174
 2.3641   185
 2.3741   194
 2.3841   165
 2.3941   190
 2.4041   194
 2.4141   174
 2.4241   182
 2.4341   192
 2.4441   177
 2.4541   160
 2.4641   190
 2.4741   158
 2.4841   168
 2.4941   154
 2.5041   184
 2.5141   188
 2.5241   166
 2.5341   145
 2.5441   164
 2.5541   145
 2.5641   161
 2.5741   165
 2.5841   157
 2.5941   154
 2.6041   183
 2.6141   160
 2.6241   190
 2.6341   174
 2.6441   173
 2.6541   169
 2.6641   165
 2.6741   139
 2.6841   167
 2.6941   176
 2.7041   155
 2.7141   158
 2.7241   148
 2.7341   160
 2.7441   142
 2.7541   163
 2.7641   169
 2.7741   162
 2.7841   167
 2.7941   176
 2.8041   171
 2.8141   167
 2.8241   172
 2.8341   161
 2.8441   154
 2.8541   169
 2.8641   180
 2.8741   163
 2.8841   146
 2.8941   155
 2.9041   161
 2.9141   151
 2.9241   132
 2.9341   153
 2.9441   146
 2.9541   165
 2.9641   156
 2.9741   144
 2.9841   145
 2.9941   142
 3.0041   176
 3.0141   133
 3.0241   156
 3.0341   145
 3.0441   150
 3.0541   154
 3.0641   127
 3.0741   131
 3.0841   141
 3.0941   117
 3.1041   136
 3.1141   139
 3.1241   124
 3.1341   134
 3.1441   123
 3.1541   133
 3.1641   160
 3.1741   128
 3.1841   129
 3.1941   175
 3.2041   149
 3.2141   157
 3.2241   180
 3.2341   235
 3.2441   290
 3.2541   323
 3.2641   370
 3.2741   449
 3.2841   523
 3.2941   550
 3.3041   573
 3.3141   544
 3.3241   549
 3.3341   524
 3.3441   478
 3.3541   450
 3.3641   355
 3.3741   303
 3.3841   265
 3.3941   215
 3.4041   213
 3.4141   166
 3.4241   156
 3.4341   132
 3.4441   126
 3.4541   117
 3.4641   113
 3.4741   127
 3.4841   150
 3.4941   140
 3.5041   155
 3.5141   172
 3.5241   152
 3.5341   186
 3.5441   203
 3.5541   228
 3.5641   290
 3.5741   285
 3.5841   341
 3.5941   374
 3.6041   469
 3.6141   564
 3.6241   688
 3.6341   831
 3.6441   976
 3.6541  1116
 3.6641  1314
 3.6741  1379
 3.6841  1431
 3.6941  1439
 3.7041  1346
 3.7141  1222
 3.7241  1144
 3.7341   949
 3.7441   805
 3.7541   580
 3.7641   485
 3.7741   383
 3.7841   305
 3.7941   227
 3.8041   164
 3.8141   153
 3.8241   127
 3.8341   111
 3.8441   119
 3.8541   115
 3.8641   128
 3.8741   126
 3.8841   129
 3.8941   101
 3.9041   128
 3.9141   139
 3.9241   128
 3.9341   133
 3.9441   174
 3.9541   189
 3.9641   208
 3.9741   243
 3.9841   255
 3.9941   256
 4.0041   330
 4.0141   298
 4.0241   283
 4.0341   282
 4.0441   254
 4.0541   232
 4.0641   206
 4.0741   164
 4.0841   167
 4.0941   137
 4.1041   152
 4.1141   138
 4.1241   115
 4.1341   113
 4.1441   104
 4.1541    95
 4.1641   103
 4.1741   107
 4.1841    81
 4.1941   105
 4.2041    95
 4.2141    88
 4.2241    85
 4.2341    86
 4.2441    76
 4.2541    84
 4.2641   105
 4.2741    99
 4.2841    89
 4.2941    98
 4.3041   110
 4.3141    91
 4.3241    87
 4.3341    97
 4.3441   100
 4.3541   107
 4.3641    96
 4.3741   112
 4.3841   149
 4.3941   153
 4.4041   167
 4.4141   218
 4.4241   220
 4.4341   241
 4.4441   321
 4.4541   365
 4.4641   406
 4.4741   440
 4.4841   450
 4.4941   467
 4.5041   485
 4.5141   467
 4.5241   497
 4.5341   481
 4.5441   395
 4.5541   336
 4.5641   327
 4.5741   237
 4.5841   241
 4.5941   196
 4.6041   171
 4.6141   149
 4.6241   130
 4.6341   119
 4.6441   131
 4.6541   120
 4.6641   119
 4.6741   112
 4.6841   124
 4.6941   111
 4.7041   108
 4.7141   120
 4.7241    94
 4.7341   120
 4.7441   127
 4.7541   118
 4.7641   121
 4.7741   155
 4.7841   130
 4.7941   122
 4.8041   170
 4.8141   144
 4.8241   156
 4.8341   155
 4.8441   172
 4.8541   154
 4.8641   171
 4.8741   170
 4.8841   193
 4.8941   179
 4.9041   173
 4.9141   193
 4.9241   188
 4.9341   186
 4.9441   165
 4.9541   181
 4.9641   180
 4.9741   166
 4.9841   166
 4.9941   151
 5.0041   114
 5.0141   155
 5.0241   122
 5.0341   116
 5.0441   126
 5.0541   128
 5.0641   130
 5.0741   137
 5.0841   115
 5.0941   138
 5.1041   118
 5.1141   132
 5.1241   103
 5.1341   111
 5.1441   112
 5.1541   113
 5.1641   123
 5.1741   128
 5.1841   130
 5.1941   112
 5.2041   120
 5.2141   117
 5.2241   127
 5.2341   124
 5.2441   127
 5.2541   117
 5.2641   134
 5.2741   137
 5.2841   130
 5.2941   139
 5.3041   134
 5.3141   172
 5.3241   141
 5.3341   142
 5.3441   168
 5.3541   182
 5.3641   216
 5.3741   204
 5.3841   212
 5.3941   230
 5.4041   240
 5.4141   199
 5.4241   226
 5.4341   224
 5.4441   227
 5.4541   218
 5.4641   171
 5.4741   179
 5.4841   173
 5.4941   154
 5.5041   146
 5.5141   129
 5.5241   135
 5.5341   141
 5.5441   124
 5.5541   125
 5.5641   122
 5.5741   101
 5.5841   134
 5.5941   135
 5.6041   147
 5.6141   111
 5.6241   145
 5.6341   134
 5.6441   113
 5.6541   121
 5.6641   122
 5.6741   127
 5.6841   131
 5.6941   136
 5.7041   129
 5.7141   143
 5.7241   145
 5.7341   152
 5.7441   160
 5.7541   156
 5.7641   196
 5.7741   235
 5.7841   250
 5.7941   289
 5.8041   340
 5.8141   399
 5.8241   466
 5.8341   584
 5.8441   654
 5.8541   665
 5.8641   791
 5.8741   850
 5.8841   850
 5.8941   863
 5.9041   852
 5.9141   856
 5.9241   792
 5.9341   661
 5.9441   675
 5.9541   551
 5.9641   498
 5.9741   463
 5.9841   372
 5.9941   299
 6.0041   296
 6.0141   223
 6.0241   212
 6.0341   189
 6.0441   178
 6.0541   171
 6.0641   167
 6.0741   167
 6.0841   163
 6.0941   166
 6.1041   162
 6.1141   166
 6.1241   155
 6.1341   166
 6.1441   185
 6.1541   171
 6.1641   204
 6.1741   234
 6.1841   244
 6.1941   284
 6.2041   308
 6.2141   370
 6.2241   488
 6.2341   656
 6.2441   911
 6.2541  1264
 6.2641  1639
 6.2741  2243
 6.2841  3056
 6.2941  4079
 6.3041  5296
 6.3141  6699
 6.3241  8153
 6.3341  9796
 6.3441 11405
 6.3541 13055
 6.3641 14648
 6.3741 15874
 6.3841 16685
 6.3941 17232
 6.4041 17121
 6.4141 16686
 6.4241 15900
 6.4341 14478
 6.4441 12917
 6.4541 11555
 6.4641  9580
 6.4741  7954
 6.4841  6362
 6.4941  5081
 6.5041  3858
 6.5141  2916
 6.5241  2080
 6.5341  1593
 6.5441  1136
 6.5541   857
 6.5641   615
 6.5741   470
 6.5841   376
 6.5941   299
 6.6041   256
 6.6141   237
 6.6241   192
 6.6341   172
 6.6441   219
 6.6541   211
 6.6641   192
 6.6741   211
 6.6841   197
 6.6941   176
 6.7041   212
 6.7141   204
 6.7241   175
 6.7341   200
 6.7441   185
 6.7541   188
 6.7641   194
 6.7741   213
 6.7841   187
 6.7941   203
 6.8041   213
 6.8141   200
 6.8241   242
 6.8341   217
 6.8441   255
 6.8541   270
 6.8641   273
 6.8741   282
 6.8841   336
 6.8941   369
 6.9041   434
 6.9141   567
 6.9241   668
 6.9341   777
 6.9441   918
 6.9541  1090
 6.9641  1293
 6.9741  1487
 6.9841  1736
 6.9941  2008
 7.0041  2318
 7.0141  2450
 7.0241  2751
 7.0341  2990
 7.0441  2966
 7.0541  3187
 7.0641  2958
 7.0741  2810
 7.0841  2789
 7.0941  2548
 7.1041  2265
 7.1141  2025
 7.1241  1696
 7.1341  1520
 7.1441  1256
 7.1541  1076
 7.1641   855
 7.1741   758
 7.1841   597
 7.1941   471
 7.2041   410
 7.2141   346
 7.2241   332
 7.2341   273
 7.2441   305
 7.2541   264
 7.2641   273
 7.2741   245
 7.2841   257
 7.2941   269
 7.3041   258
 7.3141   295
 7.3241   304
 7.3341   326
 7.3441   348
 7.3541   336
 7.3641   377
 7.3741   411
 7.3841   415
 7.3941   437
 7.4041   425
 7.4141   440
 7.4241   481
 7.4341   511
 7.4441   457
 7.4541   469
 7.4641   477
 7.4741   500
 7.4841   478
 7.4941   460
 7.5041   424
 7.5141   416
 7.5241   393
 7.5341   388
 7.5441   348
 7.5541   336
 7.5641   311
 7.5741   307
 7.5841   296
 7.5941   240
 7.6041   277
 7.6141   286
 7.6241   300
 7.6341   279
 7.6441   258
 7.6541   232
 7.6641   269
 7.6741   282
 7.6841   298
 7.6941   293
 7.7041   245
 7.7141   263
 7.7241   328
 7.7341   301
 7.7441   308
 7.7541   318
 7.7641   323
 7.7741   310
 7.7841   339
 7.7941   318
 7.8041   339
 7.8141   349
 7.8241   347
 7.8341   371
 7.8441   370
 7.8541   376
 7.8641   392
 7.8741   413
 7.8841   407
 7.8941   416
 7.9041   429
 7.9141   439
 7.9241   464
 7.9341   455
 7.9441   549
 7.9541   565
 7.9641   625
 7.9741   627
 7.9841   656
 7.9941   767
 8.0041   791
 8.0141   835
 8.0241   892
 8.0341   922
 8.0441   985
 8.0541  1074
 8.0641  1128
 8.0741  1233
 8.0841  1232
 8.0941  1305
 8.1041  1424
 8.1141  1485
 8.1241  1584
 8.1341  1600
 8.1441  1613
 8.1541  1723
 8.1641  1728
 8.1741  1683
 8.1841  1789
 8.1941  1854
 8.2041  1858
 8.2141  1821
 8.2241  1891
 8.2341  1964
 8.2441  1971
 8.2541  2097
 8.2641  2151
 8.2741  2203
 8.2841  2328
 8.2941  2558
 8.3041  2822
 8.3141  2954
 8.3241  3264
 8.3341  3457
 8.3441  3693
 8.3541  3823
 8.3641  4098
 8.3741  4188
 8.3841  4212
 8.3941  4202
 8.4041  4052
 8.4141  4000
 8.4241  3844
 8.4341  3622
 8.4441  3238
 8.4541  2872
 8.4641  2671
 8.4741  2306
 8.4841  1956
 8.4941  1575
 8.5041  1327
 8.5141  1213
 8.5241   984
 8.5341   846
 8.5441   734
 8.5541   624
 8.5641   596
 8.5741   541
 8.5841   548
 8.5941   524
 8.6041   486
 8.6141   468
 8.6241   483
 8.6341   499
 8.6441   508
 8.6541   474
 8.6641   477
 8.6741   474
 8.6841   469
 8.6941   452
 8.7041   422
 8.7141   447
 8.7241   429
 8.7341   439
 8.7441   443
 8.7541   432
 8.7641   420
 8.7741   411
 8.7841   403
 8.7941   432
 8.8041   409
 8.8141   393
 8.8241   394
 8.8341   388
 8.8441   377
 8.8541   383
 8.8641   399
 8.8741   365
 8.8841   358
 8.8941   401
 8.9041   420
 8.9141   420
 8.9241   415
 8.9341   402
 8.9441   434
 8.9541   432
 8.9641   452
 8.9741   462
 8.9841   456
 8.9941   452
 9.0041   453
 9.0141   462
 9.0241   479
 9.0341   502
 9.0441   514
 9.0541   547
 9.0641   538
 9.0741   583
 9.0841   551
 9.0941   600
 9.1041   608
 9.1141   656
 9.1241   677
 9.1341   671
 9.1441   696
 9.1541   748
 9.1641   797
 9.1741   827
 9.1841   842
 9.1941   886
 9.2041   931
 9.2141   961
 9.2241  1028
 9.2341  1084
 9.2441  1158
 9.2541  1210
 9.2641  1291
 9.2741  1365
 9.2841  1316
 9.2941  1386
 9.3041  1409
 9.3141  1485
 9.3241  1548
 9.3341  1580
 9.3441  1614
 9.3541  1642
 9.3641  1654
 9.3741  1629
 9.3841  1778
 9.3941  1761
 9.4041  1767
 9.4141  1811
 9.4241  1845
 9.4341  1891
 9.4441  1928
 9.4541  1869
 9.4641  1871
 9.4741  1975
 9.4841  2057
 9.4941  2064
 9.5041  2058
 9.5141  2127
 9.5241  2274
 9.5341  2263
 9.5441  2360
 9.5541  2444
 9.5641  2508
 9.5741  2737
 9.5841  2955
 9.5941  3105
 9.6041  3290
 9.6141  3455
 9.6241  3589
 9.6341  3698
 9.6441  3742
 9.6541  3841
 9.6641  3931
 9.6741  3925
 9.6841  3805
 9.6941  3803
 9.7041  3563
 9.7141  3380
 9.7241  3216
 9.7341  3003
 9.7441  2858
 9.7541  2576
 9.7641  2388
 9.7741  2181
 9.7841  2054
 9.7941  1888
 9.8041  1747
 9.8141  1700
 9.8241  1615
 9.8341  1567
 9.8441  1570
 9.8541  1550
 9.8641  1558
 9.8741  1564
 9.8841  1552
 9.8941  1593
 9.9041  1694
 9.9141  1747
 9.9241  1696
 9.9341  1715
 9.9441  1742
 9.9541  1653
 9.9641  1614
 9.9741  1654
 9.9841  1592
 9.9941  1519
10.0041  1422
10.0141  1341
10.0241  1269
10.0341  1150
10.0441  1018
10.0541   930
10.0641   857
10.0741   746
10.0841   698
10.0941   636
10.1041   571
10.1141   511
10.1241   459
10.1341   422
10.1441   412
10.1541   419
10.1641   351
10.1741   327
10.1841   324
10.1941   320
10.2041   321
10.2141   306
10.2241   309
10.2341   294
10.2441   254
10.2541   248
10.2641   265
10.2741   248
10.2841   254
10.2941   254
10.3041   256
10.3141   220
10.3241   231
10.3341   231
10.3441   211
10.3541   220
10.3641   205
10.3741   216
10.3841   228
10.3941   209
10.4041   233
10.4141   232
10.4241   225
10.4341   211
10.4441   213
10.4541   230
10.4641   237
10.4741   213
10.4841   234
10.4941   235
10.5041   257
10.5141   266
10.5241   236
10.5341   228
10.5441   241
10.5541   264
10.5641   256
10.5741   248
10.5841   278
10.5941   276
10.6041   257
10.6141   250
10.6241   255
10.6341   261
10.6441   282
10.6541   274
10.6641   259
10.6741   248
10.6841   251
10.6941   251
10.7041   278
10.7141   283
10.7241   281
10.7341   288
10.7441   296
10.7541   297
10.7641   322
10.7741   315
10.7841   317
10.7941   329
10.8041   349
10.8141   360
10.8241   331
10.8341   342
10.8441   367
10.8541   376
10.8641   378
10.8741   377
10.8841   381
10.8941   388
10.9041   390
10.9141   380
10.9241   397
10.9341   375
10.9441   376
10.9541   395
10.9641   389
10.9741   416
10.9841   408
10.9941   384
11.0041   371
11.0141   373
11.0241   400
11.0341   386
11.0441   365
11.0541   346
11.0641   322
11.0741   352
11.0841   355
11.0941   334
11.1041   354
11.1141   358
11.1241   351
11.1341   358
11.1441   355
11.1541   364
11.1641   376
11.1741   436
11.1841   415
11.1941   438
11.2041   479
11.2141   500
11.2241   534
11.2341   560
11.2441   559
11.2541   568
11.2641   584
11.2741   569
11.2841   565
11.2941   574
11.3041   584
11.3141   571
11.3241   545
11.3341   501
11.3441   472
11.3541   437
11.3641   404
11.3741   419
11.3841   369
11.3941   344
11.4041   367
11.4141   324
11.4241   292
11.4341   323
11.4441   308
11.4541   289
11.4641   299
11.4741   282
11.4841   270
11.4941   282
11.5041   259
11.5141   250
11.5241   260
11.5341   276
11.5441   279
11.5541   282
11.5641   272
11.5741   308
11.5841   290
11.5941   290
11.6041   289
11.6141   303
11.6241   305
11.6341   298
11.6441   276
11.6541   275
11.6641   288
11.6741   285
11.6841   280
11.6941   251
11.7041   262
11.7141   245
11.7241   243
11.7341   233
11.7441   245
11.7541   237
11.7641   232
11.7741   222
11.7841   231
11.7941   229
11.8041   221
11.8141   227
11.8241   222
11.8341   200
11.8441   197
11.8541   229
11.8641   223
11.8741   214
11.8841   198
11.8941   202
11.9041   215
11.9141   227
11.9241   222
11.9341   214
11.9441   216
11.9541   211
11.9641   228
11.9741   222
11.9841   216
11.9941   227
12.0041   224
12.0141   216
12.0241   208
12.0341   224
12.0441   231
12.0541   241
12.0641   236
12.0741   229
12.0841   240
12.0941   236
12.1041   213
12.1141   208
12.1241   216
12.1341   220
12.1441   217
12.1541   229
12.1641   222
12.1741   213
12.1841   202
12.1941   210
12.2041   198
12.2141   200
12.2241   187
12.2341   188
12.2441   200
12.2541   200
12.2641   214
12.2741   219
12.2841   217
12.2941   214
12.3041   187
12.3141   187
12.3241   212
12.3341   219
12.3441   211
12.3541   212
12.3641   205
12.3741   214
12.3841   202
12.3941   214
12.4041   226
12.4141   208
12.4241   202
12.4341   218
12.4441   205
12.4541   203
12.4641   232
12.4741   227
12.4841   201
12.4941   217
12.5041   237
12.5141   237
12.5241   221
12.5341   227
12.5441   230
12.5541   233
12.5641   228
12.5741   231
12.5841   225
12.5941   226
12.6041   217
12.6141   223
12.6241   237
12.6341   230
12.6441   223
12.6541   227
12.6641   239
12.6741   248
12.6841   238
12.6941   226
12.7041   246
12.7141   245
12.7241   228
12.7341   239
12.7441   223
12.7541   212
12.7641   219
12.7741   218
12.7841   217
12.7941   227
12.8041   238
12.8141   242
12.8241   239
12.8341   235
12.8441   231
12.8541   228
12.8641   225
12.8741   229
12.8841   240
12.8941   247
12.9041   243
12.9141   238
12.9241   242
12.9341   249
12.9441   251
12.9541   247
12.9641   247
12.9741   254
12.9841   260
12.9941   261
13.0041   255
13.0141   247
13.0241   243
13.0341   249
13.0441   255
13.0541   253
13.0641   254
13.0741   250
13.0841   239
13.0941   237
13.1041   240
13.1141   234
13.1241   225
13.1341   246
13.1441   242
13.1541   238
13.1641   252
13.1741   265
13.1841   268
13.1941   271
13.2041   310
13.2141   322
13.2241   313
13.2341   317
13.2441   349
13.2541   379
13.2641   361
13.2741   358
13.2841   380
13.2941   404
13.3041   439
13.3141   436
13.3241   448
13.3341   467
13.3441   495
13.3541   528
13.3641   532
13.3741   549
13.3841   550
13.3941   542
13.4041   527
13.4141   517
13.4241   491
13.4341   471
13.4441   475
13.4541   464
13.4641   419
13.4741   396
13.4841   399
13.4941   379
13.5041   360
13.5141   346
13.5241   351
13.5341   337
13.5441   323
13.5541   313
13.5641   289
13.5741   285
13.5841   298
13.5941   296
13.6041   281
13.6141   295
13.6241   300
13.6341   291
13.6441   298
13.6541   302
13.6641   298
13.6741   301
13.6841   313
13.6941   319
13.7041   303
13.7141   300
13.7241   306
13.7341   303
13.7441   297
13.7541   300
13.7641   285
13.7741   287
13.7841   301
13.7941   317
13.8041   317
13.8141   316
13.8241   317
13.8341   287
13.8441   296
13.8541   310
13.8641   308
13.8741   310
13.8841   326
13.8941   334
13.9041   321
13.9141   341
13.9241   367
13.9341   363
13.9441   359
13.9541   353
13.9641   363
13.9741   404
13.9841   415
13.9941   422
14.0041   437
14.0141   444
14.0241   447
14.0341   487
14.0441   539
14.0541   542
14.0641   568
14.0741   622
14.0841   639
14.0941   625
14.1041   669
14.1141   692
14.1241   672
14.1341   663
14.1441   681
14.1541   712
14.1641   711
14.1741   710
14.1841   698
14.1941   674
14.2041   630
14.2141   617
14.2241   604
14.2341   558
14.2441   537
14.2541   504
14.2641   474
14.2741   464
14.2841   440
14.2941   429
14.3041   414
14.3141   385
14.3241   371
14.3341   364
14.3441   362
14.3541   377
14.3641   366
14.3741   338
14.3841   342
14.3941   350
14.4041   325
14.4141   315
14.4241   342
14.4341   353
14.4441   344
14.4541   352
14.4641   359
14.4741   348
14.4841   345
14.4941   347
14.5041   336
14.5141   340
14.5241   336
14.5341   336
14.5441   342
14.5541   337
14.5641   345
14.5741   339
14.5841   357
14.5941   360
14.6041   335
14.6141   349
14.6241   336
14.6341   321
14.6441   344
14.6541   344
14.6641   349
14.6741   361
14.6841   361
14.6941   364
14.7041   350
14.7141   368
14.7241   389
14.7341   363
14.7441   365
14.7541   393
14.7641   393
14.7741   388
14.7841   385
14.7941   390
14.8041   392
14.8141   397
14.8241   419
14.8341   424
14.8441   440
14.8541   444
14.8641   440
14.8741   428
14.8841   455
14.8941   469
14.9041   460
14.9141   467
14.9241   465
14.9341   462
14.9441   454
14.9541   455
14.9641   463
14.9741   473
14.9841   454
14.9941   481
15.0041   472
15.0141   456
15.0241   463
15.0341   447
15.0441   439
15.0541   431
15.0641   448
15.0741   428
15.0841   405
15.0941   410
15.1041   398
15.1141   383
15.1241   408
15.1341   410
15.1441   392
15.1541   386
15.1641   380
15.1741   393
15.1841   418
15.1941   414
15.2041   403
15.2141   414
15.2241   424
15.2341   417
15.2441   412
15.2541   407
15.2641   430
15.2741   436
15.2841   427
15.2941   414
15.3041   403
15.3141   417
15.3241   411
15.3341   412
15.3441   423
15.3541   424
15.3641   407
15.3741   411
15.3841   420
15.3941   413
15.4041   426
15.4141   410
15.4241   437
15.4341   439
15.4441   410
15.4541   416
15.4641   416
15.4741   431
15.4841   424
15.4941   444
15.5041   459
15.5141   431
15.5241   463
15.5341   511
15.5441   499
15.5541   522
15.5641   552
15.5741   566
15.5841   571
15.5941   602
15.6041   652
15.6141   671
15.6241   667
15.6341   704
15.6441   743
15.6541   803
15.6641   885
15.6741   881
15.6841   884
15.6941   940
15.7041   940
15.7141   983
15.7241  1027
15.7341  1057
15.7441  1096
15.7541  1067
15.7641  1024
15.7741  1042
15.7841  1042
15.7941  1034
15.8041   978
15.8141   941
15.8241   923
15.8341   892
15.8441   843
15.8541   807
15.8641   797
15.8741   790
15.8841   755
15.8941   703
15.9041   666
15.9141   671
15.9241   602
15.9341   565
15.9441   542
15.9541   528
15.9641   514
15.9741   516
15.9841   505
15.9941   512
16.0041   504
16.0141   492
16.0241   505
16.0341   496
16.0441   503
16.0541   497
16.0641   480
16.0741   485
16.0841   476
16.0941   474
16.1041   465
16.1141   470
16.1241   479
16.1341   495
16.1441   503
16.1541   509
16.1641   492
16.1741   505
16.1841   508
16.1941   502
16.2041   502
16.2141   489
16.2241   502
16.2341   506
16.2441   522
16.2541   518
16.2641   515
16.2741   511
16.2841   525
16.2941   516
16.3041   517
16.3141   509
16.3241   489
16.3341   513
16.3441   524
16.3541   510
16.3641   489
16.3741   506
16.3841   511
16.3941   497
16.4041   500
16.4141   506
16.4241   526
16.4341   505
16.4441   502
16.4541   528
16.4641   547
16.4741   544
16.4841   552
16.4941   567
16.5041   551
16.5141   540
16.5241   570
16.5341   594
16.5441   600
16.5541   580
16.5641   595
16.5741   618
16.5841   613
16.5941   635
16.6041   648
16.6141   647
16.6241   591
16.6341   539
16.6441   594
16.6541   577
16.6641   539
16.6741   566
16.6841   587
16.6941   594
16.7041   559
16.7141   562
16.7241   553
16.7341   571
16.7441   578
16.7541   566
16.7641   561
16.7741   568
16.7841   584
16.7941   579
16.8041   552
16.8141   548
16.8241   556
16.8341   533
16.8441   546
16.8541   563
16.8641   548
16.8741   542
16.8841   535
16.8941   549
16.9041   525
16.9141   543
16.9241   576
16.9341   541
16.9441   514
16.9541   530
16.9641   545
16.9741   538
16.9841   546
16.9941   550
17.0041   588
17.0141   545
17.0241   546
17.0341   557
17.0441   526
17.0541   540
17.0641   562
17.0741   574
17.0841   545
17.0941   553
17.1041   565
17.1141   558
17.1241   589
17.1341   573
17.1441   547
17.1541   543
17.1641   550
17.1741   591
17.1841   567
17.1941   559
17.2041   606
17.2141   574
17.2241   570
17.2341   568
17.2441   573
17.2541   567
17.2641   548
17.2741   573
17.2841   551
17.2941   592
17.3041   584
17.3141   556
17.3241   599
17.3341   592
17.3441   576
17.3541   591
17.3641   587
17.3741   585
17.3841   627
17.3941   615
17.4041   596
17.4141   586
17.4241   584
17.4341   588
17.4441   618
17.4541   620
17.4641   615
17.4741   633
17.4841   615
17.4941   594
17.5041   640
17.5141   656
17.5241   635
17.5341   622
17.5441   687
17.5541   636
17.5641   641
17.5741   677
17.5841   680
17.5941   647
17.6041   636
17.6141   675
17.6241   689
17.6341   678
17.6441   682
17.6541   725
17.6641   725
17.6741   687
17.6841   662
17.6941   671
17.7041   675
17.7141   700
17.7241   721
17.7341   667
17.7441   682
17.7541   667
17.7641   644
17.7741   638
17.7841   644
17.7941   674
17.8041   675
17.8141   673
17.8241   694
17.8341   657
17.8441   649
17.8541   635
17.8641   615
17.8741   620
17.8841   631
17.8941   605
17.9041   641
17.9141   667
17.9241   641
17.9341   664
17.9441   641
17.9541   629
17.9641   601
17.9741   667
17.9841   650
17.9941   635
18.0041   628
18.0141   651
18.0241   661
18.0341   649
18.0441   592
18.0541   643
18.0641   662
18.0741   630
18.0841   624
18.0941   617
18.1041   621
18.1141   617
18.1241   647
18.1341   659
18.1441   675
18.1541   632
18.1641   650
18.1741   619
18.1841   659
18.1941   649
18.2041   648
18.2141   638
18.2241   624
18.2341   625
18.2441   632
18.2541   677
18.2641   647
18.2741   665
18.2841   655
18.2941   678
18.3041   694
18.3141   634
18.3241   643
18.3341   656
18.3441   654
18.3541   630
18.3641   643
18.3741   648
18.3841   649
18.3941   675
18.4041   649
18.4141   649
18.4241   647
18.4341   673
18.4441   659
18.4541   653
18.4641   640
18.4741   668
18.4841   664
18.4941   637
18.5041   671
18.5141   698
18.5241   675
18.5341   654
18.5441   658
18.5541   715
18.5641   689
18.5741   689
18.5841   720
18.5941   675
18.6041   674
18.6141   691
18.6241   682
18.6341   659
18.6441   708
18.6541   694
18.6641   621
18.6741   677
18.6841   709
18.6941   684
18.7041   692
18.7141   665
18.7241   692
18.7341   678
18.7441   651
18.7541   701
18.7641   665
18.7741   704
18.7841   676
18.7941   678
18.8041   701
18.8141   710
18.8241   688
18.8341   728
18.8441   668
18.8541   690
18.8641   686
18.8741   683
18.8841   662
18.8941   688
18.9041   680
18.9141   689
18.9241   716
18.9341   734
18.9441   712
18.9541   700
18.9641   672
18.9741   675
18.9841   694
18.9941   700
19.0041   679
19.0141   699
19.0241   703
19.0341   692
19.0441   695
19.0541   718
19.0641   704
19.0741   675
19.0841   638
19.0941   687
19.1041   724
19.1141   710
19.1241   675
19.1341   679
19.1441   685
19.1541   704
19.1641   707
19.1741   699
19.1841   675
19.1941   690
19.2041   701
19.2141   727
19.2241   667
19.2341   705
19.2441   732
19.2541   738
19.2641   719
19.2741   763
19.2841   722
19.2941   719
19.3041   707
19.3141   704
19.3241   713
19.3341   689
19.3441   692
19.3541   730
19.3641   742
19.3741   709
19.3841   724
19.3941   689
19.4041   711
19.4141   703
19.4241   740
19.4341   725
19.4441   673
19.4541   714
19.4641   675
19.4741   716
19.4841   707
19.4941   729
19.5041   703
19.5141   730
19.5241   728
19.5341   720
19.5441   724
19.5541   708
19.5641   707
19.5741   705
19.5841   701
19.5941   684
19.6041   737
19.6141   721
19.6241   740
19.6341   735
19.6441   747
19.6541   751
19.6641   761
19.6741   712
19.6841   723
19.6941   754
19.7041   735
19.7141   729
19.7241   730
19.7341   746
19.7441   696
19.7541   723
19.7641   768
19.7741   751
19.7841   752
19.7941   718
19.8041   711
19.8141   721
19.8241   751
19.8341   739
19.8441   717
19.8541   749
19.8641   754
19.8741   747
19.8841   750
19.8941   752
19.9041   728
19.9141   749
19.9241   724
19.9341   704
19.9441   712
19.9541   732
19.9641   766
19.9741   724
19.9841   744
19.9941   750
20.0041   770
20.0141   713
20.0241   766
20.0341   736
20.0441   725
20.0541   734
20.0641   727
20.0741   725
20.0841   715
20.0941   738
20.1041   701
20.1141   680
20.1241   789
20.1341   722
20.1441   719
20.1541   744
20.1641   742
20.1741   725
20.1841   740
20.1941   765
20.2041   747
20.2141   743
20.2241   744
20.2341   728
20.2441   719
20.2541   723
20.2641   706
20.2741   730
20.2841   733
20.2941   722
20.3041   701
20.3141   784
20.3241   761
20.3341   709
20.3441   683
20.3541   742
20.3641   733
20.3741   720
20.3841   734
20.3941   741
20.4041   715
20.4141   717
20.4241   719
20.4341   743
20.4441   750
20.4541   747
20.4641   732
20.4741   731
20.4841   721
20.4941   728
20.5041   718
20.5141   716
20.5241   725
20.5341   702
20.5441   739
20.5541   734
20.5641   798
20.5741   754
20.5841   748
20.5941   751
20.6041   766
20.6141   755
20.6241   749
20.6341   773
20.6441   739
20.6541   729
20.6641   703
20.6741   756
20.6841   790
20.6941   732
20.7041   743
20.7141   703
20.7241   762
20.7341   800
20.7441   765
20.7541   776
20.7641   786
20.7741   774
20.7841   765
20.7941   819
20.8041   752
20.8141   776
20.8241   713
20.8341   784
20.8441   818
20.8541   789
20.8641   777
20.8741   834
20.8841   835
20.8941   824
20.9041   848
20.9141   898
20.9241   899
20.9341   899
20.9441   896
20.9541   956
20.9641   879
20.9741   941
20.9841   952
20.9941   978
21.0041   984
21.0141  1030
21.0241  1073
21.0341  1030
21.0441  1001
21.0541  1032
21.0641  1066
21.0741  1086
21.0841  1069
21.0941  1085
21.1041  1051
21.1141  1095
21.1241  1100
21.1341  1117
21.1441  1105
21.1541  1075
21.1641  1081
21.1741  1104
21.1841  1107
21.1941  1098
21.2041  1062
21.2141  1031
21.2241   939
21.2341  1000
21.2441   967
21.2541   980
21.2641   949
21.2741   969
21.2841   918
21.2941   915
21.3041   846
21.3141   892
21.3241   870
21.3341   848
21.3441   832
21.3541   833
21.3641   773
21.3741   765
21.3841   723
21.3941   753
21.4041   770
21.4141   774
21.4241   775
21.4341   722
21.4441   755
21.4541   754
21.4641   784
21.4741   783
21.4841   749
21.4941   761
21.5041   797
21.5141   719
21.5241   772
21.5341   782
21.5441   768
21.5541   750
21.5641   804
21.5741   746
21.5841   686
21.5941   735
21.6041   729
21.6141   772
21.6241   760
21.6341   755
21.6441   738
21.6541   684
21.6641   683
21.6741   717
21.6841   738
21.6941   706
21.7041   778
21.7141   748
21.7241   759
21.7341   782
21.7441   726
21.7541   701
21.7641   768
21.7741   738
21.7841   738
21.7941   740
21.8041   758
21.8141   749
21.8241   784
21.8341   733
21.8441   732
21.8541   717
21.8641   755
21.8741   757
21.8841   722
21.8941   757
21.9041   734
21.9141   730
21.9241   781
21.9341   708
21.9441   730
21.9541   778
21.9641   699
21.9741   689
21.9841   767
21.9941   771
22.0041   753
22.0141   746
22.0241   733
22.0341   746
22.0441   714
22.0541   750
22.0641   776
22.0741   779
22.0841   763
22.0941   758
22.1041   710
22.1141   728
22.1241   751
22.1341   778
22.1441   756
22.1541   744
22.1641   765
22.1741   795
22.1841   731
22.1941   749
22.2041   744
22.2141   738
22.2241   745
22.2341   682
22.2441   744
22.2541   718
22.2641   775
22.2741   725
22.2841   742
22.2941   784
22.3041   749
22.3141   690
22.3241   749
22.3341   736
22.3441   732
22.3541   690
22.3641   744
22.3741   758
22.3841   721
22.3941   706
22.4041   752
22.4141   758
22.4241   721
22.4341   734
22.4441   770
22.4541   712
22.4641   715
22.4741   737
22.4841   710
22.4941   746
22.5041   739
22.5141   722
22.5241   763
22.5341   752
22.5441   702
22.5541   697
22.5641   693
22.5741   782
22.5841   754
22.5941   707
22.6041   713
22.6141   739
22.6241   686
22.6341   738
22.6441   761
22.6541   747
22.6641   709
22.6741   690
22.6841   722
22.6941   714
22.7041   736
22.7141   747
22.7241   732
22.7341   748
22.7441   726
22.7541   694
22.7641   755
22.7741   734
22.7841   728
22.7941   742
22.8041   741
22.8141   681
22.8241   720
22.8341   708
22.8441   739
22.8541   723
22.8641   703
22.8741   708
22.8841   710
22.8941   695
22.9041   777
22.9141   735
22.9241   766
22.9341   705
22.9441   694
22.9541   695
22.9641   683
22.9741   746
22.9841   754
22.9941   699
23.0041   704
23.0141   674
23.0241   735
23.0341   687
23.0441   732
23.0541   742
23.0641   724
23.0741   747
23.0841   724
23.0941   729
23.1041   723
23.1141   678
23.1241   667
23.1341   665
23.1441   731
23.1541   708
23.1641   718
23.1741   693
23.1841   703
23.1941   694
23.2041   697
23.2141   701
23.2241   712
23.2341   725
23.2441   658
23.2541   687
23.2641   761
23.2741   665
23.2841   727
23.2941   666
23.3041   686
23.3141   682
23.3241   716
23.3341   742
23.3441   709
23.3541   688
23.3641   681
23.3741   735
23.3841   692
23.3941   697
23.4041   692
23.4141   703
23.4241   713
23.4341   704
23.4441   685
23.4541   698
23.4641   736
23.4741   738
23.4841   685
23.4941   715
23.5041   682
23.5141   724
23.5241   721
23.5341   717
23.5441   755
23.5541   695
23.5641   718
23.5741   714
23.5841   708
23.5941   706
23.6041   718
23.6141   704
23.6241   719
23.6341   749
23.6441   733
23.6541   692
23.6641   651
23.6741   722
23.6841   757
23.6941   700
23.7041   754
23.7141   708
23.7241   740
23.7341   765
23.7441   746
23.7541   782
23.7641   723
23.7741   774
23.7841   755
23.7941   724
23.8041   782
23.8141   721
23.8241   737
23.8341   708
23.8441   771
23.8541   798
23.8641   748
23.8741   723
23.8841   719
23.8941   736
23.9041   701
23.9141   704
23.9241   757
23.9341   675
23.9441   726
23.9541   721
23.9641   698
23.9741   702
23.9841   696
23.9941   693
24.0041   649
24.0141   663
24.0241   709
24.0341   642
24.0441   658
24.0541   693
24.0641   677
24.0741   661
24.0841   659
24.0941   684
24.1041   718
24.1141   657
24.1241   701
24.1341   671
24.1441   657
24.1541   675
24.1641   682
24.1741   643
24.1841   665
24.1941   666
24.2041   674
24.2141   680
24.2241   691
24.2341   660
24.2441   609
24.2541   645
24.2641   670
24.2741   661
24.2841   659
24.2941   667
24.3041   705
24.3141   703
24.3241   673
24.3341   711
24.3441   671
24.3541   667
24.3641   707
24.3741   644
24.3841   681
24.3941   698
24.4041   668
24.4141   669
24.4241   669
24.4341   628
24.4441   665
24.4541   636
24.4641   638
24.4741   639
24.4841   648
24.4941   633
24.5041   685
24.5141   685
24.5241   683
24.5341   695
24.5441   640
24.5541   623
24.5641   630
24.5741   637
24.5841   671
24.5941   612
24.6041   594
24.6141   608
24.6241   644
24.6341   610
24.6441   627
24.6541   623
24.6641   630
24.6741   623
24.6841   652
24.6941   640
24.7041   630
24.7141   585
24.7241   659
24.7341   640
24.7441   623
24.7541   619
24.7641   645
24.7741   622
24.7841   645
24.7941   641
24.8041   638
24.8141   605
24.8241   678
24.8341   645
24.8441   628
24.8541   619
24.8641   632
24.8741   658
24.8841   635
24.8941   651
24.9041   671
24.9141   644
24.9241   664
24.9341   646
24.9441   639
24.9541   597
24.9641   626
24.9741   659
24.9841   639
24.9941   650
25.0041   671
25.0141   652
25.0241   608
25.0341   654
25.0441   660
25.0541   663
25.0641   664
25.0741   623
25.0841   598
25.0941   659
25.1041   607
25.1141   603
25.1241   630
25.1341   655
25.1441   648
25.1541   661
25.1641   683
25.1741   600
25.1841   596
25.1941   630
25.2041   648
25.2141   670
25.2241   666
25.2341   631
25.2441   636
25.2541   625
25.2641   630
25.2741   579
25.2841   617
25.2941   692
25.3041   686
25.3141   643
25.3241   625
25.3341   620
25.3441   619
25.3541   572
25.3641   635
25.3741   647
25.3841   634
25.3941   614
25.4041   607
25.4141   625
25.4241   604
25.4341   620
25.4441   624
25.4541   604
25.4641   612
25.4741   634
25.4841   612
25.4941   591
25.5041   580
25.5141   609
25.5241   606
25.5341   593
25.5441   607
25.5541   565
25.5641   589
25.5741   598
25.5841   601
25.5941   589
25.6041   593
25.6141   570
25.6241   587
25.6341   633
25.6441   611
25.6541   595
25.6641   559
25.6741   630
25.6841   613
25.6941   621
25.7041   589
25.7141   599
25.7241   574
25.7341   564
25.7441   602
25.7541   611
25.7641   569
25.7741   592
25.7841   604
25.7941   554
25.8041   574
25.8141   541
25.8241   583
25.8341   584
25.8441   577
25.8541   588
25.8641   591
25.8741   628
25.8841   599
25.8941   583
25.9041   550
25.9141   552
25.9241   582
25.9341   553
25.9441   563
25.9541   533
25.9641   560
25.9741   569
25.9841   559
25.9941   588
26.0041   571
26.0141   564
26.0241   589
26.0341   563
26.0441   560
26.0541   547
26.0641   585
26.0741   562
26.0841   564
26.0941   553
26.1041   562
26.1141   561
26.1241   559
26.1341   552
26.1441   585
26.1541   557
26.1641   549
26.1741   588
26.1841   577
26.1941   555
26.2041   605
26.2141   569
26.2241   562
26.2341   578
26.2441   551
26.2541   582
26.2641   554
26.2741   553
26.2841   571
26.2941   587
26.3041   526
26.3141   532
26.3241   540
26.3341   527
26.3441   520
26.3541   564
26.3641   568
26.3741   537
26.3841   564
26.3941   610
26.4041   518
26.4141   551
26.4241   579
26.4341   543
26.4441   554
26.4541   573
26.4641   542
26.4741   529
26.4841   562
26.4941   525
26.5041   562
26.5141   544
26.5241   548
26.5341   515
26.5441   562
26.5541   529
26.5641   549
26.5741   558
26.5841   586
26.5941   548
26.6041   539
26.6141   541
26.6241   552
26.6341   546
26.6441   551
26.6541   559
26.6641   541
26.6741   507
26.6841   511
26.6941   531
26.7041   516
26.7141   554
26.7241   557
26.7341   547
26.7441   553
26.7541   506
26.7641   523
26.7741   550
26.7841   530
26.7941   556
26.8041   521
26.8141   504
26.8241   537
26.8341   529
26.8441   564
26.8541   558
26.8641   549
26.8741   523
26.8841   539
26.8941   501
26.9041   520
26.9141   458
26.9241   547
26.9341   539
26.9441   527
26.9541   527
26.9641   554
26.9741   524
26.9841   516
26.9941   517
27.0041   535
27.0141   505
27.0241   500
27.0341   494
27.0441   501
27.0541   529
27.0641   516
27.0741   535
27.0841   551
27.0941   517
27.1041   510
27.1141   545
27.1241   546
27.1341   505
27.1441   480
27.1541   491
27.1641   532
27.1741   515
27.1841   477
27.1941   509
27.2041   526
27.2141   497
27.2241   530
27.2341   516
27.2441   517
27.2541   524
27.2641   530
27.2741   529
27.2841   512
27.2941   483
27.3041   488
27.3141   520
27.3241   526
27.3341   518
27.3441   505
27.3541   456
27.3641   504
27.3741   520
27.3841   497
27.3941   506
27.4041   539
27.4141   541
27.4241   532
27.4341   473
27.4441   499
27.4541   487
27.4641   487
27.4741   522
27.4841   499
27.4941   474
27.5041   522
27.5141   506
27.5241   495
27.5341   484
27.5441   479
27.5541   489
27.5641   484
27.5741   461
27.5841   469
27.5941   473
27.6041   485
27.6141   472
27.6241   487
27.6341   498
27.6441   445
27.6541   470
27.6641   445
27.6741   497
27.6841   465
27.6941   506
27.7041   487
27.7141   491
27.7241   498
27.7341   463
27.7441   461
27.7541   519
27.7641   461
27.7741   468
27.7841   440
27.7941   458
27.8041   485
27.8141   451
27.8241   457
27.8341   477
27.8441   452
27.8541   466
27.8641   461
27.8741   492
27.8841   484
27.8941   465
27.9041   455
27.9141   441
27.9241   449
27.9341   494
27.9441   471
27.9541   487
27.9641   462
27.9741   493
27.9841   484
27.9941   424
28.0041   462
28.0141   401
28.0241   450
28.0341   432
28.0441   445
28.0541   469
28.0641   433
28.0741   460
28.0841   436
28.0941   455
28.1041   470
28.1141   455
28.1241   440
28.1341   443
28.1441   461
28.1541   455
28.1641   443
28.1741   445
28.1841   448
28.1941   448
28.2041   430
28.2141   432
28.2241   436
28.2341   453
28.2441   446
28.2541   451
28.2641   458
28.2741   430
28.2841   466
28.2941   463
28.3041   463
28.3141   460
28.3241   451
28.3341   465
28.3441   473
28.3541   445
28.3641   426
28.3741   455
28.3841   424
28.3941   440
28.4041   447
28.4141   418
28.4241   396
28.4341   412
28.4441   432
28.4541   486
28.4641   455
28.4741   431
28.4841   441
28.4941   427
28.5041   411
28.5141   419
28.5241   449
28.5341   439
28.5441   446
28.5541   432
28.5641   435
28.5741   416
28.5841   401
28.5941   444
28.6041   425
28.6141   426
28.6241   446
28.6341   448
28.6441   477
28.6541   451
28.6641   411
28.6741   434
28.6841   416
28.6941   414
28.7041   441
28.7141   426
28.7241   422
28.7341   436
28.7441   389
28.7541   435
28.7641   452
28.7741   426
28.7841   392
28.7941   416
28.8041   381
28.8141   442
28.8241   412
28.8341   381
28.8441   420
28.8541   438
28.8641   404
28.8741   424
28.8841   419
28.8941   416
28.9041   381
28.9141   411
28.9241   410
28.9341   413
28.9441   385
28.9541   396
28.9641   435
28.9741   393
28.9841   423
28.9941   364
29.0041   381
29.0141   399
29.0241   371
29.0341   386
29.0441   403
29.0541   430
29.0641   371
29.0741   396
29.0841   408
29.0941   344
29.1041   389
29.1141   391
29.1241   392
29.1341   379
29.1441   383
29.1541   403
29.1641   397
29.1741   389
29.1841   400
29.1941   382
29.2041   382
29.2141   402
29.2241   376
29.2341   370
29.2441   392
29.2541   400
29.2641   402
29.2741   380
29.2841   370
29.2941   395
29.3041   409
29.3141   373
29.3241   397
29.3341   430
29.3441   379
29.3541   419
29.3641   360
29.3741   346
29.3841   394
29.3941   355
29.4041   365
29.4141   375
29.4241   409
29.4341   381
29.4441   398
29.4541   424
29.4641   399
29.4741   380
29.4841   369
29.4941   362
29.5041   372
29.5141   385
29.5241   375
29.5341   360
29.5441   358
29.5541   383
29.5641   374
29.5741   335
29.5841   368
29.5941   362
29.6041   370
29.6141   378
29.6241   353
29.6341   376
29.6441   404
29.6541   388
29.6641   366
29.6741   390
29.6841   378
29.6941   362
29.7041   361
29.7141   373
29.7241   385
29.7341   369
29.7441   383
29.7541   343
29.7641   316
29.7741   335
29.7841   337
29.7941   353
29.8041   339
29.8141   365
29.8241   335
29.8341   357
29.8441   330
29.8541   359
29.8641   342
29.8741   361
29.8841   353
29.8941   338
29.9041   354
29.9141   376
29.9241   364
29.9341   352
29.9441   342
29.9541   347
29.9641   319
29.9741   346
29.9841   374
29.9941   387
30.0041   336
30.0141   361
30.0241   341
30.0341   341
30.0441   355
30.0541   329
30.0641   326
30.0741   356
30.0841   330
30.0941   344
30.1041   329
30.1141   349
30.1241   361
30.1341   335
30.1441   361
30.1541   352
30.1641   316
30.1741   365
30.1841   342
30.1941   363
30.2041   375
30.2141   308
30.2241   355
30.2341   328
30.2441   324
30.2541   334
30.2641   347
30.2741   306
30.2841   338
30.2941   341
30.3041   310
30.3141   313
30.3241   345
30.3341   338
30.3441   335
30.3541   349
30.3641   343
30.3741   334
30.3841   343
30.3941   347
30.4041   310
30.4141   331
30.4241   343
30.4341   325
30.4441   297
30.4541   351
30.4641   334
30.4741   341
30.4841   339
30.4941   314
30.5041   293
30.5141   345
30.5241   329
30.5341   298
30.5441   355
30.5541   306
30.5641   325
30.5741   330
30.5841   327
30.5941   348
30.6041   308
30.6141   305
30.6241   342
30.6341   327
30.6441   311
30.6541   344
30.6641   313
30.6741   301
30.6841   302
30.6941   317
30.7041   312
30.7141   338
30.7241   299
30.7341   328
30.7441   320
30.7541   369
30.7641   327
30.7741   331
30.7841   309
30.7941   328
30.8041   301
30.8141   293
30.8241   307
30.8341   314
30.8441   333
30.8541   289
30.8641   314
30.8741   308
30.8841   320
30.8941   331
30.9041   303
30.9141   282
30.9241   289
30.9341   292
30.9441   299
30.9541   327
30.9641   301
30.9741   263
30.9841   317
30.9941   296
31.0041   296
31.0141   309
31.0241   315
31.0341   292
31.0441   320
31.0541   292
31.0641   302
31.0741   282
31.0841   296
31.0941   311
31.1041   292
31.1141   300
31.1241   304
31.1341   287
31.1441   291
31.1541   294
31.1641   283
31.1741   293
31.1841   293
31.1941   271
31.2041   279
31.2141   307
31.2241   292
31.2341   275
31.2441   288
31.2541   278
31.2641   264
31.2741   288
31.2841   302
31.2941   287
31.3041   271
31.3141   292
31.3241   294
31.3341   283
31.3441   292
31.3541   270
31.3641   284
31.3741   303
31.3841   295
31.3941   298
31.4041   302
31.4141   306
31.4241   296
31.4341   311
31.4441   271
31.4541   294
31.4641   262
31.4741   291
31.4841   278
31.4941   264
31.5041   273
31.5141   281
31.5241   281
31.5341   270
31.5441   278
31.5541   280
31.5641   288
31.5741   276
31.5841   281
31.5941   283
31.6041   279
31.6141   296
31.6241   274
31.6341   316
31.6441   277
31.6541   266
31.6641   313
31.6741   309
31.6841   243
31.6941   283
31.7041   285
31.7141   253
31.7241   272
31.7341   267
31.7441   300
31.7541   248
31.7641   266
31.7741   293
31.7841   299
31.7941   289
31.8041   304
31.8141   263
31.8241   290
31.8341   284
31.8441   265
31.8541   300
31.8641   276
31.8741   293
31.8841   274
31.8941   268
31.9041   274
31.9141   289
31.9241   270
31.9341   284
31.9441   283
31.9541   275
31.9641   295
31.9741   293
31.9841   283
31.9941   280
32.0041   275
32.0141   279
32.0241   283
32.0341   289
32.0441   282
32.0541   274
32.0641   316
32.0741   276
32.0841   259
32.0941   299
32.1041   305
32.1141   286
32.1241   291
32.1341   289
32.1441   319
32.1541   292
32.1641   281
32.1741   276
32.1841   317
32.1941   298
32.2041   305
32.2141   290
32.2241   277
32.2341   312
32.2441   253
32.2541   278
32.2641   283
32.2741   270
32.2841   262
32.2941   242
32.3041   285
32.3141   266
32.3241   264
32.3341   281
32.3441   252
32.3541   261
32.3641   260
32.3741   259
32.3841   266
32.3941   241
32.4041   285
32.4141   242
32.4241   246
32.4341   245
32.4441   224
32.4541   220
32.4641   240
32.4741   247
32.4841   243
32.4941   235
32.5041   241
32.5141   244
32.5241   236
32.5341   240
32.5441   235
32.5541   224
32.5641   228
32.5741   263
32.5841   260
32.5941   252
32.6041   235
32.6141   232
32.6241   224
32.6341   229
32.6441   227
32.6541   219
32.6641   229
32.6741   227
32.6841   249
32.6941   217
32.7041   222
32.7141   222
32.7241   221
32.7341   222
32.7441   200
32.7541   230
32.7641   229
32.7741   208
32.7841   237
32.7941   222
32.8041   240
32.8141   207
32.8241   205
32.8341   225
32.8441   214
32.8541   196
32.8641   227
32.8741   232
32.8841   216
32.8941   243
32.9041   216
32.9141   218
32.9241   201
32.9341   222
32.9441   213
32.9541   182
32.9641   237
32.9741   211
32.9841   223
32.9941   223
33.0041   205
33.0141   221
33.0241   209
33.0341   213
33.0441   224
33.0541   227
33.0641   228
33.0741   201
33.0841   247
33.0941   235
33.1041   207
33.1141   209
33.1241   197
33.1341   228
33.1441   222
33.1541   239
33.1641   198
33.1741   200
33.1841   213
33.1941   221
33.2041   225
33.2141   217
33.2241   205
33.2341   216
33.2441   229
33.2541   205
33.2641   194
33.2741   210
33.2841   205
33.2941   227
33.3041   198
33.3141   201
33.3241   200
33.3341   228
33.3441   212
33.3541   223
33.3641   197
33.3741   215
33.3841   182
33.3941   199
33.4041   226
33.4141   202
33.4241   175
33.4341   164
33.4441   205
33.4541   210
33.4641   216
33.4741   197
33.4841   182
33.4941   195
33.5041   205
33.5141   219
33.5241   210
33.5341   201
33.5441   178
33.5541   200
33.5641   212
33.5741   192
33.5841   200
33.5941   217
33.6041   183
33.6141   196
33.6241   190
33.6341   211
33.6441   171
33.6541   183
33.6641   165
33.6741   153
33.6841   194
33.6941   189
33.7041   200
33.7141   177
33.7241   196
33.7341   204
33.7441   159
33.7541   177
33.7641   185
33.7741   193
33.7841   166
33.7941   171
33.8041   187
33.8141   187
33.8241   206
33.8341   165
33.8441   166
33.8541   188
33.8641   180
33.8741   191
33.8841   176
33.8941   159
33.9041   167
33.9141   168
33.9241   184
33.9341   166
33.9441   193
33.9541   192
33.9641   171
33.9741   177
33.9841   180
33.9941   165
34.0041   176
34.0141   214
34.0241   184
34.0341   186
34.0441   188
34.0541   176
34.0641   185
34.0741   191
34.0841   163
34.0941   202
34.1041   173
34.1141   170
34.1241   160
34.1341   169
34.1441   148
34.1541   173
34.1641   168
34.1741   172
34.1841   174
34.1941   194
34.2041   182
34.2141   174
34.2241   162
34.2341   170
34.2441   182
34.2541   178
34.2641   202
34.2741   165
34.2841   171
34.2941   174
34.3041   171
34.3141   175
34.3241   171
34.3341   184
34.3441   171
34.3541   186
34.3641   171
34.3741   162
34.3841   160
34.3941   164
34.4041   172
34.4141   202
34.4241   155
34.4341   179
34.4441   154
34.4541   152
34.4641   145
34.4741   162
34.4841   164
34.4941   160
34.5041   168
34.5141   195
34.5241   166
34.5341   172
34.5441   148
34.5541   189
34.5641   143
34.5741   155
34.5841   157
34.5941   167
34.6041   145
34.6141   171
34.6241   181
34.6341   179
34.6441   165
34.6541   169
34.6641   171
34.6741   152
34.6841   203
34.6941   127
34.7041   160
34.7141   149
34.7241   154
34.7341   155
34.7441   142
34.7541   170
34.7641   162
34.7741   160
34.7841   147
34.7941   147
34.8041   150
34.8141   160
34.8241   171
34.8341   150
34.8441   171
34.8541   153
34.8641   152
34.8741   158
34.8841   153
34.8941   155
34.9041   146
34.9141   140
34.9241   146
34.9341   161
34.9441   155
34.9541   155
34.9641   159
34.9741   143
34.9841   144
34.9941   135
35.0041   137
35.0141   157
35.0241   140
35.0341   140
35.0441   159
35.0541   141
35.0641   161
35.0741   156
35.0841   140
35.0941   148
35.1041   147
35.1141   125
35.1241   148
35.1341   159
35.1441   134
35.1541   141
35.1641   131
35.1741   155
35.1841   144
35.1941   144
35.2041   139
35.2141   148
35.2241   141
35.2341   124
35.2441   138
35.2541   124
35.2641   147
35.2741   134
35.2841   137
35.2941   143
35.3041   142
35.3141   130
35.3241   142
35.3341   166
35.3441   145
35.3541   132
35.3641   127
35.3741   136
35.3841   138
35.3941   141
35.4041   128
35.4141   137
35.4241   139
35.4341   112
35.4441   122
35.4541   143
35.4641   138
35.4741   128
35.4841   134
35.4941   138
35.5041   136
35.5141   131
35.5241   122
35.5341   131
35.5441   110
35.5541   136
35.5641   133
35.5741   118
35.5841   129
35.5941   157
35.6041   125
35.6141   125
35.6241   127
35.6341   144
35.6441   115
35.6541   118
35.6641   117
35.6741   131
35.6841   136
35.6941   124
35.7041   148
35.7141   118
35.7241   113
35.7341   136
35.7441   120
35.7541   111
35.7641   114
35.7741   122
35.7841   126
35.7941   116
35.8041   119
35.8141   121
35.8241   137
35.8341   135
35.8441   119
35.8541   122
35.8641   125
35.8741   118
35.8841   112
35.8941   120
35.9041   133
35.9141   110
35.9241   126
35.9341   118
35.9441   121
35.9541   122
35.9641   100
35.9741   115
35.9841   121
35.9941   116
36.0041   116
36.0141   126
36.0241   117
36.0341   113
36.0441   108
36.0541   129
36.0641   118
36.0741   127
36.0841   105
36.0941   114
36.1041   118
36.1141   125
36.1241   107
36.1341   117
36.1441   123
36.1541   120
36.1641   113
36.1741   115
36.1841   127
36.1941   123
36.2041   130
36.2141   133
36.2241   111
36.2341   107
36.2441   116
36.2541   126
36.2641   118
36.2741   119
36.2841   131
36.2941   114
36.3041   109
36.3141   120
36.3241   130
36.3341   118
36.3441   117
36.3541   117
36.3641   115
36.3741   124
36.3841    95
36.3941   110
36.4041   109
36.4141   115
36.4241   107
36.4341   108
36.4441   106
36.4541   106
36.4641   111
36.4741   123
36.4841   101
36.4941   112
36.5041   112
36.5141   101
36.5241   105
36.5341   105
36.5441   109
36.5541   112
36.5641    92
36.5741    98
36.5841   108
36.5941   113
36.6041    91
36.6141   103
36.6241   106
36.6341   119
36.6441    88
36.6541    81
36.6641   118
36.6741   110
36.6841    94
36.6941   114
36.7041   106
36.7141   106
36.7241    99
36.7341   111
36.7441    95
36.7541    98
36.7641    97
36.7741   101
36.7841   114
36.7941    92
36.8041    89
36.8141   113
36.8241   101
36.8341   104
36.8441    94
36.8541    85
36.8641   117
36.8741    92
36.8841    98
36.8941    90
36.9041   108
36.9141   106
36.9241    91
36.9341   101
36.9441    94
36.9541   108
36.9641   108
36.9741   106
36.9841    88
36.9941    94
37.0041    99
37.0141    82
37.0241    77
37.0341    90
37.0441   117
37.0541   101
37.0641   118
37.0741   105
37.0841    92
37.0941    89
37.1041    94
37.1141    96
37.1241   102
37.1341    88
37.1441    97
37.1541    80
37.1641    93
37.1741    94
37.1841    99
37.1941    90
37.2041    76
37.2141   108
37.2241    78
37.2341    92
37.2441    87
37.2541    86
37.2641    74
37.2741    82
37.2841    97
37.2941    83
37.3041    78
37.3141    85
37.3241    86
37.3341    82
37.3441    96
37.3541    90
37.3641    87
37.3741    92
37.3841    87
37.3941    80
37.4041    92
37.4141    78
37.4241    94
37.4341    73
37.4441    93
37.4541    85
37.4641    83
37.4741    84
37.4841    90
37.4941    75
37.5041    78
37.5141    89
37.5241   100
37.5341    81
37.5441    82
37.5541    84
37.5641   102
37.5741    89
37.5841    78
37.5941    87
37.6041    84
37.6141    61
37.6241    85
37.6341    69
37.6441    56
37.6541    71
37.6641    70
37.6741    74
37.6841    81
37.6941    83
37.7041    85
37.7141    81
37.7241    71
37.7341    63
37.7441    81
37.7541    79
37.7641    93
37.7741    67
37.7841    81
37.7941    86
37.8041    84
37.8141    71
37.8241    70
37.8341    82
37.8441    92
37.8541    74
37.8641    73
37.8741    68
37.8841    79
37.8941    69
37.9041    75
37.9141    72
37.9241    88
37.9341    72
37.9441    89
37.9541    67
37.9641    72
37.9741    64
37.9841    77
37.9941    62
38.0041    81
38.0141    75
38.0241    72
38.0341    68
38.0441    62
38.0541    70
38.0641    92
38.0741    75
38.0841    59
38.0941    74
38.1041    86
38.1141    73
38.1241    70
38.1341    68
38.1441    56
38.1541    62
38.1641    74
38.1741    75
38.1841    71
38.1941    60
38.2041    64
38.2141    69
38.2241    79
38.2341    82
38.2441    69
38.2541    70
38.2641    80
38.2741    72
38.2841    61
38.2941    58
38.3041    64
38.3141    59
38.3241    62
38.3341    55
38.3441    63
38.3541    70
38.3641    56
38.3741    62
38.3841    53
38.3941    61
38.4041    63
38.4141    82
38.4241    62
38.4341    59
38.4441    69
38.4541    61
38.4641    76
38.4741    47
38.4841    70
38.4941    56
38.5041    57
38.5141    65
38.5241    61
38.5341    57
38.5441    54
38.5541    69
38.5641    62
38.5741    67
38.5841    52
38.5941    61
38.6041    60
38.6141    59
38.6241    68
38.6341    68
38.6441    61
38.6541    65
38.6641    65
38.6741    73
38.6841    71
38.6941    60
38.7041    67
38.7141    58
38.7241    73
38.7341    61
38.7441    63
38.7541    56
38.7641    65
38.7741    62
38.7841    58
38.7941    50
38.8041    53
38.8141    58
38.8241    62
38.8341    55
38.8441    66
38.8541    58
38.8641    49
38.8741    61
38.8841    56
38.8941    44
38.9041    54
38.9141    53
38.9241    56
38.9341    55
38.9441    49
38.9541    52
38.9641    73
38.9741    53
38.9841    58
38.9941    52
39.0041    63
39.0141    51
39.0241    51
39.0341    50
39.0441    51
39.0541    45
39.0641    62
39.0741    54
39.0841    61
39.0941    61
39.1041    52
39.1141    63
39.1241    63
39.1341    47
39.1441    58
39.1541    56
39.1641    37
39.1741    57
39.1841    50
39.1941    68
39.2041    54
39.2141    52
39.2241    67
39.2341    41
39.2441    58
39.2541    51
39.2641    50
39.2741    62
39.2841    51
39.2941    51
39.3041    56
39.3141    55
39.3241    52
39.3341    43
39.3441    56
39.3541    45
39.3641    45
39.3741    57
39.3841    53
39.3941    44
39.4041    54
39.4141    60
39.4241    31
39.4341    41
39.4441    46
39.4541    50
39.4641    42
39.4741    53
39.4841    49
39.4941    49
39.5041    48
39.5141    48
39.5241    42
39.5341    55
39.5441    52
39.5541    55
39.5641    32
39.5741    43
39.5841    49
39.5941    46
39.6041    53
39.6141    35
39.6241    28
39.6341    41
39.6441    45
39.6541    42
39.6641    44
39.6741    45
39.6841    49
39.6941    51
39.7041    47
39.7141    49
39.7241    59
39.7341    41
39.7441    52
39.7541    54
39.7641    38
39.7741    56
39.7841    35
39.7941    37
39.8041    52
39.8141    40
39.8241    46
39.8341    45
39.8441    44
39.8541    37
39.8641    40
39.8741    31
39.8841    47
39.8941    41
39.9041    40
39.9141    41
39.9241    39
39.9341    46
39.9441    30
39.9541    38
39.9641    40
39.9741    28
39.9841    51
