Bruker Nano GmbH Berlin, Germany
Esprit 1.9

Date: 4/1/2021 4:13:24 PM
Real time: 28898
Life time: 27249
Pulse density: 81685


Detector type: XFlash 430
Window type: Custom type
Detector thickness: 0.45
Si dead layer:0.029

Calibration, lin.: 10
Calibration, abs.: -955.9
Mn FWHM: 137.05
Fano factor: 0.121
Channels: 4096

Energy Counts
-0.9559     0
-0.9459     0
-0.9359     0
-0.9259     0
-0.9159     0
-0.9059     0
-0.8959     0
-0.8859     0
-0.8759     0
-0.8659     0
-0.8559     0
-0.8459     0
-0.8359     0
-0.8259     0
-0.8159     0
-0.8059     0
-0.7959     0
-0.7859     0
-0.7759     0
-0.7659     0
-0.7559     0
-0.7459     0
-0.7359     0
-0.7259     0
-0.7159     0
-0.7059     0
-0.6959     0
-0.6859     0
-0.6759     0
-0.6659     0
-0.6559     0
-0.6459     0
-0.6359     0
-0.6259     0
-0.6159     0
-0.6059     0
-0.5959     0
-0.5859     0
-0.5759     0
-0.5659     0
-0.5559     0
-0.5459     0
-0.5359     0
-0.5259     0
-0.5159     0
-0.5059     0
-0.4959     0
-0.4859     0
-0.4759     0
-0.4659     0
-0.4559     0
-0.4459     0
-0.4359     0
-0.4259     0
-0.4159     0
-0.4059     0
-0.3959     0
-0.3859     0
-0.3759     0
-0.3659     0
-0.3559     0
-0.3459     0
-0.3359     0
-0.3259     0
-0.3159     0
-0.3059     0
-0.2959     0
-0.2859     0
-0.2759     0
-0.2659     0
-0.2559     0
-0.2459     0
-0.2359     0
-0.2259     0
-0.2159     0
-0.2059     0
-0.1959     0
-0.1859     0
-0.1759     0
-0.1659     0
-0.1559     0
-0.1459     0
-0.1359     1
-0.1259     1
-0.1159     5
-0.1059    12
-0.0959    88
-0.0859   338
-0.0759  1029
-0.0659  3124
-0.0559  7926
-0.0459 17274
-0.0359 32331
-0.0259 52257
-0.0159 71595
-0.0059 83204
 0.0041 83595
 0.0141 72201
 0.0241 53410
 0.0341 33818
 0.0441 18389
 0.0541  8528
 0.0641  3393
 0.0741  1243
 0.0841   363
 0.0941   104
 0.1041    25
 0.1141    14
 0.1241    12
 0.1341     2
 0.1441     5
 0.1541     2
 0.1641    12
 0.1741    34
 0.1841   250
 0.1941   507
 0.2041   426
 0.2141   423
 0.2241   464
 0.2341   460
 0.2441   424
 0.2541   436
 0.2641   444
 0.2741   448
 0.2841   432
 0.2941   448
 0.3041   448
 0.3141   413
 0.3241   449
 0.3341   417
 0.3441   455
 0.3541   415
 0.3641   406
 0.3741   401
 0.3841   447
 0.3941   421
 0.4041   403
 0.4141   408
 0.4241   412
 0.4341   414
 0.4441   372
 0.4541   388
 0.4641   406
 0.4741   396
 0.4841   367
 0.4941   379
 0.5041   395
 0.5141   401
 0.5241   391
 0.5341   362
 0.5441   352
 0.5541   364
 0.5641   380
 0.5741   372
 0.5841   367
 0.5941   353
 0.6041   355
 0.6141   361
 0.6241   350
 0.6341   377
 0.6441   373
 0.6541   356
 0.6641   339
 0.6741   342
 0.6841   338
 0.6941   347
 0.7041   342
 0.7141   327
 0.7241   324
 0.7341   331
 0.7441   331
 0.7541   334
 0.7641   338
 0.7741   327
 0.7841   335
 0.7941   342
 0.8041   317
 0.8141   330
 0.8241   341
 0.8341   318
 0.8441   299
 0.8541   330
 0.8641   323
 0.8741   317
 0.8841   301
 0.8941   299
 0.9041   324
 0.9141   328
 0.9241   312
 0.9341   309
 0.9441   326
 0.9541   307
 0.9641   316
 0.9741   304
 0.9841   328
 0.9941   299
 1.0041   316
 1.0141   292
 1.0241   280
 1.0341   287
 1.0441   315
 1.0541   315
 1.0641   299
 1.0741   278
 1.0841   283
 1.0941   279
 1.1041   277
 1.1141   300
 1.1241   287
 1.1341   278
 1.1441   299
 1.1541   295
 1.1641   285
 1.1741   275
 1.1841   294
 1.1941   277
 1.2041   293
 1.2141   274
 1.2241   281
 1.2341   285
 1.2441   273
 1.2541   263
 1.2641   284
 1.2741   272
 1.2841   270
 1.2941   258
 1.3041   276
 1.3141   278
 1.3241   276
 1.3341   271
 1.3441   274
 1.3541   271
 1.3641   277
 1.3741   260
 1.3841   261
 1.3941   260
 1.4041   269
 1.4141   262
 1.4241   271
 1.4341   239
 1.4441   261
 1.4541   282
 1.4641   261
 1.4741   250
 1.4841   240
 1.4941   285
 1.5041   295
 1.5141   287
 1.5241   267
 1.5341   249
 1.5441   271
 1.5541   247
 1.5641   253
 1.5741   232
 1.5841   247
 1.5941   260
 1.6041   243
 1.6141   272
 1.6241   270
 1.6341   293
 1.6441   274
 1.6541   329
 1.6641   366
 1.6741   451
 1.6841   545
 1.6941   684
 1.7041   796
 1.7141   923
 1.7241  1023
 1.7341  1037
 1.7441   997
 1.7541   996
 1.7641   904
 1.7741   778
 1.7841   686
 1.7941   580
 1.8041   414
 1.8141   403
 1.8241   358
 1.8341   345
 1.8441   343
 1.8541   306
 1.8641   304
 1.8741   273
 1.8841   289
 1.8941   257
 1.9041   262
 1.9141   281
 1.9241   275
 1.9341   304
 1.9441   304
 1.9541   282
 1.9641   305
 1.9741   324
 1.9841   339
 1.9941   351
 2.0041   328
 2.0141   322
 2.0241   287
 2.0341   298
 2.0441   317
 2.0541   289
 2.0641   269
 2.0741   274
 2.0841   261
 2.0941   263
 2.1041   232
 2.1141   231
 2.1241   247
 2.1341   260
 2.1441   248
 2.1541   238
 2.1641   232
 2.1741   240
 2.1841   256
 2.1941   245
 2.2041   221
 2.2141   221
 2.2241   239
 2.2341   238
 2.2441   240
 2.2541   234
 2.2641   241
 2.2741   250
 2.2841   234
 2.2941   223
 2.3041   236
 2.3141   227
 2.3241   231
 2.3341   234
 2.3441   233
 2.3541   227
 2.3641   236
 2.3741   225
 2.3841   207
 2.3941   215
 2.4041   211
 2.4141   218
 2.4241   230
 2.4341   207
 2.4441   201
 2.4541   206
 2.4641   219
 2.4741   221
 2.4841   206
 2.4941   206
 2.5041   224
 2.5141   219
 2.5241   207
 2.5341   199
 2.5441   210
 2.5541   203
 2.5641   196
 2.5741   213
 2.5841   218
 2.5941   215
 2.6041   197
 2.6141   197
 2.6241   221
 2.6341   203
 2.6441   189
 2.6541   183
 2.6641   194
 2.6741   189
 2.6841   194
 2.6941   190
 2.7041   216
 2.7141   234
 2.7241   164
 2.7341   189
 2.7441   174
 2.7541   201
 2.7641   210
 2.7741   209
 2.7841   203
 2.7941   195
 2.8041   202
 2.8141   182
 2.8241   207
 2.8341   211
 2.8441   223
 2.8541   217
 2.8641   209
 2.8741   196
 2.8841   190
 2.8941   200
 2.9041   215
 2.9141   191
 2.9241   188
 2.9341   179
 2.9441   174
 2.9541   180
 2.9641   200
 2.9741   192
 2.9841   202
 2.9941   198
 3.0041   182
 3.0141   192
 3.0241   171
 3.0341   154
 3.0441   176
 3.0541   169
 3.0641   186
 3.0741   174
 3.0841   149
 3.0941   185
 3.1041   155
 3.1141   150
 3.1241   155
 3.1341   150
 3.1441   176
 3.1541   152
 3.1641   177
 3.1741   165
 3.1841   196
 3.1941   188
 3.2041   168
 3.2141   181
 3.2241   224
 3.2341   194
 3.2441   192
 3.2541   206
 3.2641   236
 3.2741   244
 3.2841   254
 3.2941   293
 3.3041   281
 3.3141   273
 3.3241   271
 3.3341   265
 3.3441   229
 3.3541   244
 3.3641   219
 3.3741   198
 3.3841   169
 3.3941   184
 3.4041   172
 3.4141   150
 3.4241   155
 3.4341   162
 3.4441   152
 3.4541   156
 3.4641   162
 3.4741   160
 3.4841   173
 3.4941   219
 3.5041   217
 3.5141   226
 3.5241   282
 3.5341   326
 3.5441   400
 3.5541   500
 3.5641   658
 3.5741   939
 3.5841  1297
 3.5941  1778
 3.6041  2632
 3.6141  3600
 3.6241  4852
 3.6341  5925
 3.6441  7516
 3.6541  8860
 3.6641  9846
 3.6741 11110
 3.6841 11350
 3.6941 11387
 3.7041 11099
 3.7141 10168
 3.7241  8826
 3.7341  7549
 3.7441  6063
 3.7541  4723
 3.7641  3599
 3.7741  2657
 3.7841  1771
 3.7941  1279
 3.8041   846
 3.8141   551
 3.8241   416
 3.8341   300
 3.8441   256
 3.8541   245
 3.8641   234
 3.8741   269
 3.8841   309
 3.8941   355
 3.9041   391
 3.9141   510
 3.9241   666
 3.9341   867
 3.9441  1116
 3.9541  1325
 3.9641  1662
 3.9741  1885
 3.9841  2008
 3.9941  2306
 4.0041  2360
 4.0141  2448
 4.0241  2292
 4.0341  2165
 4.0441  2068
 4.0541  1764
 4.0641  1410
 4.0741  1192
 4.0841   949
 4.0941   757
 4.1041   525
 4.1141   413
 4.1241   308
 4.1341   264
 4.1441   210
 4.1541   162
 4.1641   138
 4.1741   128
 4.1841   126
 4.1941   105
 4.2041   105
 4.2141   110
 4.2241   107
 4.2341   138
 4.2441   121
 4.2541   101
 4.2641   109
 4.2741   115
 4.2841   134
 4.2941   114
 4.3041   107
 4.3141   109
 4.3241   110
 4.3341   106
 4.3441   119
 4.3541   100
 4.3641   101
 4.3741   116
 4.3841   121
 4.3941   137
 4.4041   137
 4.4141   133
 4.4241   173
 4.4341   204
 4.4441   210
 4.4541   231
 4.4641   246
 4.4741   314
 4.4841   316
 4.4941   316
 4.5041   291
 4.5141   308
 4.5241   316
 4.5341   305
 4.5441   278
 4.5541   236
 4.5641   232
 4.5741   200
 4.5841   188
 4.5941   169
 4.6041   148
 4.6141   126
 4.6241   154
 4.6341   127
 4.6441   155
 4.6541   126
 4.6641   134
 4.6741   114
 4.6841   125
 4.6941   128
 4.7041   119
 4.7141   119
 4.7241   121
 4.7341   119
 4.7441   113
 4.7541   111
 4.7641   112
 4.7741   119
 4.7841   135
 4.7941   141
 4.8041   130
 4.8141   123
 4.8241   108
 4.8341   139
 4.8441   113
 4.8541   125
 4.8641   130
 4.8741   144
 4.8841   153
 4.8941   131
 4.9041   150
 4.9141   154
 4.9241   153
 4.9341   130
 4.9441   136
 4.9541   153
 4.9641   157
 4.9741   154
 4.9841   134
 4.9941   160
 5.0041   150
 5.0141   117
 5.0241   137
 5.0341   132
 5.0441   138
 5.0541   140
 5.0641   150
 5.0741   118
 5.0841   111
 5.0941   115
 5.1041   123
 5.1141   149
 5.1241   123
 5.1341   111
 5.1441   107
 5.1541   105
 5.1641   116
 5.1741   111
 5.1841    91
 5.1941   105
 5.2041   115
 5.2141   152
 5.2241   128
 5.2341   117
 5.2441   126
 5.2541   133
 5.2641   103
 5.2741   125
 5.2841   124
 5.2941   127
 5.3041   122
 5.3141   115
 5.3241   148
 5.3341   145
 5.3441   146
 5.3541   127
 5.3641   150
 5.3741   156
 5.3841   149
 5.3941   171
 5.4041   159
 5.4141   159
 5.4241   137
 5.4341   153
 5.4441   137
 5.4541   148
 5.4641   130
 5.4741   128
 5.4841   136
 5.4941   151
 5.5041   117
 5.5141   126
 5.5241   119
 5.5341   120
 5.5441   117
 5.5541   129
 5.5641   116
 5.5741   139
 5.5841   126
 5.5941   129
 5.6041   104
 5.6141   106
 5.6241   116
 5.6341   149
 5.6441   127
 5.6541   141
 5.6641   126
 5.6741   135
 5.6841   146
 5.6941   128
 5.7041   123
 5.7141   143
 5.7241   127
 5.7341   123
 5.7441   144
 5.7541   137
 5.7641   143
 5.7741   182
 5.7841   137
 5.7941   148
 5.8041   184
 5.8141   200
 5.8241   204
 5.8341   243
 5.8441   242
 5.8541   265
 5.8641   280
 5.8741   273
 5.8841   269
 5.8941   274
 5.9041   271
 5.9141   290
 5.9241   275
 5.9341   261
 5.9441   235
 5.9541   209
 5.9641   199
 5.9741   204
 5.9841   182
 5.9941   164
 6.0041   189
 6.0141   179
 6.0241   147
 6.0341   170
 6.0441   148
 6.0541   150
 6.0641   166
 6.0741   157
 6.0841   156
 6.0941   147
 6.1041   154
 6.1141   151
 6.1241   166
 6.1341   176
 6.1441   158
 6.1541   184
 6.1641   162
 6.1741   198
 6.1841   173
 6.1941   197
 6.2041   242
 6.2141   279
 6.2241   298
 6.2341   406
 6.2441   495
 6.2541   637
 6.2641   866
 6.2741  1160
 6.2841  1498
 6.2941  1925
 6.3041  2425
 6.3141  3157
 6.3241  3827
 6.3341  4613
 6.3441  5359
 6.3541  6183
 6.3641  6723
 6.3741  7361
 6.3841  7409
 6.3941  7835
 6.4041  7653
 6.4141  7616
 6.4241  7154
 6.4341  6433
 6.4441  5675
 6.4541  5007
 6.4641  4341
 6.4741  3538
 6.4841  2914
 6.4941  2238
 6.5041  1746
 6.5141  1377
 6.5241   931
 6.5341   744
 6.5441   571
 6.5541   437
 6.5641   365
 6.5741   279
 6.5841   259
 6.5941   218
 6.6041   204
 6.6141   195
 6.6241   194
 6.6341   166
 6.6441   195
 6.6541   182
 6.6641   171
 6.6741   182
 6.6841   175
 6.6941   201
 6.7041   199
 6.7141   219
 6.7241   167
 6.7341   185
 6.7441   185
 6.7541   191
 6.7641   215
 6.7741   186
 6.7841   193
 6.7941   218
 6.8041   220
 6.8141   193
 6.8241   226
 6.8341   215
 6.8441   237
 6.8541   204
 6.8641   211
 6.8741   238
 6.8841   293
 6.8941   308
 6.9041   296
 6.9141   332
 6.9241   394
 6.9341   477
 6.9441   548
 6.9541   591
 6.9641   734
 6.9741   800
 6.9841   916
 6.9941   997
 7.0041  1116
 7.0141  1242
 7.0241  1346
 7.0341  1423
 7.0441  1418
 7.0541  1507
 7.0641  1410
 7.0741  1432
 7.0841  1311
 7.0941  1281
 7.1041  1098
 7.1141  1003
 7.1241   972
 7.1341   829
 7.1441   686
 7.1541   575
 7.1641   516
 7.1741   457
 7.1841   397
 7.1941   410
 7.2041   342
 7.2141   318
 7.2241   306
 7.2341   273
 7.2441   296
 7.2541   290
 7.2641   294
 7.2741   293
 7.2841   301
 7.2941   324
 7.3041   282
 7.3141   328
 7.3241   334
 7.3341   369
 7.3441   354
 7.3541   377
 7.3641   404
 7.3741   410
 7.3841   405
 7.3941   380
 7.4041   384
 7.4141   388
 7.4241   401
 7.4341   375
 7.4441   375
 7.4541   365
 7.4641   326
 7.4741   368
 7.4841   326
 7.4941   337
 7.5041   348
 7.5141   317
 7.5241   340
 7.5341   276
 7.5441   297
 7.5541   284
 7.5641   293
 7.5741   259
 7.5841   278
 7.5941   264
 7.6041   301
 7.6141   246
 7.6241   270
 7.6341   269
 7.6441   258
 7.6541   279
 7.6641   310
 7.6741   300
 7.6841   291
 7.6941   304
 7.7041   334
 7.7141   305
 7.7241   310
 7.7341   297
 7.7441   299
 7.7541   331
 7.7641   338
 7.7741   322
 7.7841   353
 7.7941   374
 7.8041   355
 7.8141   389
 7.8241   352
 7.8341   398
 7.8441   421
 7.8541   392
 7.8641   408
 7.8741   445
 7.8841   453
 7.8941   465
 7.9041   488
 7.9141   476
 7.9241   523
 7.9341   513
 7.9441   551
 7.9541   584
 7.9641   635
 7.9741   707
 7.9841   739
 7.9941   766
 8.0041   820
 8.0141   899
 8.0241   965
 8.0341  1054
 8.0441  1095
 8.0541  1155
 8.0641  1213
 8.0741  1356
 8.0841  1420
 8.0941  1475
 8.1041  1548
 8.1141  1605
 8.1241  1763
 8.1341  1775
 8.1441  1864
 8.1541  1898
 8.1641  1937
 8.1741  1875
 8.1841  1911
 8.1941  1932
 8.2041  2009
 8.2141  2051
 8.2241  2067
 8.2341  2079
 8.2441  2103
 8.2541  2179
 8.2641  2313
 8.2741  2408
 8.2841  2598
 8.2941  2721
 8.3041  2858
 8.3141  3178
 8.3241  3432
 8.3341  3615
 8.3441  3892
 8.3541  4053
 8.3641  4126
 8.3741  4178
 8.3841  4316
 8.3941  4363
 8.4041  4090
 8.4141  4117
 8.4241  3745
 8.4341  3545
 8.4441  3141
 8.4541  2802
 8.4641  2494
 8.4741  2157
 8.4841  1911
 8.4941  1580
 8.5041  1375
 8.5141  1155
 8.5241  1037
 8.5341   816
 8.5441   756
 8.5541   692
 8.5641   602
 8.5741   546
 8.5841   558
 8.5941   525
 8.6041   501
 8.6141   486
 8.6241   511
 8.6341   497
 8.6441   532
 8.6541   507
 8.6641   489
 8.6741   484
 8.6841   512
 8.6941   499
 8.7041   496
 8.7141   512
 8.7241   461
 8.7341   462
 8.7441   449
 8.7541   416
 8.7641   421
 8.7741   414
 8.7841   420
 8.7941   442
 8.8041   411
 8.8141   482
 8.8241   433
 8.8341   446
 8.8441   427
 8.8541   419
 8.8641   425
 8.8741   437
 8.8841   445
 8.8941   417
 8.9041   439
 8.9141   432
 8.9241   464
 8.9341   479
 8.9441   496
 8.9541   506
 8.9641   492
 8.9741   460
 8.9841   481
 8.9941   521
 9.0041   513
 9.0141   515
 9.0241   536
 9.0341   569
 9.0441   580
 9.0541   557
 9.0641   575
 9.0741   609
 9.0841   627
 9.0941   644
 9.1041   661
 9.1141   726
 9.1241   726
 9.1341   731
 9.1441   785
 9.1541   841
 9.1641   854
 9.1741   844
 9.1841   872
 9.1941   944
 9.2041   949
 9.2141  1020
 9.2241  1137
 9.2341  1122
 9.2441  1194
 9.2541  1300
 9.2641  1358
 9.2741  1359
 9.2841  1457
 9.2941  1535
 9.3041  1583
 9.3141  1571
 9.3241  1600
 9.3341  1662
 9.3441  1714
 9.3541  1784
 9.3641  1842
 9.3741  1809
 9.3841  1888
 9.3941  1909
 9.4041  1957
 9.4141  1978
 9.4241  1973
 9.4341  1973
 9.4441  1999
 9.4541  2034
 9.4641  2108
 9.4741  2128
 9.4841  2185
 9.4941  2198
 9.5041  2290
 9.5141  2377
 9.5241  2446
 9.5341  2540
 9.5441  2632
 9.5541  2693
 9.5641  2814
 9.5741  3012
 9.5841  3197
 9.5941  3351
 9.6041  3608
 9.6141  3697
 9.6241  3911
 9.6341  4043
 9.6441  4122
 9.6541  4232
 9.6641  4151
 9.6741  4131
 9.6841  4099
 9.6941  3997
 9.7041  3885
 9.7141  3683
 9.7241  3390
 9.7341  3109
 9.7441  2928
 9.7541  2688
 9.7641  2501
 9.7741  2313
 9.7841  2147
 9.7941  2024
 9.8041  1837
 9.8141  1717
 9.8241  1693
 9.8341  1698
 9.8441  1614
 9.8541  1600
 9.8641  1670
 9.8741  1727
 9.8841  1790
 9.8941  1682
 9.9041  1706
 9.9141  1743
 9.9241  1836
 9.9341  1848
 9.9441  1848
 9.9541  1844
 9.9641  1791
 9.9741  1717
 9.9841  1676
 9.9941  1674
10.0041  1499
10.0141  1435
10.0241  1304
10.0341  1203
10.0441  1078
10.0541   979
10.0641   861
10.0741   771
10.0841   723
10.0941   630
10.1041   565
10.1141   507
10.1241   487
10.1341   420
10.1441   441
10.1541   395
10.1641   380
10.1741   350
10.1841   315
10.1941   329
10.2041   326
10.2141   325
10.2241   304
10.2341   299
10.2441   292
10.2541   281
10.2641   285
10.2741   258
10.2841   239
10.2941   280
10.3041   266
10.3141   235
10.3241   273
10.3341   253
10.3441   249
10.3541   234
10.3641   241
10.3741   243
10.3841   241
10.3941   248
10.4041   254
10.4141   260
10.4241   260
10.4341   271
10.4441   257
10.4541   279
10.4641   249
10.4741   238
10.4841   245
10.4941   248
10.5041   262
10.5141   260
10.5241   249
10.5341   242
10.5441   269
10.5541   256
10.5641   253
10.5741   265
10.5841   251
10.5941   261
10.6041   257
10.6141   291
10.6241   292
10.6341   314
10.6441   300
10.6541   295
10.6641   297
10.6741   311
10.6841   309
10.6941   304
10.7041   304
10.7141   313
10.7241   304
10.7341   311
10.7441   327
10.7541   343
10.7641   350
10.7741   359
10.7841   376
10.7941   390
10.8041   387
10.8141   402
10.8241   386
10.8341   414
10.8441   393
10.8541   394
10.8641   413
10.8741   429
10.8841   420
10.8941   413
10.9041   442
10.9141   433
10.9241   389
10.9341   436
10.9441   443
10.9541   434
10.9641   415
10.9741   424
10.9841   442
10.9941   425
11.0041   407
11.0141   427
11.0241   419
11.0341   391
11.0441   403
11.0541   389
11.0641   410
11.0741   372
11.0841   358
11.0941   359
11.1041   382
11.1141   398
11.1241   388
11.1341   391
11.1441   382
11.1541   400
11.1641   394
11.1741   431
11.1841   492
11.1941   509
11.2041   527
11.2141   537
11.2241   555
11.2341   588
11.2441   579
11.2541   597
11.2641   587
11.2741   602
11.2841   621
11.2941   594
11.3041   649
11.3141   612
11.3241   600
11.3341   565
11.3441   544
11.3541   521
11.3641   474
11.3741   443
11.3841   420
11.3941   398
11.4041   410
11.4141   381
11.4241   368
11.4341   334
11.4441   320
11.4541   337
11.4641   333
11.4741   316
11.4841   301
11.4941   302
11.5041   302
11.5141   309
11.5241   286
11.5341   297
11.5441   307
11.5541   319
11.5641   327
11.5741   337
11.5841   338
11.5941   318
11.6041   314
11.6141   332
11.6241   340
11.6341   344
11.6441   332
11.6541   328
11.6641   312
11.6741   297
11.6841   320
11.6941   322
11.7041   317
11.7141   310
11.7241   296
11.7341   284
11.7441   250
11.7541   258
11.7641   281
11.7741   265
11.7841   231
11.7941   227
11.8041   256
11.8141   268
11.8241   253
11.8341   232
11.8441   234
11.8541   254
11.8641   259
11.8741   243
11.8841   231
11.8941   246
11.9041   257
11.9141   261
11.9241   250
11.9341   244
11.9441   240
11.9541   235
11.9641   229
11.9741   239
11.9841   264
11.9941   257
12.0041   260
12.0141   258
12.0241   267
12.0341   250
12.0441   235
12.0541   238
12.0641   245
12.0741   237
12.0841   238
12.0941   238
12.1041   251
12.1141   246
12.1241   250
12.1341   254
12.1441   237
12.1541   228
12.1641   227
12.1741   235
12.1841   218
12.1941   210
12.2041   230
12.2141   238
12.2241   223
12.2341   212
12.2441   222
12.2541   221
12.2641   214
12.2741   230
12.2841   236
12.2941   244
12.3041   228
12.3141   221
12.3241   225
12.3341   223
12.3441   244
12.3541   254
12.3641   230
12.3741   216
12.3841   225
12.3941   235
12.4041   234
12.4141   221
12.4241   214
12.4341   216
12.4441   230
12.4541   224
12.4641   210
12.4741   227
12.4841   248
12.4941   243
12.5041   225
12.5141   214
12.5241   230
12.5341   248
12.5441   235
12.5541   239
12.5641   253
12.5741   237
12.5841   221
12.5941   244
12.6041   263
12.6141   252
12.6241   225
12.6341   229
12.6441   250
12.6541   236
12.6641   232
12.6741   256
12.6841   261
12.6941   233
12.7041   234
12.7141   249
12.7241   259
12.7341   248
12.7441   249
12.7541   253
12.7641   257
12.7741   248
12.7841   259
12.7941   254
12.8041   235
12.8141   223
12.8241   256
12.8341   267
12.8441   246
12.8541   248
12.8641   254
12.8741   244
12.8841   226
12.8941   239
12.9041   248
12.9141   252
12.9241   258
12.9341   242
12.9441   256
12.9541   261
12.9641   252
12.9741   244
12.9841   247
12.9941   252
13.0041   246
13.0141   260
13.0241   265
13.0341   257
13.0441   255
13.0541   267
13.0641   251
13.0741   243
13.0841   255
13.0941   257
13.1041   249
13.1141   251
13.1241   261
13.1341   272
13.1441   258
13.1541   257
13.1641   263
13.1741   260
13.1841   265
13.1941   273
13.2041   276
13.2141   273
13.2241   282
13.2341   296
13.2441   296
13.2541   306
13.2641   308
13.2741   306
13.2841   311
13.2941   303
13.3041   320
13.3141   341
13.3241   339
13.3341   328
13.3441   330
13.3541   341
13.3641   333
13.3741   335
13.3841   339
13.3941   348
13.4041   358
13.4141   349
13.4241   350
13.4341   340
13.4441   332
13.4541   319
13.4641   316
13.4741   322
13.4841   312
13.4941   308
13.5041   311
13.5141   315
13.5241   309
13.5341   301
13.5441   302
13.5541   299
13.5641   288
13.5741   299
13.5841   310
13.5941   308
13.6041   295
13.6141   270
13.6241   279
13.6341   304
13.6441   283
13.6541   287
13.6641   320
13.6741   319
13.6841   299
13.6941   303
13.7041   308
13.7141   303
13.7241   312
13.7341   299
13.7441   276
13.7541   289
13.7641   304
13.7741   291
13.7841   312
13.7941   325
13.8041   298
13.8141   307
13.8241   304
13.8341   308
13.8441   326
13.8541   304
13.8641   290
13.8741   296
13.8841   301
13.8941   294
13.9041   309
13.9141   342
13.9241   345
13.9341   332
13.9441   326
13.9541   349
13.9641   366
13.9741   358
13.9841   358
13.9941   382
14.0041   393
14.0141   397
14.0241   424
14.0341   448
14.0441   483
14.0541   496
14.0641   494
14.0741   526
14.0841   536
14.0941   545
14.1041   567
14.1141   563
14.1241   541
14.1341   545
14.1441   574
14.1541   572
14.1641   567
14.1741   554
14.1841   534
14.1941   532
14.2041   523
14.2141   495
14.2241   488
14.2341   500
14.2441   491
14.2541   455
14.2641   421
14.2741   413
14.2841   421
14.2941   408
14.3041   389
14.3141   375
14.3241   357
14.3341   356
14.3441   358
14.3541   358
14.3641   354
14.3741   360
14.3841   344
14.3941   319
14.4041   320
14.4141   358
14.4241   370
14.4341   343
14.4441   326
14.4541   323
14.4641   343
14.4741   361
14.4841   340
14.4941   328
14.5041   338
14.5141   348
14.5241   338
14.5341   335
14.5441   360
14.5541   353
14.5641   343
14.5741   372
14.5841   366
14.5941   330
14.6041   330
14.6141   338
14.6241   349
14.6341   342
14.6441   347
14.6541   356
14.6641   357
14.6741   367
14.6841   344
14.6941   347
14.7041   375
14.7141   376
14.7241   379
14.7341   382
14.7441   372
14.7541   366
14.7641   363
14.7741   375
14.7841   356
14.7941   361
14.8041   395
14.8141   413
14.8241   405
14.8341   398
14.8441   384
14.8541   387
14.8641   400
14.8741   411
14.8841   411
14.8941   390
14.9041   396
14.9141   397
14.9241   400
14.9341   417
14.9441   416
14.9541   417
14.9641   419
14.9741   420
14.9841   383
14.9941   388
15.0041   418
15.0141   422
15.0241   389
15.0341   376
15.0441   404
15.0541   416
15.0641   401
15.0741   399
15.0841   393
15.0941   392
15.1041   383
15.1141   391
15.1241   401
15.1341   377
15.1441   394
15.1541   422
15.1641   388
15.1741   379
15.1841   374
15.1941   383
15.2041   412
15.2141   405
15.2241   396
15.2341   396
15.2441   386
15.2541   377
15.2641   377
15.2741   392
15.2841   401
15.2941   408
15.3041   404
15.3141   406
15.3241   397
15.3341   407
15.3441   424
15.3541   407
15.3641   413
15.3741   409
15.3841   388
15.3941   397
15.4041   415
15.4141   425
15.4241   406
15.4341   411
15.4441   421
15.4541   399
15.4641   398
15.4741   410
15.4841   403
15.4941   448
15.5041   457
15.5141   448
15.5241   457
15.5341   456
15.5441   429
15.5541   432
15.5641   491
15.5741   518
15.5841   517
15.5941   498
15.6041   481
15.6141   500
15.6241   530
15.6341   562
15.6441   570
15.6541   595
15.6641   634
15.6741   645
15.6841   633
15.6941   670
15.7041   714
15.7141   704
15.7241   703
15.7341   753
15.7441   744
15.7541   734
15.7641   757
15.7741   756
15.7841   744
15.7941   702
15.8041   675
15.8141   662
15.8241   674
15.8341   646
15.8441   625
15.8541   645
15.8641   624
15.8741   606
15.8841   573
15.8941   557
15.9041   559
15.9141   530
15.9241   517
15.9341   504
15.9441   489
15.9541   482
15.9641   484
15.9741   507
15.9841   491
15.9941   472
16.0041   491
16.0141   485
16.0241   482
16.0341   484
16.0441   478
16.0541   483
16.0641   499
16.0741   494
16.0841   459
16.0941   463
16.1041   461
16.1141   485
16.1241   492
16.1341   494
16.1441   486
16.1541   454
16.1641   471
16.1741   472
16.1841   466
16.1941   489
16.2041   486
16.2141   484
16.2241   479
16.2341   472
16.2441   478
16.2541   458
16.2641   460
16.2741   451
16.2841   464
16.2941   461
16.3041   483
16.3141   466
16.3241   453
16.3341   464
16.3441   494
16.3541   487
16.3641   484
16.3741   491
16.3841   467
16.3941   480
16.4041   454
16.4141   478
16.4241   493
16.4341   492
16.4441   496
16.4541   513
16.4641   499
16.4741   511
16.4841   510
16.4941   465
16.5041   454
16.5141   500
16.5241   505
16.5341   518
16.5441   537
16.5541   527
16.5641   523
16.5741   489
16.5841   487
16.5941   500
16.6041   530
16.6141   532
16.6241   541
16.6341   512
16.6441   506
16.6541   507
16.6641   502
16.6741   507
16.6841   557
16.6941   505
16.7041   513
16.7141   540
16.7241   541
16.7341   528
16.7441   520
16.7541   537
16.7641   527
16.7741   498
16.7841   517
16.7941   529
16.8041   523
16.8141   529
16.8241   509
16.8341   522
16.8441   503
16.8541   518
16.8641   517
16.8741   518
16.8841   516
16.8941   520
16.9041   536
16.9141   530
16.9241   518
16.9341   534
16.9441   559
16.9541   560
16.9641   531
16.9741   544
16.9841   536
16.9941   522
17.0041   526
17.0141   540
17.0241   527
17.0341   533
17.0441   557
17.0541   560
17.0641   544
17.0741   548
17.0841   552
17.0941   579
17.1041   557
17.1141   539
17.1241   547
17.1341   528
17.1441   531
17.1541   556
17.1641   559
17.1741   519
17.1841   563
17.1941   542
17.2041   517
17.2141   523
17.2241   536
17.2341   563
17.2441   567
17.2541   540
17.2641   555
17.2741   581
17.2841   596
17.2941   594
17.3041   584
17.3141   560
17.3241   531
17.3341   547
17.3441   582
17.3541   564
17.3641   553
17.3741   579
17.3841   587
17.3941   591
17.4041   578
17.4141   590
17.4241   573
17.4341   576
17.4441   616
17.4541   602
17.4641   555
17.4741   566
17.4841   581
17.4941   595
17.5041   568
17.5141   581
17.5241   559
17.5341   603
17.5441   639
17.5541   630
17.5641   648
17.5741   661
17.5841   658
17.5941   620
17.6041   615
17.6141   645
17.6241   645
17.6341   656
17.6441   672
17.6541   651
17.6641   609
17.6741   666
17.6841   637
17.6941   629
17.7041   624
17.7141   650
17.7241   633
17.7341   638
17.7441   610
17.7541   634
17.7641   630
17.7741   664
17.7841   642
17.7941   644
17.8041   630
17.8141   652
17.8241   641
17.8341   608
17.8441   619
17.8541   605
17.8641   586
17.8741   640
17.8841   613
17.8941   622
17.9041   624
17.9141   615
17.9241   648
17.9341   652
17.9441   614
17.9541   633
17.9641   632
17.9741   629
17.9841   604
17.9941   599
18.0041   617
18.0141   602
18.0241   598
18.0341   603
18.0441   615
18.0541   602
18.0641   605
18.0741   623
18.0841   620
18.0941   635
18.1041   645
18.1141   624
18.1241   646
18.1341   647
18.1441   650
18.1541   639
18.1641   642
18.1741   650
18.1841   623
18.1941   654
18.2041   646
18.2141   630
18.2241   607
18.2341   637
18.2441   630
18.2541   622
18.2641   615
18.2741   644
18.2841   665
18.2941   661
18.3041   666
18.3141   637
18.3241   640
18.3341   651
18.3441   670
18.3541   627
18.3641   592
18.3741   642
18.3841   624
18.3941   670
18.4041   687
18.4141   661
18.4241   667
18.4341   661
18.4441   662
18.4541   685
18.4641   667
18.4741   626
18.4841   651
18.4941   683
18.5041   664
18.5141   653
18.5241   657
18.5341   666
18.5441   653
18.5541   674
18.5641   660
18.5741   665
18.5841   706
18.5941   667
18.6041   712
18.6141   684
18.6241   645
18.6341   649
18.6441   682
18.6541   667
18.6641   640
18.6741   676
18.6841   692
18.6941   704
18.7041   675
18.7141   688
18.7241   676
18.7341   671
18.7441   666
18.7541   672
18.7641   682
18.7741   685
18.7841   687
18.7941   706
18.8041   692
18.8141   667
18.8241   675
18.8341   691
18.8441   681
18.8541   703
18.8641   684
18.8741   683
18.8841   709
18.8941   686
18.9041   706
18.9141   677
18.9241   704
18.9341   705
18.9441   717
18.9541   692
18.9641   707
18.9741   724
18.9841   698
18.9941   725
19.0041   714
19.0141   705
19.0241   650
19.0341   670
19.0441   708
19.0541   707
19.0641   691
19.0741   689
19.0841   688
19.0941   714
19.1041   711
19.1141   732
19.1241   713
19.1341   723
19.1441   698
19.1541   732
19.1641   706
19.1741   712
19.1841   688
19.1941   747
19.2041   718
19.2141   693
19.2241   737
19.2341   740
19.2441   749
19.2541   693
19.2641   719
19.2741   699
19.2841   708
19.2941   695
19.3041   718
19.3141   710
19.3241   702
19.3341   684
19.3441   725
19.3541   747
19.3641   744
19.3741   673
19.3841   695
19.3941   729
19.4041   727
19.4141   735
19.4241   690
19.4341   754
19.4441   754
19.4541   779
19.4641   745
19.4741   740
19.4841   745
19.4941   752
19.5041   751
19.5141   714
19.5241   762
19.5341   744
19.5441   747
19.5541   755
19.5641   742
19.5741   723
19.5841   734
19.5941   714
19.6041   732
19.6141   779
19.6241   728
19.6341   755
19.6441   716
19.6541   756
19.6641   759
19.6741   785
19.6841   734
19.6941   764
19.7041   765
19.7141   728
19.7241   761
19.7341   758
19.7441   743
19.7541   775
19.7641   751
19.7741   727
19.7841   757
19.7941   783
19.8041   750
19.8141   747
19.8241   761
19.8341   763
19.8441   747
19.8541   734
19.8641   739
19.8741   749
19.8841   746
19.8941   737
19.9041   733
19.9141   739
19.9241   742
19.9341   770
19.9441   718
19.9541   755
19.9641   765
19.9741   793
19.9841   782
19.9941   767
20.0041   772
20.0141   742
20.0241   754
20.0341   711
20.0441   746
20.0541   762
20.0641   784
20.0741   770
20.0841   782
20.0941   754
20.1041   734
20.1141   765
20.1241   784
20.1341   748
20.1441   810
20.1541   741
20.1641   792
20.1741   809
20.1841   808
20.1941   769
20.2041   734
20.2141   822
20.2241   783
20.2341   792
20.2441   777
20.2541   783
20.2641   756
20.2741   769
20.2841   805
20.2941   762
20.3041   771
20.3141   804
20.3241   802
20.3341   765
20.3441   756
20.3541   765
20.3641   819
20.3741   800
20.3841   774
20.3941   781
20.4041   757
20.4141   820
20.4241   761
20.4341   797
20.4441   757
20.4541   748
20.4641   800
20.4741   778
20.4841   783
20.4941   839
20.5041   802
20.5141   756
20.5241   759
20.5341   745
20.5441   788
20.5541   750
20.5641   799
20.5741   787
20.5841   815
20.5941   794
20.6041   781
20.6141   810
20.6241   833
20.6341   792
20.6441   811
20.6541   769
20.6641   796
20.6741   795
20.6841   787
20.6941   786
20.7041   770
20.7141   800
20.7241   801
20.7341   798
20.7441   780
20.7541   762
20.7641   792
20.7741   824
20.7841   873
20.7941   845
20.8041   850
20.8141   800
20.8241   770
20.8341   856
20.8441   830
20.8541   846
20.8641   850
20.8741   855
20.8841   855
20.8941   943
20.9041   943
20.9141   906
20.9241   964
20.9341   978
20.9441  1012
20.9541   977
20.9641  1046
20.9741  1050
20.9841  1061
20.9941  1075
21.0041  1126
21.0141  1108
21.0241  1112
21.0341  1149
21.0441  1187
21.0541  1217
21.0641  1242
21.0741  1239
21.0841  1207
21.0941  1276
21.1041  1264
21.1141  1208
21.1241  1231
21.1341  1263
21.1441  1329
21.1541  1210
21.1641  1258
21.1741  1239
21.1841  1175
21.1941  1185
21.2041  1156
21.2141  1162
21.2241  1167
21.2341  1109
21.2441  1101
21.2541  1087
21.2641  1036
21.2741  1059
21.2841  1033
21.2941   981
21.3041   942
21.3141   948
21.3241   930
21.3341   945
21.3441   921
21.3541   898
21.3641   874
21.3741   851
21.3841   831
21.3941   880
21.4041   843
21.4141   820
21.4241   803
21.4341   833
21.4441   852
21.4541   835
21.4641   789
21.4741   783
21.4841   791
21.4941   846
21.5041   797
21.5141   796
21.5241   756
21.5341   758
21.5441   833
21.5541   855
21.5641   828
21.5741   835
21.5841   847
21.5941   827
21.6041   795
21.6141   839
21.6241   806
21.6341   765
21.6441   841
21.6541   804
21.6641   782
21.6741   793
21.6841   812
21.6941   821
21.7041   776
21.7141   815
21.7241   863
21.7341   810
21.7441   773
21.7541   838
21.7641   813
21.7741   803
21.7841   796
21.7941   789
21.8041   801
21.8141   846
21.8241   798
21.8341   830
21.8441   796
21.8541   758
21.8641   818
21.8741   832
21.8841   771
21.8941   784
21.9041   766
21.9141   822
21.9241   808
21.9341   781
21.9441   809
21.9541   845
21.9641   788
21.9741   829
21.9841   803
21.9941   813
22.0041   798
22.0141   814
22.0241   881
22.0341   770
22.0441   760
22.0541   795
22.0641   795
22.0741   800
22.0841   830
22.0941   819
22.1041   830
22.1141   796
22.1241   801
22.1341   784
22.1441   834
22.1541   779
22.1641   776
22.1741   793
22.1841   809
22.1941   817
22.2041   860
22.2141   821
22.2241   768
22.2341   830
22.2441   836
22.2541   813
22.2641   825
22.2741   889
22.2841   825
22.2941   822
22.3041   801
22.3141   801
22.3241   827
22.3341   824
22.3441   785
22.3541   808
22.3641   833
22.3741   785
22.3841   809
22.3941   755
22.4041   790
22.4141   804
22.4241   785
22.4341   843
22.4441   810
22.4541   816
22.4641   794
22.4741   792
22.4841   800
22.4941   829
22.5041   783
22.5141   801
22.5241   861
22.5341   818
22.5441   834
22.5541   780
22.5641   860
22.5741   851
22.5841   840
22.5941   851
22.6041   803
22.6141   767
22.6241   758
22.6341   776
22.6441   857
22.6541   815
22.6641   816
22.6741   832
22.6841   790
22.6941   807
22.7041   799
22.7141   855
22.7241   865
22.7341   793
22.7441   835
22.7541   815
22.7641   784
22.7741   799
22.7841   839
22.7941   839
22.8041   788
22.8141   844
22.8241   787
22.8341   773
22.8441   826
22.8541   802
22.8641   816
22.8741   805
22.8841   819
22.8941   782
22.9041   830
22.9141   825
22.9241   782
22.9341   800
22.9441   801
22.9541   756
22.9641   773
22.9741   840
22.9841   840
22.9941   810
23.0041   816
23.0141   782
23.0241   831
23.0341   747
23.0441   788
23.0541   823
23.0641   761
23.0741   823
23.0841   781
23.0941   797
23.1041   753
23.1141   803
23.1241   766
23.1341   794
23.1441   819
23.1541   805
23.1641   806
23.1741   812
23.1841   749
23.1941   831
23.2041   753
23.2141   822
23.2241   815
23.2341   798
23.2441   879
23.2541   776
23.2641   819
23.2741   804
23.2841   818
23.2941   761
23.3041   808
23.3141   818
23.3241   834
23.3341   787
23.3441   820
23.3541   808
23.3641   747
23.3741   831
23.3841   775
23.3941   810
23.4041   784
23.4141   801
23.4241   780
23.4341   819
23.4441   812
23.4541   826
23.4641   822
23.4741   782
23.4841   787
23.4941   805
23.5041   822
23.5141   820
23.5241   775
23.5341   789
23.5441   814
23.5541   751
23.5641   802
23.5741   855
23.5841   799
23.5941   788
23.6041   791
23.6141   820
23.6241   815
23.6341   845
23.6441   815
23.6541   826
23.6641   844
23.6741   842
23.6841   815
23.6941   828
23.7041   877
23.7141   847
23.7241   852
23.7341   830
23.7441   920
23.7541   839
23.7641   841
23.7741   886
23.7841   840
23.7941   893
23.8041   848
23.8141   877
23.8241   900
23.8341   872
23.8441   859
23.8541   911
23.8641   824
23.8741   867
23.8841   820
23.8941   862
23.9041   839
23.9141   830
23.9241   806
23.9341   843
23.9441   837
23.9541   814
23.9641   806
23.9741   777
23.9841   811
23.9941   803
24.0041   787
24.0141   768
24.0241   762
24.0341   802
24.0441   722
24.0541   782
24.0641   767
24.0741   826
24.0841   829
24.0941   739
24.1041   736
24.1141   766
24.1241   778
24.1341   814
24.1441   786
24.1541   781
24.1641   785
24.1741   796
24.1841   744
24.1941   746
24.2041   749
24.2141   744
24.2241   784
24.2341   808
24.2441   819
24.2541   782
24.2641   716
24.2741   754
24.2841   802
24.2941   828
24.3041   770
24.3141   790
24.3241   744
24.3341   754
24.3441   832
24.3541   769
24.3641   781
24.3741   768
24.3841   809
24.3941   810
24.4041   760
24.4141   785
24.4241   786
24.4341   758
24.4441   812
24.4541   740
24.4641   767
24.4741   807
24.4841   755
24.4941   756
24.5041   760
24.5141   777
24.5241   783
24.5341   784
24.5441   755
24.5541   765
24.5641   805
24.5741   795
24.5841   761
24.5941   755
24.6041   774
24.6141   747
24.6241   769
24.6341   776
24.6441   756
24.6541   748
24.6641   737
24.6741   781
24.6841   752
24.6941   740
24.7041   706
24.7141   735
24.7241   741
24.7341   748
24.7441   762
24.7541   753
24.7641   729
24.7741   763
24.7841   716
24.7941   743
24.8041   761
24.8141   738
24.8241   749
24.8341   751
24.8441   734
24.8541   714
24.8641   699
24.8741   739
24.8841   738
24.8941   717
24.9041   726
24.9141   716
24.9241   730
24.9341   736
24.9441   755
24.9541   742
24.9641   776
24.9741   717
24.9841   807
24.9941   772
25.0041   751
25.0141   806
25.0241   723
25.0341   762
25.0441   736
25.0541   773
25.0641   731
25.0741   752
25.0841   798
25.0941   754
25.1041   737
25.1141   752
25.1241   767
25.1341   773
25.1441   749
25.1541   768
25.1641   724
25.1741   758
25.1841   786
25.1941   792
25.2041   722
25.2141   711
25.2241   778
25.2341   800
25.2441   733
25.2541   767
25.2641   734
25.2741   772
25.2841   742
25.2941   758
25.3041   747
25.3141   737
25.3241   739
25.3341   727
25.3441   732
25.3541   739
25.3641   718
25.3741   743
25.3841   732
25.3941   722
25.4041   705
25.4141   722
25.4241   755
25.4341   721
25.4441   707
25.4541   739
25.4641   767
25.4741   712
25.4841   720
25.4941   730
25.5041   745
25.5141   748
25.5241   717
25.5341   710
25.5441   704
25.5541   722
25.5641   721
25.5741   746
25.5841   725
25.5941   738
25.6041   666
25.6141   685
25.6241   712
25.6341   704
25.6441   719
25.6541   715
25.6641   721
25.6741   639
25.6841   682
25.6941   732
25.7041   749
25.7141   733
25.7241   693
25.7341   662
25.7441   719
25.7541   721
25.7641   692
25.7741   667
25.7841   671
25.7941   727
25.8041   686
25.8141   669
25.8241   699
25.8341   710
25.8441   696
25.8541   725
25.8641   706
25.8741   704
25.8841   683
25.8941   705
25.9041   715
25.9141   710
25.9241   690
25.9341   689
25.9441   688
25.9541   686
25.9641   676
25.9741   676
25.9841   721
25.9941   658
26.0041   688
26.0141   671
26.0241   675
26.0341   641
26.0441   700
26.0541   646
26.0641   658
26.0741   650
26.0841   663
26.0941   687
26.1041   720
26.1141   703
26.1241   615
26.1341   693
26.1441   675
26.1541   659
26.1641   635
26.1741   677
26.1841   687
26.1941   689
26.2041   610
26.2141   711
26.2241   709
26.2341   730
26.2441   702
26.2541   659
26.2641   640
26.2741   692
26.2841   674
26.2941   699
26.3041   671
26.3141   654
26.3241   642
26.3341   696
26.3441   672
26.3541   675
26.3641   658
26.3741   686
26.3841   667
26.3941   677
26.4041   714
26.4141   674
26.4241   668
26.4341   679
26.4441   691
26.4541   651
26.4641   654
26.4741   709
26.4841   667
26.4941   625
26.5041   693
26.5141   621
26.5241   634
26.5341   679
26.5441   651
26.5541   645
26.5641   640
26.5741   664
26.5841   604
26.5941   667
26.6041   677
26.6141   688
26.6241   651
26.6341   631
26.6441   648
26.6541   631
26.6641   623
26.6741   628
26.6841   672
26.6941   657
26.7041   622
26.7141   639
26.7241   658
26.7341   679
26.7441   637
26.7541   658
26.7641   647
26.7741   614
26.7841   663
26.7941   621
26.8041   622
26.8141   668
26.8241   646
26.8341   643
26.8441   661
26.8541   658
26.8641   631
26.8741   592
26.8841   613
26.8941   612
26.9041   629
26.9141   638
26.9241   585
26.9341   644
26.9441   626
26.9541   653
26.9641   620
26.9741   590
26.9841   643
26.9941   625
27.0041   641
27.0141   660
27.0241   637
27.0341   604
27.0441   640
27.0541   584
27.0641   573
27.0741   638
27.0841   653
27.0941   635
27.1041   602
27.1141   630
27.1241   613
27.1341   606
27.1441   615
27.1541   620
27.1641   633
27.1741   597
27.1841   614
27.1941   666
27.2041   620
27.2141   599
27.2241   604
27.2341   618
27.2441   624
27.2541   598
27.2641   651
27.2741   600
27.2841   607
27.2941   595
27.3041   581
27.3141   612
27.3241   608
27.3341   606
27.3441   614
27.3541   572
27.3641   609
27.3741   616
27.3841   606
27.3941   617
27.4041   608
27.4141   553
27.4241   622
27.4341   605
27.4441   622
27.4541   581
27.4641   634
27.4741   650
27.4841   590
27.4941   603
27.5041   612
27.5141   611
27.5241   616
27.5341   613
27.5441   580
27.5541   590
27.5641   592
27.5741   594
27.5841   571
27.5941   564
27.6041   582
27.6141   607
27.6241   616
27.6341   579
27.6441   575
27.6541   526
27.6641   556
27.6741   586
27.6841   545
27.6941   552
27.7041   551
27.7141   575
27.7241   598
27.7341   609
27.7441   588
27.7541   574
27.7641   550
27.7741   609
27.7841   593
27.7941   592
27.8041   600
27.8141   567
27.8241   516
27.8341   571
27.8441   620
27.8541   614
27.8641   574
27.8741   557
27.8841   571
27.8941   584
27.9041   597
27.9141   536
27.9241   550
27.9341   572
27.9441   574
27.9541   579
27.9641   584
27.9741   554
27.9841   583
27.9941   531
28.0041   543
28.0141   552
28.0241   559
28.0341   571
28.0441   549
28.0541   543
28.0641   581
28.0741   543
28.0841   573
28.0941   605
28.1041   532
28.1141   530
28.1241   562
28.1341   556
28.1441   574
28.1541   567
28.1641   563
28.1741   587
28.1841   558
28.1941   565
28.2041   542
28.2141   534
28.2241   540
28.2341   542
28.2441   527
28.2541   587
28.2641   559
28.2741   537
28.2841   573
28.2941   561
28.3041   569
28.3141   515
28.3241   497
28.3341   558
28.3441   610
28.3541   557
28.3641   529
28.3741   562
28.3841   577
28.3941   551
28.4041   546
28.4141   556
28.4241   576
28.4341   586
28.4441   535
28.4541   527
28.4641   536
28.4741   527
28.4841   549
28.4941   548
28.5041   529
28.5141   567
28.5241   514
28.5341   546
28.5441   581
28.5541   573
28.5641   516
28.5741   540
28.5841   541
28.5941   536
28.6041   548
28.6141   543
28.6241   540
28.6341   557
28.6441   543
28.6541   534
28.6641   501
28.6741   511
28.6841   543
28.6941   577
28.7041   527
28.7141   529
28.7241   505
28.7341   525
28.7441   550
28.7541   516
28.7641   513
28.7741   511
28.7841   532
28.7941   540
28.8041   510
28.8141   465
28.8241   496
28.8341   476
28.8441   495
28.8541   544
28.8641   520
28.8741   517
28.8841   549
28.8941   505
28.9041   521
28.9141   507
28.9241   468
28.9341   488
28.9441   506
28.9541   492
28.9641   496
28.9741   502
28.9841   510
28.9941   544
29.0041   484
29.0141   466
29.0241   529
29.0341   529
29.0441   504
29.0541   520
29.0641   503
29.0741   551
29.0841   519
29.0941   546
29.1041   502
29.1141   479
29.1241   538
29.1341   480
29.1441   517
29.1541   518
29.1641   485
29.1741   521
29.1841   529
29.1941   500
29.2041   457
29.2141   492
29.2241   469
29.2341   489
29.2441   457
29.2541   467
29.2641   511
29.2741   484
29.2841   498
29.2941   526
29.3041   483
29.3141   465
29.3241   460
29.3341   489
29.3441   482
29.3541   499
29.3641   495
29.3741   463
29.3841   494
29.3941   508
29.4041   456
29.4141   465
29.4241   466
29.4341   497
29.4441   466
29.4541   469
29.4641   482
29.4741   494
29.4841   462
29.4941   453
29.5041   461
29.5141   442
29.5241   481
29.5341   494
29.5441   473
29.5541   483
29.5641   499
29.5741   485
29.5841   469
29.5941   455
29.6041   475
29.6141   452
29.6241   521
29.6341   489
29.6441   447
29.6541   439
29.6641   450
29.6741   452
29.6841   463
29.6941   465
29.7041   438
29.7141   443
29.7241   446
29.7341   436
29.7441   434
29.7541   462
29.7641   452
29.7741   455
29.7841   441
29.7941   450
29.8041   481
29.8141   492
29.8241   440
29.8341   473
29.8441   465
29.8541   442
29.8641   436
29.8741   477
29.8841   425
29.8941   447
29.9041   426
29.9141   462
29.9241   443
29.9341   422
29.9441   456
29.9541   464
29.9641   478
29.9741   464
29.9841   460
29.9941   480
30.0041   484
30.0141   426
30.0241   473
30.0341   464
30.0441   427
30.0541   463
30.0641   434
30.0741   442
30.0841   425
30.0941   426
30.1041   423
30.1141   454
30.1241   427
30.1341   419
30.1441   437
30.1541   418
30.1641   456
30.1741   397
30.1841   406
30.1941   406
30.2041   465
30.2141   413
30.2241   404
30.2341   414
30.2441   416
30.2541   418
30.2641   429
30.2741   403
30.2841   437
30.2941   421
30.3041   403
30.3141   435
30.3241   414
30.3341   436
30.3441   428
30.3541   409
30.3641   402
30.3741   406
30.3841   409
30.3941   440
30.4041   400
30.4141   404
30.4241   394
30.4341   412
30.4441   457
30.4541   410
30.4641   426
30.4741   415
30.4841   412
30.4941   430
30.5041   428
30.5141   385
30.5241   419
30.5341   441
30.5441   415
30.5541   423
30.5641   363
30.5741   404
30.5841   384
30.5941   428
30.6041   417
30.6141   419
30.6241   397
30.6341   431
30.6441   406
30.6541   429
30.6641   407
30.6741   399
30.6841   390
30.6941   413
30.7041   411
30.7141   414
30.7241   404
30.7341   377
30.7441   366
30.7541   419
30.7641   378
30.7741   414
30.7841   378
30.7941   405
30.8041   366
30.8141   375
30.8241   410
30.8341   393
30.8441   380
30.8541   362
30.8641   397
30.8741   378
30.8841   378
30.8941   420
30.9041   402
30.9141   427
30.9241   359
30.9341   387
30.9441   394
30.9541   393
30.9641   393
30.9741   395
30.9841   379
30.9941   363
31.0041   411
31.0141   413
31.0241   387
31.0341   388
31.0441   398
31.0541   389
31.0641   387
31.0741   404
31.0841   352
31.0941   362
31.1041   371
31.1141   353
31.1241   358
31.1341   395
31.1441   394
31.1541   389
31.1641   392
31.1741   374
31.1841   373
31.1941   417
31.2041   429
31.2141   398
31.2241   363
31.2341   387
31.2441   370
31.2541   403
31.2641   363
31.2741   354
31.2841   341
31.2941   348
31.3041   397
31.3141   369
31.3241   399
31.3341   382
31.3441   418
31.3541   396
31.3641   366
31.3741   352
31.3841   346
31.3941   363
31.4041   356
31.4141   374
31.4241   364
31.4341   316
31.4441   370
31.4541   370
31.4641   357
31.4741   368
31.4841   364
31.4941   358
31.5041   365
31.5141   351
31.5241   358
31.5341   371
31.5441   370
31.5541   362
31.5641   358
31.5741   347
31.5841   345
31.5941   353
31.6041   347
31.6141   365
31.6241   349
31.6341   337
31.6441   336
31.6541   362
31.6641   357
31.6741   390
31.6841   332
31.6941   350
31.7041   357
31.7141   354
31.7241   351
31.7341   341
31.7441   326
31.7541   358
31.7641   336
31.7741   345
31.7841   358
31.7941   372
31.8041   348
31.8141   354
31.8241   375
31.8341   357
31.8441   338
31.8541   332
31.8641   328
31.8741   327
31.8841   310
31.8941   339
31.9041   330
31.9141   337
31.9241   354
31.9341   313
31.9441   331
31.9541   340
31.9641   316
31.9741   307
31.9841   334
31.9941   326
32.0041   315
32.0141   369
32.0241   304
32.0341   333
32.0441   324
32.0541   347
32.0641   349
32.0741   329
32.0841   319
32.0941   333
32.1041   339
32.1141   341
32.1241   333
32.1341   331
32.1441   311
32.1541   316
32.1641   311
32.1741   364
32.1841   328
32.1941   326
32.2041   342
32.2141   313
32.2241   329
32.2341   312
32.2441   331
32.2541   336
32.2641   336
32.2741   313
32.2841   330
32.2941   303
32.3041   322
32.3141   296
32.3241   322
32.3341   304
32.3441   332
32.3541   313
32.3641   307
32.3741   310
32.3841   316
32.3941   308
32.4041   313
32.4141   321
32.4241   300
32.4341   319
32.4441   311
32.4541   277
32.4641   278
32.4741   314
32.4841   283
32.4941   291
32.5041   313
32.5141   288
32.5241   332
32.5341   314
32.5441   313
32.5541   324
32.5641   297
32.5741   302
32.5841   310
32.5941   310
32.6041   315
32.6141   312
32.6241   262
32.6341   297
32.6441   306
32.6541   285
32.6641   322
32.6741   308
32.6841   318
32.6941   301
32.7041   312
32.7141   312
32.7241   313
32.7341   304
32.7441   299
32.7541   286
32.7641   289
32.7741   289
32.7841   280
32.7941   286
32.8041   325
32.8141   301
32.8241   272
32.8341   298
32.8441   268
32.8541   286
32.8641   280
32.8741   266
32.8841   286
32.8941   284
32.9041   289
32.9141   274
32.9241   270
32.9341   269
32.9441   297
32.9541   257
32.9641   279
32.9741   298
32.9841   254
32.9941   281
33.0041   251
33.0141   282
33.0241   285
33.0341   284
33.0441   296
33.0541   282
33.0641   268
33.0741   296
33.0841   253
33.0941   271
33.1041   287
33.1141   273
33.1241   260
33.1341   299
33.1441   291
33.1541   264
33.1641   297
33.1741   262
33.1841   267
33.1941   276
33.2041   286
33.2141   251
33.2241   274
33.2341   280
33.2441   270
33.2541   270
33.2641   279
33.2741   268
33.2841   257
33.2941   267
33.3041   265
33.3141   257
33.3241   298
33.3341   267
33.3441   266
33.3541   268
33.3641   283
33.3741   237
33.3841   251
33.3941   237
33.4041   257
33.4141   252
33.4241   261
33.4341   290
33.4441   280
33.4541   277
33.4641   257
33.4741   259
33.4841   286
33.4941   266
33.5041   245
33.5141   258
33.5241   243
33.5341   240
33.5441   262
33.5541   260
33.5641   264
33.5741   273
33.5841   258
33.5941   237
33.6041   246
33.6141   270
33.6241   256
33.6341   241
33.6441   261
33.6541   255
33.6641   229
33.6741   260
33.6841   243
33.6941   251
33.7041   271
33.7141   234
33.7241   234
33.7341   275
33.7441   277
33.7541   251
33.7641   249
33.7741   251
33.7841   234
33.7941   244
33.8041   230
33.8141   240
33.8241   253
33.8341   219
33.8441   224
33.8541   218
33.8641   242
33.8741   231
33.8841   238
33.8941   240
33.9041   264
33.9141   214
33.9241   233
33.9341   241
33.9441   244
33.9541   226
33.9641   205
33.9741   239
33.9841   240
33.9941   238
34.0041   247
34.0141   232
34.0241   236
34.0341   231
34.0441   233
34.0541   253
34.0641   223
34.0741   222
34.0841   207
34.0941   225
34.1041   221
34.1141   233
34.1241   231
34.1341   237
34.1441   237
34.1541   210
34.1641   219
34.1741   229
34.1841   238
34.1941   221
34.2041   251
34.2141   220
34.2241   232
34.2341   236
34.2441   231
34.2541   223
34.2641   222
34.2741   213
34.2841   223
34.2941   233
34.3041   223
34.3141   209
34.3241   209
34.3341   212
34.3441   202
34.3541   208
34.3641   242
34.3741   242
34.3841   238
34.3941   224
34.4041   220
34.4141   201
34.4241   208
34.4341   208
34.4441   215
34.4541   209
34.4641   209
34.4741   229
34.4841   220
34.4941   227
34.5041   225
34.5141   213
34.5241   211
34.5341   214
34.5441   205
34.5541   236
34.5641   218
34.5741   210
34.5841   223
34.5941   195
34.6041   236
34.6141   199
34.6241   212
34.6341   245
34.6441   225
34.6541   201
34.6641   211
34.6741   213
34.6841   188
34.6941   166
34.7041   197
34.7141   185
34.7241   192
34.7341   200
34.7441   194
34.7541   226
34.7641   225
34.7741   212
34.7841   198
34.7941   212
34.8041   184
34.8141   188
34.8241   192
34.8341   177
34.8441   201
34.8541   210
34.8641   203
34.8741   182
34.8841   188
34.8941   196
34.9041   211
34.9141   199
34.9241   172
34.9341   196
34.9441   197
34.9541   197
34.9641   200
34.9741   219
34.9841   194
34.9941   220
35.0041   199
35.0141   175
35.0241   198
35.0341   201
35.0441   191
35.0541   168
35.0641   184
35.0741   204
35.0841   207
35.0941   192
35.1041   216
35.1141   183
35.1241   189
35.1341   178
35.1441   203
35.1541   172
35.1641   188
35.1741   197
35.1841   189
35.1941   172
35.2041   196
35.2141   192
35.2241   202
35.2341   172
35.2441   161
35.2541   172
35.2641   167
35.2741   194
35.2841   180
35.2941   182
35.3041   159
35.3141   200
35.3241   169
35.3341   176
35.3441   175
35.3541   189
35.3641   204
35.3741   190
35.3841   197
35.3941   190
35.4041   178
35.4141   184
35.4241   194
35.4341   155
35.4441   177
35.4541   192
35.4641   175
35.4741   160
35.4841   179
35.4941   200
35.5041   188
35.5141   190
35.5241   177
35.5341   157
35.5441   178
35.5541   168
35.5641   147
35.5741   188
35.5841   185
35.5941   178
35.6041   165
35.6141   157
35.6241   176
35.6341   183
35.6441   163
35.6541   173
35.6641   175
35.6741   168
35.6841   158
35.6941   207
35.7041   168
35.7141   164
35.7241   146
35.7341   166
35.7441   148
35.7541   171
35.7641   159
35.7741   175
35.7841   163
35.7941   154
35.8041   163
35.8141   148
35.8241   163
35.8341   149
35.8441   165
35.8541   178
35.8641   178
35.8741   175
35.8841   185
35.8941   176
35.9041   171
35.9141   172
35.9241   170
35.9341   169
35.9441   153
35.9541   160
35.9641   158
35.9741   157
35.9841   174
35.9941   155
36.0041   146
36.0141   168
36.0241   155
36.0341   137
36.0441   136
36.0541   146
36.0641   142
36.0741   150
36.0841   169
36.0941   174
36.1041   162
36.1141   148
36.1241   161
36.1341   170
36.1441   146
36.1541   142
36.1641   161
36.1741   176
36.1841   153
36.1941   163
36.2041   142
36.2141   136
36.2241   166
36.2341   158
36.2441   151
36.2541   166
36.2641   138
36.2741   154
36.2841   148
36.2941   145
36.3041   165
36.3141   145
36.3241   141
36.3341   178
36.3441   129
36.3541   123
36.3641   123
36.3741   142
36.3841   136
36.3941   143
36.4041   161
36.4141   148
36.4241   149
36.4341   152
36.4441   125
36.4541   161
36.4641   142
36.4741   149
36.4841   136
36.4941   155
36.5041   138
36.5141   144
36.5241   141
36.5341   146
36.5441   144
36.5541   136
36.5641   140
36.5741   137
36.5841   142
36.5941   126
36.6041   157
36.6141   140
36.6241   156
36.6341   136
36.6441   143
36.6541   141
36.6641   144
36.6741   120
36.6841   127
36.6941   125
36.7041   147
36.7141   135
36.7241   121
36.7341   131
36.7441   140
36.7541   125
36.7641   144
36.7741   121
36.7841   134
36.7941   141
36.8041   133
36.8141   139
36.8241   127
36.8341   139
36.8441   139
36.8541   131
36.8641   120
36.8741   138
36.8841   139
36.8941   129
36.9041   156
36.9141   138
36.9241   132
36.9341   135
36.9441   117
36.9541   122
36.9641   119
36.9741   118
36.9841   131
36.9941   152
37.0041   127
37.0141   122
37.0241   117
37.0341   125
37.0441   135
37.0541   137
37.0641   121
37.0741   122
37.0841   146
37.0941   122
37.1041   124
37.1141   148
37.1241   118
37.1341   109
37.1441   130
37.1541   114
37.1641   115
37.1741   117
37.1841   112
37.1941   104
37.2041   102
37.2141   118
37.2241   129
37.2341   122
37.2441   113
37.2541   128
37.2641   135
37.2741   115
37.2841   115
37.2941   120
37.3041   124
37.3141   122
37.3241   109
37.3341   101
37.3441   108
37.3541   123
37.3641   116
37.3741   113
37.3841   130
37.3941   111
37.4041   128
37.4141   106
37.4241   116
37.4341   118
37.4441   101
37.4541   110
37.4641   103
37.4741    91
37.4841   116
37.4941   116
37.5041   105
37.5141    93
37.5241   120
37.5341   118
37.5441   103
37.5541   101
37.5641   125
37.5741    93
37.5841    97
37.5941   105
37.6041   103
37.6141   101
37.6241    94
37.6341   111
37.6441   107
37.6541    96
37.6641   119
37.6741    95
37.6841    99
37.6941    99
37.7041   103
37.7141   104
37.7241    98
37.7341   107
37.7441   118
37.7541    93
37.7641    98
37.7741   114
37.7841   119
37.7941   111
37.8041   123
37.8141   108
37.8241    95
37.8341   104
37.8441    92
37.8541   103
37.8641    98
37.8741    91
37.8841   110
37.8941    98
37.9041   111
37.9141   116
37.9241    86
37.9341   104
37.9441   107
37.9541   104
37.9641   107
37.9741   101
37.9841    88
37.9941   102
38.0041   107
38.0141   110
38.0241    82
38.0341    99
38.0441    84
38.0541    91
38.0641    98
38.0741    89
38.0841   102
38.0941    88
38.1041    98
38.1141    93
38.1241   101
38.1341    88
38.1441    95
38.1541    89
38.1641    78
38.1741    89
38.1841   100
38.1941    90
38.2041   101
38.2141    88
38.2241    93
38.2341    98
38.2441    73
38.2541   103
38.2641    78
38.2741    83
38.2841    93
38.2941    95
38.3041    88
38.3141    85
38.3241    90
38.3341    95
38.3441    82
38.3541    81
38.3641    96
38.3741    75
38.3841   104
38.3941    91
38.4041    91
38.4141    91
38.4241    83
38.4341    94
38.4441    74
38.4541   101
38.4641    78
38.4741    68
38.4841    95
38.4941    76
38.5041    76
38.5141   108
38.5241    90
38.5341    96
38.5441    76
38.5541    80
38.5641    84
38.5741    80
38.5841    85
38.5941    91
38.6041    92
38.6141   100
38.6241    79
38.6341    71
38.6441    86
38.6541    73
38.6641    95
38.6741    80
38.6841    85
38.6941    74
38.7041    76
38.7141    73
38.7241    89
38.7341    74
38.7441    85
38.7541    61
38.7641    74
38.7741    78
38.7841    82
38.7941    82
38.8041    73
38.8141    72
38.8241    63
38.8341    74
38.8441    73
38.8541    79
38.8641    71
38.8741    66
38.8841    89
38.8941    73
38.9041    64
38.9141    69
38.9241    68
38.9341    65
38.9441    74
38.9541    68
38.9641    80
38.9741    72
38.9841    64
38.9941    63
39.0041    76
39.0141    63
39.0241    74
39.0341    75
39.0441    70
39.0541    72
39.0641    75
39.0741    76
39.0841    61
39.0941    73
39.1041    75
39.1141    67
39.1241    64
39.1341    65
39.1441    62
39.1541    82
39.1641    77
39.1741    61
39.1841    59
39.1941    79
39.2041    71
39.2141    55
39.2241    75
39.2341    72
39.2441    74
39.2541    51
39.2641    62
39.2741    76
39.2841    65
39.2941    66
39.3041    77
39.3141    56
39.3241    74
39.3341    79
39.3441    68
39.3541    69
39.3641    72
39.3741    49
39.3841    71
39.3941    54
39.4041    55
39.4141    64
39.4241    55
39.4341    67
39.4441    65
39.4541    66
39.4641    56
39.4741    64
39.4841    60
39.4941    60
39.5041    59
39.5141    61
39.5241    51
39.5341    59
39.5441    53
39.5541    59
39.5641    68
39.5741    63
39.5841    61
39.5941    56
39.6041    48
39.6141    62
39.6241    68
39.6341    48
39.6441    48
39.6541    57
39.6641    52
39.6741    65
39.6841    60
39.6941    49
39.7041    53
39.7141    58
39.7241    58
39.7341    51
39.7441    55
39.7541    58
39.7641    57
39.7741    53
39.7841    59
39.7941    59
39.8041    61
39.8141    52
39.8241    65
39.8341    59
39.8441    55
39.8541    56
39.8641    46
39.8741    49
39.8841    60
39.8941    39
39.9041    56
39.9141    44
39.9241    55
39.9341    46
39.9441    53
39.9541    52
39.9641    51
39.9741    62
39.9841    55
39.9941    50
