Bruker Nano GmbH Berlin, Germany
Esprit 1.9

Date: 4/1/2021 4:47:40 PM
Real time: 12261
Life time: 11111
Pulse density: 142558


Detector type: XFlash 430
Window type: Custom type
Detector thickness: 0.45
Si dead layer:0.029

Calibration, lin.: 10
Calibration, abs.: -955.9
Mn FWHM: 137.05
Fano factor: 0.121
Channels: 4095

Energy Counts
-0.9559     0
-0.9459     0
-0.9359     0
-0.9259     0
-0.9159     0
-0.9059     0
-0.8959     0
-0.8859     0
-0.8759     0
-0.8659     0
-0.8559     0
-0.8459     0
-0.8359     0
-0.8259     0
-0.8159     0
-0.8059     0
-0.7959     0
-0.7859     0
-0.7759     0
-0.7659     0
-0.7559     0
-0.7459     0
-0.7359     0
-0.7259     0
-0.7159     0
-0.7059     0
-0.6959     0
-0.6859     0
-0.6759     0
-0.6659     0
-0.6559     0
-0.6459     0
-0.6359     0
-0.6259     0
-0.6159     0
-0.6059     0
-0.5959     0
-0.5859     0
-0.5759     0
-0.5659     0
-0.5559     0
-0.5459     0
-0.5359     0
-0.5259     0
-0.5159     0
-0.5059     0
-0.4959     0
-0.4859     0
-0.4759     0
-0.4659     0
-0.4559     0
-0.4459     0
-0.4359     0
-0.4259     0
-0.4159     0
-0.4059     0
-0.3959     0
-0.3859     0
-0.3759     0
-0.3659     0
-0.3559     0
-0.3459     0
-0.3359     0
-0.3259     0
-0.3159     0
-0.3059     0
-0.2959     0
-0.2859     0
-0.2759     0
-0.2659     0
-0.2559     0
-0.2459     0
-0.2359     0
-0.2259     0
-0.2159     0
-0.2059     0
-0.1959     0
-0.1859     0
-0.1759     0
-0.1659     0
-0.1559     0
-0.1459     0
-0.1359     0
-0.1259     0
-0.1159     1
-0.1059     8
-0.0959    41
-0.0859   131
-0.0759   414
-0.0659  1332
-0.0559  3292
-0.0459  7081
-0.0359 13068
-0.0259 21056
-0.0159 29037
-0.0059 34212
 0.0041 33923
 0.0141 29534
 0.0241 21909
 0.0341 13811
 0.0441  7537
 0.0541  3442
 0.0641  1479
 0.0741   473
 0.0841   141
 0.0941    47
 0.1041    18
 0.1141     7
 0.1241     7
 0.1341     4
 0.1441     2
 0.1541     7
 0.1641     2
 0.1741     1
 0.1841   117
 0.1941   217
 0.2041   177
 0.2141   163
 0.2241   203
 0.2341   194
 0.2441   186
 0.2541   204
 0.2641   199
 0.2741   182
 0.2841   201
 0.2941   196
 0.3041   195
 0.3141   185
 0.3241   191
 0.3341   189
 0.3441   203
 0.3541   192
 0.3641   190
 0.3741   183
 0.3841   187
 0.3941   173
 0.4041   182
 0.4141   186
 0.4241   182
 0.4341   175
 0.4441   178
 0.4541   164
 0.4641   156
 0.4741   176
 0.4841   161
 0.4941   174
 0.5041   175
 0.5141   160
 0.5241   140
 0.5341   149
 0.5441   159
 0.5541   152
 0.5641   131
 0.5741   146
 0.5841   157
 0.5941   152
 0.6041   141
 0.6141   146
 0.6241   138
 0.6341   143
 0.6441   157
 0.6541   164
 0.6641   159
 0.6741   128
 0.6841   122
 0.6941   131
 0.7041   150
 0.7141   157
 0.7241   132
 0.7341   145
 0.7441   145
 0.7541   135
 0.7641   134
 0.7741   129
 0.7841   153
 0.7941   149
 0.8041   143
 0.8141   136
 0.8241   136
 0.8341   142
 0.8441   167
 0.8541   154
 0.8641   141
 0.8741   137
 0.8841   132
 0.8941   133
 0.9041   137
 0.9141   131
 0.9241   127
 0.9341   118
 0.9441   123
 0.9541   131
 0.9641   132
 0.9741   135
 0.9841   115
 0.9941   112
 1.0041   132
 1.0141   131
 1.0241   137
 1.0341   132
 1.0441   135
 1.0541   120
 1.0641   119
 1.0741   112
 1.0841    96
 1.0941   121
 1.1041   126
 1.1141   130
 1.1241   113
 1.1341   121
 1.1441   116
 1.1541   127
 1.1641   119
 1.1741   117
 1.1841   121
 1.1941   127
 1.2041   108
 1.2141   131
 1.2241   122
 1.2341   111
 1.2441   116
 1.2541   119
 1.2641   124
 1.2741   120
 1.2841   119
 1.2941   105
 1.3041   100
 1.3141   115
 1.3241   128
 1.3341   115
 1.3441   115
 1.3541   123
 1.3641    97
 1.3741   112
 1.3841   116
 1.3941   121
 1.4041   115
 1.4141   122
 1.4241   141
 1.4341   109
 1.4441   115
 1.4541   125
 1.4641   127
 1.4741   110
 1.4841   110
 1.4941   114
 1.5041   109
 1.5141   103
 1.5241   105
 1.5341   114
 1.5441   100
 1.5541   118
 1.5641   103
 1.5741   121
 1.5841   128
 1.5941   107
 1.6041    91
 1.6141   100
 1.6241   110
 1.6341   114
 1.6441   124
 1.6541   132
 1.6641   155
 1.6741   201
 1.6841   224
 1.6941   293
 1.7041   380
 1.7141   409
 1.7241   442
 1.7341   476
 1.7441   489
 1.7541   429
 1.7641   383
 1.7741   344
 1.7841   287
 1.7941   240
 1.8041   181
 1.8141   169
 1.8241   161
 1.8341   143
 1.8441   144
 1.8541   128
 1.8641   124
 1.8741   107
 1.8841   111
 1.8941   113
 1.9041   115
 1.9141   115
 1.9241   110
 1.9341   109
 1.9441   117
 1.9541   111
 1.9641   110
 1.9741   110
 1.9841   124
 1.9941   117
 2.0041   129
 2.0141   138
 2.0241   151
 2.0341   122
 2.0441   123
 2.0541   130
 2.0641   122
 2.0741   118
 2.0841   115
 2.0941   117
 2.1041   118
 2.1141   109
 2.1241    98
 2.1341    88
 2.1441    93
 2.1541    98
 2.1641   113
 2.1741    90
 2.1841   104
 2.1941    95
 2.2041    99
 2.2141    98
 2.2241    79
 2.2341    99
 2.2441    97
 2.2541   104
 2.2641   100
 2.2741    84
 2.2841   102
 2.2941    95
 2.3041    97
 2.3141    63
 2.3241    76
 2.3341    91
 2.3441    85
 2.3541   105
 2.3641    98
 2.3741    89
 2.3841    87
 2.3941    80
 2.4041    92
 2.4141    94
 2.4241    94
 2.4341    92
 2.4441    99
 2.4541    87
 2.4641    97
 2.4741    85
 2.4841    93
 2.4941    85
 2.5041   108
 2.5141    90
 2.5241    87
 2.5341    91
 2.5441    75
 2.5541    88
 2.5641    81
 2.5741    80
 2.5841    77
 2.5941    90
 2.6041    72
 2.6141   101
 2.6241    96
 2.6341    84
 2.6441    94
 2.6541    67
 2.6641    80
 2.6741    95
 2.6841    85
 2.6941    79
 2.7041    70
 2.7141    89
 2.7241    88
 2.7341    71
 2.7441    78
 2.7541    80
 2.7641    98
 2.7741    94
 2.7841    71
 2.7941    73
 2.8041    86
 2.8141    66
 2.8241    73
 2.8341    82
 2.8441    79
 2.8541    85
 2.8641    89
 2.8741    93
 2.8841    82
 2.8941    92
 2.9041    90
 2.9141    94
 2.9241    78
 2.9341    65
 2.9441    94
 2.9541    70
 2.9641    78
 2.9741    79
 2.9841    85
 2.9941    83
 3.0041    53
 3.0141    82
 3.0241    90
 3.0341    73
 3.0441    56
 3.0541    76
 3.0641    82
 3.0741    84
 3.0841    63
 3.0941    64
 3.1041    82
 3.1141    85
 3.1241    77
 3.1341    71
 3.1441    71
 3.1541    78
 3.1641    70
 3.1741    78
 3.1841    68
 3.1941    63
 3.2041    52
 3.2141    72
 3.2241    78
 3.2341    92
 3.2441    91
 3.2541   119
 3.2641   117
 3.2741   116
 3.2841   124
 3.2941   144
 3.3041   127
 3.3141   126
 3.3241   138
 3.3341   131
 3.3441   124
 3.3541   121
 3.3641   114
 3.3741    98
 3.3841    82
 3.3941    76
 3.4041    62
 3.4141    65
 3.4241    52
 3.4341    70
 3.4441    52
 3.4541    67
 3.4641    57
 3.4741    60
 3.4841    61
 3.4941    51
 3.5041    61
 3.5141    85
 3.5241    66
 3.5341    76
 3.5441    73
 3.5541    95
 3.5641   104
 3.5741    88
 3.5841   116
 3.5941   158
 3.6041   193
 3.6141   239
 3.6241   335
 3.6341   369
 3.6441   458
 3.6541   531
 3.6641   548
 3.6741   604
 3.6841   645
 3.6941   631
 3.7041   572
 3.7141   560
 3.7241   461
 3.7341   423
 3.7441   372
 3.7541   293
 3.7641   190
 3.7741   151
 3.7841   128
 3.7941   107
 3.8041    97
 3.8141    72
 3.8241    70
 3.8341    61
 3.8441    56
 3.8541    57
 3.8641    43
 3.8741    60
 3.8841    61
 3.8941    53
 3.9041    57
 3.9141    58
 3.9241    50
 3.9341    81
 3.9441    85
 3.9541    92
 3.9641    85
 3.9741   110
 3.9841   106
 3.9941   127
 4.0041   144
 4.0141   137
 4.0241   118
 4.0341   127
 4.0441   128
 4.0541   102
 4.0641    98
 4.0741    94
 4.0841    89
 4.0941    77
 4.1041    71
 4.1141    66
 4.1241    54
 4.1341    49
 4.1441    57
 4.1541    50
 4.1641    52
 4.1741    54
 4.1841    50
 4.1941    54
 4.2041    46
 4.2141    53
 4.2241    38
 4.2341    47
 4.2441    49
 4.2541    54
 4.2641    65
 4.2741    62
 4.2841    54
 4.2941    43
 4.3041    45
 4.3141    68
 4.3241    60
 4.3341    50
 4.3441    60
 4.3541    58
 4.3641    78
 4.3741    88
 4.3841    97
 4.3941   109
 4.4041   147
 4.4141   182
 4.4241   206
 4.4341   291
 4.4441   338
 4.4541   435
 4.4641   468
 4.4741   545
 4.4841   617
 4.4941   645
 4.5041   668
 4.5141   686
 4.5241   609
 4.5341   599
 4.5441   525
 4.5541   418
 4.5641   386
 4.5741   296
 4.5841   245
 4.5941   206
 4.6041   191
 4.6141   152
 4.6241   121
 4.6341    77
 4.6441   103
 4.6541   100
 4.6641    81
 4.6741    79
 4.6841    50
 4.6941    51
 4.7041    84
 4.7141    73
 4.7241    76
 4.7341    64
 4.7441    85
 4.7541    74
 4.7641    60
 4.7741    67
 4.7841    66
 4.7941    89
 4.8041    83
 4.8141    84
 4.8241   104
 4.8341   113
 4.8441   104
 4.8541   124
 4.8641   131
 4.8741   167
 4.8841   174
 4.8941   160
 4.9041   190
 4.9141   184
 4.9241   177
 4.9341   201
 4.9441   191
 4.9541   176
 4.9641   150
 4.9741   176
 4.9841   162
 4.9941   149
 5.0041   110
 5.0141   115
 5.0241    92
 5.0341    73
 5.0441    83
 5.0541    64
 5.0641    87
 5.0741    63
 5.0841    53
 5.0941    73
 5.1041    62
 5.1141    70
 5.1241    56
 5.1341    68
 5.1441    55
 5.1541    76
 5.1641    74
 5.1741    75
 5.1841    69
 5.1941    90
 5.2041    82
 5.2141    60
 5.2241    69
 5.2341    72
 5.2441    69
 5.2541    52
 5.2641    72
 5.2741    84
 5.2841    82
 5.2941    84
 5.3041   102
 5.3141    80
 5.3241    87
 5.3341    97
 5.3441    84
 5.3541   103
 5.3641   112
 5.3741   122
 5.3841   123
 5.3941   131
 5.4041   125
 5.4141   119
 5.4241   114
 5.4341   126
 5.4441   127
 5.4541   100
 5.4641    99
 5.4741    98
 5.4841   104
 5.4941   100
 5.5041    78
 5.5141    84
 5.5241    82
 5.5341    82
 5.5441    79
 5.5541    72
 5.5641    83
 5.5741    79
 5.5841    64
 5.5941    71
 5.6041    75
 5.6141    68
 5.6241    58
 5.6341    75
 5.6441    84
 5.6541    65
 5.6641    76
 5.6741    91
 5.6841    76
 5.6941    75
 5.7041    76
 5.7141    83
 5.7241    98
 5.7341   105
 5.7441   127
 5.7541   123
 5.7641   175
 5.7741   202
 5.7841   260
 5.7941   366
 5.8041   438
 5.8141   501
 5.8241   629
 5.8341   711
 5.8441   816
 5.8541   988
 5.8641  1007
 5.8741  1157
 5.8841  1238
 5.8941  1233
 5.9041  1162
 5.9141  1105
 5.9241  1098
 5.9341   927
 5.9441   852
 5.9541   746
 5.9641   625
 5.9741   526
 5.9841   418
 5.9941   368
 6.0041   272
 6.0141   238
 6.0241   191
 6.0341   143
 6.0441   139
 6.0541   150
 6.0641   131
 6.0741   119
 6.0841   116
 6.0941   143
 6.1041   138
 6.1141   137
 6.1241   146
 6.1341   171
 6.1441   176
 6.1541   207
 6.1641   207
 6.1741   263
 6.1841   319
 6.1941   375
 6.2041   455
 6.2141   636
 6.2241   868
 6.2341  1270
 6.2441  1728
 6.2541  2508
 6.2641  3529
 6.2741  4799
 6.2841  6531
 6.2941  8517
 6.3041 10846
 6.3141 14116
 6.3241 17346
 6.3341 20689
 6.3441 24392
 6.3541 27678
 6.3641 30932
 6.3741 33313
 6.3841 35279
 6.3941 35927
 6.4041 35822
 6.4141 34440
 6.4241 32711
 6.4341 30103
 6.4441 26781
 6.4541 23143
 6.4641 19528
 6.4741 16102
 6.4841 12921
 6.4941 10134
 6.5041  7759
 6.5141  5635
 6.5241  4137
 6.5341  2935
 6.5441  2050
 6.5541  1397
 6.5641   952
 6.5741   657
 6.5841   507
 6.5941   339
 6.6041   282
 6.6141   206
 6.6241   198
 6.6341   176
 6.6441   199
 6.6541   146
 6.6641   131
 6.6741   155
 6.6841   155
 6.6941   143
 6.7041   160
 6.7141   166
 6.7241   138
 6.7341   143
 6.7441   184
 6.7541   147
 6.7641   177
 6.7741   178
 6.7841   201
 6.7941   182
 6.8041   223
 6.8141   204
 6.8241   210
 6.8341   229
 6.8441   268
 6.8541   297
 6.8641   350
 6.8741   412
 6.8841   462
 6.8941   534
 6.9041   687
 6.9141   840
 6.9241  1141
 6.9341  1308
 6.9441  1611
 6.9541  2072
 6.9641  2507
 6.9741  3017
 6.9841  3568
 6.9941  4117
 7.0041  4571
 7.0141  5130
 7.0241  5506
 7.0341  5954
 7.0441  6048
 7.0541  5986
 7.0641  6110
 7.0741  5767
 7.0841  5489
 7.0941  5021
 7.1041  4397
 7.1141  3825
 7.1241  3269
 7.1341  2711
 7.1441  2255
 7.1541  1873
 7.1641  1431
 7.1741  1070
 7.1841   809
 7.1941   615
 7.2041   470
 7.2141   359
 7.2241   289
 7.2341   223
 7.2441   184
 7.2541   151
 7.2641   163
 7.2741   141
 7.2841   130
 7.2941   146
 7.3041   140
 7.3141   131
 7.3241   131
 7.3341   141
 7.3441   146
 7.3541   169
 7.3641   167
 7.3741   188
 7.3841   184
 7.3941   186
 7.4041   213
 7.4141   234
 7.4241   228
 7.4341   224
 7.4441   223
 7.4541   230
 7.4641   207
 7.4741   228
 7.4841   196
 7.4941   218
 7.5041   176
 7.5141   179
 7.5241   143
 7.5341   174
 7.5441   158
 7.5541   154
 7.5641   133
 7.5741   120
 7.5841   122
 7.5941   119
 7.6041   122
 7.6141   134
 7.6241   107
 7.6341   136
 7.6441   121
 7.6541   130
 7.6641   112
 7.6741   110
 7.6841   121
 7.6941   129
 7.7041   132
 7.7141   106
 7.7241   124
 7.7341   161
 7.7441   135
 7.7541   141
 7.7641   144
 7.7741   146
 7.7841   178
 7.7941   138
 7.8041   152
 7.8141   156
 7.8241   152
 7.8341   183
 7.8441   170
 7.8541   172
 7.8641   187
 7.8741   163
 7.8841   187
 7.8941   209
 7.9041   213
 7.9141   202
 7.9241   225
 7.9341   215
 7.9441   249
 7.9541   279
 7.9641   287
 7.9741   318
 7.9841   346
 7.9941   382
 8.0041   389
 8.0141   410
 8.0241   441
 8.0341   450
 8.0441   505
 8.0541   562
 8.0641   583
 8.0741   593
 8.0841   643
 8.0941   636
 8.1041   693
 8.1141   709
 8.1241   744
 8.1341   753
 8.1441   808
 8.1541   821
 8.1641   819
 8.1741   869
 8.1841   846
 8.1941   891
 8.2041   873
 8.2141   886
 8.2241   890
 8.2341   842
 8.2441   880
 8.2541   954
 8.2641  1014
 8.2741  1049
 8.2841  1113
 8.2941  1225
 8.3041  1297
 8.3141  1390
 8.3241  1501
 8.3341  1562
 8.3441  1668
 8.3541  1762
 8.3641  1856
 8.3741  1957
 8.3841  1868
 8.3941  1925
 8.4041  1945
 8.4141  1813
 8.4241  1669
 8.4341  1616
 8.4441  1470
 8.4541  1323
 8.4641  1176
 8.4741  1057
 8.4841   971
 8.4941   757
 8.5041   649
 8.5141   545
 8.5241   533
 8.5341   478
 8.5441   442
 8.5541   441
 8.5641   416
 8.5741   409
 8.5841   410
 8.5941   410
 8.6041   443
 8.6141   462
 8.6241   462
 8.6341   464
 8.6441   430
 8.6541   444
 8.6641   387
 8.6741   397
 8.6841   366
 8.6941   350
 8.7041   335
 8.7141   303
 8.7241   293
 8.7341   259
 8.7441   248
 8.7541   232
 8.7641   251
 8.7741   195
 8.7841   209
 8.7941   180
 8.8041   192
 8.8141   210
 8.8241   206
 8.8341   178
 8.8441   175
 8.8541   196
 8.8641   184
 8.8741   203
 8.8841   201
 8.8941   186
 8.9041   178
 8.9141   191
 8.9241   215
 8.9341   216
 8.9441   197
 8.9541   203
 8.9641   214
 8.9741   194
 8.9841   174
 8.9941   197
 9.0041   206
 9.0141   217
 9.0241   216
 9.0341   229
 9.0441   237
 9.0541   239
 9.0641   272
 9.0741   251
 9.0841   257
 9.0941   284
 9.1041   273
 9.1141   271
 9.1241   260
 9.1341   344
 9.1441   319
 9.1541   345
 9.1641   370
 9.1741   370
 9.1841   388
 9.1941   436
 9.2041   464
 9.2141   446
 9.2241   445
 9.2341   506
 9.2441   532
 9.2541   532
 9.2641   547
 9.2741   598
 9.2841   651
 9.2941   651
 9.3041   700
 9.3141   731
 9.3241   696
 9.3341   723
 9.3441   741
 9.3541   762
 9.3641   827
 9.3741   783
 9.3841   807
 9.3941   831
 9.4041   847
 9.4141   858
 9.4241   851
 9.4341   824
 9.4441   819
 9.4541   886
 9.4641   936
 9.4741   931
 9.4841   947
 9.4941   977
 9.5041   924
 9.5141  1019
 9.5241   989
 9.5341  1074
 9.5441  1108
 9.5541  1181
 9.5641  1200
 9.5741  1283
 9.5841  1358
 9.5941  1344
 9.6041  1477
 9.6141  1620
 9.6241  1661
 9.6341  1643
 9.6441  1764
 9.6541  1761
 9.6641  1784
 9.6741  1822
 9.6841  1762
 9.6941  1629
 9.7041  1619
 9.7141  1549
 9.7241  1463
 9.7341  1372
 9.7441  1277
 9.7541  1138
 9.7641  1054
 9.7741   980
 9.7841   912
 9.7941   858
 9.8041   786
 9.8141   750
 9.8241   727
 9.8341   765
 9.8441   700
 9.8541   689
 9.8641   688
 9.8741   694
 9.8841   739
 9.8941   709
 9.9041   750
 9.9141   778
 9.9241   730
 9.9341   773
 9.9441   781
 9.9541   803
 9.9641   741
 9.9741   720
 9.9841   674
 9.9941   643
10.0041   621
10.0141   579
10.0241   529
10.0341   503
10.0441   459
10.0541   405
10.0641   377
10.0741   319
10.0841   295
10.0941   244
10.1041   221
10.1141   196
10.1241   197
10.1341   180
10.1441   201
10.1541   175
10.1641   156
10.1741   149
10.1841   155
10.1941   148
10.2041   143
10.2141   129
10.2241   121
10.2341   115
10.2441   134
10.2541   125
10.2641   115
10.2741   116
10.2841   118
10.2941   110
10.3041   118
10.3141   115
10.3241   109
10.3341   104
10.3441    99
10.3541   109
10.3641   112
10.3741   115
10.3841    93
10.3941    95
10.4041    92
10.4141    92
10.4241   105
10.4341   121
10.4441   114
10.4541   117
10.4641   108
10.4741   111
10.4841    99
10.4941   112
10.5041   120
10.5141   119
10.5241   125
10.5341   137
10.5441   122
10.5541   131
10.5641   127
10.5741   135
10.5841   141
10.5941   140
10.6041   129
10.6141   133
10.6241   137
10.6341   137
10.6441   132
10.6541   108
10.6641   119
10.6741   121
10.6841   120
10.6941   128
10.7041   138
10.7141   143
10.7241   132
10.7341   147
10.7441   148
10.7541   152
10.7641   156
10.7741   157
10.7841   157
10.7941   155
10.8041   165
10.8141   157
10.8241   182
10.8341   193
10.8441   189
10.8541   169
10.8641   172
10.8741   175
10.8841   186
10.8941   187
10.9041   186
10.9141   178
10.9241   171
10.9341   187
10.9441   181
10.9541   172
10.9641   182
10.9741   197
10.9841   185
10.9941   186
11.0041   185
11.0141   181
11.0241   163
11.0341   156
11.0441   150
11.0541   164
11.0641   161
11.0741   158
11.0841   142
11.0941   149
11.1041   163
11.1141   166
11.1241   175
11.1341   169
11.1441   163
11.1541   171
11.1641   185
11.1741   183
11.1841   186
11.1941   217
11.2041   211
11.2141   211
11.2241   236
11.2341   213
11.2441   232
11.2541   265
11.2641   269
11.2741   268
11.2841   259
11.2941   235
11.3041   250
11.3141   265
11.3241   258
11.3341   265
11.3441   240
11.3541   219
11.3641   201
11.3741   180
11.3841   173
11.3941   177
11.4041   176
11.4141   163
11.4241   140
11.4341   146
11.4441   144
11.4541   129
11.4641   133
11.4741   133
11.4841   126
11.4941   125
11.5041   131
11.5141   127
11.5241   118
11.5341   128
11.5441   141
11.5541   143
11.5641   140
11.5741   132
11.5841   136
11.5941   143
11.6041   137
11.6141   134
11.6241   140
11.6341   139
11.6441   131
11.6541   134
11.6641   139
11.6741   142
11.6841   133
11.6941   143
11.7041   128
11.7141   114
11.7241   130
11.7341   126
11.7441   124
11.7541   124
11.7641   120
11.7741   115
11.7841    94
11.7941   110
11.8041   107
11.8141    90
11.8241   103
11.8341   110
11.8441   105
11.8541   108
11.8641   102
11.8741    97
11.8841   101
11.8941   110
11.9041   105
11.9141   111
11.9241   119
11.9341   116
11.9441   111
11.9541   117
11.9641   113
11.9741   109
11.9841   105
11.9941   100
12.0041   103
12.0141   102
12.0241   109
12.0341   106
12.0441   110
12.0541   103
12.0641    93
12.0741   104
12.0841   105
12.0941   101
12.1041    98
12.1141   104
12.1241   102
12.1341   103
12.1441   108
12.1541    96
12.1641    90
12.1741    97
12.1841    96
12.1941    96
12.2041   105
12.2141    97
12.2241    93
12.2341    84
12.2441    98
12.2541   102
12.2641   100
12.2741   112
12.2841   107
12.2941   107
12.3041    96
12.3141    87
12.3241    97
12.3341   103
12.3441   102
12.3541   114
12.3641   106
12.3741   104
12.3841    96
12.3941   106
12.4041   101
12.4141    98
12.4241    98
12.4341    98
12.4441    97
12.4541   107
12.4641   126
12.4741   104
12.4841   101
12.4941   118
12.5041   121
12.5141   104
12.5241   107
12.5341   108
12.5441   110
12.5541   119
12.5641   111
12.5741   108
12.5841   119
12.5941   113
12.6041   114
12.6141   111
12.6241   116
12.6341   124
12.6441   121
12.6541   116
12.6641   116
12.6741   120
12.6841   123
12.6941   121
12.7041   116
12.7141   111
12.7241   107
12.7341   111
12.7441   121
12.7541   128
12.7641   131
12.7741   131
12.7841   124
12.7941   118
12.8041   120
12.8141   126
12.8241   128
12.8341   128
12.8441   130
12.8541   129
12.8641   125
12.8741   126
12.8841   130
12.8941   130
12.9041   121
12.9141   115
12.9241   117
12.9341   124
12.9441   133
12.9541   138
12.9641   140
12.9741   142
12.9841   137
12.9941   127
13.0041   126
13.0141   122
13.0241   120
13.0341   121
13.0441   132
13.0541   133
13.0641   120
13.0741   117
13.0841   121
13.0941   123
13.1041   137
13.1141   137
13.1241   131
13.1341   121
13.1441   118
13.1541   132
13.1641   137
13.1741   147
13.1841   153
13.1941   151
13.2041   143
13.2141   145
13.2241   146
13.2341   146
13.2441   145
13.2541   149
13.2641   158
13.2741   157
13.2841   174
13.2941   182
13.3041   182
13.3141   184
13.3241   186
13.3341   197
13.3441   203
13.3541   199
13.3641   190
13.3741   185
13.3841   183
13.3941   181
13.4041   181
13.4141   187
13.4241   190
13.4341   186
13.4441   180
13.4541   179
13.4641   177
13.4741   175
13.4841   177
13.4941   177
13.5041   171
13.5141   165
13.5241   161
13.5341   156
13.5441   152
13.5541   152
13.5641   155
13.5741   154
13.5841   151
13.5941   148
13.6041   144
13.6141   141
13.6241   142
13.6341   149
13.6441   151
13.6541   148
13.6641   158
13.6741   165
13.6841   159
13.6941   156
13.7041   148
13.7141   155
13.7241   172
13.7341   167
13.7441   164
13.7541   163
13.7641   161
13.7741   165
13.7841   151
13.7941   144
13.8041   151
13.8141   155
13.8241   165
13.8341   167
13.8441   163
13.8541   166
13.8641   167
13.8741   168
13.8841   167
13.8941   179
13.9041   176
13.9141   164
13.9241   179
13.9341   177
13.9441   174
13.9541   185
13.9641   182
13.9741   178
13.9841   183
13.9941   195
14.0041   190
14.0141   178
14.0241   191
14.0341   204
14.0441   209
14.0541   214
14.0641   209
14.0741   220
14.0841   226
14.0941   208
14.1041   218
14.1141   233
14.1241   223
14.1341   208
14.1441   222
14.1541   236
14.1641   221
14.1741   229
14.1841   234
14.1941   220
14.2041   221
14.2141   222
14.2241   219
14.2341   223
14.2441   219
14.2541   211
14.2641   202
14.2741   205
14.2841   215
14.2941   206
14.3041   197
14.3141   181
14.3241   185
14.3341   194
14.3441   186
14.3541   192
14.3641   186
14.3741   182
14.3841   177
14.3941   183
14.4041   194
14.4141   202
14.4241   190
14.4341   174
14.4441   186
14.4541   202
14.4641   195
14.4741   195
14.4841   197
14.4941   198
14.5041   198
14.5141   187
14.5241   193
14.5341   208
14.5441   209
14.5541   192
14.5641   187
14.5741   190
14.5841   207
14.5941   204
14.6041   204
14.6141   205
14.6241   198
14.6341   188
14.6441   200
14.6541   215
14.6641   206
14.6741   197
14.6841   203
14.6941   189
14.7041   185
14.7141   208
14.7241   223
14.7341   231
14.7441   229
14.7541   218
14.7641   217
14.7741   232
14.7841   220
14.7941   205
14.8041   212
14.8141   230
14.8241   217
14.8341   216
14.8441   234
14.8541   231
14.8641   232
14.8741   246
14.8841   245
14.8941   251
14.9041   239
14.9141   243
14.9241   258
14.9341   259
14.9441   252
14.9541   233
14.9641   235
14.9741   234
14.9841   228
14.9941   239
15.0041   233
15.0141   235
15.0241   238
15.0341   218
15.0441   225
15.0541   235
15.0641   239
15.0741   242
15.0841   237
15.0941   242
15.1041   245
15.1141   237
15.1241   235
15.1341   237
15.1441   229
15.1541   222
15.1641   225
15.1741   217
15.1841   239
15.1941   253
15.2041   241
15.2141   234
15.2241   237
15.2341   250
15.2441   252
15.2541   239
15.2641   234
15.2741   227
15.2841   223
15.2941   225
15.3041   225
15.3141   231
15.3241   237
15.3341   237
15.3441   234
15.3541   244
15.3641   248
15.3741   247
15.3841   244
15.3941   248
15.4041   258
15.4141   260
15.4241   247
15.4341   245
15.4441   253
15.4541   273
15.4641   261
15.4741   249
15.4841   243
15.4941   248
15.5041   262
15.5141   275
15.5241   249
15.5341   251
15.5441   265
15.5541   269
15.5641   289
15.5741   291
15.5841   295
15.5941   306
15.6041   313
15.6141   331
15.6241   331
15.6341   319
15.6441   354
15.6541   385
15.6641   408
15.6741   377
15.6841   375
15.6941   393
15.7041   389
15.7141   392
15.7241   388
15.7341   409
15.7441   415
15.7541   423
15.7641   425
15.7741   402
15.7841   389
15.7941   420
15.8041   420
15.8141   412
15.8241   414
15.8341   378
15.8441   383
15.8541   336
15.8641   316
15.8741   324
15.8841   314
15.8941   319
15.9041   310
15.9141   305
15.9241   318
15.9341   319
15.9441   320
15.9541   278
15.9641   275
15.9741   268
15.9841   282
15.9941   286
16.0041   265
16.0141   258
16.0241   277
16.0341   274
16.0441   276
16.0541   270
16.0641   274
16.0741   291
16.0841   307
16.0941   279
16.1041   261
16.1141   260
16.1241   253
16.1341   283
16.1441   290
16.1541   288
16.1641   273
16.1741   279
16.1841   311
16.1941   294
16.2041   277
16.2141   271
16.2241   270
16.2341   277
16.2441   282
16.2541   293
16.2641   272
16.2741   265
16.2841   272
16.2941   295
16.3041   300
16.3141   292
16.3241   286
16.3341   280
16.3441   268
16.3541   275
16.3641   291
16.3741   279
16.3841   274
16.3941   302
16.4041   298
16.4141   288
16.4241   292
16.4341   314
16.4441   316
16.4541   292
16.4641   292
16.4741   303
16.4841   318
16.4941   317
16.5041   340
16.5141   315
16.5241   305
16.5341   303
16.5441   289
16.5541   297
16.5641   297
16.5741   302
16.5841   308
16.5941   282
16.6041   320
16.6141   333
16.6241   334
16.6341   315
16.6441   301
16.6541   319
16.6641   320
16.6741   315
16.6841   307
16.6941   309
16.7041   326
16.7141   309
16.7241   310
16.7341   315
16.7441   309
16.7541   315
16.7641   328
16.7741   319
16.7841   324
16.7941   321
16.8041   319
16.8141   326
16.8241   317
16.8341   316
16.8441   307
16.8541   328
16.8641   338
16.8741   304
16.8841   307
16.8941   318
16.9041   328
16.9141   317
16.9241   315
16.9341   305
16.9441   300
16.9541   310
16.9641   312
16.9741   318
16.9841   326
16.9941   306
17.0041   316
17.0141   341
17.0241   348
17.0341   306
17.0441   316
17.0541   332
17.0641   346
17.0741   352
17.0841   323
17.0941   302
17.1041   331
17.1141   325
17.1241   350
17.1341   343
17.1441   332
17.1541   330
17.1641   318
17.1741   324
17.1841   310
17.1941   302
17.2041   314
17.2141   341
17.2241   337
17.2341   338
17.2441   321
17.2541   315
17.2641   319
17.2741   346
17.2841   347
17.2941   332
17.3041   318
17.3141   330
17.3241   367
17.3341   347
17.3441   334
17.3541   349
17.3641   336
17.3741   315
17.3841   308
17.3941   322
17.4041   334
17.4141   342
17.4241   358
17.4341   333
17.4441   361
17.4541   338
17.4641   342
17.4741   355
17.4841   368
17.4941   371
17.5041   350
17.5141   352
17.5241   366
17.5341   362
17.5441   368
17.5541   371
17.5641   379
17.5741   368
17.5841   375
17.5941   382
17.6041   374
17.6141   364
17.6241   370
17.6341   374
17.6441   359
17.6541   362
17.6641   373
17.6741   394
17.6841   362
17.6941   390
17.7041   374
17.7141   349
17.7241   357
17.7341   384
17.7441   375
17.7541   364
17.7641   359
17.7741   357
17.7841   354
17.7941   364
17.8041   359
17.8141   361
17.8241   344
17.8341   348
17.8441   375
17.8541   354
17.8641   366
17.8741   364
17.8841   354
17.8941   334
17.9041   350
17.9141   349
17.9241   343
17.9341   362
17.9441   354
17.9541   353
17.9641   367
17.9741   364
17.9841   359
17.9941   364
18.0041   384
18.0141   390
18.0241   370
18.0341   365
18.0441   350
18.0541   369
18.0641   379
18.0741   387
18.0841   359
18.0941   354
18.1041   360
18.1141   397
18.1241   393
18.1341   377
18.1441   390
18.1541   390
18.1641   395
18.1741   409
18.1841   379
18.1941   372
18.2041   405
18.2141   372
18.2241   367
18.2341   386
18.2441   376
18.2541   357
18.2641   366
18.2741   370
18.2841   376
18.2941   372
18.3041   353
18.3141   385
18.3241   401
18.3341   380
18.3441   335
18.3541   377
18.3641   396
18.3741   383
18.3841   385
18.3941   359
18.4041   392
18.4141   393
18.4241   357
18.4341   373
18.4441   380
18.4541   412
18.4641   418
18.4741   376
18.4841   386
18.4941   391
18.5041   371
18.5141   378
18.5241   380
18.5341   383
18.5441   387
18.5541   398
18.5641   417
18.5741   416
18.5841   404
18.5941   380
18.6041   386
18.6141   383
18.6241   412
18.6341   392
18.6441   385
18.6541   376
18.6641   370
18.6741   403
18.6841   385
18.6941   369
18.7041   383
18.7141   393
18.7241   382
18.7341   384
18.7441   398
18.7541   382
18.7641   358
18.7741   373
18.7841   365
18.7941   401
18.8041   383
18.8141   384
18.8241   370
18.8341   367
18.8441   397
18.8541   399
18.8641   394
18.8741   382
18.8841   355
18.8941   361
18.9041   362
18.9141   379
18.9241   363
18.9341   372
18.9441   391
18.9541   410
18.9641   380
18.9741   402
18.9841   390
18.9941   403
19.0041   383
19.0141   414
19.0241   409
19.0341   396
19.0441   409
19.0541   421
19.0641   402
19.0741   421
19.0841   374
19.0941   385
19.1041   399
19.1141   427
19.1241   391
19.1341   404
19.1441   406
19.1541   389
19.1641   383
19.1741   399
19.1841   421
19.1941   407
19.2041   400
19.2141   407
19.2241   378
19.2341   400
19.2441   403
19.2541   407
19.2641   425
19.2741   386
19.2841   374
19.2941   399
19.3041   380
19.3141   403
19.3241   416
19.3341   399
19.3441   438
19.3541   435
19.3641   401
19.3741   415
19.3841   378
19.3941   398
19.4041   405
19.4141   397
19.4241   382
19.4341   388
19.4441   403
19.4541   402
19.4641   399
19.4741   420
19.4841   387
19.4941   407
19.5041   441
19.5141   423
19.5241   403
19.5341   410
19.5441   402
19.5541   396
19.5641   400
19.5741   363
19.5841   403
19.5941   405
19.6041   408
19.6141   385
19.6241   428
19.6341   395
19.6441   415
19.6541   405
19.6641   389
19.6741   407
19.6841   425
19.6941   411
19.7041   428
19.7141   392
19.7241   391
19.7341   389
19.7441   411
19.7541   414
19.7641   424
19.7741   418
19.7841   382
19.7941   397
19.8041   393
19.8141   410
19.8241   426
19.8341   391
19.8441   405
19.8541   398
19.8641   420
19.8741   419
19.8841   417
19.8941   396
19.9041   404
19.9141   391
19.9241   395
19.9341   388
19.9441   407
19.9541   418
19.9641   401
19.9741   394
19.9841   405
19.9941   448
20.0041   401
20.0141   417
20.0241   399
20.0341   428
20.0441   397
20.0541   398
20.0641   423
20.0741   411
20.0841   395
20.0941   414
20.1041   375
20.1141   405
20.1241   445
20.1341   433
20.1441   397
20.1541   407
20.1641   410
20.1741   396
20.1841   400
20.1941   405
20.2041   399
20.2141   413
20.2241   430
20.2341   422
20.2441   404
20.2541   403
20.2641   433
20.2741   420
20.2841   416
20.2941   432
20.3041   411
20.3141   411
20.3241   410
20.3341   432
20.3441   385
20.3541   404
20.3641   390
20.3741   419
20.3841   409
20.3941   451
20.4041   396
20.4141   400
20.4241   434
20.4341   395
20.4441   401
20.4541   420
20.4641   447
20.4741   425
20.4841   397
20.4941   411
20.5041   449
20.5141   405
20.5241   417
20.5341   415
20.5441   435
20.5541   441
20.5641   409
20.5741   424
20.5841   395
20.5941   394
20.6041   409
20.6141   415
20.6241   396
20.6341   372
20.6441   410
20.6541   395
20.6641   417
20.6741   424
20.6841   384
20.6941   394
20.7041   401
20.7141   434
20.7241   397
20.7341   416
20.7441   443
20.7541   453
20.7641   416
20.7741   424
20.7841   417
20.7941   429
20.8041   408
20.8141   389
20.8241   450
20.8341   442
20.8441   425
20.8541   439
20.8641   465
20.8741   459
20.8841   458
20.8941   464
20.9041   438
20.9141   459
20.9241   495
20.9341   467
20.9441   481
20.9541   505
20.9641   482
20.9741   479
20.9841   550
20.9941   518
21.0041   531
21.0141   546
21.0241   530
21.0341   544
21.0441   539
21.0541   516
21.0641   560
21.0741   566
21.0841   550
21.0941   566
21.1041   604
21.1141   524
21.1241   555
21.1341   584
21.1441   588
21.1541   600
21.1641   606
21.1741   540
21.1841   557
21.1941   541
21.2041   598
21.2141   546
21.2241   471
21.2341   539
21.2441   549
21.2541   507
21.2641   490
21.2741   488
21.2841   492
21.2941   468
21.3041   473
21.3141   443
21.3241   447
21.3341   454
21.3441   417
21.3541   465
21.3641   447
21.3741   403
21.3841   440
21.3941   444
21.4041   429
21.4141   428
21.4241   450
21.4341   407
21.4441   381
21.4541   418
21.4641   408
21.4741   414
21.4841   453
21.4941   379
21.5041   389
21.5141   384
21.5241   402
21.5341   450
21.5441   420
21.5541   396
21.5641   417
21.5741   393
21.5841   442
21.5941   414
21.6041   401
21.6141   404
21.6241   378
21.6341   433
21.6441   396
21.6541   432
21.6641   406
21.6741   414
21.6841   435
21.6941   393
21.7041   429
21.7141   396
21.7241   422
21.7341   435
21.7441   439
21.7541   395
21.7641   403
21.7741   389
21.7841   401
21.7941   381
21.8041   424
21.8141   378
21.8241   388
21.8341   358
21.8441   390
21.8541   363
21.8641   378
21.8741   393
21.8841   372
21.8941   396
21.9041   370
21.9141   405
21.9241   398
21.9341   424
21.9441   403
21.9541   401
21.9641   371
21.9741   379
21.9841   381
21.9941   401
22.0041   400
22.0141   384
22.0241   398
22.0341   367
22.0441   411
22.0541   433
22.0641   417
22.0741   420
22.0841   429
22.0941   348
22.1041   394
22.1141   380
22.1241   404
22.1341   418
22.1441   408
22.1541   422
22.1641   421
22.1741   371
22.1841   421
22.1941   395
22.2041   425
22.2141   432
22.2241   425
22.2341   417
22.2441   407
22.2541   377
22.2641   381
22.2741   393
22.2841   398
22.2941   406
22.3041   401
22.3141   399
22.3241   348
22.3341   427
22.3441   361
22.3541   401
22.3641   396
22.3741   404
22.3841   361
22.3941   428
22.4041   395
22.4141   413
22.4241   445
22.4341   394
22.4441   361
22.4541   374
22.4641   393
22.4741   395
22.4841   385
22.4941   387
22.5041   411
22.5141   407
22.5241   397
22.5341   410
22.5441   363
22.5541   388
22.5641   382
22.5741   407
22.5841   377
22.5941   387
22.6041   381
22.6141   372
22.6241   393
22.6341   389
22.6441   419
22.6541   387
22.6641   367
22.6741   364
22.6841   405
22.6941   347
22.7041   368
22.7141   415
22.7241   383
22.7341   378
22.7441   420
22.7541   397
22.7641   373
22.7741   367
22.7841   374
22.7941   370
22.8041   395
22.8141   385
22.8241   389
22.8341   432
22.8441   393
22.8541   381
22.8641   408
22.8741   377
22.8841   384
22.8941   358
22.9041   403
22.9141   386
22.9241   387
22.9341   357
22.9441   374
22.9541   389
22.9641   383
22.9741   393
22.9841   392
22.9941   397
23.0041   415
23.0141   386
23.0241   403
23.0341   365
23.0441   416
23.0541   373
23.0641   349
23.0741   371
23.0841   399
23.0941   371
23.1041   366
23.1141   383
23.1241   393
23.1341   348
23.1441   345
23.1541   386
23.1641   411
23.1741   364
23.1841   343
23.1941   367
23.2041   400
23.2141   391
23.2241   344
23.2341   420
23.2441   392
23.2541   380
23.2641   390
23.2741   385
23.2841   390
23.2941   402
23.3041   380
23.3141   376
23.3241   366
23.3341   372
23.3441   346
23.3541   383
23.3641   363
23.3741   363
23.3841   374
23.3941   360
23.4041   384
23.4141   355
23.4241   329
23.4341   373
23.4441   384
23.4541   376
23.4641   373
23.4741   345
23.4841   355
23.4941   402
23.5041   420
23.5141   333
23.5241   383
23.5341   388
23.5441   369
23.5541   351
23.5641   357
23.5741   403
23.5841   409
23.5941   376
23.6041   349
23.6141   341
23.6241   346
23.6341   362
23.6441   396
23.6541   389
23.6641   402
23.6741   383
23.6841   344
23.6941   406
23.7041   394
23.7141   407
23.7241   397
23.7341   413
23.7441   396
23.7541   356
23.7641   403
23.7741   422
23.7841   404
23.7941   407
23.8041   413
23.8141   373
23.8241   403
23.8341   371
23.8441   406
23.8541   407
23.8641   391
23.8741   414
23.8841   415
23.8941   379
23.9041   390
23.9141   364
23.9241   368
23.9341   375
23.9441   388
23.9541   356
23.9641   373
23.9741   384
23.9841   351
23.9941   354
24.0041   375
24.0141   356
24.0241   347
24.0341   351
24.0441   339
24.0541   348
24.0641   351
24.0741   341
24.0841   361
24.0941   369
24.1041   385
24.1141   344
24.1241   349
24.1341   351
24.1441   342
24.1541   352
24.1641   346
24.1741   366
24.1841   338
24.1941   364
24.2041   346
24.2141   348
24.2241   347
24.2341   373
24.2441   374
24.2541   371
24.2641   359
24.2741   336
24.2841   391
24.2941   330
24.3041   353
24.3141   331
24.3241   353
24.3341   348
24.3441   364
24.3541   334
24.3641   352
24.3741   319
24.3841   343
24.3941   349
24.4041   348
24.4141   352
24.4241   330
24.4341   356
24.4441   358
24.4541   351
24.4641   331
24.4741   341
24.4841   319
24.4941   310
24.5041   354
24.5141   358
24.5241   345
24.5341   340
24.5441   323
24.5541   358
24.5641   313
24.5741   336
24.5841   345
24.5941   314
24.6041   331
24.6141   346
24.6241   346
24.6341   344
24.6441   340
24.6541   344
24.6641   333
24.6741   337
24.6841   334
24.6941   320
24.7041   322
24.7141   338
24.7241   327
24.7341   311
24.7441   340
24.7541   331
24.7641   336
24.7741   317
24.7841   334
24.7941   348
24.8041   353
24.8141   330
24.8241   318
24.8341   332
24.8441   310
24.8541   338
24.8641   320
24.8741   336
24.8841   370
24.8941   338
24.9041   333
24.9141   341
24.9241   336
24.9341   316
24.9441   336
24.9541   313
24.9641   329
24.9741   340
24.9841   329
24.9941   329
25.0041   330
25.0141   320
25.0241   328
25.0341   346
25.0441   316
25.0541   332
25.0641   325
25.0741   330
25.0841   327
25.0941   324
25.1041   350
25.1141   311
25.1241   324
25.1341   341
25.1441   347
25.1541   362
25.1641   339
25.1741   352
25.1841   309
25.1941   314
25.2041   328
25.2141   309
25.2241   314
25.2341   348
25.2441   322
25.2541   326
25.2641   345
25.2741   355
25.2841   337
25.2941   332
25.3041   335
25.3141   330
25.3241   319
25.3341   316
25.3441   329
25.3541   320
25.3641   296
25.3741   289
25.3841   326
25.3941   329
25.4041   330
25.4141   318
25.4241   318
25.4341   338
25.4441   315
25.4541   296
25.4641   330
25.4741   298
25.4841   288
25.4941   299
25.5041   312
25.5141   313
25.5241   289
25.5341   297
25.5441   323
25.5541   322
25.5641   336
25.5741   320
25.5841   315
25.5941   316
25.6041   311
25.6141   331
25.6241   290
25.6341   310
25.6441   304
25.6541   276
25.6641   279
25.6741   299
25.6841   318
25.6941   287
25.7041   313
25.7141   299
25.7241   338
25.7341   313
25.7441   317
25.7541   323
25.7641   323
25.7741   325
25.7841   296
25.7941   322
25.8041   339
25.8141   313
25.8241   307
25.8341   303
25.8441   301
25.8541   303
25.8641   296
25.8741   302
25.8841   292
25.8941   297
25.9041   296
25.9141   275
25.9241   282
25.9341   291
25.9441   279
25.9541   323
25.9641   298
25.9741   306
25.9841   282
25.9941   282
26.0041   283
26.0141   296
26.0241   296
26.0341   292
26.0441   282
26.0541   295
26.0641   313
26.0741   285
26.0841   291
26.0941   286
26.1041   298
26.1141   288
26.1241   273
26.1341   295
26.1441   276
26.1541   285
26.1641   305
26.1741   285
26.1841   312
26.1941   291
26.2041   276
26.2141   253
26.2241   262
26.2341   263
26.2441   295
26.2541   286
26.2641   285
26.2741   256
26.2841   327
26.2941   294
26.3041   337
26.3141   304
26.3241   276
26.3341   273
26.3441   290
26.3541   296
26.3641   278
26.3741   267
26.3841   281
26.3941   278
26.4041   285
26.4141   295
26.4241   278
26.4341   297
26.4441   278
26.4541   270
26.4641   276
26.4741   292
26.4841   277
26.4941   273
26.5041   289
26.5141   302
26.5241   307
26.5341   244
26.5441   271
26.5541   276
26.5641   279
26.5741   278
26.5841   286
26.5941   263
26.6041   299
26.6141   265
26.6241   270
26.6341   270
26.6441   273
26.6541   249
26.6641   260
26.6741   271
26.6841   279
26.6941   257
26.7041   293
26.7141   305
26.7241   283
26.7341   286
26.7441   283
26.7541   319
26.7641   290
26.7741   262
26.7841   278
26.7941   284
26.8041   254
26.8141   268
26.8241   269
26.8341   267
26.8441   266
26.8541   249
26.8641   236
26.8741   273
26.8841   276
26.8941   273
26.9041   250
26.9141   256
26.9241   246
26.9341   234
26.9441   235
26.9541   284
26.9641   247
26.9741   250
26.9841   251
26.9941   280
27.0041   281
27.0141   262
27.0241   251
27.0341   276
27.0441   264
27.0541   253
27.0641   266
27.0741   282
27.0841   296
27.0941   272
27.1041   260
27.1141   267
27.1241   265
27.1341   276
27.1441   270
27.1541   247
27.1641   252
27.1741   263
27.1841   262
27.1941   247
27.2041   230
27.2141   260
27.2241   243
27.2341   270
27.2441   243
27.2541   256
27.2641   252
27.2741   257
27.2841   260
27.2941   264
27.3041   254
27.3141   261
27.3241   254
27.3341   264
27.3441   232
27.3541   270
27.3641   273
27.3741   240
27.3841   276
27.3941   270
27.4041   284
27.4141   253
27.4241   262
27.4341   263
27.4441   242
27.4541   235
27.4641   247
27.4741   258
27.4841   235
27.4941   244
27.5041   252
27.5141   231
27.5241   258
27.5341   261
27.5441   248
27.5541   257
27.5641   279
27.5741   260
27.5841   254
27.5941   237
27.6041   230
27.6141   256
27.6241   270
27.6341   237
27.6441   272
27.6541   249
27.6641   250
27.6741   250
27.6841   245
27.6941   239
27.7041   243
27.7141   258
27.7241   237
27.7341   250
27.7441   253
27.7541   262
27.7641   243
27.7741   250
27.7841   227
27.7941   220
27.8041   246
27.8141   237
27.8241   251
27.8341   245
27.8441   263
27.8541   252
27.8641   252
27.8741   247
27.8841   251
27.8941   254
27.9041   236
27.9141   213
27.9241   218
27.9341   239
27.9441   232
27.9541   238
27.9641   245
27.9741   266
27.9841   219
27.9941   232
28.0041   226
28.0141   242
28.0241   226
28.0341   229
28.0441   239
28.0541   228
28.0641   244
28.0741   202
28.0841   246
28.0941   245
28.1041   230
28.1141   246
28.1241   232
28.1341   210
28.1441   215
28.1541   218
28.1641   232
28.1741   237
28.1841   210
28.1941   237
28.2041   245
28.2141   206
28.2241   230
28.2341   219
28.2441   190
28.2541   225
28.2641   216
28.2741   211
28.2841   208
28.2941   234
28.3041   237
28.3141   210
28.3241   216
28.3341   237
28.3441   205
28.3541   262
28.3641   244
28.3741   245
28.3841   215
28.3941   201
28.4041   224
28.4141   211
28.4241   259
28.4341   224
28.4441   209
28.4541   225
28.4641   228
28.4741   215
28.4841   243
28.4941   221
28.5041   204
28.5141   229
28.5241   242
28.5341   230
28.5441   238
28.5541   212
28.5641   223
28.5741   230
28.5841   226
28.5941   220
28.6041   214
28.6141   211
28.6241   229
28.6341   220
28.6441   220
28.6541   229
28.6641   213
28.6741   208
28.6841   205
28.6941   218
28.7041   256
28.7141   214
28.7241   225
28.7341   193
28.7441   219
28.7541   235
28.7641   239
28.7741   197
28.7841   234
28.7941   232
28.8041   218
28.8141   202
28.8241   205
28.8341   212
28.8441   211
28.8541   219
28.8641   195
28.8741   230
28.8841   190
28.8941   192
28.9041   211
28.9141   202
28.9241   225
28.9341   201
28.9441   198
28.9541   205
28.9641   222
28.9741   182
28.9841   225
28.9941   214
29.0041   191
29.0141   206
29.0241   198
29.0341   206
29.0441   193
29.0541   220
29.0641   205
29.0741   215
29.0841   225
29.0941   198
29.1041   215
29.1141   206
29.1241   209
29.1341   217
29.1441   215
29.1541   202
29.1641   221
29.1741   190
29.1841   220
29.1941   191
29.2041   179
29.2141   213
29.2241   200
29.2341   202
29.2441   208
29.2541   184
29.2641   187
29.2741   189
29.2841   195
29.2941   202
29.3041   189
29.3141   190
29.3241   179
29.3341   214
29.3441   181
29.3541   189
29.3641   198
29.3741   204
29.3841   194
29.3941   182
29.4041   189
29.4141   178
29.4241   181
29.4341   191
29.4441   186
29.4541   183
29.4641   188
29.4741   181
29.4841   188
29.4941   190
29.5041   183
29.5141   170
29.5241   209
29.5341   179
29.5441   170
29.5541   162
29.5641   178
29.5741   196
29.5841   199
29.5941   178
29.6041   196
29.6141   183
29.6241   173
29.6341   207
29.6441   181
29.6541   175
29.6641   182
29.6741   187
29.6841   173
29.6941   190
29.7041   178
29.7141   174
29.7241   207
29.7341   175
29.7441   180
29.7541   178
29.7641   186
29.7741   211
29.7841   173
29.7941   188
29.8041   183
29.8141   179
29.8241   154
29.8341   195
29.8441   174
29.8541   172
29.8641   180
29.8741   171
29.8841   174
29.8941   170
29.9041   165
29.9141   164
29.9241   173
29.9341   179
29.9441   153
29.9541   157
29.9641   174
29.9741   181
29.9841   158
29.9941   177
30.0041   176
30.0141   175
30.0241   186
30.0341   176
30.0441   189
30.0541   162
30.0641   144
30.0741   187
30.0841   176
30.0941   184
30.1041   182
30.1141   182
30.1241   165
30.1341   180
30.1441   172
30.1541   189
30.1641   174
30.1741   190
30.1841   168
30.1941   166
30.2041   158
30.2141   177
30.2241   154
30.2341   183
30.2441   180
30.2541   188
30.2641   183
30.2741   153
30.2841   167
30.2941   149
30.3041   165
30.3141   169
30.3241   153
30.3341   144
30.3441   158
30.3541   171
30.3641   166
30.3741   160
30.3841   147
30.3941   166
30.4041   169
30.4141   174
30.4241   173
30.4341   183
30.4441   178
30.4541   181
30.4641   158
30.4741   162
30.4841   172
30.4941   149
30.5041   179
30.5141   165
30.5241   147
30.5341   167
30.5441   180
30.5541   162
30.5641   147
30.5741   165
30.5841   160
30.5941   160
30.6041   175
30.6141   171
30.6241   164
30.6341   155
30.6441   142
30.6541   160
30.6641   152
30.6741   164
30.6841   152
30.6941   186
30.7041   167
30.7141   140
30.7241   148
30.7341   165
30.7441   145
30.7541   152
30.7641   150
30.7741   146
30.7841   149
30.7941   159
30.8041   159
30.8141   133
30.8241   159
30.8341   136
30.8441   160
30.8541   154
30.8641   164
30.8741   167
30.8841   159
30.8941   146
30.9041   166
30.9141   127
30.9241   182
30.9341   154
30.9441   175
30.9541   165
30.9641   153
30.9741   129
30.9841   154
30.9941   127
31.0041   142
31.0141   134
31.0241   142
31.0341   155
31.0441   147
31.0541   182
31.0641   155
31.0741   139
31.0841   152
31.0941   147
31.1041   148
31.1141   152
31.1241   162
31.1341   155
31.1441   167
31.1541   158
31.1641   157
31.1741   172
31.1841   158
31.1941   135
31.2041   126
31.2141   159
31.2241   138
31.2341   137
31.2441   143
31.2541   143
31.2641   132
31.2741   141
31.2841   166
31.2941   132
31.3041   149
31.3141   137
31.3241   144
31.3341   151
31.3441   140
31.3541   157
31.3641   157
31.3741   139
31.3841   139
31.3941   137
31.4041   144
31.4141   139
31.4241   119
31.4341   125
31.4441   154
31.4541   145
31.4641   134
31.4741   126
31.4841   155
31.4941   135
31.5041   130
31.5141   142
31.5241   136
31.5341   126
31.5441   144
31.5541   145
31.5641   155
31.5741   135
31.5841   141
31.5941   138
31.6041   149
31.6141   134
31.6241   118
31.6341   143
31.6441   122
31.6541   128
31.6641   139
31.6741   140
31.6841   141
31.6941   132
31.7041   132
31.7141   125
31.7241   116
31.7341   157
31.7441   127
31.7541   130
31.7641   119
31.7741   132
31.7841   130
31.7941   136
31.8041   145
31.8141   139
31.8241   106
31.8341   143
31.8441   127
31.8541   142
31.8641   139
31.8741   127
31.8841   125
31.8941   135
31.9041   121
31.9141   132
31.9241   111
31.9341   121
31.9441   128
31.9541   118
31.9641   133
31.9741   114
31.9841   140
31.9941   120
32.0041    99
32.0141   130
32.0241   142
32.0341   135
32.0441   123
32.0541   129
32.0641   118
32.0741   133
32.0841   121
32.0941   120
32.1041   120
32.1141   148
32.1241   118
32.1341   118
32.1441   128
32.1541   134
32.1641   119
32.1741   116
32.1841   128
32.1941   132
32.2041   124
32.2141   112
32.2241   138
32.2341   152
32.2441   130
32.2541   128
32.2641   129
32.2741   132
32.2841   133
32.2941   142
32.3041   132
32.3141   114
32.3241   127
32.3341   110
32.3441   127
32.3541   128
32.3641   119
32.3741   145
32.3841   117
32.3941   117
32.4041   119
32.4141   128
32.4241   128
32.4341   132
32.4441   121
32.4541   119
32.4641   121
32.4741   128
32.4841   114
32.4941   108
32.5041   107
32.5141   105
32.5241   112
32.5341   120
32.5441   111
32.5541   104
32.5641   115
32.5741   105
32.5841   116
32.5941   110
32.6041   137
32.6141   115
32.6241   124
32.6341   123
32.6441   120
32.6541   111
32.6641   127
32.6741   123
32.6841   103
32.6941   103
32.7041   103
32.7141   126
32.7241   118
32.7341    99
32.7441   105
32.7541   108
32.7641    98
32.7741   108
32.7841   109
32.7941   121
32.8041   125
32.8141   118
32.8241   112
32.8341   104
32.8441   111
32.8541   101
32.8641   102
32.8741    94
32.8841    89
32.8941   109
32.9041   118
32.9141   111
32.9241   106
32.9341   113
32.9441   110
32.9541   124
32.9641   102
32.9741   126
32.9841   105
32.9941   114
33.0041    97
33.0141    97
33.0241   104
33.0341    96
33.0441   103
33.0541   103
33.0641   106
33.0741   102
33.0841   101
33.0941    90
33.1041    93
33.1141   107
33.1241   103
33.1341   115
33.1441   101
33.1541   130
33.1641   115
33.1741   103
33.1841   113
33.1941    91
33.2041   103
33.2141   104
33.2241    88
33.2341   114
33.2441   100
33.2541   115
33.2641   108
33.2741   111
33.2841   113
33.2941    93
33.3041    94
33.3141   124
33.3241   102
33.3341   112
33.3441    90
33.3541   103
33.3641    81
33.3741    84
33.3841    96
33.3941    87
33.4041   101
33.4141    94
33.4241   109
33.4341   107
33.4441   102
33.4541    85
33.4641    83
33.4741    95
33.4841    88
33.4941    79
33.5041   107
33.5141    97
33.5241   102
33.5341   102
33.5441    93
33.5541    94
33.5641    94
33.5741    98
33.5841   117
33.5941    88
33.6041    86
33.6141    75
33.6241    89
33.6341   102
33.6441   107
33.6541    97
33.6641    74
33.6741    91
33.6841    90
33.6941    95
33.7041    87
33.7141    86
33.7241    62
33.7341    92
33.7441   109
33.7541    94
33.7641    96
33.7741    87
33.7841    92
33.7941    93
33.8041    78
33.8141   106
33.8241    83
33.8341    74
33.8441    82
33.8541    86
33.8641    81
33.8741    91
33.8841    94
33.8941    83
33.9041    87
33.9141    79
33.9241    85
33.9341    73
33.9441    75
33.9541    82
33.9641    83
33.9741    73
33.9841    78
33.9941    82
34.0041    92
34.0141    98
34.0241    70
34.0341    87
34.0441    87
34.0541    89
34.0641    84
34.0741    94
34.0841    91
34.0941    92
34.1041    85
34.1141    91
34.1241    85
34.1341    80
34.1441    72
34.1541    78
34.1641    85
34.1741    90
34.1841    85
34.1941    95
34.2041    86
34.2141    81
34.2241    81
34.2341    75
34.2441    78
34.2541    82
34.2641   103
34.2741    76
34.2841    84
34.2941    99
34.3041    90
34.3141    75
34.3241    85
34.3341    63
34.3441    84
34.3541    91
34.3641    90
34.3741    72
34.3841    68
34.3941    70
34.4041    78
34.4141    84
34.4241    81
34.4341    82
34.4441    74
34.4541   102
34.4641    90
34.4741    72
34.4841    84
34.4941    79
34.5041    79
34.5141    74
34.5241    77
34.5341    82
34.5441    79
34.5541    98
34.5641    72
34.5741    82
34.5841    82
34.5941    91
34.6041    73
34.6141    77
34.6241    74
34.6341    86
34.6441    68
34.6541    87
34.6641    78
34.6741    79
34.6841    72
34.6941    86
34.7041    65
34.7141    75
34.7241    82
34.7341    82
34.7441    68
34.7541    86
34.7641    76
34.7741    76
34.7841    66
34.7941    76
34.8041    76
34.8141    89
34.8241    85
34.8341    71
34.8441    67
34.8541    76
34.8641    72
34.8741    79
34.8841    81
34.8941    90
34.9041    75
34.9141    85
34.9241    70
34.9341    72
34.9441    77
34.9541    70
34.9641    79
34.9741    79
34.9841    63
34.9941    64
35.0041    76
35.0141    83
35.0241    76
35.0341    57
35.0441    68
35.0541    77
35.0641    64
35.0741    63
35.0841    73
35.0941    87
35.1041    74
35.1141    85
35.1241    71
35.1341    70
35.1441    75
35.1541    74
35.1641    75
35.1741    83
35.1841    63
35.1941    73
35.2041    68
35.2141    82
35.2241    78
35.2341    64
35.2441    72
35.2541    68
35.2641    60
35.2741    64
35.2841    61
35.2941    76
35.3041    68
35.3141    66
35.3241    59
35.3341    69
35.3441    65
35.3541    71
35.3641    67
35.3741    58
35.3841    64
35.3941    62
35.4041    67
35.4141    80
35.4241    64
35.4341    59
35.4441    69
35.4541    60
35.4641    71
35.4741    52
35.4841    53
35.4941    69
35.5041    64
35.5141    68
35.5241    77
35.5341    75
35.5441    63
35.5541    56
35.5641    58
35.5741    58
35.5841    48
35.5941    61
35.6041    79
35.6141    75
35.6241    54
35.6341    65
35.6441    51
35.6541    48
35.6641    63
35.6741    59
35.6841    64
35.6941    49
35.7041    63
35.7141    65
35.7241    68
35.7341    59
35.7441    60
35.7541    75
35.7641    55
35.7741    58
35.7841    71
35.7941    54
35.8041    59
35.8141    53
35.8241    65
35.8341    71
35.8441    55
35.8541    63
35.8641    60
35.8741    54
35.8841    55
35.8941    63
35.9041    66
35.9141    52
35.9241    56
35.9341    57
35.9441    63
35.9541    63
35.9641    54
35.9741    65
35.9841    61
35.9941    50
36.0041    62
36.0141    63
36.0241    50
36.0341    45
36.0441    58
36.0541    56
36.0641    52
36.0741    48
36.0841    54
36.0941    55
36.1041    58
36.1141    54
36.1241    69
36.1341    58
36.1441    55
36.1541    68
36.1641    42
36.1741    60
36.1841    58
36.1941    72
36.2041    56
36.2141    48
36.2241    59
36.2341    57
36.2441    55
36.2541    47
36.2641    50
36.2741    59
36.2841    47
36.2941    54
36.3041    46
36.3141    56
36.3241    60
36.3341    55
36.3441    68
36.3541    54
36.3641    65
36.3741    68
36.3841    51
36.3941    68
36.4041    60
36.4141    47
36.4241    43
36.4341    53
36.4441    58
36.4541    51
36.4641    51
36.4741    42
36.4841    60
36.4941    50
36.5041    58
36.5141    52
36.5241    49
36.5341    57
36.5441    54
36.5541    66
36.5641    51
36.5741    49
36.5841    46
36.5941    42
36.6041    52
36.6141    45
36.6241    53
36.6341    50
36.6441    46
36.6541    57
36.6641    42
36.6741    48
36.6841    44
36.6941    54
36.7041    57
36.7141    52
36.7241    50
36.7341    47
36.7441    43
36.7541    45
36.7641    46
36.7741    50
36.7841    45
36.7941    50
36.8041    43
36.8141    46
36.8241    44
36.8341    59
36.8441    49
36.8541    53
36.8641    58
36.8741    44
36.8841    56
36.8941    48
36.9041    42
36.9141    49
36.9241    45
36.9341    39
36.9441    51
36.9541    52
36.9641    39
36.9741    48
36.9841    48
36.9941    48
37.0041    54
37.0141    53
37.0241    50
37.0341    43
37.0441    36
37.0541    46
37.0641    34
37.0741    50
37.0841    39
37.0941    43
37.1041    52
37.1141    48
37.1241    47
37.1341    43
37.1441    41
37.1541    48
37.1641    48
37.1741    40
37.1841    49
37.1941    45
37.2041    36
37.2141    33
37.2241    45
37.2341    44
37.2441    41
37.2541    44
37.2641    46
37.2741    39
37.2841    36
37.2941    48
37.3041    46
37.3141    43
37.3241    40
37.3341    48
37.3441    32
37.3541    41
37.3641    40
37.3741    49
37.3841    39
37.3941    49
37.4041    44
37.4141    44
37.4241    49
37.4341    33
37.4441    42
37.4541    55
37.4641    38
37.4741    42
37.4841    41
37.4941    38
37.5041    32
37.5141    54
37.5241    39
37.5341    41
37.5441    36
37.5541    36
37.5641    34
37.5741    32
37.5841    39
37.5941    35
37.6041    36
37.6141    36
37.6241    32
37.6341    35
37.6441    40
37.6541    35
37.6641    51
37.6741    36
37.6841    32
37.6941    49
37.7041    36
37.7141    46
37.7241    45
37.7341    30
37.7441    33
37.7541    40
37.7641    40
37.7741    29
37.7841    40
37.7941    35
37.8041    33
37.8141    42
37.8241    40
37.8341    30
37.8441    34
37.8541    38
37.8641    44
37.8741    37
37.8841    37
37.8941    32
37.9041    30
37.9141    37
37.9241    31
37.9341    31
37.9441    33
37.9541    29
37.9641    33
37.9741    40
37.9841    31
37.9941    31
38.0041    38
38.0141    25
38.0241    44
38.0341    28
38.0441    39
38.0541    36
38.0641    28
38.0741    43
38.0841    50
38.0941    34
38.1041    33
38.1141    41
38.1241    36
38.1341    29
38.1441    35
38.1541    39
38.1641    37
38.1741    28
38.1841    31
38.1941    32
38.2041    48
38.2141    30
38.2241    33
38.2341    36
38.2441    32
38.2541    30
38.2641    34
38.2741    40
38.2841    30
38.2941    31
38.3041    32
38.3141    24
38.3241    38
38.3341    41
38.3441    17
38.3541    24
38.3641    29
38.3741    32
38.3841    34
38.3941    33
38.4041    30
38.4141    31
38.4241    29
38.4341    39
38.4441    30
38.4541    38
38.4641    31
38.4741    33
38.4841    34
38.4941    28
38.5041    30
38.5141    36
38.5241    32
38.5341    25
38.5441    33
38.5541    34
38.5641    35
38.5741    36
38.5841    28
38.5941    17
38.6041    31
38.6141    19
38.6241    34
38.6341    26
38.6441    22
38.6541    34
38.6641    25
38.6741    32
38.6841    21
38.6941    19
38.7041    29
38.7141    27
38.7241    43
38.7341    33
38.7441    28
38.7541    22
38.7641    24
38.7741    31
38.7841    36
38.7941    29
38.8041    36
38.8141    24
38.8241    29
38.8341    34
38.8441    19
38.8541    27
38.8641    22
38.8741    33
38.8841    19
38.8941    18
38.9041    22
38.9141    31
38.9241    27
38.9341    26
38.9441    28
38.9541    25
38.9641    14
38.9741    35
38.9841    20
38.9941    24
39.0041    26
39.0141    27
39.0241    35
39.0341    15
39.0441    31
39.0541    20
39.0641    30
39.0741    27
39.0841    17
39.0941    28
39.1041    19
39.1141    28
39.1241    29
39.1341    33
39.1441    17
39.1541    20
39.1641    29
39.1741    17
39.1841    20
39.1941    23
39.2041    24
39.2141    28
39.2241    25
39.2341    25
39.2441    34
39.2541    17
39.2641    23
39.2741    24
39.2841    20
39.2941    20
39.3041    15
39.3141    31
39.3241    25
39.3341    25
39.3441    29
39.3541    28
39.3641    19
39.3741    25
39.3841    22
39.3941    25
39.4041    22
39.4141    21
39.4241    15
39.4341    20
39.4441    18
39.4541    11
39.4641    18
39.4741    22
39.4841    25
39.4941    27
39.5041    29
39.5141    17
39.5241    26
39.5341    18
39.5441    23
39.5541    27
39.5641    32
39.5741    25
39.5841    32
39.5941    23
39.6041    12
39.6141    31
39.6241    21
39.6341    28
39.6441    25
39.6541    14
39.6641    18
39.6741    23
39.6841    18
39.6941    18
39.7041    25
39.7141    27
39.7241    25
39.7341    16
39.7441    19
39.7541    19
39.7641    16
39.7741    20
39.7841    17
39.7941    17
39.8041    17
39.8141    16
39.8241    15
39.8341    21
39.8441    19
39.8541    24
39.8641    18
39.8741    16
39.8841    15
39.8941    18
39.9041    15
39.9141    20
39.9241    12
39.9341    27
39.9441    12
39.9541    19
39.9641    11
39.9741    24
39.9841    17
