Bruker Nano GmbH Berlin, Germany
Esprit 1.9

Date: 4/21/2021 2:30:54 PM
Real time: 20987
Life time: 19437
Pulse density: 107676


Detector type: XFlash 430
Window type: Custom type
Detector thickness: 0.45
Si dead layer:0.029

Calibration, lin.: 10
Calibration, abs.: -955.9
Mn FWHM: 137.05
Fano factor: 0.121
Channels: 4095

Energy Counts
-0.9559     0
-0.9459     0
-0.9359     0
-0.9259     0
-0.9159     0
-0.9059     0
-0.8959     0
-0.8859     0
-0.8759     0
-0.8659     0
-0.8559     0
-0.8459     0
-0.8359     0
-0.8259     0
-0.8159     0
-0.8059     0
-0.7959     0
-0.7859     0
-0.7759     0
-0.7659     0
-0.7559     0
-0.7459     0
-0.7359     0
-0.7259     0
-0.7159     0
-0.7059     0
-0.6959     0
-0.6859     0
-0.6759     0
-0.6659     0
-0.6559     0
-0.6459     0
-0.6359     0
-0.6259     0
-0.6159     0
-0.6059     0
-0.5959     0
-0.5859     0
-0.5759     0
-0.5659     0
-0.5559     0
-0.5459     0
-0.5359     0
-0.5259     0
-0.5159     0
-0.5059     0
-0.4959     0
-0.4859     0
-0.4759     0
-0.4659     0
-0.4559     0
-0.4459     0
-0.4359     0
-0.4259     0
-0.4159     0
-0.4059     0
-0.3959     0
-0.3859     0
-0.3759     0
-0.3659     0
-0.3559     0
-0.3459     0
-0.3359     0
-0.3259     0
-0.3159     0
-0.3059     0
-0.2959     0
-0.2859     0
-0.2759     0
-0.2659     0
-0.2559     0
-0.2459     0
-0.2359     0
-0.2259     0
-0.2159     0
-0.2059     0
-0.1959     0
-0.1859     0
-0.1759     0
-0.1659     0
-0.1559     0
-0.1459     0
-0.1359     0
-0.1259     1
-0.1159     2
-0.1059    12
-0.0959    63
-0.0859   213
-0.0759   766
-0.0659  2183
-0.0559  5655
-0.0459 12307
-0.0359 22969
-0.0259 36841
-0.0159 50819
-0.0059 59018
 0.0041 59961
 0.0141 51803
 0.0241 38136
 0.0341 24501
 0.0441 13170
 0.0541  6133
 0.0641  2495
 0.0741   896
 0.0841   282
 0.0941    75
 0.1041    21
 0.1141    15
 0.1241    12
 0.1341    11
 0.1441    13
 0.1541     9
 0.1641     2
 0.1741    26
 0.1841   209
 0.1941   427
 0.2041   339
 0.2141   375
 0.2241   331
 0.2341   363
 0.2441   351
 0.2541   354
 0.2641   343
 0.2741   326
 0.2841   323
 0.2941   329
 0.3041   357
 0.3141   360
 0.3241   347
 0.3341   358
 0.3441   355
 0.3541   337
 0.3641   328
 0.3741   302
 0.3841   322
 0.3941   319
 0.4041   305
 0.4141   307
 0.4241   303
 0.4341   302
 0.4441   321
 0.4541   319
 0.4641   327
 0.4741   317
 0.4841   326
 0.4941   323
 0.5041   293
 0.5141   293
 0.5241   313
 0.5341   317
 0.5441   294
 0.5541   275
 0.5641   303
 0.5741   311
 0.5841   316
 0.5941   283
 0.6041   268
 0.6141   281
 0.6241   279
 0.6341   273
 0.6441   284
 0.6541   275
 0.6641   245
 0.6741   270
 0.6841   282
 0.6941   262
 0.7041   274
 0.7141   259
 0.7241   243
 0.7341   261
 0.7441   246
 0.7541   247
 0.7641   260
 0.7741   259
 0.7841   264
 0.7941   254
 0.8041   251
 0.8141   240
 0.8241   239
 0.8341   239
 0.8441   246
 0.8541   269
 0.8641   259
 0.8741   256
 0.8841   256
 0.8941   244
 0.9041   243
 0.9141   241
 0.9241   253
 0.9341   255
 0.9441   248
 0.9541   248
 0.9641   229
 0.9741   234
 0.9841   237
 0.9941   246
 1.0041   234
 1.0141   228
 1.0241   213
 1.0341   224
 1.0441   237
 1.0541   218
 1.0641   225
 1.0741   223
 1.0841   232
 1.0941   235
 1.1041   233
 1.1141   245
 1.1241   234
 1.1341   223
 1.1441   204
 1.1541   211
 1.1641   221
 1.1741   223
 1.1841   231
 1.1941   224
 1.2041   231
 1.2141   211
 1.2241   200
 1.2341   213
 1.2441   231
 1.2541   193
 1.2641   241
 1.2741   222
 1.2841   230
 1.2941   198
 1.3041   229
 1.3141   222
 1.3241   208
 1.3341   209
 1.3441   220
 1.3541   209
 1.3641   210
 1.3741   202
 1.3841   200
 1.3941   212
 1.4041   226
 1.4141   219
 1.4241   218
 1.4341   211
 1.4441   213
 1.4541   219
 1.4641   207
 1.4741   222
 1.4841   214
 1.4941   231
 1.5041   221
 1.5141   194
 1.5241   221
 1.5341   214
 1.5441   229
 1.5541   203
 1.5641   209
 1.5741   189
 1.5841   204
 1.5941   177
 1.6041   179
 1.6141   218
 1.6241   201
 1.6341   215
 1.6441   210
 1.6541   247
 1.6641   270
 1.6741   337
 1.6841   424
 1.6941   480
 1.7041   581
 1.7141   687
 1.7241   775
 1.7341   798
 1.7441   748
 1.7541   750
 1.7641   645
 1.7741   595
 1.7841   491
 1.7941   401
 1.8041   331
 1.8141   308
 1.8241   273
 1.8341   238
 1.8441   232
 1.8541   230
 1.8641   236
 1.8741   216
 1.8841   224
 1.8941   209
 1.9041   203
 1.9141   205
 1.9241   199
 1.9341   209
 1.9441   217
 1.9541   210
 1.9641   255
 1.9741   241
 1.9841   223
 1.9941   223
 2.0041   218
 2.0141   252
 2.0241   229
 2.0341   228
 2.0441   211
 2.0541   232
 2.0641   211
 2.0741   207
 2.0841   206
 2.0941   195
 2.1041   184
 2.1141   177
 2.1241   168
 2.1341   188
 2.1441   174
 2.1541   190
 2.1641   154
 2.1741   171
 2.1841   186
 2.1941   174
 2.2041   169
 2.2141   167
 2.2241   183
 2.2341   177
 2.2441   170
 2.2541   165
 2.2641   186
 2.2741   176
 2.2841   173
 2.2941   199
 2.3041   165
 2.3141   170
 2.3241   159
 2.3341   174
 2.3441   173
 2.3541   161
 2.3641   163
 2.3741   161
 2.3841   157
 2.3941   149
 2.4041   184
 2.4141   171
 2.4241   158
 2.4341   190
 2.4441   150
 2.4541   146
 2.4641   160
 2.4741   152
 2.4841   146
 2.4941   156
 2.5041   158
 2.5141   166
 2.5241   140
 2.5341   163
 2.5441   171
 2.5541   164
 2.5641   134
 2.5741   154
 2.5841   156
 2.5941   182
 2.6041   162
 2.6141   149
 2.6241   178
 2.6341   148
 2.6441   151
 2.6541   141
 2.6641   139
 2.6741   152
 2.6841   158
 2.6941   148
 2.7041   150
 2.7141   115
 2.7241   168
 2.7341   145
 2.7441   141
 2.7541   131
 2.7641   153
 2.7741   148
 2.7841   156
 2.7941   169
 2.8041   156
 2.8141   164
 2.8241   171
 2.8341   166
 2.8441   161
 2.8541   161
 2.8641   145
 2.8741   151
 2.8841   135
 2.8941   142
 2.9041   148
 2.9141   124
 2.9241   148
 2.9341   114
 2.9441   155
 2.9541   167
 2.9641   133
 2.9741   146
 2.9841   138
 2.9941   133
 3.0041   142
 3.0141   133
 3.0241   125
 3.0341   140
 3.0441   152
 3.0541   115
 3.0641   106
 3.0741   131
 3.0841   135
 3.0941   118
 3.1041   133
 3.1141   125
 3.1241   128
 3.1341   130
 3.1441   125
 3.1541   122
 3.1641   118
 3.1741   123
 3.1841   146
 3.1941    92
 3.2041   128
 3.2141   141
 3.2241   164
 3.2341   150
 3.2441   147
 3.2541   189
 3.2641   205
 3.2741   273
 3.2841   275
 3.2941   272
 3.3041   275
 3.3141   264
 3.3241   253
 3.3341   268
 3.3441   275
 3.3541   208
 3.3641   187
 3.3741   181
 3.3841   148
 3.3941   139
 3.4041   122
 3.4141   119
 3.4241   121
 3.4341   107
 3.4441   109
 3.4541   103
 3.4641    99
 3.4741   109
 3.4841   120
 3.4941   134
 3.5041   136
 3.5141   118
 3.5241   144
 3.5341   141
 3.5441   162
 3.5541   184
 3.5641   197
 3.5741   223
 3.5841   265
 3.5941   352
 3.6041   426
 3.6141   524
 3.6241   718
 3.6341   878
 3.6441  1076
 3.6541  1229
 3.6641  1338
 3.6741  1517
 3.6841  1542
 3.6941  1633
 3.7041  1496
 3.7141  1359
 3.7241  1253
 3.7341  1120
 3.7441   910
 3.7541   745
 3.7641   571
 3.7741   421
 3.7841   286
 3.7941   224
 3.8041   206
 3.8141   127
 3.8241   120
 3.8341   123
 3.8441    99
 3.8541    86
 3.8641   108
 3.8741    98
 3.8841    97
 3.8941   113
 3.9041   121
 3.9141   137
 3.9241   144
 3.9341   145
 3.9441   193
 3.9541   197
 3.9641   247
 3.9741   267
 3.9841   277
 3.9941   305
 4.0041   333
 4.0141   336
 4.0241   294
 4.0341   310
 4.0441   290
 4.0541   253
 4.0641   204
 4.0741   195
 4.0841   171
 4.0941   145
 4.1041   142
 4.1141   117
 4.1241    96
 4.1341    92
 4.1441   103
 4.1541    83
 4.1641    90
 4.1741    96
 4.1841    77
 4.1941    76
 4.2041    81
 4.2141    76
 4.2241    78
 4.2341   102
 4.2441    69
 4.2541    79
 4.2641    83
 4.2741    92
 4.2841    73
 4.2941    72
 4.3041    86
 4.3141    72
 4.3241    98
 4.3341    91
 4.3441    82
 4.3541    96
 4.3641    92
 4.3741   120
 4.3841   121
 4.3941   154
 4.4041   176
 4.4141   214
 4.4241   237
 4.4341   300
 4.4441   380
 4.4541   435
 4.4641   493
 4.4741   551
 4.4841   581
 4.4941   626
 4.5041   622
 4.5141   633
 4.5241   588
 4.5341   588
 4.5441   508
 4.5541   453
 4.5641   374
 4.5741   322
 4.5841   251
 4.5941   232
 4.6041   195
 4.6141   164
 4.6241   131
 4.6341   132
 4.6441   105
 4.6541    82
 4.6641    98
 4.6741    97
 4.6841   106
 4.6941    96
 4.7041   100
 4.7141    98
 4.7241   104
 4.7341    97
 4.7441   111
 4.7541   100
 4.7641   123
 4.7741    96
 4.7841   118
 4.7941   109
 4.8041   120
 4.8141   132
 4.8241   120
 4.8341   141
 4.8441   150
 4.8541   170
 4.8641   167
 4.8741   187
 4.8841   211
 4.8941   189
 4.9041   194
 4.9141   225
 4.9241   230
 4.9341   230
 4.9441   220
 4.9541   205
 4.9641   181
 4.9741   170
 4.9841   175
 4.9941   168
 5.0041   168
 5.0141   133
 5.0241   145
 5.0341   115
 5.0441   104
 5.0541   116
 5.0641   117
 5.0741   120
 5.0841    89
 5.0941    91
 5.1041   115
 5.1141    99
 5.1241   100
 5.1341   104
 5.1441   107
 5.1541   109
 5.1641    87
 5.1741   112
 5.1841   123
 5.1941    93
 5.2041   100
 5.2141   112
 5.2241    97
 5.2341   128
 5.2441   102
 5.2541   103
 5.2641    95
 5.2741   117
 5.2841   132
 5.2941   143
 5.3041   149
 5.3141   146
 5.3241   147
 5.3341   175
 5.3441   186
 5.3541   241
 5.3641   251
 5.3741   240
 5.3841   271
 5.3941   291
 5.4041   305
 5.4141   305
 5.4241   334
 5.4341   300
 5.4441   287
 5.4541   271
 5.4641   204
 5.4741   209
 5.4841   199
 5.4941   164
 5.5041   149
 5.5141   155
 5.5241   130
 5.5341   142
 5.5441   105
 5.5541   105
 5.5641   123
 5.5741    90
 5.5841   100
 5.5941    91
 5.6041    81
 5.6141   113
 5.6241   109
 5.6341    91
 5.6441   109
 5.6541   105
 5.6641    90
 5.6741   115
 5.6841   104
 5.6941   101
 5.7041   127
 5.7141   106
 5.7241   123
 5.7341   120
 5.7441   107
 5.7541   138
 5.7641   121
 5.7741   144
 5.7841   146
 5.7941   139
 5.8041   168
 5.8141   175
 5.8241   192
 5.8341   202
 5.8441   236
 5.8541   250
 5.8641   299
 5.8741   277
 5.8841   310
 5.8941   291
 5.9041   296
 5.9141   260
 5.9241   278
 5.9341   287
 5.9441   278
 5.9541   244
 5.9641   231
 5.9741   230
 5.9841   199
 5.9941   195
 6.0041   184
 6.0141   172
 6.0241   162
 6.0341   174
 6.0441   135
 6.0541   136
 6.0641   153
 6.0741   135
 6.0841   138
 6.0941   141
 6.1041   148
 6.1141   166
 6.1241   141
 6.1341   166
 6.1441   169
 6.1541   182
 6.1641   165
 6.1741   222
 6.1841   239
 6.1941   263
 6.2041   328
 6.2141   420
 6.2241   505
 6.2341   686
 6.2441   999
 6.2541  1318
 6.2641  1836
 6.2741  2526
 6.2841  3420
 6.2941  4631
 6.3041  5926
 6.3141  7596
 6.3241  9133
 6.3341 11280
 6.3441 13145
 6.3541 15181
 6.3641 16611
 6.3741 18315
 6.3841 19323
 6.3941 19801
 6.4041 19689
 6.4141 18986
 6.4241 17956
 6.4341 16450
 6.4441 14703
 6.4541 12609
 6.4641 10923
 6.4741  8858
 6.4841  7286
 6.4941  5523
 6.5041  4311
 6.5141  3166
 6.5241  2319
 6.5341  1765
 6.5441  1158
 6.5541   820
 6.5641   597
 6.5741   445
 6.5841   340
 6.5941   277
 6.6041   231
 6.6141   222
 6.6241   195
 6.6341   176
 6.6441   186
 6.6541   182
 6.6641   156
 6.6741   185
 6.6841   188
 6.6941   181
 6.7041   174
 6.7141   191
 6.7241   201
 6.7341   191
 6.7441   168
 6.7541   178
 6.7641   181
 6.7741   188
 6.7841   182
 6.7941   193
 6.8041   220
 6.8141   199
 6.8241   225
 6.8341   204
 6.8441   234
 6.8541   239
 6.8641   258
 6.8741   275
 6.8841   384
 6.8941   415
 6.9041   482
 6.9141   548
 6.9241   722
 6.9341   804
 6.9441  1001
 6.9541  1204
 6.9641  1515
 6.9741  1730
 6.9841  2006
 6.9941  2402
 7.0041  2653
 7.0141  2882
 7.0241  3150
 7.0341  3381
 7.0441  3377
 7.0541  3361
 7.0641  3596
 7.0741  3358
 7.0841  3143
 7.0941  2919
 7.1041  2653
 7.1141  2321
 7.1241  2066
 7.1341  1713
 7.1441  1388
 7.1541  1180
 7.1641   952
 7.1741   782
 7.1841   612
 7.1941   520
 7.2041   386
 7.2141   327
 7.2241   309
 7.2341   269
 7.2441   257
 7.2541   243
 7.2641   236
 7.2741   218
 7.2841   243
 7.2941   209
 7.3041   237
 7.3141   276
 7.3241   274
 7.3341   300
 7.3441   326
 7.3541   359
 7.3641   389
 7.3741   390
 7.3841   458
 7.3941   469
 7.4041   471
 7.4141   494
 7.4241   509
 7.4341   556
 7.4441   577
 7.4541   563
 7.4641   608
 7.4741   591
 7.4841   563
 7.4941   519
 7.5041   499
 7.5141   507
 7.5241   467
 7.5341   429
 7.5441   410
 7.5541   372
 7.5641   343
 7.5741   316
 7.5841   293
 7.5941   283
 7.6041   283
 7.6141   248
 7.6241   254
 7.6341   233
 7.6441   244
 7.6541   234
 7.6641   250
 7.6741   238
 7.6841   236
 7.6941   250
 7.7041   241
 7.7141   224
 7.7241   236
 7.7341   258
 7.7441   271
 7.7541   273
 7.7641   287
 7.7741   286
 7.7841   276
 7.7941   282
 7.8041   327
 7.8141   314
 7.8241   331
 7.8341   336
 7.8441   332
 7.8541   349
 7.8641   358
 7.8741   361
 7.8841   372
 7.8941   400
 7.9041   376
 7.9141   425
 7.9241   461
 7.9341   440
 7.9441   480
 7.9541   533
 7.9641   588
 7.9741   597
 7.9841   667
 7.9941   660
 8.0041   759
 8.0141   749
 8.0241   856
 8.0341   932
 8.0441   993
 8.0541  1041
 8.0641  1103
 8.0741  1162
 8.0841  1201
 8.0941  1241
 8.1041  1330
 8.1141  1454
 8.1241  1474
 8.1341  1562
 8.1441  1584
 8.1541  1631
 8.1641  1706
 8.1741  1684
 8.1841  1686
 8.1941  1761
 8.2041  1734
 8.2141  1794
 8.2241  1858
 8.2341  1860
 8.2441  1808
 8.2541  1928
 8.2641  2048
 8.2741  2149
 8.2841  2280
 8.2941  2410
 8.3041  2488
 8.3141  2637
 8.3241  2855
 8.3341  3049
 8.3441  3244
 8.3541  3406
 8.3641  3521
 8.3741  3587
 8.3841  3725
 8.3941  3687
 8.4041  3625
 8.4141  3483
 8.4241  3322
 8.4341  3055
 8.4441  2732
 8.4541  2510
 8.4641  2283
 8.4741  1963
 8.4841  1636
 8.4941  1392
 8.5041  1233
 8.5141  1093
 8.5241   917
 8.5341   801
 8.5441   770
 8.5541   681
 8.5641   640
 8.5741   577
 8.5841   589
 8.5941   578
 8.6041   554
 8.6141   581
 8.6241   559
 8.6341   623
 8.6441   600
 8.6541   565
 8.6641   575
 8.6741   556
 8.6841   549
 8.6941   505
 8.7041   489
 8.7141   464
 8.7241   442
 8.7341   451
 8.7441   415
 8.7541   393
 8.7641   386
 8.7741   411
 8.7841   387
 8.7941   380
 8.8041   359
 8.8141   381
 8.8241   371
 8.8341   350
 8.8441   376
 8.8541   363
 8.8641   381
 8.8741   358
 8.8841   385
 8.8941   382
 8.9041   399
 8.9141   413
 8.9241   402
 8.9341   395
 8.9441   400
 8.9541   397
 8.9641   413
 8.9741   443
 8.9841   440
 8.9941   444
 9.0041   464
 9.0141   455
 9.0241   448
 9.0341   460
 9.0441   447
 9.0541   504
 9.0641   502
 9.0741   522
 9.0841   540
 9.0941   547
 9.1041   568
 9.1141   580
 9.1241   609
 9.1341   639
 9.1441   638
 9.1541   703
 9.1641   727
 9.1741   782
 9.1841   806
 9.1941   821
 9.2041   863
 9.2141  1002
 9.2241   967
 9.2341  1019
 9.2441  1099
 9.2541  1136
 9.2641  1168
 9.2741  1246
 9.2841  1279
 9.2941  1297
 9.3041  1378
 9.3141  1435
 9.3241  1442
 9.3341  1494
 9.3441  1477
 9.3541  1545
 9.3641  1593
 9.3741  1588
 9.3841  1711
 9.3941  1691
 9.4041  1694
 9.4141  1730
 9.4241  1833
 9.4341  1813
 9.4441  1827
 9.4541  1818
 9.4641  1873
 9.4741  1889
 9.4841  1920
 9.4941  1934
 9.5041  1940
 9.5141  1991
 9.5241  2125
 9.5341  2212
 9.5441  2268
 9.5541  2332
 9.5641  2472
 9.5741  2545
 9.5841  2759
 9.5941  2893
 9.6041  2930
 9.6141  3170
 9.6241  3275
 9.6341  3370
 9.6441  3471
 9.6541  3531
 9.6641  3557
 9.6741  3566
 9.6841  3527
 9.6941  3420
 9.7041  3254
 9.7141  3133
 9.7241  2948
 9.7341  2757
 9.7441  2590
 9.7541  2408
 9.7641  2230
 9.7741  2046
 9.7841  1904
 9.7941  1760
 9.8041  1650
 9.8141  1572
 9.8241  1514
 9.8341  1428
 9.8441  1445
 9.8541  1408
 9.8641  1419
 9.8741  1466
 9.8841  1452
 9.8941  1501
 9.9041  1553
 9.9141  1538
 9.9241  1541
 9.9341  1593
 9.9441  1590
 9.9541  1585
 9.9641  1571
 9.9741  1543
 9.9841  1486
 9.9941  1393
10.0041  1343
10.0141  1223
10.0241  1115
10.0341  1067
10.0441   942
10.0541   846
10.0641   747
10.0741   679
10.0841   635
10.0941   585
10.1041   500
10.1141   440
10.1241   413
10.1341   368
10.1441   343
10.1541   303
10.1641   315
10.1741   305
10.1841   298
10.1941   288
10.2041   278
10.2141   267
10.2241   270
10.2341   283
10.2441   254
10.2541   235
10.2641   212
10.2741   238
10.2841   220
10.2941   224
10.3041   217
10.3141   202
10.3241   207
10.3341   216
10.3441   199
10.3541   198
10.3641   218
10.3741   197
10.3841   201
10.3941   204
10.4041   210
10.4141   222
10.4241   203
10.4341   218
10.4441   210
10.4541   234
10.4641   236
10.4741   223
10.4841   205
10.4941   209
10.5041   220
10.5141   224
10.5241   246
10.5341   232
10.5441   235
10.5541   253
10.5641   264
10.5741   230
10.5841   244
10.5941   253
10.6041   271
10.6141   251
10.6241   236
10.6341   248
10.6441   249
10.6541   249
10.6641   265
10.6741   248
10.6841   279
10.6941   259
10.7041   280
10.7141   281
10.7241   298
10.7341   304
10.7441   294
10.7541   303
10.7641   303
10.7741   303
10.7841   313
10.7941   343
10.8041   361
10.8141   339
10.8241   342
10.8341   363
10.8441   383
10.8541   365
10.8641   341
10.8741   386
10.8841   395
10.8941   397
10.9041   382
10.9141   394
10.9241   418
10.9341   393
10.9441   394
10.9541   390
10.9641   367
10.9741   391
10.9841   387
10.9941   383
11.0041   361
11.0141   362
11.0241   365
11.0341   363
11.0441   343
11.0541   333
11.0641   322
11.0741   333
11.0841   339
11.0941   362
11.1041   368
11.1141   332
11.1241   354
11.1341   363
11.1441   386
11.1541   392
11.1641   404
11.1741   396
11.1841   416
11.1941   403
11.2041   424
11.2141   457
11.2241   477
11.2341   518
11.2441   529
11.2541   524
11.2641   540
11.2741   541
11.2841   529
11.2941   509
11.3041   487
11.3141   491
11.3241   504
11.3341   489
11.3441   471
11.3541   433
11.3641   413
11.3741   396
11.3841   387
11.3941   368
11.4041   352
11.4141   316
11.4241   306
11.4341   294
11.4441   276
11.4541   280
11.4641   273
11.4741   277
11.4841   275
11.4941   274
11.5041   261
11.5141   279
11.5241   260
11.5341   243
11.5441   265
11.5541   270
11.5641   277
11.5741   297
11.5841   285
11.5941   293
11.6041   286
11.6141   277
11.6241   260
11.6341   280
11.6441   303
11.6541   317
11.6641   295
11.6741   279
11.6841   283
11.6941   286
11.7041   271
11.7141   252
11.7241   260
11.7341   250
11.7441   249
11.7541   242
11.7641   254
11.7741   261
11.7841   246
11.7941   228
11.8041   233
11.8141   218
11.8241   213
11.8341   246
11.8441   256
11.8541   245
11.8641   234
11.8741   235
11.8841   260
11.8941   284
11.9041   275
11.9141   262
11.9241   241
11.9341   251
11.9441   249
11.9541   252
11.9641   243
11.9741   251
11.9841   250
11.9941   249
12.0041   241
12.0141   244
12.0241   237
12.0341   238
12.0441   240
12.0541   245
12.0641   242
12.0741   228
12.0841   208
12.0941   212
12.1041   209
12.1141   206
12.1241   217
12.1341   202
12.1441   203
12.1541   211
12.1641   218
12.1741   214
12.1841   208
12.1941   205
12.2041   215
12.2141   213
12.2241   208
12.2341   209
12.2441   193
12.2541   183
12.2641   202
12.2741   217
12.2841   197
12.2941   195
12.3041   209
12.3141   210
12.3241   197
12.3341   212
12.3441   205
12.3541   199
12.3641   203
12.3741   186
12.3841   206
12.3941   224
12.4041   218
12.4141   213
12.4241   195
12.4341   213
12.4441   215
12.4541   201
12.4641   222
12.4741   229
12.4841   246
12.4941   250
12.5041   221
12.5141   217
12.5241   208
12.5341   230
12.5441   234
12.5541   219
12.5641   217
12.5741   210
12.5841   228
12.5941   237
12.6041   252
12.6141   240
12.6241   220
12.6341   233
12.6441   239
12.6541   244
12.6641   240
12.6741   230
12.6841   232
12.6941   234
12.7041   234
12.7141   236
12.7241   222
12.7341   226
12.7441   235
12.7541   236
12.7641   235
12.7741   240
12.7841   246
12.7941   243
12.8041   237
12.8141   232
12.8241   235
12.8341   245
12.8441   245
12.8541   234
12.8641   233
12.8741   239
12.8841   235
12.8941   233
12.9041   244
12.9141   253
12.9241   259
12.9341   264
12.9441   257
12.9541   246
12.9641   244
12.9741   245
12.9841   247
12.9941   254
13.0041   261
13.0141   263
13.0241   262
13.0341   252
13.0441   243
13.0541   234
13.0641   243
13.0741   255
13.0841   259
13.0941   266
13.1041   266
13.1141   270
13.1241   268
13.1341   246
13.1441   247
13.1541   265
13.1641   270
13.1741   275
13.1841   264
13.1941   274
13.2041   308
13.2141   306
13.2241   294
13.2341   315
13.2441   309
13.2541   320
13.2641   333
13.2741   322
13.2841   339
13.2941   361
13.3041   378
13.3141   395
13.3241   378
13.3341   363
13.3441   383
13.3541   400
13.3641   404
13.3741   398
13.3841   393
13.3941   373
13.4041   387
13.4141   422
13.4241   397
13.4341   378
13.4441   377
13.4541   376
13.4641   366
13.4741   353
13.4841   353
13.4941   354
13.5041   354
13.5141   353
13.5241   335
13.5341   313
13.5441   311
13.5541   317
13.5641   306
13.5741   316
13.5841   323
13.5941   321
13.6041   307
13.6141   284
13.6241   295
13.6341   318
13.6441   304
13.6541   302
13.6641   330
13.6741   334
13.6841   337
13.6941   316
13.7041   313
13.7141   331
13.7241   328
13.7341   313
13.7441   291
13.7541   297
13.7641   314
13.7741   322
13.7841   308
13.7941   320
13.8041   326
13.8141   314
13.8241   339
13.8341   346
13.8441   328
13.8541   318
13.8641   333
13.8741   352
13.8841   340
13.8941   340
13.9041   350
13.9141   334
13.9241   344
13.9341   351
13.9441   346
13.9541   362
13.9641   387
13.9741   377
13.9841   367
13.9941   401
14.0041   394
14.0141   401
14.0241   436
14.0341   449
14.0441   479
14.0541   496
14.0641   480
14.0741   495
14.0841   528
14.0941   538
14.1041   552
14.1141   556
14.1241   557
14.1341   575
14.1441   587
14.1541   578
14.1641   580
14.1741   578
14.1841   540
14.1941   525
14.2041   525
14.2141   509
14.2241   487
14.2341   468
14.2441   461
14.2541   453
14.2641   469
14.2741   459
14.2841   448
14.2941   433
14.3041   415
14.3141   420
14.3241   404
14.3341   399
14.3441   373
14.3541   361
14.3641   364
14.3741   367
14.3841   391
14.3941   391
14.4041   359
14.4141   359
14.4241   376
14.4341   363
14.4441   350
14.4541   352
14.4641   376
14.4741   382
14.4841   375
14.4941   372
14.5041   391
14.5141   394
14.5241   381
14.5341   377
14.5441   373
14.5541   378
14.5641   372
14.5741   376
14.5841   387
14.5941   388
14.6041   378
14.6141   368
14.6241   386
14.6341   377
14.6441   379
14.6541   401
14.6641   406
14.6741   435
14.6841   414
14.6941   389
14.7041   376
14.7141   372
14.7241   403
14.7341   399
14.7441   406
14.7541   420
14.7641   399
14.7741   396
14.7841   399
14.7941   398
14.8041   410
14.8141   422
14.8241   411
14.8341   409
14.8441   428
14.8541   419
14.8641   422
14.8741   462
14.8841   457
14.8941   446
14.9041   460
14.9141   461
14.9241   454
14.9341   472
14.9441   492
14.9541   491
14.9641   469
14.9741   443
14.9841   453
14.9941   456
15.0041   444
15.0141   460
15.0241   491
15.0341   469
15.0441   444
15.0541   459
15.0641   450
15.0741   450
15.0841   448
15.0941   438
15.1041   449
15.1141   462
15.1241   443
15.1341   436
15.1441   426
15.1541   411
15.1641   423
15.1741   462
15.1841   467
15.1941   440
15.2041   437
15.2141   465
15.2241   439
15.2341   425
15.2441   453
15.2541   436
15.2641   427
15.2741   472
15.2841   459
15.2941   438
15.3041   477
15.3141   503
15.3241   461
15.3341   433
15.3441   443
15.3541   447
15.3641   455
15.3741   461
15.3841   441
15.3941   433
15.4041   470
15.4141   485
15.4241   468
15.4341   464
15.4441   477
15.4541   444
15.4641   470
15.4741   509
15.4841   505
15.4941   481
15.5041   510
15.5141   516
15.5241   507
15.5341   496
15.5441   525
15.5541   551
15.5641   560
15.5741   565
15.5841   605
15.5941   654
15.6041   660
15.6141   693
15.6241   728
15.6341   732
15.6441   739
15.6541   797
15.6641   830
15.6741   903
15.6841   937
15.6941   944
15.7041   969
15.7141  1006
15.7241   992
15.7341   977
15.7441   992
15.7541   995
15.7641  1015
15.7741  1003
15.7841   968
15.7941   954
15.8041   967
15.8141   930
15.8241   907
15.8341   889
15.8441   859
15.8541   810
15.8641   766
15.8741   772
15.8841   726
15.8941   689
15.9041   677
15.9141   636
15.9241   614
15.9341   620
15.9441   619
15.9541   576
15.9641   574
15.9741   552
15.9841   557
15.9941   555
16.0041   554
16.0141   535
16.0241   530
16.0341   505
16.0441   503
16.0541   526
16.0641   540
16.0741   543
16.0841   536
16.0941   544
16.1041   560
16.1141   568
16.1241   555
16.1341   532
16.1441   528
16.1541   539
16.1641   546
16.1741   536
16.1841   549
16.1941   544
16.2041   537
16.2141   531
16.2241   536
16.2341   533
16.2441   528
16.2541   553
16.2641   545
16.2741   559
16.2841   542
16.2941   502
16.3041   506
16.3141   565
16.3241   563
16.3341   552
16.3441   559
16.3541   537
16.3641   529
16.3741   538
16.3841   543
16.3941   540
16.4041   524
16.4141   523
16.4241   573
16.4341   566
16.4441   549
16.4541   572
16.4641   577
16.4741   554
16.4841   560
16.4941   555
16.5041   557
16.5141   580
16.5241   590
16.5341   577
16.5441   562
16.5541   559
16.5641   588
16.5741   594
16.5841   579
16.5941   572
16.6041   562
16.6141   571
16.6241   594
16.6341   580
16.6441   594
16.6541   613
16.6641   557
16.6741   569
16.6841   584
16.6941   582
16.7041   571
16.7141   557
16.7241   548
16.7341   585
16.7441   574
16.7541   553
16.7641   575
16.7741   580
16.7841   587
16.7941   589
16.8041   575
16.8141   595
16.8241   586
16.8341   582
16.8441   573
16.8541   613
16.8641   627
16.8741   616
16.8841   570
16.8941   577
16.9041   599
16.9141   587
16.9241   575
16.9341   588
16.9441   621
16.9541   604
16.9641   593
16.9741   601
16.9841   604
16.9941   609
17.0041   584
17.0141   607
17.0241   593
17.0341   602
17.0441   604
17.0541   601
17.0641   601
17.0741   597
17.0841   611
17.0941   607
17.1041   620
17.1141   591
17.1241   606
17.1341   589
17.1441   605
17.1541   629
17.1641   620
17.1741   629
17.1841   642
17.1941   630
17.2041   599
17.2141   624
17.2241   610
17.2341   615
17.2441   582
17.2541   660
17.2641   667
17.2741   636
17.2841   655
17.2941   652
17.3041   662
17.3141   635
17.3241   625
17.3341   618
17.3441   637
17.3541   638
17.3641   666
17.3741   625
17.3841   617
17.3941   640
17.4041   686
17.4141   673
17.4241   658
17.4341   626
17.4441   651
17.4541   678
17.4641   709
17.4741   664
17.4841   654
17.4941   668
17.5041   681
17.5141   672
17.5241   674
17.5341   660
17.5441   698
17.5541   694
17.5641   695
17.5741   700
17.5841   740
17.5941   732
17.6041   726
17.6141   700
17.6241   704
17.6341   724
17.6441   767
17.6541   733
17.6641   736
17.6741   739
17.6841   755
17.6941   733
17.7041   708
17.7141   715
17.7241   684
17.7341   749
17.7441   750
17.7541   705
17.7641   701
17.7741   709
17.7841   688
17.7941   677
17.8041   701
17.8141   702
17.8241   670
17.8341   665
17.8441   696
17.8541   663
17.8641   660
17.8741   656
17.8841   698
17.8941   707
17.9041   665
17.9141   678
17.9241   654
17.9341   682
17.9441   695
17.9541   710
17.9641   726
17.9741   722
17.9841   687
17.9941   668
18.0041   712
18.0141   698
18.0241   687
18.0341   706
18.0441   680
18.0541   685
18.0641   698
18.0741   690
18.0841   693
18.0941   667
18.1041   682
18.1141   649
18.1241   683
18.1341   714
18.1441   724
18.1541   741
18.1641   721
18.1741   689
18.1841   710
18.1941   681
18.2041   655
18.2141   670
18.2241   707
18.2341   692
18.2441   692
18.2541   693
18.2641   693
18.2741   704
18.2841   705
18.2941   678
18.3041   695
18.3141   686
18.3241   666
18.3341   738
18.3441   695
18.3541   678
18.3641   702
18.3741   690
18.3841   708
18.3941   734
18.4041   697
18.4141   695
18.4241   703
18.4341   671
18.4441   692
18.4541   667
18.4641   690
18.4741   678
18.4841   708
18.4941   710
18.5041   716
18.5141   720
18.5241   720
18.5341   735
18.5441   747
18.5541   726
18.5641   732
18.5741   687
18.5841   745
18.5941   739
18.6041   735
18.6141   733
18.6241   735
18.6341   709
18.6441   702
18.6541   727
18.6641   727
18.6741   709
18.6841   733
18.6941   687
18.7041   705
18.7141   680
18.7241   692
18.7341   709
18.7441   731
18.7541   726
18.7641   733
18.7741   755
18.7841   732
18.7941   707
18.8041   740
18.8141   710
18.8241   698
18.8341   686
18.8441   711
18.8541   703
18.8641   754
18.8741   745
18.8841   714
18.8941   704
18.9041   710
18.9141   710
18.9241   770
18.9341   750
18.9441   755
18.9541   723
18.9641   725
18.9741   725
18.9841   745
18.9941   724
19.0041   697
19.0141   689
19.0241   736
19.0341   733
19.0441   693
19.0541   724
19.0641   742
19.0741   709
19.0841   741
19.0941   726
19.1041   733
19.1141   749
19.1241   719
19.1341   743
19.1441   730
19.1541   741
19.1641   758
19.1741   781
19.1841   772
19.1941   743
19.2041   745
19.2141   721
19.2241   747
19.2341   743
19.2441   759
19.2541   754
19.2641   735
19.2741   739
19.2841   754
19.2941   766
19.3041   769
19.3141   728
19.3241   759
19.3341   769
19.3441   714
19.3541   693
19.3641   746
19.3741   769
19.3841   762
19.3941   744
19.4041   737
19.4141   727
19.4241   755
19.4341   764
19.4441   767
19.4541   720
19.4641   755
19.4741   718
19.4841   715
19.4941   753
19.5041   738
19.5141   745
19.5241   723
19.5341   753
19.5441   767
19.5541   759
19.5641   711
19.5741   740
19.5841   754
19.5941   762
19.6041   762
19.6141   781
19.6241   789
19.6341   725
19.6441   738
19.6541   747
19.6641   767
19.6741   715
19.6841   777
19.6941   761
19.7041   740
19.7141   724
19.7241   702
19.7341   745
19.7441   732
19.7541   751
19.7641   777
19.7741   763
19.7841   746
19.7941   726
19.8041   751
19.8141   730
19.8241   753
19.8341   722
19.8441   760
19.8541   758
19.8641   777
19.8741   770
19.8841   754
19.8941   734
19.9041   755
19.9141   762
19.9241   727
19.9341   716
19.9441   745
19.9541   726
19.9641   759
19.9741   733
19.9841   737
19.9941   727
20.0041   743
20.0141   745
20.0241   729
20.0341   730
20.0441   753
20.0541   752
20.0641   753
20.0741   738
20.0841   724
20.0941   733
20.1041   757
20.1141   797
20.1241   769
20.1341   759
20.1441   767
20.1541   764
20.1641   783
20.1741   806
20.1841   788
20.1941   809
20.2041   776
20.2141   762
20.2241   737
20.2341   759
20.2441   716
20.2541   756
20.2641   790
20.2741   763
20.2841   729
20.2941   742
20.3041   786
20.3141   768
20.3241   746
20.3341   756
20.3441   761
20.3541   736
20.3641   757
20.3741   784
20.3841   850
20.3941   800
20.4041   754
20.4141   765
20.4241   741
20.4341   741
20.4441   778
20.4541   785
20.4641   727
20.4741   786
20.4841   754
20.4941   770
20.5041   755
20.5141   791
20.5241   755
20.5341   770
20.5441   777
20.5541   742
20.5641   801
20.5741   795
20.5841   744
20.5941   767
20.6041   787
20.6141   798
20.6241   764
20.6341   803
20.6441   772
20.6541   785
20.6641   756
20.6741   738
20.6841   773
20.6941   760
20.7041   778
20.7141   779
20.7241   784
20.7341   766
20.7441   757
20.7541   731
20.7641   770
20.7741   781
20.7841   784
20.7941   806
20.8041   772
20.8141   821
20.8241   850
20.8341   806
20.8441   830
20.8541   818
20.8641   847
20.8741   836
20.8841   864
20.8941   838
20.9041   896
20.9141   903
20.9241   877
20.9341   890
20.9441   901
20.9541   904
20.9641   870
20.9741   893
20.9841   938
20.9941   916
21.0041   995
21.0141   965
21.0241  1046
21.0341  1048
21.0441  1035
21.0541  1058
21.0641  1055
21.0741  1075
21.0841  1055
21.0941  1099
21.1041  1098
21.1141  1070
21.1241  1036
21.1341  1121
21.1441  1060
21.1541  1093
21.1641  1123
21.1741  1109
21.1841  1026
21.1941  1017
21.2041  1066
21.2141  1018
21.2241  1022
21.2341  1018
21.2441   995
21.2541   934
21.2641   967
21.2741   923
21.2841   900
21.2941   904
21.3041   910
21.3141   860
21.3241   830
21.3341   825
21.3441   780
21.3541   833
21.3641   772
21.3741   792
21.3841   844
21.3941   774
21.4041   783
21.4141   795
21.4241   772
21.4341   771
21.4441   813
21.4541   813
21.4641   767
21.4741   772
21.4841   789
21.4941   774
21.5041   747
21.5141   743
21.5241   769
21.5341   752
21.5441   718
21.5541   775
21.5641   794
21.5741   763
21.5841   754
21.5941   740
21.6041   763
21.6141   779
21.6241   741
21.6341   742
21.6441   776
21.6541   788
21.6641   728
21.6741   717
21.6841   730
21.6941   770
21.7041   729
21.7141   748
21.7241   754
21.7341   777
21.7441   733
21.7541   729
21.7641   711
21.7741   760
21.7841   744
21.7941   760
21.8041   777
21.8141   761
21.8241   742
21.8341   713
21.8441   733
21.8541   757
21.8641   704
21.8741   732
21.8841   756
21.8941   741
21.9041   786
21.9141   749
21.9241   753
21.9341   726
21.9441   759
21.9541   712
21.9641   787
21.9741   778
21.9841   743
21.9941   704
22.0041   744
22.0141   721
22.0241   738
22.0341   690
22.0441   728
22.0541   725
22.0641   745
22.0741   767
22.0841   738
22.0941   799
22.1041   808
22.1141   750
22.1241   746
22.1341   728
22.1441   741
22.1541   706
22.1641   728
22.1741   734
22.1841   726
22.1941   731
22.2041   771
22.2141   743
22.2241   764
22.2341   772
22.2441   729
22.2541   736
22.2641   777
22.2741   728
22.2841   748
22.2941   723
22.3041   756
22.3141   757
22.3241   740
22.3341   728
22.3441   739
22.3541   742
22.3641   707
22.3741   743
22.3841   754
22.3941   755
22.4041   704
22.4141   703
22.4241   736
22.4341   726
22.4441   765
22.4541   742
22.4641   718
22.4741   761
22.4841   721
22.4941   769
22.5041   696
22.5141   723
22.5241   747
22.5341   745
22.5441   749
22.5541   766
22.5641   790
22.5741   708
22.5841   692
22.5941   743
22.6041   712
22.6141   744
22.6241   711
22.6341   749
22.6441   751
22.6541   726
22.6641   733
22.6741   747
22.6841   698
22.6941   736
22.7041   737
22.7141   729
22.7241   747
22.7341   693
22.7441   722
22.7541   745
22.7641   729
22.7741   736
22.7841   771
22.7941   748
22.8041   716
22.8141   720
22.8241   723
22.8341   721
22.8441   736
22.8541   713
22.8641   735
22.8741   699
22.8841   732
22.8941   727
22.9041   684
22.9141   769
22.9241   709
22.9341   668
22.9441   730
22.9541   665
22.9641   726
22.9741   707
22.9841   782
22.9941   710
23.0041   699
23.0141   708
23.0241   729
23.0341   689
23.0441   694
23.0541   672
23.0641   700
23.0741   737
23.0841   727
23.0941   710
23.1041   689
23.1141   704
23.1241   710
23.1341   719
23.1441   736
23.1541   690
23.1641   742
23.1741   719
23.1841   724
23.1941   674
23.2041   782
23.2141   672
23.2241   678
23.2341   722
23.2441   744
23.2541   719
23.2641   705
23.2741   707
23.2841   686
23.2941   680
23.3041   659
23.3141   666
23.3241   669
23.3341   697
23.3441   718
23.3541   731
23.3641   695
23.3741   693
23.3841   702
23.3941   665
23.4041   737
23.4141   703
23.4241   656
23.4341   657
23.4441   645
23.4541   676
23.4641   661
23.4741   690
23.4841   677
23.4941   675
23.5041   687
23.5141   686
23.5241   628
23.5341   681
23.5441   717
23.5541   706
23.5641   709
23.5741   722
23.5841   710
23.5941   659
23.6041   713
23.6141   668
23.6241   703
23.6341   696
23.6441   701
23.6541   697
23.6641   739
23.6741   711
23.6841   716
23.6941   716
23.7041   730
23.7141   742
23.7241   687
23.7341   724
23.7441   693
23.7541   715
23.7641   730
23.7741   681
23.7841   689
23.7941   682
23.8041   777
23.8141   714
23.8241   690
23.8341   703
23.8441   712
23.8541   734
23.8641   734
23.8741   745
23.8841   711
23.8941   779
23.9041   684
23.9141   742
23.9241   691
23.9341   709
23.9441   712
23.9541   714
23.9641   712
23.9741   690
23.9841   678
23.9941   704
24.0041   657
24.0141   648
24.0241   681
24.0341   682
24.0441   648
24.0541   675
24.0641   598
24.0741   685
24.0841   703
24.0941   658
24.1041   712
24.1141   661
24.1241   662
24.1341   678
24.1441   647
24.1541   674
24.1641   660
24.1741   672
24.1841   671
24.1941   665
24.2041   650
24.2141   608
24.2241   662
24.2341   677
24.2441   619
24.2541   714
24.2641   659
24.2741   596
24.2841   666
24.2941   664
24.3041   624
24.3141   672
24.3241   695
24.3341   673
24.3441   633
24.3541   645
24.3641   601
24.3741   634
24.3841   634
24.3941   617
24.4041   690
24.4141   648
24.4241   633
24.4341   625
24.4441   610
24.4541   678
24.4641   686
24.4741   669
24.4841   662
24.4941   655
24.5041   617
24.5141   620
24.5241   607
24.5341   638
24.5441   623
24.5541   677
24.5641   640
24.5741   657
24.5841   591
24.5941   655
24.6041   596
24.6141   594
24.6241   647
24.6341   645
24.6441   646
24.6541   617
24.6641   656
24.6741   632
24.6841   615
24.6941   569
24.7041   652
24.7141   618
24.7241   625
24.7341   655
24.7441   630
24.7541   618
24.7641   602
24.7741   615
24.7841   607
24.7941   594
24.8041   595
24.8141   646
24.8241   583
24.8341   624
24.8441   646
24.8541   635
24.8641   649
24.8741   639
24.8841   618
24.8941   651
24.9041   615
24.9141   592
24.9241   609
24.9341   636
24.9441   628
24.9541   649
24.9641   620
24.9741   605
24.9841   620
24.9941   633
25.0041   590
25.0141   621
25.0241   623
25.0341   636
25.0441   630
25.0541   614
25.0641   631
25.0741   623
25.0841   609
25.0941   602
25.1041   558
25.1141   626
25.1241   594
25.1341   641
25.1441   629
25.1541   634
25.1641   622
25.1741   574
25.1841   597
25.1941   616
25.2041   615
25.2141   604
25.2241   619
25.2341   587
25.2441   583
25.2541   625
25.2641   607
25.2741   629
25.2841   630
25.2941   576
25.3041   578
25.3141   622
25.3241   626
25.3341   624
25.3441   644
25.3541   626
25.3641   627
25.3741   600
25.3841   558
25.3941   592
25.4041   628
25.4141   604
25.4241   631
25.4341   591
25.4441   547
25.4541   587
25.4641   548
25.4741   594
25.4841   617
25.4941   606
25.5041   579
25.5141   592
25.5241   585
25.5341   575
25.5441   594
25.5541   565
25.5641   594
25.5741   588
25.5841   554
25.5941   604
25.6041   592
25.6141   602
25.6241   607
25.6341   612
25.6441   568
25.6541   565
25.6641   593
25.6741   568
25.6841   552
25.6941   535
25.7041   553
25.7141   566
25.7241   592
25.7341   555
25.7441   595
25.7541   585
25.7641   579
25.7741   568
25.7841   562
25.7941   580
25.8041   559
25.8141   526
25.8241   580
25.8341   565
25.8441   548
25.8541   509
25.8641   578
25.8741   506
25.8841   570
25.8941   549
25.9041   567
25.9141   571
25.9241   552
25.9341   573
25.9441   584
25.9541   547
25.9641   518
25.9741   527
25.9841   560
25.9941   572
26.0041   564
26.0141   559
26.0241   545
26.0341   546
26.0441   545
26.0541   550
26.0641   519
26.0741   549
26.0841   566
26.0941   558
26.1041   555
26.1141   545
26.1241   518
26.1341   564
26.1441   528
26.1541   553
26.1641   542
26.1741   509
26.1841   583
26.1941   542
26.2041   536
26.2141   527
26.2241   538
26.2341   547
26.2441   542
26.2541   556
26.2641   587
26.2741   561
26.2841   576
26.2941   514
26.3041   559
26.3141   507
26.3241   490
26.3341   522
26.3441   536
26.3541   526
26.3641   510
26.3741   528
26.3841   525
26.3941   507
26.4041   513
26.4141   529
26.4241   517
26.4341   516
26.4441   505
26.4541   496
26.4641   487
26.4741   502
26.4841   518
26.4941   498
26.5041   520
26.5141   546
26.5241   528
26.5341   512
26.5441   538
26.5541   516
26.5641   548
26.5741   521
26.5841   512
26.5941   526
26.6041   537
26.6141   551
26.6241   511
26.6341   534
26.6441   545
26.6541   512
26.6641   528
26.6741   542
26.6841   516
26.6941   509
26.7041   533
26.7141   509
26.7241   525
26.7341   508
26.7441   483
26.7541   517
26.7641   470
26.7741   494
26.7841   491
26.7941   516
26.8041   489
26.8141   494
26.8241   489
26.8341   451
26.8441   485
26.8541   491
26.8641   478
26.8741   453
26.8841   534
26.8941   502
26.9041   483
26.9141   499
26.9241   502
26.9341   532
26.9441   467
26.9541   466
26.9641   464
26.9741   505
26.9841   547
26.9941   497
27.0041   515
27.0141   515
27.0241   492
27.0341   476
27.0441   492
27.0541   509
27.0641   477
27.0741   479
27.0841   495
27.0941   507
27.1041   456
27.1141   488
27.1241   482
27.1341   469
27.1441   491
27.1541   453
27.1641   456
27.1741   492
27.1841   519
27.1941   502
27.2041   506
27.2141   490
27.2241   512
27.2341   481
27.2441   510
27.2541   486
27.2641   510
27.2741   483
27.2841   471
27.2941   480
27.3041   477
27.3141   487
27.3241   482
27.3341   457
27.3441   490
27.3541   467
27.3641   493
27.3741   492
27.3841   476
27.3941   498
27.4041   497
27.4141   464
27.4241   473
27.4341   452
27.4441   504
27.4541   506
27.4641   458
27.4741   488
27.4841   452
27.4941   434
27.5041   478
27.5141   479
27.5241   479
27.5341   458
27.5441   494
27.5541   463
27.5641   483
27.5741   450
27.5841   485
27.5941   446
27.6041   481
27.6141   455
27.6241   471
27.6341   488
27.6441   454
27.6541   490
27.6641   457
27.6741   439
27.6841   468
27.6941   454
27.7041   457
27.7141   458
27.7241   485
27.7341   441
27.7441   454
27.7541   455
27.7641   439
27.7741   435
27.7841   427
27.7941   414
27.8041   464
27.8141   442
27.8241   436
27.8341   434
27.8441   446
27.8541   455
27.8641   469
27.8741   437
27.8841   409
27.8941   445
27.9041   406
27.9141   450
27.9241   472
27.9341   451
27.9441   440
27.9541   474
27.9641   435
27.9741   434
27.9841   437
27.9941   465
28.0041   455
28.0141   400
28.0241   444
28.0341   400
28.0441   432
28.0541   439
28.0641   406
28.0741   456
28.0841   431
28.0941   413
28.1041   438
28.1141   428
28.1241   432
28.1341   417
28.1441   418
28.1541   420
28.1641   433
28.1741   421
28.1841   433
28.1941   435
28.2041   467
28.2141   429
28.2241   392
28.2341   428
28.2441   420
28.2541   445
28.2641   422
28.2741   450
28.2841   376
28.2941   407
28.3041   423
28.3141   437
28.3241   401
28.3341   409
28.3441   422
28.3541   402
28.3641   429
28.3741   397
28.3841   410
28.3941   438
28.4041   409
28.4141   444
28.4241   443
28.4341   426
28.4441   432
28.4541   414
28.4641   407
28.4741   381
28.4841   428
28.4941   426
28.5041   407
28.5141   411
28.5241   428
28.5341   413
28.5441   368
28.5541   438
28.5641   411
28.5741   400
28.5841   385
28.5941   368
28.6041   387
28.6141   400
28.6241   417
28.6341   403
28.6441   374
28.6541   372
28.6641   415
28.6741   366
28.6841   422
28.6941   391
28.7041   404
28.7141   377
28.7241   402
28.7341   389
28.7441   414
28.7541   392
28.7641   400
28.7741   406
28.7841   386
28.7941   351
28.8041   391
28.8141   383
28.8241   391
28.8341   407
28.8441   376
28.8541   412
28.8641   391
28.8741   370
28.8841   364
28.8941   380
28.9041   418
28.9141   384
28.9241   407
28.9341   384
28.9441   385
28.9541   394
28.9641   372
28.9741   401
28.9841   383
28.9941   399
29.0041   375
29.0141   381
29.0241   401
29.0341   368
29.0441   380
29.0541   407
29.0641   423
29.0741   373
29.0841   386
29.0941   385
29.1041   382
29.1141   368
29.1241   365
29.1341   394
29.1441   416
29.1541   410
29.1641   399
29.1741   384
29.1841   359
29.1941   394
29.2041   354
29.2141   379
29.2241   382
29.2341   334
29.2441   384
29.2541   363
29.2641   342
29.2741   369
29.2841   357
29.2941   396
29.3041   379
29.3141   364
29.3241   348
29.3341   367
29.3441   359
29.3541   356
29.3641   373
29.3741   396
29.3841   320
29.3941   375
29.4041   370
29.4141   379
29.4241   357
29.4341   323
29.4441   357
29.4541   342
29.4641   369
29.4741   379
29.4841   343
29.4941   367
29.5041   392
29.5141   344
29.5241   336
29.5341   367
29.5441   348
29.5541   338
29.5641   357
29.5741   373
29.5841   353
29.5941   335
29.6041   355
29.6141   339
29.6241   331
29.6341   340
29.6441   341
29.6541   352
29.6641   360
29.6741   332
29.6841   305
29.6941   354
29.7041   335
29.7141   385
29.7241   322
29.7341   328
29.7441   319
29.7541   331
29.7641   343
29.7741   342
29.7841   339
29.7941   317
29.8041   321
29.8141   347
29.8241   338
29.8341   333
29.8441   329
29.8541   331
29.8641   316
29.8741   322
29.8841   364
29.8941   322
29.9041   346
29.9141   339
29.9241   325
29.9341   338
29.9441   370
29.9541   339
29.9641   336
29.9741   310
29.9841   323
29.9941   362
30.0041   351
30.0141   338
30.0241   351
30.0341   330
30.0441   326
30.0541   341
30.0641   318
30.0741   314
30.0841   344
30.0941   329
30.1041   339
30.1141   323
30.1241   312
30.1341   331
30.1441   336
30.1541   344
30.1641   333
30.1741   293
30.1841   310
30.1941   312
30.2041   311
30.2141   340
30.2241   335
30.2341   340
30.2441   334
30.2541   330
30.2641   306
30.2741   294
30.2841   307
30.2941   320
30.3041   301
30.3141   296
30.3241   329
30.3341   298
30.3441   288
30.3541   299
30.3641   316
30.3741   288
30.3841   296
30.3941   321
30.4041   326
30.4141   294
30.4241   288
30.4341   298
30.4441   325
30.4541   350
30.4641   308
30.4741   305
30.4841   291
30.4941   294
30.5041   328
30.5141   269
30.5241   289
30.5341   305
30.5441   292
30.5541   282
30.5641   306
30.5741   299
30.5841   283
30.5941   284
30.6041   296
30.6141   264
30.6241   326
30.6341   314
30.6441   290
30.6541   311
30.6641   286
30.6741   279
30.6841   326
30.6941   300
30.7041   298
30.7141   304
30.7241   286
30.7341   310
30.7441   272
30.7541   300
30.7641   295
30.7741   297
30.7841   306
30.7941   308
30.8041   303
30.8141   294
30.8241   287
30.8341   297
30.8441   287
30.8541   275
30.8641   270
30.8741   267
30.8841   285
30.8941   267
30.9041   280
30.9141   266
30.9241   265
30.9341   280
30.9441   254
30.9541   287
30.9641   276
30.9741   296
30.9841   284
30.9941   307
31.0041   284
31.0141   312
31.0241   303
31.0341   298
31.0441   258
31.0541   258
31.0641   279
31.0741   286
31.0841   257
31.0941   287
31.1041   262
31.1141   294
31.1241   295
31.1341   284
31.1441   285
31.1541   288
31.1641   286
31.1741   249
31.1841   267
31.1941   278
31.2041   282
31.2141   268
31.2241   278
31.2341   260
31.2441   255
31.2541   290
31.2641   279
31.2741   254
31.2841   264
31.2941   261
31.3041   257
31.3141   277
31.3241   233
31.3341   250
31.3441   254
31.3541   276
31.3641   265
31.3741   261
31.3841   265
31.3941   242
31.4041   250
31.4141   253
31.4241   238
31.4341   229
31.4441   250
31.4541   262
31.4641   282
31.4741   269
31.4841   259
31.4941   253
31.5041   264
31.5141   240
31.5241   272
31.5341   273
31.5441   243
31.5541   261
31.5641   267
31.5741   253
31.5841   250
31.5941   239
31.6041   230
31.6141   249
31.6241   253
31.6341   250
31.6441   280
31.6541   267
31.6641   258
31.6741   251
31.6841   249
31.6941   256
31.7041   267
31.7141   249
31.7241   266
31.7341   262
31.7441   240
31.7541   243
31.7641   245
31.7741   264
31.7841   258
31.7941   235
31.8041   251
31.8141   247
31.8241   263
31.8341   263
31.8441   235
31.8541   244
31.8641   253
31.8741   225
31.8841   247
31.8941   256
31.9041   263
31.9141   251
31.9241   207
31.9341   227
31.9441   240
31.9541   231
31.9641   242
31.9741   241
31.9841   254
31.9941   239
32.0041   246
32.0141   238
32.0241   243
32.0341   249
32.0441   235
32.0541   240
32.0641   232
32.0741   235
32.0841   230
32.0941   272
32.1041   230
32.1141   227
32.1241   258
32.1341   235
32.1441   230
32.1541   254
32.1641   232
32.1741   238
32.1841   224
32.1941   250
32.2041   230
32.2141   219
32.2241   249
32.2341   217
32.2441   216
32.2541   250
32.2641   250
32.2741   218
32.2841   249
32.2941   235
32.3041   215
32.3141   257
32.3241   216
32.3341   226
32.3441   265
32.3541   242
32.3641   225
32.3741   218
32.3841   242
32.3941   218
32.4041   210
32.4141   212
32.4241   224
32.4341   222
32.4441   239
32.4541   246
32.4641   249
32.4741   224
32.4841   224
32.4941   229
32.5041   229
32.5141   231
32.5241   239
32.5341   224
32.5441   244
32.5541   216
32.5641   194
32.5741   215
32.5841   220
32.5941   224
32.6041   214
32.6141   228
32.6241   206
32.6341   210
32.6441   217
32.6541   229
32.6641   216
32.6741   221
32.6841   203
32.6941   203
32.7041   219
32.7141   189
32.7241   197
32.7341   209
32.7441   215
32.7541   210
32.7641   192
32.7741   216
32.7841   203
32.7941   198
32.8041   213
32.8141   205
32.8241   190
32.8341   198
32.8441   194
32.8541   203
32.8641   197
32.8741   219
32.8841   218
32.8941   210
32.9041   214
32.9141   232
32.9241   210
32.9341   243
32.9441   189
32.9541   226
32.9641   199
32.9741   211
32.9841   198
32.9941   214
33.0041   207
33.0141   208
33.0241   203
33.0341   202
33.0441   206
33.0541   209
33.0641   206
33.0741   218
33.0841   190
33.0941   195
33.1041   201
33.1141   194
33.1241   203
33.1341   202
33.1441   195
33.1541   209
33.1641   192
33.1741   192
33.1841   234
33.1941   212
33.2041   210
33.2141   202
33.2241   178
33.2341   189
33.2441   192
33.2541   210
33.2641   186
33.2741   174
33.2841   182
33.2941   189
33.3041   189
33.3141   186
33.3241   189
33.3341   197
33.3441   214
33.3541   204
33.3641   196
33.3741   172
33.3841   170
33.3941   195
33.4041   183
33.4141   179
33.4241   200
33.4341   172
33.4441   160
33.4541   183
33.4641   165
33.4741   182
33.4841   201
33.4941   171
33.5041   170
33.5141   173
33.5241   191
33.5341   195
33.5441   188
33.5541   172
33.5641   174
33.5741   186
33.5841   172
33.5941   160
33.6041   168
33.6141   168
33.6241   170
33.6341   176
33.6441   177
33.6541   155
33.6641   170
33.6741   169
33.6841   197
33.6941   175
33.7041   175
33.7141   169
33.7241   182
33.7341   157
33.7441   198
33.7541   155
33.7641   166
33.7741   171
33.7841   165
33.7941   193
33.8041   187
33.8141   177
33.8241   184
33.8341   172
33.8441   161
33.8541   166
33.8641   200
33.8741   165
33.8841   184
33.8941   171
33.9041   170
33.9141   189
33.9241   179
33.9341   159
33.9441   146
33.9541   181
33.9641   178
33.9741   165
33.9841   157
33.9941   160
34.0041   156
34.0141   167
34.0241   168
34.0341   158
34.0441   154
34.0541   155
34.0641   152
34.0741   152
34.0841   139
34.0941   134
34.1041   154
34.1141   185
34.1241   158
34.1341   148
34.1441   162
34.1541   152
34.1641   154
34.1741   162
34.1841   153
34.1941   179
34.2041   150
34.2141   156
34.2241   146
34.2341   152
34.2441   166
34.2541   150
34.2641   145
34.2741   157
34.2841   138
34.2941   145
34.3041   157
34.3141   148
34.3241   164
34.3341   153
34.3441   152
34.3541   161
34.3641   145
34.3741   154
34.3841   148
34.3941   156
34.4041   154
34.4141   154
34.4241   156
34.4341   162
34.4441   166
34.4541   132
34.4641   145
34.4741   150
34.4841   141
34.4941   151
34.5041   165
34.5141   152
34.5241   154
34.5341   144
34.5441   141
34.5541   138
34.5641   137
34.5741   161
34.5841   147
34.5941   132
34.6041   147
34.6141   165
34.6241   136
34.6341   131
34.6441   152
34.6541   138
34.6641   126
34.6741   131
34.6841   164
34.6941   147
34.7041   160
34.7141   152
34.7241   136
34.7341   145
34.7441   145
34.7541   151
34.7641   156
34.7741   144
34.7841   140
34.7941   160
34.8041   133
34.8141   134
34.8241   137
34.8341   124
34.8441   152
34.8541   159
34.8641   144
34.8741   145
34.8841   119
34.8941   132
34.9041   133
34.9141   134
34.9241   130
34.9341   136
34.9441   154
34.9541   146
34.9641   133
34.9741   119
34.9841   141
34.9941   138
35.0041   137
35.0141   136
35.0241   137
35.0341   127
35.0441   130
35.0541   155
35.0641   144
35.0741   136
35.0841   131
35.0941   121
35.1041   131
35.1141   128
35.1241   123
35.1341   129
35.1441   133
35.1541   138
35.1641   121
35.1741   127
35.1841   126
35.1941   130
35.2041   122
35.2141   149
35.2241   149
35.2341   140
35.2441   128
35.2541   121
35.2641   155
35.2741   121
35.2841   121
35.2941   116
35.3041   133
35.3141   133
35.3241   124
35.3341   123
35.3441   133
35.3541   123
35.3641   121
35.3741   108
35.3841   132
35.3941   116
35.4041   125
35.4141   113
35.4241   126
35.4341   135
35.4441   121
35.4541   107
35.4641   140
35.4741   112
35.4841   106
35.4941   125
35.5041   126
35.5141   114
35.5241   129
35.5341   102
35.5441    95
35.5541   122
35.5641   115
35.5741   121
35.5841   120
35.5941   131
35.6041   122
35.6141   114
35.6241   117
35.6341   109
35.6441   114
35.6541   125
35.6641   142
35.6741   121
35.6841   143
35.6941   110
35.7041   111
35.7141   113
35.7241   112
35.7341   123
35.7441   110
35.7541   123
35.7641   102
35.7741   125
35.7841    98
35.7941    93
35.8041   119
35.8141   108
35.8241   118
35.8341    90
35.8441   107
35.8541   111
35.8641   123
35.8741   114
35.8841   122
35.8941   103
35.9041    99
35.9141   120
35.9241   130
35.9341    89
35.9441   120
35.9541   101
35.9641   106
35.9741   108
35.9841   117
35.9941    98
36.0041   112
36.0141   123
36.0241   120
36.0341   116
36.0441   119
36.0541   103
36.0641   108
36.0741   102
36.0841    93
36.0941   117
36.1041   102
36.1141   113
36.1241    93
36.1341   117
36.1441    96
36.1541   107
36.1641    85
36.1741    99
36.1841   130
36.1941    98
36.2041   102
36.2141    92
36.2241   111
36.2341   107
36.2441    95
36.2541   116
36.2641   100
36.2741    92
36.2841   107
36.2941   107
36.3041   123
36.3141   119
36.3241   113
36.3341   101
36.3441    89
36.3541   115
36.3641   137
36.3741   103
36.3841   102
36.3941   101
36.4041   110
36.4141    90
36.4241    89
36.4341   107
36.4441    87
36.4541    91
36.4641   100
36.4741    95
36.4841    94
36.4941    95
36.5041   102
36.5141    94
36.5241    99
36.5341    98
36.5441    87
36.5541    94
36.5641   115
36.5741    97
36.5841    99
36.5941   102
36.6041    93
36.6141    75
36.6241   101
36.6341   101
36.6441    94
36.6541    90
36.6641   106
36.6741    89
36.6841    86
36.6941    95
36.7041    93
36.7141    99
36.7241    90
36.7341    81
36.7441    91
36.7541    88
36.7641    89
36.7741    90
36.7841    85
36.7941    90
36.8041    96
36.8141    79
36.8241    99
36.8341    89
36.8441   118
36.8541    86
36.8641    96
36.8741    90
36.8841    90
36.8941    96
36.9041    94
36.9141    80
36.9241    69
36.9341    88
36.9441   103
36.9541    83
36.9641    85
36.9741    95
36.9841    95
36.9941    88
37.0041    97
37.0141    89
37.0241    84
37.0341    95
37.0441    75
37.0541    84
37.0641    89
37.0741    90
37.0841    80
37.0941    76
37.1041    76
37.1141    86
37.1241    73
37.1341    98
37.1441    74
37.1541    68
37.1641    77
37.1741    82
37.1841    86
37.1941    75
37.2041    94
37.2141    93
37.2241    68
37.2341    82
37.2441    70
37.2541    74
37.2641    84
37.2741    87
37.2841    83
37.2941    82
37.3041    58
37.3141    87
37.3241    78
37.3341    71
37.3441    62
37.3541    99
37.3641    90
37.3741    96
37.3841    87
37.3941   103
37.4041    58
37.4141    76
37.4241    75
37.4341    66
37.4441    76
37.4541    66
37.4641    94
37.4741    80
37.4841    53
37.4941    69
37.5041    74
37.5141    78
37.5241    76
37.5341    78
37.5441    64
37.5541    77
37.5641    80
37.5741    76
37.5841    88
37.5941    69
37.6041    64
37.6141    67
37.6241    78
37.6341    96
37.6441    72
37.6541    68
37.6641    72
37.6741    59
37.6841    76
37.6941    73
37.7041    75
37.7141    75
37.7241    81
37.7341    67
37.7441    78
37.7541    69
37.7641    65
37.7741    68
37.7841    70
37.7941    77
37.8041    67
37.8141    68
37.8241    75
37.8341    68
37.8441    63
37.8541    72
37.8641    76
37.8741    56
37.8841    71
37.8941    78
37.9041    60
37.9141    54
37.9241    63
37.9341    61
37.9441    78
37.9541    62
37.9641    59
37.9741    71
37.9841    69
37.9941    82
38.0041    67
38.0141    67
38.0241    63
38.0341    65
38.0441    58
38.0541    63
38.0641    58
38.0741    66
38.0841    47
38.0941    57
38.1041    70
38.1141    76
38.1241    79
38.1341    57
38.1441    66
38.1541    64
38.1641    58
38.1741    66
38.1841    65
38.1941    53
38.2041    62
38.2141    56
38.2241    65
38.2341    54
38.2441    52
38.2541    57
38.2641    48
38.2741    66
38.2841    60
38.2941    68
38.3041    50
38.3141    61
38.3241    64
38.3341    81
38.3441    63
38.3541    51
38.3641    71
38.3741    56
38.3841    55
38.3941    59
38.4041    60
38.4141    47
38.4241    69
38.4341    59
38.4441    61
38.4541    56
38.4641    67
38.4741    59
38.4841    56
38.4941    60
38.5041    56
38.5141    60
38.5241    64
38.5341    59
38.5441    51
38.5541    55
38.5641    66
38.5741    57
38.5841    46
38.5941    50
38.6041    58
38.6141    58
38.6241    64
38.6341    41
38.6441    54
38.6541    43
38.6641    53
38.6741    46
38.6841    62
38.6941    57
38.7041    60
38.7141    54
38.7241    52
38.7341    58
38.7441    56
38.7541    61
38.7641    46
38.7741    44
38.7841    56
38.7941    61
38.8041    48
38.8141    39
38.8241    45
38.8341    53
38.8441    57
38.8541    49
38.8641    44
38.8741    36
38.8841    61
38.8941    47
38.9041    45
38.9141    59
38.9241    33
38.9341    45
38.9441    28
38.9541    52
38.9641    50
38.9741    42
38.9841    51
38.9941    52
39.0041    44
39.0141    40
39.0241    56
39.0341    54
39.0441    39
39.0541    48
39.0641    53
39.0741    46
39.0841    39
39.0941    36
39.1041    48
39.1141    57
39.1241    54
39.1341    40
39.1441    42
39.1541    43
39.1641    48
39.1741    43
39.1841    44
39.1941    47
39.2041    43
39.2141    41
39.2241    48
39.2341    38
39.2441    47
39.2541    37
39.2641    45
39.2741    38
39.2841    41
39.2941    34
39.3041    47
39.3141    40
39.3241    34
39.3341    38
39.3441    44
39.3541    32
39.3641    49
39.3741    50
39.3841    37
39.3941    31
39.4041    31
39.4141    47
39.4241    49
39.4341    41
39.4441    34
39.4541    43
39.4641    35
39.4741    32
39.4841    33
39.4941    39
39.5041    45
39.5141    44
39.5241    47
39.5341    48
39.5441    39
39.5541    39
39.5641    52
39.5741    35
39.5841    28
39.5941    40
39.6041    41
39.6141    42
39.6241    42
39.6341    37
39.6441    37
39.6541    43
39.6641    44
39.6741    46
39.6841    45
39.6941    54
39.7041    32
39.7141    29
39.7241    39
39.7341    31
39.7441    46
39.7541    26
39.7641    41
39.7741    36
39.7841    22
39.7941    42
39.8041    28
39.8141    36
39.8241    29
39.8341    30
39.8441    49
39.8541    34
39.8641    33
39.8741    33
39.8841    35
39.8941    28
39.9041    32
39.9141    37
39.9241    43
39.9341    27
39.9441    43
39.9541    37
39.9641    40
39.9741    33
39.9841    31
