Bruker Nano GmbH Berlin, Germany
Esprit 1.9

Date: 5/14/2021 1:34:18 PM
Real time: 20322
Life time: 19112
Pulse density: 85900


Detector type: XFlash 430
Window type: Custom type
Detector thickness: 0.45
Si dead layer:0.029

Calibration, lin.: 10
Calibration, abs.: -955.9
Mn FWHM: 137.05
Fano factor: 0.121
Channels: 4095

Energy Counts
-0.9559     0
-0.9459     0
-0.9359     0
-0.9259     0
-0.9159     0
-0.9059     0
-0.8959     0
-0.8859     0
-0.8759     0
-0.8659     0
-0.8559     0
-0.8459     0
-0.8359     0
-0.8259     0
-0.8159     0
-0.8059     0
-0.7959     0
-0.7859     0
-0.7759     0
-0.7659     0
-0.7559     0
-0.7459     0
-0.7359     0
-0.7259     0
-0.7159     0
-0.7059     0
-0.6959     0
-0.6859     0
-0.6759     0
-0.6659     0
-0.6559     0
-0.6459     0
-0.6359     0
-0.6259     0
-0.6159     0
-0.6059     0
-0.5959     0
-0.5859     0
-0.5759     0
-0.5659     0
-0.5559     0
-0.5459     0
-0.5359     0
-0.5259     0
-0.5159     0
-0.5059     0
-0.4959     0
-0.4859     0
-0.4759     0
-0.4659     0
-0.4559     0
-0.4459     0
-0.4359     0
-0.4259     0
-0.4159     0
-0.4059     0
-0.3959     0
-0.3859     0
-0.3759     0
-0.3659     0
-0.3559     0
-0.3459     0
-0.3359     0
-0.3259     0
-0.3159     0
-0.3059     0
-0.2959     0
-0.2859     0
-0.2759     0
-0.2659     0
-0.2559     0
-0.2459     0
-0.2359     0
-0.2259     0
-0.2159     0
-0.2059     0
-0.1959     0
-0.1859     0
-0.1759     0
-0.1659     0
-0.1559     0
-0.1459     0
-0.1359     0
-0.1259     1
-0.1159     1
-0.1059    15
-0.0959    55
-0.0859   225
-0.0759   733
-0.0659  2136
-0.0559  5499
-0.0459 12207
-0.0359 22855
-0.0259 36408
-0.0159 49627
-0.0059 58804
 0.0041 58984
 0.0141 50600
 0.0241 37543
 0.0341 23707
 0.0441 12723
 0.0541  5996
 0.0641  2435
 0.0741   811
 0.0841   267
 0.0941    66
 0.1041    22
 0.1141    15
 0.1241     7
 0.1341     5
 0.1441     6
 0.1541     4
 0.1641     5
 0.1741     2
 0.1841   167
 0.1941   339
 0.2041   312
 0.2141   302
 0.2241   310
 0.2341   324
 0.2441   300
 0.2541   315
 0.2641   298
 0.2741   316
 0.2841   317
 0.2941   310
 0.3041   308
 0.3141   313
 0.3241   279
 0.3341   287
 0.3441   296
 0.3541   282
 0.3641   292
 0.3741   313
 0.3841   316
 0.3941   287
 0.4041   274
 0.4141   267
 0.4241   255
 0.4341   283
 0.4441   276
 0.4541   270
 0.4641   247
 0.4741   246
 0.4841   269
 0.4941   284
 0.5041   257
 0.5141   270
 0.5241   278
 0.5341   274
 0.5441   248
 0.5541   237
 0.5641   258
 0.5741   254
 0.5841   253
 0.5941   243
 0.6041   237
 0.6141   252
 0.6241   239
 0.6341   230
 0.6441   252
 0.6541   264
 0.6641   238
 0.6741   221
 0.6841   236
 0.6941   239
 0.7041   226
 0.7141   220
 0.7241   227
 0.7341   227
 0.7441   215
 0.7541   217
 0.7641   223
 0.7741   227
 0.7841   232
 0.7941   214
 0.8041   226
 0.8141   241
 0.8241   244
 0.8341   232
 0.8441   220
 0.8541   232
 0.8641   215
 0.8741   224
 0.8841   248
 0.8941   230
 0.9041   226
 0.9141   211
 0.9241   215
 0.9341   209
 0.9441   188
 0.9541   209
 0.9641   213
 0.9741   207
 0.9841   206
 0.9941   204
 1.0041   198
 1.0141   209
 1.0241   203
 1.0341   192
 1.0441   208
 1.0541   224
 1.0641   204
 1.0741   210
 1.0841   189
 1.0941   187
 1.1041   187
 1.1141   186
 1.1241   192
 1.1341   195
 1.1441   194
 1.1541   203
 1.1641   180
 1.1741   173
 1.1841   186
 1.1941   203
 1.2041   197
 1.2141   203
 1.2241   202
 1.2341   197
 1.2441   182
 1.2541   198
 1.2641   195
 1.2741   179
 1.2841   156
 1.2941   186
 1.3041   171
 1.3141   177
 1.3241   186
 1.3341   192
 1.3441   185
 1.3541   188
 1.3641   177
 1.3741   180
 1.3841   190
 1.3941   208
 1.4041   184
 1.4141   166
 1.4241   165
 1.4341   179
 1.4441   183
 1.4541   191
 1.4641   202
 1.4741   187
 1.4841   188
 1.4941   206
 1.5041   173
 1.5141   163
 1.5241   160
 1.5341   179
 1.5441   196
 1.5541   177
 1.5641   219
 1.5741   198
 1.5841   178
 1.5941   174
 1.6041   187
 1.6141   185
 1.6241   155
 1.6341   170
 1.6441   169
 1.6541   213
 1.6641   232
 1.6741   297
 1.6841   382
 1.6941   472
 1.7041   513
 1.7141   597
 1.7241   682
 1.7341   728
 1.7441   770
 1.7541   692
 1.7641   622
 1.7741   506
 1.7841   455
 1.7941   379
 1.8041   325
 1.8141   288
 1.8241   261
 1.8341   243
 1.8441   221
 1.8541   221
 1.8641   181
 1.8741   208
 1.8841   183
 1.8941   186
 1.9041   180
 1.9141   180
 1.9241   187
 1.9341   189
 1.9441   168
 1.9541   171
 1.9641   177
 1.9741   191
 1.9841   208
 1.9941   220
 2.0041   232
 2.0141   231
 2.0241   199
 2.0341   209
 2.0441   208
 2.0541   209
 2.0641   195
 2.0741   190
 2.0841   188
 2.0941   174
 2.1041   159
 2.1141   137
 2.1241   152
 2.1341   173
 2.1441   147
 2.1541   167
 2.1641   173
 2.1741   157
 2.1841   146
 2.1941   143
 2.2041   158
 2.2141   140
 2.2241   165
 2.2341   159
 2.2441   164
 2.2541   166
 2.2641   150
 2.2741   174
 2.2841   176
 2.2941   153
 2.3041   174
 2.3141   145
 2.3241   148
 2.3341   164
 2.3441   165
 2.3541   150
 2.3641   139
 2.3741   141
 2.3841   144
 2.3941   133
 2.4041   135
 2.4141   122
 2.4241   147
 2.4341   142
 2.4441   157
 2.4541   143
 2.4641   161
 2.4741   137
 2.4841   144
 2.4941   125
 2.5041   153
 2.5141   143
 2.5241   150
 2.5341   134
 2.5441   155
 2.5541   143
 2.5641   179
 2.5741   152
 2.5841   141
 2.5941   136
 2.6041   141
 2.6141   142
 2.6241   130
 2.6341   134
 2.6441   130
 2.6541   145
 2.6641   135
 2.6741   135
 2.6841   119
 2.6941   116
 2.7041   140
 2.7141   106
 2.7241   130
 2.7341   137
 2.7441   127
 2.7541   140
 2.7641   133
 2.7741   144
 2.7841   124
 2.7941   123
 2.8041   140
 2.8141   142
 2.8241   131
 2.8341   148
 2.8441   150
 2.8541   161
 2.8641   149
 2.8741   129
 2.8841   155
 2.8941   143
 2.9041   115
 2.9141   139
 2.9241   127
 2.9341   113
 2.9441   104
 2.9541   111
 2.9641   105
 2.9741    98
 2.9841   133
 2.9941   109
 3.0041   117
 3.0141   119
 3.0241   130
 3.0341   128
 3.0441   109
 3.0541   134
 3.0641   124
 3.0741   118
 3.0841   116
 3.0941    95
 3.1041   111
 3.1141   123
 3.1241   105
 3.1341   125
 3.1441   112
 3.1541   110
 3.1641   120
 3.1741   114
 3.1841   125
 3.1941   113
 3.2041   110
 3.2141   133
 3.2241   128
 3.2341   117
 3.2441   140
 3.2541   185
 3.2641   159
 3.2741   183
 3.2841   198
 3.2941   225
 3.3041   221
 3.3141   233
 3.3241   204
 3.3341   189
 3.3441   206
 3.3541   170
 3.3641   136
 3.3741   153
 3.3841   139
 3.3941   124
 3.4041   142
 3.4141   112
 3.4241   119
 3.4341    92
 3.4441   108
 3.4541   106
 3.4641    96
 3.4741   108
 3.4841   106
 3.4941   105
 3.5041   116
 3.5141   109
 3.5241   114
 3.5341   111
 3.5441   122
 3.5541   139
 3.5641   152
 3.5741   195
 3.5841   236
 3.5941   273
 3.6041   362
 3.6141   440
 3.6241   548
 3.6341   691
 3.6441   837
 3.6541  1005
 3.6641  1077
 3.6741  1248
 3.6841  1218
 3.6941  1297
 3.7041  1236
 3.7141  1077
 3.7241  1021
 3.7341   830
 3.7441   728
 3.7541   555
 3.7641   444
 3.7741   341
 3.7841   246
 3.7941   218
 3.8041   170
 3.8141   131
 3.8241   119
 3.8341   102
 3.8441    84
 3.8541   100
 3.8641    84
 3.8741    87
 3.8841    86
 3.8941   107
 3.9041   127
 3.9141   122
 3.9241   105
 3.9341   135
 3.9441   148
 3.9541   180
 3.9641   201
 3.9741   208
 3.9841   229
 3.9941   245
 4.0041   256
 4.0141   265
 4.0241   288
 4.0341   256
 4.0441   221
 4.0541   226
 4.0641   209
 4.0741   171
 4.0841   139
 4.0941   123
 4.1041   119
 4.1141   108
 4.1241    88
 4.1341    87
 4.1441   102
 4.1541    77
 4.1641    79
 4.1741    76
 4.1841    73
 4.1941    83
 4.2041    74
 4.2141    72
 4.2241    88
 4.2341    73
 4.2441    84
 4.2541    73
 4.2641    72
 4.2741    65
 4.2841    81
 4.2941    76
 4.3041    70
 4.3141    75
 4.3241    62
 4.3341    69
 4.3441    77
 4.3541    81
 4.3641    86
 4.3741    85
 4.3841    97
 4.3941   105
 4.4041   123
 4.4141   130
 4.4241   156
 4.4341   187
 4.4441   230
 4.4541   257
 4.4641   283
 4.4741   293
 4.4841   336
 4.4941   383
 4.5041   379
 4.5141   371
 4.5241   365
 4.5341   324
 4.5441   312
 4.5541   280
 4.5641   215
 4.5741   209
 4.5841   185
 4.5941   158
 4.6041   119
 4.6141   131
 4.6241   119
 4.6341    96
 4.6441    93
 4.6541    99
 4.6641   100
 4.6741    91
 4.6841    97
 4.6941    78
 4.7041   100
 4.7141    81
 4.7241    81
 4.7341    90
 4.7441    91
 4.7541    92
 4.7641    91
 4.7741   108
 4.7841    95
 4.7941   100
 4.8041    93
 4.8141   103
 4.8241   103
 4.8341   112
 4.8441   118
 4.8541   122
 4.8641   118
 4.8741   134
 4.8841   139
 4.8941   126
 4.9041   142
 4.9141   133
 4.9241   159
 4.9341   143
 4.9441   143
 4.9541   128
 4.9641   135
 4.9741   125
 4.9841   127
 4.9941   132
 5.0041   110
 5.0141   110
 5.0241   108
 5.0341   101
 5.0441    84
 5.0541    89
 5.0641    75
 5.0741    81
 5.0841    81
 5.0941    82
 5.1041   118
 5.1141    88
 5.1241    97
 5.1341    93
 5.1441    83
 5.1541    89
 5.1641    87
 5.1741    89
 5.1841    98
 5.1941   104
 5.2041    91
 5.2141    92
 5.2241    84
 5.2341    95
 5.2441    77
 5.2541    84
 5.2641    85
 5.2741    86
 5.2841    74
 5.2941    82
 5.3041   100
 5.3141   100
 5.3241   114
 5.3341   110
 5.3441    86
 5.3541   111
 5.3641   124
 5.3741   108
 5.3841   130
 5.3941   153
 5.4041   132
 5.4141   123
 5.4241   133
 5.4341   133
 5.4441   105
 5.4541   102
 5.4641   128
 5.4741   112
 5.4841    99
 5.4941   119
 5.5041   106
 5.5141    87
 5.5241    93
 5.5341    95
 5.5441    94
 5.5541    90
 5.5641    78
 5.5741    89
 5.5841    90
 5.5941    94
 5.6041    94
 5.6141   104
 5.6241    88
 5.6341    86
 5.6441    85
 5.6541   116
 5.6641    87
 5.6741    92
 5.6841   104
 5.6941   100
 5.7041    95
 5.7141    95
 5.7241   104
 5.7341   103
 5.7441   110
 5.7541   122
 5.7641   120
 5.7741   136
 5.7841   155
 5.7941   193
 5.8041   181
 5.8141   224
 5.8241   227
 5.8341   238
 5.8441   288
 5.8541   319
 5.8641   327
 5.8741   369
 5.8841   369
 5.8941   400
 5.9041   382
 5.9141   375
 5.9241   345
 5.9341   300
 5.9441   300
 5.9541   284
 5.9641   260
 5.9741   207
 5.9841   185
 5.9941   161
 6.0041   136
 6.0141   146
 6.0241   133
 6.0341   123
 6.0441   146
 6.0541   120
 6.0641   110
 6.0741    99
 6.0841   116
 6.0941   120
 6.1041   116
 6.1141   132
 6.1241   121
 6.1341   125
 6.1441   154
 6.1541   148
 6.1641   154
 6.1741   164
 6.1841   191
 6.1941   231
 6.2041   250
 6.2141   323
 6.2241   424
 6.2341   549
 6.2441   754
 6.2541  1005
 6.2641  1404
 6.2741  1941
 6.2841  2673
 6.2941  3373
 6.3041  4414
 6.3141  5712
 6.3241  6830
 6.3341  8473
 6.3441  9755
 6.3541 11009
 6.3641 12303
 6.3741 13398
 6.3841 14114
 6.3941 14409
 6.4041 14339
 6.4141 13947
 6.4241 13290
 6.4341 12072
 6.4441 10932
 6.4541  9384
 6.4641  7912
 6.4741  6620
 6.4841  5362
 6.4941  4249
 6.5041  3184
 6.5141  2368
 6.5241  1678
 6.5341  1273
 6.5441   889
 6.5541   627
 6.5641   465
 6.5741   363
 6.5841   270
 6.5941   209
 6.6041   224
 6.6141   185
 6.6241   155
 6.6341   151
 6.6441   153
 6.6541   168
 6.6641   148
 6.6741   152
 6.6841   138
 6.6941   144
 6.7041   144
 6.7141   146
 6.7241   175
 6.7341   138
 6.7441   153
 6.7541   130
 6.7641   144
 6.7741   160
 6.7841   184
 6.7941   182
 6.8041   170
 6.8141   173
 6.8241   190
 6.8341   205
 6.8441   202
 6.8541   198
 6.8641   211
 6.8741   245
 6.8841   270
 6.8941   302
 6.9041   360
 6.9141   408
 6.9241   513
 6.9341   605
 6.9441   728
 6.9541   880
 6.9641  1034
 6.9741  1186
 6.9841  1432
 6.9941  1674
 7.0041  1892
 7.0141  2077
 7.0241  2198
 7.0341  2314
 7.0441  2442
 7.0541  2524
 7.0641  2497
 7.0741  2343
 7.0841  2253
 7.0941  2047
 7.1041  1767
 7.1141  1609
 7.1241  1483
 7.1341  1200
 7.1441  1009
 7.1541   837
 7.1641   671
 7.1741   609
 7.1841   510
 7.1941   366
 7.2041   334
 7.2141   285
 7.2241   202
 7.2341   192
 7.2441   217
 7.2541   203
 7.2641   206
 7.2741   229
 7.2841   203
 7.2941   225
 7.3041   212
 7.3141   210
 7.3241   243
 7.3341   236
 7.3441   277
 7.3541   243
 7.3641   267
 7.3741   257
 7.3841   302
 7.3941   282
 7.4041   303
 7.4141   293
 7.4241   275
 7.4341   288
 7.4441   324
 7.4541   301
 7.4641   262
 7.4741   267
 7.4841   286
 7.4941   293
 7.5041   273
 7.5141   236
 7.5241   216
 7.5341   238
 7.5441   206
 7.5541   191
 7.5641   210
 7.5741   189
 7.5841   219
 7.5941   190
 7.6041   176
 7.6141   179
 7.6241   172
 7.6341   188
 7.6441   196
 7.6541   188
 7.6641   195
 7.6741   217
 7.6841   192
 7.6941   211
 7.7041   207
 7.7141   211
 7.7241   200
 7.7341   221
 7.7441   238
 7.7541   220
 7.7641   251
 7.7741   222
 7.7841   214
 7.7941   249
 7.8041   238
 7.8141   246
 7.8241   269
 7.8341   248
 7.8441   283
 7.8541   314
 7.8641   320
 7.8741   301
 7.8841   316
 7.8941   303
 7.9041   324
 7.9141   344
 7.9241   359
 7.9341   399
 7.9441   403
 7.9541   407
 7.9641   447
 7.9741   486
 7.9841   504
 7.9941   558
 8.0041   522
 8.0141   676
 8.0241   681
 8.0341   750
 8.0441   762
 8.0541   832
 8.0641   900
 8.0741   954
 8.0841   977
 8.0941  1017
 8.1041  1086
 8.1141  1137
 8.1241  1208
 8.1341  1238
 8.1441  1291
 8.1541  1271
 8.1641  1288
 8.1741  1296
 8.1841  1301
 8.1941  1353
 8.2041  1354
 8.2141  1389
 8.2241  1392
 8.2341  1423
 8.2441  1429
 8.2541  1405
 8.2641  1522
 8.2741  1656
 8.2841  1709
 8.2941  1802
 8.3041  1992
 8.3141  2119
 8.3241  2265
 8.3341  2380
 8.3441  2638
 8.3541  2772
 8.3641  2774
 8.3741  2917
 8.3841  2914
 8.3941  2966
 8.4041  2789
 8.4141  2719
 8.4241  2597
 8.4341  2393
 8.4441  2263
 8.4541  1946
 8.4641  1782
 8.4741  1533
 8.4841  1343
 8.4941  1140
 8.5041  1006
 8.5141   866
 8.5241   755
 8.5341   663
 8.5441   619
 8.5541   531
 8.5641   519
 8.5741   518
 8.5841   470
 8.5941   490
 8.6041   476
 8.6141   498
 8.6241   526
 8.6341   468
 8.6441   502
 8.6541   548
 8.6641   501
 8.6741   489
 8.6841   485
 8.6941   443
 8.7041   443
 8.7141   398
 8.7241   407
 8.7341   344
 8.7441   335
 8.7541   348
 8.7641   321
 8.7741   330
 8.7841   314
 8.7941   292
 8.8041   303
 8.8141   310
 8.8241   333
 8.8341   303
 8.8441   304
 8.8541   278
 8.8641   331
 8.8741   290
 8.8841   329
 8.8941   296
 8.9041   327
 8.9141   311
 8.9241   303
 8.9341   348
 8.9441   302
 8.9541   312
 8.9641   329
 8.9741   353
 8.9841   364
 8.9941   357
 9.0041   358
 9.0141   334
 9.0241   380
 9.0341   385
 9.0441   423
 9.0541   385
 9.0641   410
 9.0741   460
 9.0841   470
 9.0941   468
 9.1041   460
 9.1141   493
 9.1241   526
 9.1341   538
 9.1441   543
 9.1541   580
 9.1641   594
 9.1741   641
 9.1841   680
 9.1941   705
 9.2041   716
 9.2141   780
 9.2241   798
 9.2341   884
 9.2441   905
 9.2541   952
 9.2641  1005
 9.2741  1023
 9.2841  1056
 9.2941  1135
 9.3041  1196
 9.3141  1184
 9.3241  1214
 9.3341  1231
 9.3441  1311
 9.3541  1293
 9.3641  1361
 9.3741  1334
 9.3841  1362
 9.3941  1412
 9.4041  1417
 9.4141  1419
 9.4241  1407
 9.4341  1397
 9.4441  1430
 9.4541  1437
 9.4641  1469
 9.4741  1537
 9.4841  1497
 9.4941  1638
 9.5041  1631
 9.5141  1651
 9.5241  1698
 9.5341  1707
 9.5441  1862
 9.5541  1915
 9.5641  1929
 9.5741  2028
 9.5841  2109
 9.5941  2217
 9.6041  2380
 9.6141  2460
 9.6241  2597
 9.6341  2676
 9.6441  2778
 9.6541  2696
 9.6641  2774
 9.6741  2713
 9.6841  2614
 9.6941  2577
 9.7041  2419
 9.7141  2343
 9.7241  2246
 9.7341  2112
 9.7441  2005
 9.7541  1869
 9.7641  1678
 9.7741  1585
 9.7841  1446
 9.7941  1386
 9.8041  1268
 9.8141  1212
 9.8241  1165
 9.8341  1129
 9.8441  1158
 9.8541  1117
 9.8641  1142
 9.8741  1168
 9.8841  1205
 9.8941  1266
 9.9041  1254
 9.9141  1381
 9.9241  1377
 9.9341  1340
 9.9441  1301
 9.9541  1374
 9.9641  1354
 9.9741  1326
 9.9841  1257
 9.9941  1247
10.0041  1161
10.0141  1068
10.0241  1011
10.0341   952
10.0441   851
10.0541   751
10.0641   693
10.0741   602
10.0841   538
10.0941   476
10.1041   452
10.1141   388
10.1241   343
10.1341   331
10.1441   305
10.1541   288
10.1641   282
10.1741   267
10.1841   280
10.1941   251
10.2041   235
10.2141   218
10.2241   211
10.2341   231
10.2441   202
10.2541   207
10.2641   193
10.2741   195
10.2841   179
10.2941   189
10.3041   178
10.3141   166
10.3241   177
10.3341   172
10.3441   161
10.3541   160
10.3641   178
10.3741   167
10.3841   176
10.3941   187
10.4041   192
10.4141   196
10.4241   178
10.4341   169
10.4441   185
10.4541   177
10.4641   191
10.4741   190
10.4841   196
10.4941   191
10.5041   178
10.5141   209
10.5241   219
10.5341   206
10.5441   191
10.5541   188
10.5641   189
10.5741   193
10.5841   212
10.5941   206
10.6041   236
10.6141   212
10.6241   204
10.6341   207
10.6441   210
10.6541   205
10.6641   211
10.6741   203
10.6841   202
10.6941   224
10.7041   238
10.7141   246
10.7241   231
10.7341   223
10.7441   253
10.7541   235
10.7641   244
10.7741   242
10.7841   277
10.7941   268
10.8041   252
10.8141   282
10.8241   289
10.8341   269
10.8441   284
10.8541   274
10.8641   272
10.8741   278
10.8841   308
10.8941   306
10.9041   309
10.9141   307
10.9241   284
10.9341   260
10.9441   290
10.9541   313
10.9641   314
10.9741   318
10.9841   284
10.9941   303
11.0041   284
11.0141   270
11.0241   248
11.0341   278
11.0441   277
11.0541   261
11.0641   240
11.0741   266
11.0841   257
11.0941   265
11.1041   240
11.1141   247
11.1241   244
11.1341   264
11.1441   270
11.1541   286
11.1641   298
11.1741   300
11.1841   302
11.1941   323
11.2041   344
11.2141   356
11.2241   343
11.2341   390
11.2441   401
11.2541   415
11.2641   417
11.2741   412
11.2841   396
11.2941   391
11.3041   403
11.3141   370
11.3241   357
11.3341   334
11.3441   335
11.3541   326
11.3641   324
11.3741   323
11.3841   315
11.3941   270
11.4041   266
11.4141   256
11.4241   240
11.4341   234
11.4441   231
11.4541   220
11.4641   197
11.4741   179
11.4841   203
11.4941   211
11.5041   202
11.5141   201
11.5241   212
11.5341   223
11.5441   237
11.5541   217
11.5641   202
11.5741   215
11.5841   218
11.5941   207
11.6041   219
11.6141   221
11.6241   226
11.6341   236
11.6441   236
11.6541   245
11.6641   226
11.6741   217
11.6841   215
11.6941   224
11.7041   216
11.7141   201
11.7241   185
11.7341   172
11.7441   181
11.7541   177
11.7641   165
11.7741   191
11.7841   184
11.7941   170
11.8041   175
11.8141   175
11.8241   160
11.8341   162
11.8441   164
11.8541   157
11.8641   146
11.8741   146
11.8841   170
11.8941   167
11.9041   161
11.9141   142
11.9241   154
11.9341   172
11.9441   179
11.9541   169
11.9641   171
11.9741   165
11.9841   157
11.9941   149
12.0041   170
12.0141   180
12.0241   167
12.0341   163
12.0441   173
12.0541   167
12.0641   173
12.0741   169
12.0841   168
12.0941   179
12.1041   161
12.1141   157
12.1241   167
12.1341   163
12.1441   154
12.1541   166
12.1641   167
12.1741   146
12.1841   136
12.1941   148
12.2041   149
12.2141   148
12.2241   150
12.2341   149
12.2441   151
12.2541   137
12.2641   146
12.2741   145
12.2841   151
12.2941   162
12.3041   164
12.3141   162
12.3241   171
12.3341   164
12.3441   145
12.3541   147
12.3641   142
12.3741   145
12.3841   167
12.3941   170
12.4041   157
12.4141   167
12.4241   148
12.4341   150
12.4441   162
12.4541   161
12.4641   163
12.4741   174
12.4841   170
12.4941   168
12.5041   172
12.5141   167
12.5241   157
12.5341   175
12.5441   192
12.5541   202
12.5641   178
12.5741   166
12.5841   176
12.5941   175
12.6041   173
12.6141   176
12.6241   180
12.6341   174
12.6441   179
12.6541   176
12.6641   166
12.6741   167
12.6841   169
12.6941   176
12.7041   172
12.7141   171
12.7241   184
12.7341   176
12.7441   167
12.7541   173
12.7641   170
12.7741   169
12.7841   177
12.7941   181
12.8041   184
12.8141   189
12.8241   189
12.8341   180
12.8441   173
12.8541   176
12.8641   183
12.8741   178
12.8841   169
12.8941   171
12.9041   178
12.9141   179
12.9241   177
12.9341   179
12.9441   185
12.9541   193
12.9641   198
12.9741   197
12.9841   190
12.9941   182
13.0041   173
13.0141   173
13.0241   184
13.0341   186
13.0441   179
13.0541   191
13.0641   189
13.0741   176
13.0841   180
13.0941   195
13.1041   196
13.1141   194
13.1241   199
13.1341   193
13.1441   181
13.1541   184
13.1641   180
13.1741   184
13.1841   209
13.1941   220
13.2041   218
13.2141   223
13.2241   220
13.2341   208
13.2441   219
13.2541   249
13.2641   262
13.2741   268
13.2841   278
13.2941   272
13.3041   266
13.3141   279
13.3241   279
13.3341   295
13.3441   312
13.3541   318
13.3641   307
13.3741   313
13.3841   325
13.3941   316
13.4041   323
13.4141   331
13.4241   315
13.4341   301
13.4441   294
13.4541   279
13.4641   274
13.4741   265
13.4841   242
13.4941   226
13.5041   229
13.5141   234
13.5241   232
13.5341   232
13.5441   229
13.5541   220
13.5641   218
13.5741   218
13.5841   221
13.5941   212
13.6041   203
13.6141   201
13.6241   210
13.6341   232
13.6441   227
13.6541   216
13.6641   220
13.6741   217
13.6841   211
13.6941   216
13.7041   222
13.7141   230
13.7241   234
13.7341   226
13.7441   219
13.7541   230
13.7641   234
13.7741   219
13.7841   227
13.7941   239
13.8041   229
13.8141   230
13.8241   231
13.8341   225
13.8441   227
13.8541   234
13.8641   251
13.8741   244
13.8841   236
13.8941   257
13.9041   273
13.9141   269
13.9241   273
13.9341   293
13.9441   300
13.9541   304
13.9641   339
13.9741   362
13.9841   363
13.9941   383
14.0041   433
14.0141   471
14.0241   522
14.0341   565
14.0441   571
14.0541   625
14.0641   685
14.0741   702
14.0841   738
14.0941   795
14.1041   820
14.1141   834
14.1241   839
14.1341   839
14.1441   849
14.1541   857
14.1641   854
14.1741   816
14.1841   775
14.1941   787
14.2041   783
14.2141   756
14.2241   686
14.2341   610
14.2441   568
14.2541   537
14.2641   518
14.2741   485
14.2841   436
14.2941   404
14.3041   398
14.3141   360
14.3241   360
14.3341   351
14.3441   302
14.3541   282
14.3641   294
14.3741   273
14.3841   250
14.3941   253
14.4041   250
14.4141   248
14.4241   257
14.4341   255
14.4441   252
14.4541   256
14.4641   258
14.4741   246
14.4841   244
14.4941   247
14.5041   246
14.5141   246
14.5241   253
14.5341   258
14.5441   259
14.5541   262
14.5641   262
14.5741   248
14.5841   260
14.5941   279
14.6041   255
14.6141   259
14.6241   264
14.6341   265
14.6441   268
14.6541   246
14.6641   241
14.6741   252
14.6841   262
14.6941   269
14.7041   271
14.7141   277
14.7241   268
14.7341   277
14.7441   282
14.7541   257
14.7641   239
14.7741   253
14.7841   286
14.7941   299
14.8041   268
14.8141   289
14.8241   291
14.8341   286
14.8441   289
14.8541   295
14.8641   304
14.8741   312
14.8841   304
14.8941   293
14.9041   305
14.9141   307
14.9241   303
14.9341   297
14.9441   314
14.9541   329
14.9641   319
14.9741   314
14.9841   297
14.9941   299
15.0041   305
15.0141   307
15.0241   309
15.0341   295
15.0441   287
15.0541   295
15.0641   296
15.0741   291
15.0841   295
15.0941   288
15.1041   295
15.1141   313
15.1241   321
15.1341   313
15.1441   288
15.1541   296
15.1641   307
15.1741   298
15.1841   299
15.1941   291
15.2041   273
15.2141   291
15.2241   282
15.2341   282
15.2441   282
15.2541   292
15.2641   305
15.2741   278
15.2841   286
15.2941   293
15.3041   301
15.3141   305
15.3241   286
15.3341   283
15.3441   286
15.3541   298
15.3641   290
15.3741   304
15.3841   302
15.3941   315
15.4041   300
15.4141   299
15.4241   310
15.4341   319
15.4441   310
15.4541   292
15.4641   315
15.4741   317
15.4841   308
15.4941   308
15.5041   325
15.5141   328
15.5241   339
15.5341   341
15.5441   339
15.5541   337
15.5641   337
15.5741   341
15.5841   338
15.5941   361
15.6041   398
15.6141   387
15.6241   404
15.6341   415
15.6441   428
15.6541   435
15.6641   457
15.6741   493
15.6841   489
15.6941   522
15.7041   539
15.7141   555
15.7241   575
15.7341   548
15.7441   550
15.7541   593
15.7641   602
15.7741   605
15.7841   620
15.7941   608
15.8041   584
15.8141   570
15.8241   584
15.8341   580
15.8441   545
15.8541   528
15.8641   512
15.8741   480
15.8841   499
15.8941   477
15.9041   443
15.9141   454
15.9241   454
15.9341   427
15.9441   394
15.9541   372
15.9641   364
15.9741   368
15.9841   360
15.9941   360
16.0041   367
16.0141   358
16.0241   328
16.0341   339
16.0441   360
16.0541   357
16.0641   345
16.0741   345
16.0841   358
16.0941   350
16.1041   326
16.1141   335
16.1241   367
16.1341   375
16.1441   358
16.1541   345
16.1641   333
16.1741   357
16.1841   345
16.1941   336
16.2041   354
16.2141   348
16.2241   330
16.2341   333
16.2441   332
16.2541   355
16.2641   349
16.2741   355
16.2841   370
16.2941   377
16.3041   363
16.3141   350
16.3241   346
16.3341   331
16.3441   362
16.3541   351
16.3641   352
16.3741   362
16.3841   368
16.3941   348
16.4041   355
16.4141   355
16.4241   341
16.4341   354
16.4441   346
16.4541   356
16.4641   361
16.4741   383
16.4841   386
16.4941   387
16.5041   387
16.5141   382
16.5241   370
16.5341   364
16.5441   374
16.5541   382
16.5641   392
16.5741   383
16.5841   364
16.5941   375
16.6041   368
16.6141   358
16.6241   390
16.6341   406
16.6441   395
16.6541   385
16.6641   401
16.6741   408
16.6841   427
16.6941   397
16.7041   365
16.7141   403
16.7241   365
16.7341   384
16.7441   392
16.7541   385
16.7641   394
16.7741   370
16.7841   373
16.7941   369
16.8041   348
16.8141   365
16.8241   366
16.8341   375
16.8441   386
16.8541   389
16.8641   370
16.8741   379
16.8841   404
16.8941   391
16.9041   383
16.9141   409
16.9241   395
16.9341   371
16.9441   364
16.9541   392
16.9641   392
16.9741   411
16.9841   394
16.9941   392
17.0041   439
17.0141   399
17.0241   380
17.0341   374
17.0441   393
17.0541   406
17.0641   414
17.0741   407
17.0841   395
17.0941   389
17.1041   406
17.1141   391
17.1241   401
17.1341   404
17.1441   400
17.1541   405
17.1641   386
17.1741   410
17.1841   423
17.1941   419
17.2041   411
17.2141   415
17.2241   412
17.2341   405
17.2441   402
17.2541   412
17.2641   433
17.2741   430
17.2841   405
17.2941   407
17.3041   414
17.3141   428
17.3241   402
17.3341   393
17.3441   392
17.3541   397
17.3641   403
17.3741   417
17.3841   411
17.3941   389
17.4041   413
17.4141   421
17.4241   390
17.4341   412
17.4441   437
17.4541   415
17.4641   431
17.4741   435
17.4841   417
17.4941   398
17.5041   429
17.5141   413
17.5241   463
17.5341   459
17.5441   440
17.5541   441
17.5641   441
17.5741   423
17.5841   446
17.5941   455
17.6041   445
17.6141   436
17.6241   443
17.6341   464
17.6441   472
17.6541   460
17.6641   457
17.6741   469
17.6841   459
17.6941   441
17.7041   445
17.7141   474
17.7241   448
17.7341   442
17.7441   453
17.7541   453
17.7641   476
17.7741   469
17.7841   411
17.7941   420
17.8041   417
17.8141   469
17.8241   477
17.8341   413
17.8441   440
17.8541   452
17.8641   446
17.8741   464
17.8841   462
17.8941   471
17.9041   457
17.9141   435
17.9241   438
17.9341   478
17.9441   474
17.9541   468
17.9641   473
17.9741   470
17.9841   445
17.9941   473
18.0041   489
18.0141   480
18.0241   472
18.0341   463
18.0441   470
18.0541   478
18.0641   476
18.0741   434
18.0841   407
18.0941   436
18.1041   486
18.1141   486
18.1241   457
18.1341   428
18.1441   445
18.1541   446
18.1641   477
18.1741   450
18.1841   475
18.1941   505
18.2041   474
18.2141   465
18.2241   491
18.2341   458
18.2441   447
18.2541   478
18.2641   486
18.2741   444
18.2841   462
18.2941   452
18.3041   442
18.3141   477
18.3241   498
18.3341   480
18.3441   493
18.3541   483
18.3641   470
18.3741   481
18.3841   509
18.3941   465
18.4041   494
18.4141   485
18.4241   478
18.4341   489
18.4441   466
18.4541   451
18.4641   457
18.4741   483
18.4841   489
18.4941   463
18.5041   464
18.5141   462
18.5241   439
18.5341   460
18.5441   467
18.5541   475
18.5641   517
18.5741   492
18.5841   484
18.5941   501
18.6041   507
18.6141   502
18.6241   509
18.6341   516
18.6441   513
18.6541   477
18.6641   504
18.6741   546
18.6841   497
18.6941   477
18.7041   465
18.7141   483
18.7241   501
18.7341   493
18.7441   493
18.7541   488
18.7641   500
18.7741   481
18.7841   501
18.7941   505
18.8041   487
18.8141   484
18.8241   510
18.8341   477
18.8441   504
18.8541   497
18.8641   480
18.8741   501
18.8841   485
18.8941   495
18.9041   512
18.9141   527
18.9241   478
18.9341   486
18.9441   482
18.9541   502
18.9641   533
18.9741   503
18.9841   518
18.9941   515
19.0041   488
19.0141   530
19.0241   489
19.0341   469
19.0441   498
19.0541   488
19.0641   512
19.0741   519
19.0841   519
19.0941   515
19.1041   522
19.1141   500
19.1241   516
19.1341   532
19.1441   524
19.1541   505
19.1641   496
19.1741   474
19.1841   492
19.1941   506
19.2041   532
19.2141   505
19.2241   527
19.2341   499
19.2441   526
19.2541   525
19.2641   519
19.2741   506
19.2841   484
19.2941   515
19.3041   490
19.3141   509
19.3241   549
19.3341   550
19.3441   524
19.3541   483
19.3641   475
19.3741   537
19.3841   529
19.3941   515
19.4041   506
19.4141   494
19.4241   481
19.4341   514
19.4441   517
19.4541   516
19.4641   526
19.4741   533
19.4841   532
19.4941   575
19.5041   549
19.5141   519
19.5241   515
19.5341   516
19.5441   528
19.5541   524
19.5641   525
19.5741   510
19.5841   557
19.5941   535
19.6041   543
19.6141   474
19.6241   482
19.6341   515
19.6441   543
19.6541   534
19.6641   543
19.6741   523
19.6841   548
19.6941   476
19.7041   522
19.7141   500
19.7241   516
19.7341   505
19.7441   522
19.7541   523
19.7641   551
19.7741   547
19.7841   558
19.7941   568
19.8041   516
19.8141   503
19.8241   501
19.8341   537
19.8441   573
19.8541   545
19.8641   538
19.8741   546
19.8841   573
19.8941   499
19.9041   548
19.9141   545
19.9241   550
19.9341   574
19.9441   581
19.9541   532
19.9641   505
19.9741   544
19.9841   557
19.9941   541
20.0041   552
20.0141   539
20.0241   562
20.0341   571
20.0441   565
20.0541   535
20.0641   525
20.0741   537
20.0841   549
20.0941   555
20.1041   557
20.1141   518
20.1241   583
20.1341   549
20.1441   550
20.1541   547
20.1641   526
20.1741   532
20.1841   577
20.1941   571
20.2041   537
20.2141   550
20.2241   529
20.2341   540
20.2441   573
20.2541   552
20.2641   559
20.2741   523
20.2841   550
20.2941   535
20.3041   520
20.3141   574
20.3241   596
20.3341   561
20.3441   549
20.3541   557
20.3641   542
20.3741   553
20.3841   546
20.3941   534
20.4041   513
20.4141   524
20.4241   520
20.4341   529
20.4441   558
20.4541   552
20.4641   525
20.4741   556
20.4841   549
20.4941   551
20.5041   548
20.5141   521
20.5241   572
20.5341   573
20.5441   564
20.5541   573
20.5641   577
20.5741   534
20.5841   565
20.5941   540
20.6041   523
20.6141   591
20.6241   542
20.6341   552
20.6441   537
20.6541   533
20.6641   568
20.6741   559
20.6841   588
20.6941   577
20.7041   554
20.7141   571
20.7241   579
20.7341   562
20.7441   594
20.7541   544
20.7641   601
20.7741   561
20.7841   588
20.7941   601
20.8041   561
20.8141   606
20.8241   641
20.8341   532
20.8441   564
20.8541   601
20.8641   605
20.8741   615
20.8841   618
20.8941   644
20.9041   688
20.9141   678
20.9241   673
20.9341   659
20.9441   688
20.9541   683
20.9641   725
20.9741   723
20.9841   758
20.9941   807
21.0041   769
21.0141   767
21.0241   770
21.0341   751
21.0441   778
21.0541   804
21.0641   848
21.0741   837
21.0841   838
21.0941   893
21.1041   869
21.1141   856
21.1241   897
21.1341   885
21.1441   928
21.1541   857
21.1641   832
21.1741   892
21.1841   867
21.1941   833
21.2041   852
21.2141   823
21.2241   751
21.2341   767
21.2441   773
21.2541   781
21.2641   752
21.2741   714
21.2841   702
21.2941   709
21.3041   672
21.3141   664
21.3241   670
21.3341   681
21.3441   602
21.3541   611
21.3641   601
21.3741   576
21.3841   567
21.3941   593
21.4041   597
21.4141   602
21.4241   576
21.4341   555
21.4441   551
21.4541   570
21.4641   577
21.4741   582
21.4841   551
21.4941   577
21.5041   570
21.5141   577
21.5241   557
21.5341   590
21.5441   557
21.5541   572
21.5641   553
21.5741   542
21.5841   580
21.5941   554
21.6041   583
21.6141   565
21.6241   593
21.6341   641
21.6441   589
21.6541   561
21.6641   527
21.6741   565
21.6841   555
21.6941   603
21.7041   555
21.7141   553
21.7241   567
21.7341   548
21.7441   568
21.7541   575
21.7641   545
21.7741   573
21.7841   595
21.7941   575
21.8041   552
21.8141   543
21.8241   568
21.8341   582
21.8441   578
21.8541   569
21.8641   589
21.8741   547
21.8841   585
21.8941   566
21.9041   564
21.9141   571
21.9241   525
21.9341   534
21.9441   563
21.9541   562
21.9641   517
21.9741   578
21.9841   613
21.9941   547
22.0041   563
22.0141   568
22.0241   539
22.0341   563
22.0441   561
22.0541   522
22.0641   577
22.0741   544
22.0841   638
22.0941   557
22.1041   563
22.1141   595
22.1241   599
22.1341   519
22.1441   582
22.1541   557
22.1641   570
22.1741   540
22.1841   577
22.1941   574
22.2041   575
22.2141   605
22.2241   598
22.2341   570
22.2441   556
22.2541   560
22.2641   565
22.2741   577
22.2841   571
22.2941   551
22.3041   608
22.3141   581
22.3241   570
22.3341   538
22.3441   571
22.3541   578
22.3641   509
22.3741   544
22.3841   541
22.3941   579
22.4041   532
22.4141   598
22.4241   578
22.4341   584
22.4441   536
22.4541   550
22.4641   574
22.4741   562
22.4841   567
22.4941   573
22.5041   589
22.5141   562
22.5241   591
22.5341   558
22.5441   557
22.5541   587
22.5641   554
22.5741   586
22.5841   539
22.5941   580
22.6041   573
22.6141   602
22.6241   569
22.6341   537
22.6441   545
22.6541   570
22.6641   563
22.6741   538
22.6841   526
22.6941   544
22.7041   563
22.7141   546
22.7241   564
22.7341   548
22.7441   578
22.7541   537
22.7641   517
22.7741   582
22.7841   562
22.7941   597
22.8041   541
22.8141   560
22.8241   615
22.8341   568
22.8441   552
22.8541   549
22.8641   559
22.8741   567
22.8841   557
22.8941   570
22.9041   585
22.9141   542
22.9241   567
22.9341   556
22.9441   538
22.9541   514
22.9641   576
22.9741   569
22.9841   574
22.9941   561
23.0041   546
23.0141   531
23.0241   547
23.0341   571
23.0441   569
23.0541   550
23.0641   589
23.0741   547
23.0841   589
23.0941   519
23.1041   517
23.1141   532
23.1241   571
23.1341   552
23.1441   556
23.1541   549
23.1641   587
23.1741   531
23.1841   537
23.1941   519
23.2041   568
23.2141   560
23.2241   563
23.2341   542
23.2441   539
23.2541   562
23.2641   523
23.2741   566
23.2841   550
23.2941   562
23.3041   607
23.3141   538
23.3241   538
23.3341   555
23.3441   607
23.3541   546
23.3641   518
23.3741   554
23.3841   611
23.3941   559
23.4041   524
23.4141   510
23.4241   554
23.4341   564
23.4441   563
23.4541   554
23.4641   588
23.4741   579
23.4841   522
23.4941   538
23.5041   548
23.5141   594
23.5241   604
23.5341   587
23.5441   546
23.5541   586
23.5641   580
23.5741   513
23.5841   535
23.5941   566
23.6041   596
23.6141   573
23.6241   572
23.6341   545
23.6441   566
23.6541   570
23.6641   552
23.6741   578
23.6841   605
23.6941   565
23.7041   619
23.7141   547
23.7241   540
23.7341   583
23.7441   619
23.7541   640
23.7641   606
23.7741   598
23.7841   605
23.7941   565
23.8041   624
23.8141   623
23.8241   595
23.8341   607
23.8441   602
23.8541   634
23.8641   565
23.8741   618
23.8841   551
23.8941   598
23.9041   551
23.9141   595
23.9241   565
23.9341   583
23.9441   531
23.9541   567
23.9641   571
23.9741   542
23.9841   560
23.9941   577
24.0041   574
24.0141   511
24.0241   539
24.0341   571
24.0441   545
24.0541   528
24.0641   560
24.0741   535
24.0841   586
24.0941   552
24.1041   535
24.1141   532
24.1241   564
24.1341   564
24.1441   555
24.1541   562
24.1641   530
24.1741   496
24.1841   524
24.1941   541
24.2041   554
24.2141   541
24.2241   534
24.2341   485
24.2441   529
24.2541   562
24.2641   541
24.2741   562
24.2841   519
24.2941   570
24.3041   506
24.3141   486
24.3241   515
24.3341   570
24.3441   519
24.3541   567
24.3641   540
24.3741   508
24.3841   546
24.3941   496
24.4041   515
24.4141   524
24.4241   541
24.4341   537
24.4441   555
24.4541   515
24.4641   534
24.4741   524
24.4841   488
24.4941   497
24.5041   489
24.5141   536
24.5241   558
24.5341   536
24.5441   501
24.5541   543
24.5641   506
24.5741   521
24.5841   527
24.5941   562
24.6041   529
24.6141   554
24.6241   513
24.6341   522
24.6441   518
24.6541   478
24.6641   521
24.6741   484
24.6841   533
24.6941   526
24.7041   527
24.7141   485
24.7241   519
24.7341   515
24.7441   518
24.7541   512
24.7641   515
24.7741   530
24.7841   554
24.7941   545
24.8041   500
24.8141   514
24.8241   491
24.8341   493
24.8441   517
24.8541   471
24.8641   514
24.8741   540
24.8841   487
24.8941   512
24.9041   525
24.9141   547
24.9241   511
24.9341   518
24.9441   486
24.9541   509
24.9641   518
24.9741   478
24.9841   489
24.9941   487
25.0041   559
25.0141   490
25.0241   505
25.0341   514
25.0441   530
25.0541   525
25.0641   535
25.0741   522
25.0841   514
25.0941   553
25.1041   541
25.1141   519
25.1241   550
25.1341   506
25.1441   510
25.1541   535
25.1641   527
25.1741   519
25.1841   499
25.1941   525
25.2041   518
25.2141   527
25.2241   541
25.2341   476
25.2441   497
25.2541   513
25.2641   508
25.2741   479
25.2841   531
25.2941   526
25.3041   551
25.3141   502
25.3241   493
25.3341   510
25.3441   492
25.3541   499
25.3641   472
25.3741   503
25.3841   488
25.3941   523
25.4041   495
25.4141   500
25.4241   510
25.4341   502
25.4441   492
25.4541   478
25.4641   471
25.4741   497
25.4841   473
25.4941   494
25.5041   496
25.5141   457
25.5241   497
25.5341   466
25.5441   482
25.5541   460
25.5641   533
25.5741   510
25.5841   497
25.5941   488
25.6041   436
25.6141   486
25.6241   513
25.6341   480
25.6441   477
25.6541   479
25.6641   450
25.6741   464
25.6841   477
25.6941   504
25.7041   492
25.7141   459
25.7241   483
25.7341   462
25.7441   480
25.7541   481
25.7641   488
25.7741   483
25.7841   491
25.7941   470
25.8041   496
25.8141   509
25.8241   518
25.8341   494
25.8441   502
25.8541   495
25.8641   467
25.8741   458
25.8841   477
25.8941   486
25.9041   487
25.9141   473
25.9241   471
25.9341   499
25.9441   490
25.9541   471
25.9641   455
25.9741   455
25.9841   473
25.9941   468
26.0041   464
26.0141   474
26.0241   474
26.0341   469
26.0441   458
26.0541   499
26.0641   434
26.0741   475
26.0841   459
26.0941   476
26.1041   485
26.1141   449
26.1241   486
26.1341   516
26.1441   451
26.1541   470
26.1641   458
26.1741   457
26.1841   472
26.1941   483
26.2041   478
26.2141   478
26.2241   486
26.2341   489
26.2441   452
26.2541   466
26.2641   469
26.2741   452
26.2841   445
26.2941   477
26.3041   428
26.3141   474
26.3241   513
26.3341   469
26.3441   436
26.3541   462
26.3641   459
26.3741   453
26.3841   434
26.3941   495
26.4041   445
26.4141   449
26.4241   440
26.4341   445
26.4441   428
26.4541   442
26.4641   441
26.4741   463
26.4841   455
26.4941   444
26.5041   461
26.5141   467
26.5241   404
26.5341   469
26.5441   468
26.5541   439
26.5641   430
26.5741   430
26.5841   440
26.5941   460
26.6041   433
26.6141   517
26.6241   447
26.6341   446
26.6441   427
26.6541   436
26.6641   431
26.6741   432
26.6841   443
26.6941   460
26.7041   431
26.7141   457
26.7241   458
26.7341   441
26.7441   454
26.7541   421
26.7641   427
26.7741   437
26.7841   416
26.7941   421
26.8041   441
26.8141   439
26.8241   435
26.8341   459
26.8441   465
26.8541   453
26.8641   451
26.8741   445
26.8841   436
26.8941   458
26.9041   463
26.9141   438
26.9241   414
26.9341   448
26.9441   422
26.9541   436
26.9641   394
26.9741   425
26.9841   437
26.9941   440
27.0041   403
27.0141   452
27.0241   398
27.0341   419
27.0441   426
27.0541   395
27.0641   392
27.0741   420
27.0841   439
27.0941   451
27.1041   462
27.1141   410
27.1241   431
27.1341   448
27.1441   427
27.1541   403
27.1641   418
27.1741   431
27.1841   422
27.1941   403
27.2041   421
27.2141   454
27.2241   436
27.2341   425
27.2441   423
27.2541   428
27.2641   442
27.2741   418
27.2841   445
27.2941   438
27.3041   431
27.3141   433
27.3241   402
27.3341   400
27.3441   418
27.3541   433
27.3641   460
27.3741   436
27.3841   428
27.3941   473
27.4041   419
27.4141   469
27.4241   439
27.4341   421
27.4441   403
27.4541   405
27.4641   458
27.4741   419
27.4841   441
27.4941   390
27.5041   427
27.5141   406
27.5241   410
27.5341   408
27.5441   376
27.5541   414
27.5641   401
27.5741   409
27.5841   414
27.5941   412
27.6041   398
27.6141   406
27.6241   386
27.6341   408
27.6441   396
27.6541   402
27.6641   385
27.6741   429
27.6841   404
27.6941   431
27.7041   427
27.7141   373
27.7241   401
27.7341   388
27.7441   385
27.7541   398
27.7641   386
27.7741   416
27.7841   370
27.7941   407
27.8041   390
27.8141   417
27.8241   403
27.8341   408
27.8441   399
27.8541   412
27.8641   399
27.8741   375
27.8841   424
27.8941   423
27.9041   391
27.9141   367
27.9241   382
27.9341   400
27.9441   367
27.9541   381
27.9641   407
27.9741   385
27.9841   392
27.9941   370
28.0041   404
28.0141   402
28.0241   351
28.0341   408
28.0441   374
28.0541   404
28.0641   380
28.0741   407
28.0841   376
28.0941   358
28.1041   380
28.1141   374
28.1241   415
28.1341   371
28.1441   363
28.1541   373
28.1641   391
28.1741   395
28.1841   387
28.1941   388
28.2041   353
28.2141   366
28.2241   373
28.2341   406
28.2441   387
28.2541   346
28.2641   361
28.2741   363
28.2841   372
28.2941   379
28.3041   416
28.3141   393
28.3241   353
28.3341   359
28.3441   395
28.3541   396
28.3641   394
28.3741   393
28.3841   376
28.3941   387
28.4041   377
28.4141   388
28.4241   393
28.4341   367
28.4441   342
28.4541   411
28.4641   382
28.4741   383
28.4841   377
28.4941   350
28.5041   379
28.5141   329
28.5241   374
28.5341   350
28.5441   348
28.5541   390
28.5641   353
28.5741   380
28.5841   392
28.5941   373
28.6041   391
28.6141   365
28.6241   347
28.6341   416
28.6441   350
28.6541   348
28.6641   330
28.6741   344
28.6841   358
28.6941   358
28.7041   372
28.7141   354
28.7241   321
28.7341   375
28.7441   344
28.7541   373
28.7641   349
28.7741   351
28.7841   370
28.7941   351
28.8041   360
28.8141   362
28.8241   353
28.8341   346
28.8441   346
28.8541   352
28.8641   351
28.8741   339
28.8841   314
28.8941   322
28.9041   351
28.9141   338
28.9241   370
28.9341   345
28.9441   350
28.9541   355
28.9641   376
28.9741   375
28.9841   325
28.9941   346
29.0041   333
29.0141   372
29.0241   338
29.0341   340
29.0441   340
29.0541   344
29.0641   335
29.0741   347
29.0841   327
29.0941   336
29.1041   350
29.1141   326
29.1241   339
29.1341   371
29.1441   352
29.1541   342
29.1641   330
29.1741   341
29.1841   323
29.1941   338
29.2041   362
29.2141   330
29.2241   336
29.2341   306
29.2441   334
29.2541   348
29.2641   358
29.2741   324
29.2841   301
29.2941   335
29.3041   335
29.3141   313
29.3241   349
29.3341   324
29.3441   331
29.3541   329
29.3641   304
29.3741   364
29.3841   331
29.3941   354
29.4041   338
29.4141   315
29.4241   317
29.4341   301
29.4441   319
29.4541   308
29.4641   307
29.4741   305
29.4841   332
29.4941   345
29.5041   294
29.5141   294
29.5241   308
29.5341   323
29.5441   325
29.5541   359
29.5641   355
29.5741   308
29.5841   328
29.5941   311
29.6041   302
29.6141   305
29.6241   303
29.6341   330
29.6441   297
29.6541   315
29.6641   306
29.6741   326
29.6841   356
29.6941   315
29.7041   301
29.7141   315
29.7241   306
29.7341   312
29.7441   311
29.7541   287
29.7641   302
29.7741   306
29.7841   312
29.7941   334
29.8041   314
29.8141   318
29.8241   284
29.8341   313
29.8441   328
29.8541   321
29.8641   301
29.8741   302
29.8841   289
29.8941   275
29.9041   283
29.9141   318
29.9241   318
29.9341   286
29.9441   300
29.9541   294
29.9641   310
29.9741   256
29.9841   309
29.9941   286
30.0041   302
30.0141   281
30.0241   309
30.0341   267
30.0441   323
30.0541   293
30.0641   259
30.0741   300
30.0841   281
30.0941   306
30.1041   278
30.1141   292
30.1241   306
30.1341   268
30.1441   278
30.1541   328
30.1641   308
30.1741   300
30.1841   279
30.1941   270
30.2041   301
30.2141   288
30.2241   290
30.2341   279
30.2441   305
30.2541   280
30.2641   300
30.2741   289
30.2841   309
30.2941   278
30.3041   301
30.3141   305
30.3241   303
30.3341   272
30.3441   274
30.3541   307
30.3641   291
30.3741   283
30.3841   279
30.3941   277
30.4041   271
30.4141   244
30.4241   296
30.4341   283
30.4441   271
30.4541   308
30.4641   274
30.4741   279
30.4841   277
30.4941   309
30.5041   295
30.5141   316
30.5241   276
30.5341   276
30.5441   281
30.5541   278
30.5641   276
30.5741   299
30.5841   283
30.5941   288
30.6041   278
30.6141   251
30.6241   292
30.6341   301
30.6441   270
30.6541   251
30.6641   252
30.6741   250
30.6841   285
30.6941   267
30.7041   268
30.7141   283
30.7241   265
30.7341   296
30.7441   225
30.7541   268
30.7641   265
30.7741   291
30.7841   276
30.7941   287
30.8041   286
30.8141   287
30.8241   255
30.8341   263
30.8441   286
30.8541   268
30.8641   279
30.8741   271
30.8841   242
30.8941   285
30.9041   247
30.9141   262
30.9241   276
30.9341   274
30.9441   283
30.9541   256
30.9641   262
30.9741   274
30.9841   282
30.9941   269
31.0041   284
31.0141   305
31.0241   278
31.0341   252
31.0441   247
31.0541   244
31.0641   272
31.0741   286
31.0841   248
31.0941   262
31.1041   270
31.1141   257
31.1241   248
31.1341   270
31.1441   255
31.1541   239
31.1641   279
31.1741   264
31.1841   265
31.1941   277
31.2041   265
31.2141   248
31.2241   242
31.2341   249
31.2441   279
31.2541   265
31.2641   259
31.2741   241
31.2841   225
31.2941   268
31.3041   245
31.3141   247
31.3241   243
31.3341   243
31.3441   232
31.3541   236
31.3641   236
31.3741   286
31.3841   240
31.3941   245
31.4041   254
31.4141   269
31.4241   239
31.4341   255
31.4441   235
31.4541   242
31.4641   250
31.4741   236
31.4841   255
31.4941   225
31.5041   234
31.5141   245
31.5241   221
31.5341   234
31.5441   235
31.5541   246
31.5641   241
31.5741   262
31.5841   229
31.5941   261
31.6041   282
31.6141   241
31.6241   243
31.6341   215
31.6441   229
31.6541   229
31.6641   267
31.6741   283
31.6841   250
31.6941   244
31.7041   242
31.7141   198
31.7241   242
31.7341   230
31.7441   265
31.7541   260
31.7641   236
31.7741   241
31.7841   250
31.7941   238
31.8041   229
31.8141   257
31.8241   257
31.8341   242
31.8441   248
31.8541   234
31.8641   243
31.8741   252
31.8841   205
31.8941   265
31.9041   257
31.9141   268
31.9241   232
31.9341   232
31.9441   229
31.9541   252
31.9641   239
31.9741   246
31.9841   243
31.9941   228
32.0041   238
32.0141   226
32.0241   226
32.0341   233
32.0441   255
32.0541   237
32.0641   245
32.0741   262
32.0841   250
32.0941   222
32.1041   237
32.1141   220
32.1241   249
32.1341   237
32.1441   258
32.1541   245
32.1641   260
32.1741   245
32.1841   256
32.1941   239
32.2041   233
32.2141   240
32.2241   252
32.2341   224
32.2441   225
32.2541   222
32.2641   250
32.2741   234
32.2841   226
32.2941   245
32.3041   255
32.3141   231
32.3241   230
32.3341   212
32.3441   216
32.3541   227
32.3641   222
32.3741   226
32.3841   227
32.3941   200
32.4041   228
32.4141   222
32.4241   218
32.4341   215
32.4441   209
32.4541   223
32.4641   216
32.4741   218
32.4841   222
32.4941   214
32.5041   213
32.5141   216
32.5241   206
32.5341   201
32.5441   195
32.5541   206
32.5641   193
32.5741   185
32.5841   191
32.5941   208
32.6041   186
32.6141   196
32.6241   191
32.6341   205
32.6441   208
32.6541   192
32.6641   214
32.6741   215
32.6841   217
32.6941   191
32.7041   219
32.7141   193
32.7241   195
32.7341   227
32.7441   188
32.7541   202
32.7641   175
32.7741   186
32.7841   214
32.7941   200
32.8041   208
32.8141   187
32.8241   192
32.8341   196
32.8441   196
32.8541   195
32.8641   206
32.8741   184
32.8841   193
32.8941   193
32.9041   183
32.9141   216
32.9241   161
32.9341   191
32.9441   189
32.9541   185
32.9641   188
32.9741   200
32.9841   195
32.9941   212
33.0041   186
33.0141   194
33.0241   168
33.0341   188
33.0441   188
33.0541   178
33.0641   197
33.0741   198
33.0841   176
33.0941   181
33.1041   181
33.1141   205
33.1241   177
33.1341   196
33.1441   176
33.1541   187
33.1641   191
33.1741   183
33.1841   157
33.1941   171
33.2041   172
33.2141   174
33.2241   171
33.2341   190
33.2441   172
33.2541   174
33.2641   174
33.2741   149
33.2841   168
33.2941   175
33.3041   200
33.3141   173
33.3241   199
33.3341   174
33.3441   172
33.3541   174
33.3641   171
33.3741   168
33.3841   192
33.3941   183
33.4041   167
33.4141   198
33.4241   183
33.4341   200
33.4441   185
33.4541   199
33.4641   191
33.4741   202
33.4841   181
33.4941   155
33.5041   168
33.5141   187
33.5241   173
33.5341   186
33.5441   174
33.5541   187
33.5641   173
33.5741   192
33.5841   173
33.5941   153
33.6041   140
33.6141   174
33.6241   150
33.6341   192
33.6441   184
33.6541   179
33.6641   178
33.6741   173
33.6841   148
33.6941   182
33.7041   184
33.7141   146
33.7241   156
33.7341   179
33.7441   154
33.7541   166
33.7641   151
33.7741   180
33.7841   161
33.7941   174
33.8041   160
33.8141   178
33.8241   159
33.8341   169
33.8441   176
33.8541   156
33.8641   158
33.8741   164
33.8841   159
33.8941   170
33.9041   165
33.9141   148
33.9241   181
33.9341   178
33.9441   168
33.9541   156
33.9641   142
33.9741   163
33.9841   160
33.9941   175
34.0041   162
34.0141   179
34.0241   168
34.0341   158
34.0441   157
34.0541   148
34.0641   152
34.0741   172
34.0841   158
34.0941   167
34.1041   167
34.1141   139
34.1241   153
34.1341   154
34.1441   159
34.1541   158
34.1641   153
34.1741   152
34.1841   163
34.1941   156
34.2041   169
34.2141   155
34.2241   148
34.2341   165
34.2441   180
34.2541   177
34.2641   153
34.2741   175
34.2841   146
34.2941   148
34.3041   139
34.3141   151
34.3241   150
34.3341   141
34.3441   166
34.3541   135
34.3641   146
34.3741   146
34.3841   151
34.3941   144
34.4041   136
34.4141   141
34.4241   141
34.4341   158
34.4441   146
34.4541   159
34.4641   137
34.4741   132
34.4841   134
34.4941   143
34.5041   145
34.5141   144
34.5241   139
34.5341   151
34.5441   155
34.5541   156
34.5641   140
34.5741   138
34.5841   128
34.5941   156
34.6041   134
34.6141   135
34.6241   147
34.6341   132
34.6441   120
34.6541   135
34.6641   155
34.6741   157
34.6841   136
34.6941   137
34.7041   112
34.7141   141
34.7241   154
34.7341   143
34.7441   129
34.7541   130
34.7641   127
34.7741   129
34.7841   132
34.7941   124
34.8041   148
34.8141   139
34.8241   125
34.8341   137
34.8441   148
34.8541   133
34.8641   145
34.8741   131
34.8841   135
34.8941   134
34.9041   121
34.9141   136
34.9241   146
34.9341   121
34.9441   136
34.9541   134
34.9641   122
34.9741   137
34.9841   120
34.9941   136
35.0041   107
35.0141   153
35.0241   133
35.0341   125
35.0441   127
35.0541   135
35.0641   117
35.0741   129
35.0841   113
35.0941   117
35.1041   110
35.1141   120
35.1241   109
35.1341   130
35.1441   125
35.1541   109
35.1641   135
35.1741   131
35.1841   122
35.1941   132
35.2041   115
35.2141   117
35.2241   130
35.2341   115
35.2441   135
35.2541   139
35.2641   145
35.2741   111
35.2841   106
35.2941   122
35.3041   111
35.3141   122
35.3241   122
35.3341   112
35.3441   113
35.3541   132
35.3641   132
35.3741   125
35.3841   140
35.3941   109
35.4041   104
35.4141   115
35.4241   101
35.4341   106
35.4441    94
35.4541   122
35.4641   103
35.4741   128
35.4841   116
35.4941   120
35.5041   109
35.5141   130
35.5241   146
35.5341   123
35.5441   120
35.5541   109
35.5641    99
35.5741   109
35.5841   108
35.5941   121
35.6041   119
35.6141   124
35.6241   122
35.6341   113
35.6441   126
35.6541   124
35.6641   100
35.6741   132
35.6841   103
35.6941   115
35.7041   112
35.7141   136
35.7241    93
35.7341   112
35.7441   106
35.7541   108
35.7641   106
35.7741   127
35.7841    97
35.7941   106
35.8041   102
35.8141   116
35.8241   103
35.8341    93
35.8441    94
35.8541   122
35.8641   101
35.8741   106
35.8841    94
35.8941   104
35.9041    98
35.9141   113
35.9241   108
35.9341   105
35.9441    97
35.9541   122
35.9641   123
35.9741    92
35.9841    97
35.9941   114
36.0041   102
36.0141   113
36.0241   118
36.0341    86
36.0441    96
36.0541    97
36.0641    99
36.0741   103
36.0841   102
36.0941    85
36.1041   102
36.1141    98
36.1241    95
36.1341   112
36.1441   108
36.1541   108
36.1641    99
36.1741   104
36.1841   106
36.1941    76
36.2041   112
36.2141   108
36.2241    96
36.2341   105
36.2441    93
36.2541    92
36.2641   104
36.2741   104
36.2841   115
36.2941   112
36.3041   114
36.3141   110
36.3241   100
36.3341   108
36.3441    94
36.3541   109
36.3641   109
36.3741   103
36.3841   118
36.3941   105
36.4041   110
36.4141    80
36.4241   109
36.4341   105
36.4441   107
36.4541    90
36.4641   102
36.4741    87
36.4841   105
36.4941   109
36.5041    95
36.5141   111
36.5241    88
36.5341   102
36.5441    80
36.5541    79
36.5641    92
36.5741    83
36.5841    87
36.5941    89
36.6041    83
36.6141    79
36.6241   105
36.6341    96
36.6441    99
36.6541    94
36.6641    77
36.6741    86
36.6841    99
36.6941    86
36.7041    83
36.7141    88
36.7241    96
36.7341    91
36.7441    99
36.7541    96
36.7641    79
36.7741    95
36.7841    91
36.7941    84
36.8041    80
36.8141    81
36.8241    83
36.8341    86
36.8441    97
36.8541    84
36.8641    87
36.8741    86
36.8841    88
36.8941    80
36.9041    84
36.9141    86
36.9241    76
36.9341    93
36.9441    83
36.9541    81
36.9641    85
36.9741   100
36.9841    79
36.9941    88
37.0041    75
37.0141    95
37.0241    86
37.0341    75
37.0441    70
37.0541    80
37.0641    76
37.0741    81
37.0841    70
37.0941    90
37.1041    67
37.1141    86
37.1241    87
37.1341    85
37.1441    86
37.1541    84
37.1641    64
37.1741    71
37.1841    93
37.1941    79
37.2041    76
37.2141    75
37.2241    67
37.2341    88
37.2441    75
37.2541   105
37.2641    88
37.2741    75
37.2841    78
37.2941    69
37.3041    62
37.3141    72
37.3241    80
37.3341    73
37.3441    87
37.3541    88
37.3641    78
37.3741    75
37.3841    80
37.3941    92
37.4041    84
37.4141    61
37.4241    71
37.4341    64
37.4441    67
37.4541    80
37.4641    65
37.4741    84
37.4841    70
37.4941    73
37.5041    62
37.5141    82
37.5241    73
37.5341    76
37.5441    67
37.5541    63
37.5641    63
37.5741    68
37.5841    75
37.5941    72
37.6041    64
37.6141    80
37.6241    64
37.6341    72
37.6441    68
37.6541    72
37.6641    68
37.6741    65
37.6841    76
37.6941    71
37.7041    73
37.7141    73
37.7241    70
37.7341    57
37.7441    60
37.7541    65
37.7641    65
37.7741    75
37.7841    67
37.7941    71
37.8041    58
37.8141    72
37.8241    57
37.8341    76
37.8441    61
37.8541    71
37.8641    80
37.8741    57
37.8841    80
37.8941    66
37.9041    67
37.9141    66
37.9241    70
37.9341    66
37.9441    65
37.9541    69
37.9641    59
37.9741    74
37.9841    59
37.9941    53
38.0041    63
38.0141    59
38.0241    63
38.0341    47
38.0441    70
38.0541    64
38.0641    70
38.0741    72
38.0841    66
38.0941    50
38.1041    49
38.1141    57
38.1241    66
38.1341    74
38.1441    61
38.1541    66
38.1641    62
38.1741    48
38.1841    62
38.1941    53
38.2041    66
38.2141    44
38.2241    63
38.2341    38
38.2441    54
38.2541    61
38.2641    62
38.2741    58
38.2841    59
38.2941    59
38.3041    50
38.3141    61
38.3241    56
38.3341    61
38.3441    54
38.3541    44
38.3641    66
38.3741    68
38.3841    50
38.3941    56
38.4041    67
38.4141    60
38.4241    65
38.4341    44
38.4441    61
38.4541    40
38.4641    63
38.4741    59
38.4841    64
38.4941    49
38.5041    54
38.5141    57
38.5241    47
38.5341    60
38.5441    63
38.5541    65
38.5641    66
38.5741    50
38.5841    50
38.5941    46
38.6041    58
38.6141    40
38.6241    46
38.6341    58
38.6441    53
38.6541    50
38.6641    47
38.6741    43
38.6841    45
38.6941    46
38.7041    62
38.7141    64
38.7241    47
38.7341    48
38.7441    49
38.7541    47
38.7641    54
38.7741    51
38.7841    56
38.7941    53
38.8041    67
38.8141    33
38.8241    52
38.8341    50
38.8441    28
38.8541    44
38.8641    58
38.8741    42
38.8841    49
38.8941    56
38.9041    51
38.9141    36
38.9241    47
38.9341    53
38.9441    37
38.9541    50
38.9641    54
38.9741    48
38.9841    42
38.9941    45
39.0041    37
39.0141    57
39.0241    47
39.0341    42
39.0441    51
39.0541    42
39.0641    47
39.0741    51
39.0841    44
39.0941    44
39.1041    42
39.1141    44
39.1241    51
39.1341    42
39.1441    41
39.1541    44
39.1641    40
39.1741    50
39.1841    43
39.1941    47
39.2041    40
39.2141    47
39.2241    59
39.2341    47
39.2441    33
39.2541    40
39.2641    51
39.2741    37
39.2841    53
39.2941    46
39.3041    39
39.3141    46
39.3241    35
39.3341    53
39.3441    41
39.3541    41
39.3641    48
39.3741    33
39.3841    34
39.3941    37
39.4041    40
39.4141    32
39.4241    43
39.4341    46
39.4441    45
39.4541    41
39.4641    33
39.4741    43
39.4841    39
39.4941    48
39.5041    41
39.5141    44
39.5241    49
39.5341    38
39.5441    40
39.5541    39
39.5641    31
39.5741    46
39.5841    38
39.5941    46
39.6041    42
39.6141    27
39.6241    34
39.6341    42
39.6441    35
39.6541    47
39.6641    33
39.6741    31
39.6841    41
39.6941    34
39.7041    38
39.7141    30
39.7241    33
39.7341    38
39.7441    45
39.7541    43
39.7641    31
39.7741    25
39.7841    53
39.7941    43
39.8041    44
39.8141    35
39.8241    28
39.8341    40
39.8441    33
39.8541    29
39.8641    41
39.8741    36
39.8841    33
39.8941    25
39.9041    33
39.9141    36
39.9241    31
39.9341    35
39.9441    31
39.9541    28
39.9641    24
39.9741    37
39.9841    32
