Bruker Nano GmbH Berlin, Germany
Esprit 1.9

Date: 4/21/2021 1:32:36 PM
Real time: 20342
Life time: 19008
Pulse density: 96695


Detector type: XFlash 430
Window type: Custom type
Detector thickness: 0.45
Si dead layer:0.029

Calibration, lin.: 10
Calibration, abs.: -955.9
Mn FWHM: 137.05
Fano factor: 0.121
Channels: 4095

Energy Counts
-0.9559     0
-0.9459     0
-0.9359     0
-0.9259     0
-0.9159     0
-0.9059     0
-0.8959     0
-0.8859     0
-0.8759     0
-0.8659     0
-0.8559     0
-0.8459     0
-0.8359     0
-0.8259     0
-0.8159     0
-0.8059     0
-0.7959     0
-0.7859     0
-0.7759     0
-0.7659     0
-0.7559     0
-0.7459     0
-0.7359     0
-0.7259     0
-0.7159     0
-0.7059     0
-0.6959     0
-0.6859     0
-0.6759     0
-0.6659     0
-0.6559     0
-0.6459     0
-0.6359     0
-0.6259     0
-0.6159     0
-0.6059     0
-0.5959     0
-0.5859     0
-0.5759     0
-0.5659     0
-0.5559     0
-0.5459     0
-0.5359     0
-0.5259     0
-0.5159     0
-0.5059     0
-0.4959     0
-0.4859     0
-0.4759     0
-0.4659     0
-0.4559     0
-0.4459     0
-0.4359     0
-0.4259     0
-0.4159     0
-0.4059     0
-0.3959     0
-0.3859     0
-0.3759     0
-0.3659     0
-0.3559     0
-0.3459     0
-0.3359     0
-0.3259     0
-0.3159     0
-0.3059     0
-0.2959     0
-0.2859     0
-0.2759     0
-0.2659     0
-0.2559     0
-0.2459     0
-0.2359     0
-0.2259     0
-0.2159     0
-0.2059     0
-0.1959     0
-0.1859     0
-0.1759     0
-0.1659     0
-0.1559     0
-0.1459     0
-0.1359     1
-0.1259     0
-0.1159     3
-0.1059    12
-0.0959    52
-0.0859   219
-0.0759   755
-0.0659  2201
-0.0559  5526
-0.0459 12082
-0.0359 22570
-0.0259 35854
-0.0159 49737
-0.0059 58268
 0.0041 58602
 0.0141 50486
 0.0241 37130
 0.0341 23684
 0.0441 12987
 0.0541  5894
 0.0641  2439
 0.0741   816
 0.0841   249
 0.0941    68
 0.1041    33
 0.1141    11
 0.1241     4
 0.1341     9
 0.1441     6
 0.1541     6
 0.1641     5
 0.1741     2
 0.1841   159
 0.1941   314
 0.2041   327
 0.2141   299
 0.2241   304
 0.2341   285
 0.2441   290
 0.2541   347
 0.2641   310
 0.2741   297
 0.2841   291
 0.2941   282
 0.3041   280
 0.3141   287
 0.3241   294
 0.3341   281
 0.3441   285
 0.3541   272
 0.3641   276
 0.3741   255
 0.3841   252
 0.3941   268
 0.4041   280
 0.4141   273
 0.4241   271
 0.4341   264
 0.4441   269
 0.4541   272
 0.4641   277
 0.4741   268
 0.4841   262
 0.4941   265
 0.5041   265
 0.5141   255
 0.5241   264
 0.5341   249
 0.5441   246
 0.5541   245
 0.5641   230
 0.5741   247
 0.5841   253
 0.5941   244
 0.6041   234
 0.6141   246
 0.6241   271
 0.6341   263
 0.6441   251
 0.6541   228
 0.6641   219
 0.6741   245
 0.6841   241
 0.6941   229
 0.7041   232
 0.7141   216
 0.7241   209
 0.7341   213
 0.7441   206
 0.7541   221
 0.7641   228
 0.7741   226
 0.7841   239
 0.7941   229
 0.8041   238
 0.8141   242
 0.8241   203
 0.8341   212
 0.8441   218
 0.8541   214
 0.8641   209
 0.8741   204
 0.8841   190
 0.8941   209
 0.9041   214
 0.9141   217
 0.9241   211
 0.9341   224
 0.9441   229
 0.9541   206
 0.9641   191
 0.9741   218
 0.9841   198
 0.9941   187
 1.0041   203
 1.0141   215
 1.0241   215
 1.0341   194
 1.0441   203
 1.0541   195
 1.0641   215
 1.0741   207
 1.0841   204
 1.0941   199
 1.1041   201
 1.1141   201
 1.1241   188
 1.1341   190
 1.1441   203
 1.1541   200
 1.1641   210
 1.1741   204
 1.1841   178
 1.1941   196
 1.2041   187
 1.2141   200
 1.2241   178
 1.2341   175
 1.2441   193
 1.2541   201
 1.2641   201
 1.2741   188
 1.2841   170
 1.2941   191
 1.3041   190
 1.3141   178
 1.3241   183
 1.3341   184
 1.3441   181
 1.3541   176
 1.3641   180
 1.3741   204
 1.3841   176
 1.3941   182
 1.4041   211
 1.4141   202
 1.4241   200
 1.4341   193
 1.4441   187
 1.4541   190
 1.4641   167
 1.4741   190
 1.4841   178
 1.4941   190
 1.5041   176
 1.5141   202
 1.5241   183
 1.5341   197
 1.5441   183
 1.5541   187
 1.5641   181
 1.5741   178
 1.5841   170
 1.5941   165
 1.6041   168
 1.6141   187
 1.6241   172
 1.6341   178
 1.6441   193
 1.6541   222
 1.6641   243
 1.6741   298
 1.6841   398
 1.6941   494
 1.7041   565
 1.7141   685
 1.7241   732
 1.7341   742
 1.7441   770
 1.7541   772
 1.7641   684
 1.7741   579
 1.7841   508
 1.7941   388
 1.8041   306
 1.8141   303
 1.8241   261
 1.8341   244
 1.8441   226
 1.8541   217
 1.8641   193
 1.8741   200
 1.8841   184
 1.8941   187
 1.9041   204
 1.9141   196
 1.9241   189
 1.9341   160
 1.9441   177
 1.9541   194
 1.9641   220
 1.9741   216
 1.9841   194
 1.9941   210
 2.0041   225
 2.0141   215
 2.0241   249
 2.0341   218
 2.0441   210
 2.0541   191
 2.0641   232
 2.0741   180
 2.0841   181
 2.0941   157
 2.1041   153
 2.1141   170
 2.1241   158
 2.1341   162
 2.1441   160
 2.1541   166
 2.1641   190
 2.1741   164
 2.1841   161
 2.1941   175
 2.2041   158
 2.2141   153
 2.2241   171
 2.2341   148
 2.2441   171
 2.2541   166
 2.2641   161
 2.2741   155
 2.2841   159
 2.2941   170
 2.3041   154
 2.3141   154
 2.3241   160
 2.3341   161
 2.3441   173
 2.3541   143
 2.3641   143
 2.3741   122
 2.3841   149
 2.3941   157
 2.4041   168
 2.4141   163
 2.4241   143
 2.4341   144
 2.4441   140
 2.4541   152
 2.4641   116
 2.4741   134
 2.4841   155
 2.4941   143
 2.5041   157
 2.5141   146
 2.5241   162
 2.5341   152
 2.5441   124
 2.5541   156
 2.5641   144
 2.5741   108
 2.5841   134
 2.5941   136
 2.6041   134
 2.6141   136
 2.6241   168
 2.6341   160
 2.6441   142
 2.6541   149
 2.6641   141
 2.6741   147
 2.6841   129
 2.6941   156
 2.7041   153
 2.7141   104
 2.7241   136
 2.7341   126
 2.7441   143
 2.7541   150
 2.7641   132
 2.7741   143
 2.7841   135
 2.7941   143
 2.8041   143
 2.8141   144
 2.8241   135
 2.8341   147
 2.8441   147
 2.8541   145
 2.8641   127
 2.8741   136
 2.8841   148
 2.8941   153
 2.9041   134
 2.9141   126
 2.9241   122
 2.9341   131
 2.9441   138
 2.9541   124
 2.9641   111
 2.9741   118
 2.9841   107
 2.9941   121
 3.0041   108
 3.0141   131
 3.0241   129
 3.0341   132
 3.0441   140
 3.0541   137
 3.0641   119
 3.0741   117
 3.0841   107
 3.0941   105
 3.1041   117
 3.1141   139
 3.1241   122
 3.1341   104
 3.1441   113
 3.1541   141
 3.1641   115
 3.1741   124
 3.1841   110
 3.1941   106
 3.2041   127
 3.2141   126
 3.2241   134
 3.2341   160
 3.2441   201
 3.2541   208
 3.2641   222
 3.2741   248
 3.2841   271
 3.2941   301
 3.3041   307
 3.3141   306
 3.3241   301
 3.3341   285
 3.3441   277
 3.3541   244
 3.3641   230
 3.3741   189
 3.3841   197
 3.3941   148
 3.4041   131
 3.4141   133
 3.4241   121
 3.4341   126
 3.4441   119
 3.4541   111
 3.4641    95
 3.4741   111
 3.4841   104
 3.4941   109
 3.5041   111
 3.5141   123
 3.5241   128
 3.5341   144
 3.5441   139
 3.5541   177
 3.5641   206
 3.5741   283
 3.5841   288
 3.5941   356
 3.6041   436
 3.6141   557
 3.6241   720
 3.6341   906
 3.6441   990
 3.6541  1205
 3.6641  1320
 3.6741  1505
 3.6841  1602
 3.6941  1586
 3.7041  1509
 3.7141  1308
 3.7241  1238
 3.7341  1058
 3.7441   870
 3.7541   680
 3.7641   530
 3.7741   401
 3.7841   316
 3.7941   245
 3.8041   166
 3.8141   145
 3.8241   128
 3.8341   119
 3.8441   111
 3.8541   106
 3.8641   107
 3.8741    99
 3.8841   100
 3.8941   100
 3.9041   110
 3.9141   137
 3.9241   138
 3.9341   166
 3.9441   199
 3.9541   224
 3.9641   235
 3.9741   237
 3.9841   276
 3.9941   288
 4.0041   287
 4.0141   314
 4.0241   320
 4.0341   318
 4.0441   267
 4.0541   236
 4.0641   209
 4.0741   182
 4.0841   158
 4.0941   141
 4.1041   124
 4.1141   108
 4.1241   114
 4.1341    95
 4.1441    87
 4.1541    84
 4.1641    93
 4.1741    84
 4.1841    79
 4.1941    73
 4.2041    72
 4.2141    69
 4.2241    80
 4.2341    94
 4.2441    83
 4.2541    69
 4.2641    69
 4.2741    76
 4.2841    79
 4.2941    91
 4.3041    87
 4.3141    85
 4.3241    92
 4.3341   105
 4.3441    79
 4.3541    82
 4.3641   102
 4.3741   128
 4.3841   135
 4.3941   152
 4.4041   212
 4.4141   224
 4.4241   248
 4.4341   322
 4.4441   395
 4.4541   470
 4.4641   556
 4.4741   645
 4.4841   638
 4.4941   661
 4.5041   743
 4.5141   701
 4.5241   675
 4.5341   669
 4.5441   616
 4.5541   499
 4.5641   399
 4.5741   355
 4.5841   300
 4.5941   258
 4.6041   199
 4.6141   170
 4.6241   132
 4.6341   132
 4.6441   110
 4.6541    98
 4.6641   109
 4.6741    84
 4.6841   103
 4.6941   113
 4.7041    77
 4.7141    92
 4.7241    97
 4.7341    92
 4.7441    78
 4.7541    96
 4.7641    96
 4.7741   103
 4.7841    93
 4.7941    97
 4.8041   126
 4.8141   135
 4.8241   123
 4.8341   142
 4.8441   162
 4.8541   170
 4.8641   183
 4.8741   193
 4.8841   165
 4.8941   194
 4.9041   205
 4.9141   222
 4.9241   224
 4.9341   201
 4.9441   239
 4.9541   230
 4.9641   179
 4.9741   184
 4.9841   178
 4.9941   173
 5.0041   157
 5.0141   135
 5.0241   129
 5.0341   130
 5.0441   110
 5.0541   107
 5.0641   110
 5.0741   111
 5.0841   115
 5.0941   106
 5.1041    97
 5.1141    99
 5.1241   103
 5.1341   101
 5.1441    89
 5.1541    88
 5.1641    92
 5.1741    94
 5.1841    96
 5.1941   100
 5.2041    89
 5.2141   100
 5.2241   100
 5.2341   103
 5.2441   103
 5.2541   102
 5.2641    91
 5.2741    95
 5.2841    83
 5.2941   110
 5.3041   105
 5.3141   105
 5.3241   119
 5.3341   118
 5.3441   117
 5.3541   124
 5.3641   127
 5.3741   134
 5.3841   132
 5.3941   147
 5.4041   125
 5.4141   145
 5.4241   136
 5.4341   131
 5.4441   141
 5.4541   126
 5.4641   110
 5.4741   121
 5.4841   115
 5.4941   127
 5.5041   129
 5.5141   117
 5.5241   107
 5.5341   138
 5.5441   119
 5.5541   108
 5.5641   126
 5.5741   105
 5.5841   112
 5.5941   104
 5.6041   112
 5.6141   107
 5.6241   116
 5.6341   108
 5.6441   118
 5.6541    96
 5.6641    90
 5.6741   100
 5.6841   102
 5.6941   115
 5.7041   102
 5.7141   106
 5.7241    98
 5.7341   126
 5.7441   116
 5.7541   105
 5.7641   122
 5.7741   124
 5.7841   159
 5.7941   163
 5.8041   196
 5.8141   234
 5.8241   227
 5.8341   312
 5.8441   316
 5.8541   347
 5.8641   372
 5.8741   345
 5.8841   443
 5.8941   411
 5.9041   416
 5.9141   409
 5.9241   350
 5.9341   356
 5.9441   298
 5.9541   283
 5.9641   268
 5.9741   232
 5.9841   204
 5.9941   216
 6.0041   187
 6.0141   156
 6.0241   153
 6.0341   127
 6.0441   156
 6.0541   128
 6.0641   148
 6.0741   134
 6.0841   145
 6.0941   154
 6.1041   142
 6.1141   145
 6.1241   133
 6.1341   207
 6.1441   173
 6.1541   189
 6.1641   206
 6.1741   224
 6.1841   240
 6.1941   322
 6.2041   381
 6.2141   510
 6.2241   605
 6.2341   852
 6.2441  1255
 6.2541  1795
 6.2641  2433
 6.2741  3314
 6.2841  4517
 6.2941  5966
 6.3041  7671
 6.3141  9570
 6.3241 12068
 6.3341 14269
 6.3441 16798
 6.3541 19379
 6.3641 21531
 6.3741 23308
 6.3841 24571
 6.3941 25055
 6.4041 25009
 6.4141 24563
 6.4241 23076
 6.4341 21103
 6.4441 18921
 6.4541 16435
 6.4641 13827
 6.4741 11493
 6.4841  9215
 6.4941  7094
 6.5041  5501
 6.5141  4042
 6.5241  3014
 6.5341  2132
 6.5441  1420
 6.5541  1036
 6.5641   736
 6.5741   522
 6.5841   396
 6.5941   325
 6.6041   235
 6.6141   212
 6.6241   206
 6.6341   183
 6.6441   197
 6.6541   160
 6.6641   155
 6.6741   158
 6.6841   177
 6.6941   168
 6.7041   156
 6.7141   174
 6.7241   167
 6.7341   170
 6.7441   200
 6.7541   177
 6.7641   189
 6.7741   156
 6.7841   202
 6.7941   195
 6.8041   200
 6.8141   211
 6.8241   211
 6.8341   220
 6.8441   246
 6.8541   291
 6.8641   270
 6.8741   344
 6.8841   395
 6.8941   427
 6.9041   482
 6.9141   634
 6.9241   717
 6.9341   966
 6.9441  1109
 6.9541  1393
 6.9641  1631
 6.9741  1968
 6.9841  2403
 6.9941  2718
 7.0041  3076
 7.0141  3336
 7.0241  3605
 7.0341  3857
 7.0441  4041
 7.0541  4158
 7.0641  4114
 7.0741  3895
 7.0841  3633
 7.0941  3403
 7.1041  3008
 7.1141  2644
 7.1241  2215
 7.1341  1951
 7.1441  1613
 7.1541  1270
 7.1641  1073
 7.1741   827
 7.1841   644
 7.1941   582
 7.2041   409
 7.2141   375
 7.2241   304
 7.2341   282
 7.2441   218
 7.2541   233
 7.2641   214
 7.2741   244
 7.2841   191
 7.2941   200
 7.3041   223
 7.3141   263
 7.3241   223
 7.3341   235
 7.3441   260
 7.3541   268
 7.3641   271
 7.3741   277
 7.3841   268
 7.3941   272
 7.4041   273
 7.4141   283
 7.4241   284
 7.4341   274
 7.4441   264
 7.4541   282
 7.4641   263
 7.4741   250
 7.4841   240
 7.4941   234
 7.5041   237
 7.5141   249
 7.5241   204
 7.5341   202
 7.5441   202
 7.5541   207
 7.5641   206
 7.5741   206
 7.5841   193
 7.5941   207
 7.6041   189
 7.6141   174
 7.6241   203
 7.6341   201
 7.6441   209
 7.6541   175
 7.6641   198
 7.6741   215
 7.6841   211
 7.6941   194
 7.7041   203
 7.7141   224
 7.7241   218
 7.7341   231
 7.7441   243
 7.7541   222
 7.7641   246
 7.7741   245
 7.7841   236
 7.7941   228
 7.8041   240
 7.8141   274
 7.8241   238
 7.8341   266
 7.8441   287
 7.8541   290
 7.8641   286
 7.8741   335
 7.8841   303
 7.8941   344
 7.9041   318
 7.9141   385
 7.9241   382
 7.9341   375
 7.9441   383
 7.9541   445
 7.9641   466
 7.9741   526
 7.9841   545
 7.9941   587
 8.0041   617
 8.0141   639
 8.0241   713
 8.0341   709
 8.0441   771
 8.0541   869
 8.0641   952
 8.0741   958
 8.0841  1078
 8.0941  1148
 8.1041  1124
 8.1141  1178
 8.1241  1208
 8.1341  1303
 8.1441  1354
 8.1541  1341
 8.1641  1357
 8.1741  1423
 8.1841  1329
 8.1941  1427
 8.2041  1423
 8.2141  1476
 8.2241  1450
 8.2341  1492
 8.2441  1526
 8.2541  1559
 8.2641  1705
 8.2741  1736
 8.2841  1803
 8.2941  1893
 8.3041  2035
 8.3141  2263
 8.3241  2332
 8.3341  2574
 8.3441  2794
 8.3541  2925
 8.3641  3022
 8.3741  3062
 8.3841  3141
 8.3941  3029
 8.4041  2989
 8.4141  2925
 8.4241  2814
 8.4341  2537
 8.4441  2404
 8.4541  2150
 8.4641  1868
 8.4741  1666
 8.4841  1384
 8.4941  1138
 8.5041   985
 8.5141   858
 8.5241   693
 8.5341   608
 8.5441   542
 8.5541   496
 8.5641   433
 8.5741   396
 8.5841   392
 8.5941   388
 8.6041   371
 8.6141   400
 8.6241   407
 8.6341   364
 8.6441   389
 8.6541   378
 8.6641   415
 8.6741   366
 8.6841   392
 8.6941   369
 8.7041   364
 8.7141   380
 8.7241   373
 8.7341   324
 8.7441   319
 8.7541   324
 8.7641   350
 8.7741   319
 8.7841   288
 8.7941   335
 8.8041   311
 8.8141   280
 8.8241   320
 8.8341   310
 8.8441   324
 8.8541   328
 8.8641   324
 8.8741   305
 8.8841   301
 8.8941   321
 8.9041   338
 8.9141   357
 8.9241   376
 8.9341   347
 8.9441   392
 8.9541   376
 8.9641   349
 8.9741   377
 8.9841   369
 8.9941   386
 9.0041   380
 9.0141   421
 9.0241   372
 9.0341   414
 9.0441   439
 9.0541   439
 9.0641   444
 9.0741   463
 9.0841   467
 9.0941   450
 9.1041   454
 9.1141   494
 9.1241   542
 9.1341   567
 9.1441   540
 9.1541   631
 9.1641   591
 9.1741   614
 9.1841   705
 9.1941   703
 9.2041   744
 9.2141   720
 9.2241   783
 9.2341   845
 9.2441   859
 9.2541   895
 9.2641   978
 9.2741  1027
 9.2841  1027
 9.2941  1084
 9.3041  1139
 9.3141  1150
 9.3241  1195
 9.3341  1202
 9.3441  1256
 9.3541  1265
 9.3641  1295
 9.3741  1353
 9.3841  1385
 9.3941  1417
 9.4041  1424
 9.4141  1430
 9.4241  1436
 9.4341  1481
 9.4441  1500
 9.4541  1483
 9.4641  1516
 9.4741  1553
 9.4841  1543
 9.4941  1656
 9.5041  1690
 9.5141  1722
 9.5241  1732
 9.5341  1816
 9.5441  1994
 9.5541  2007
 9.5641  2192
 9.5741  2308
 9.5841  2488
 9.5941  2588
 9.6041  2739
 9.6141  2773
 9.6241  2960
 9.6341  3162
 9.6441  3223
 9.6541  3264
 9.6641  3337
 9.6741  3205
 9.6841  3274
 9.6941  3140
 9.7041  3088
 9.7141  2878
 9.7241  2659
 9.7341  2458
 9.7441  2281
 9.7541  2073
 9.7641  1950
 9.7741  1777
 9.7841  1723
 9.7941  1543
 9.8041  1504
 9.8141  1407
 9.8241  1314
 9.8341  1316
 9.8441  1261
 9.8541  1214
 9.8641  1278
 9.8741  1290
 9.8841  1263
 9.8941  1312
 9.9041  1372
 9.9141  1469
 9.9241  1424
 9.9341  1447
 9.9441  1412
 9.9541  1398
 9.9641  1431
 9.9741  1427
 9.9841  1351
 9.9941  1275
10.0041  1219
10.0141  1136
10.0241  1054
10.0341   918
10.0441   825
10.0541   733
10.0641   684
10.0741   548
10.0841   521
10.0941   508
10.1041   431
10.1141   391
10.1241   326
10.1341   313
10.1441   292
10.1541   289
10.1641   257
10.1741   228
10.1841   231
10.1941   242
10.2041   230
10.2141   235
10.2241   197
10.2341   209
10.2441   216
10.2541   210
10.2641   211
10.2741   203
10.2841   189
10.2941   188
10.3041   181
10.3141   199
10.3241   176
10.3341   180
10.3441   160
10.3541   193
10.3641   171
10.3741   156
10.3841   140
10.3941   173
10.4041   173
10.4141   185
10.4241   179
10.4341   171
10.4441   194
10.4541   199
10.4641   180
10.4741   178
10.4841   189
10.4941   186
10.5041   184
10.5141   204
10.5241   186
10.5341   199
10.5441   200
10.5541   192
10.5641   190
10.5741   203
10.5841   205
10.5941   209
10.6041   202
10.6141   219
10.6241   202
10.6341   202
10.6441   198
10.6541   204
10.6641   226
10.6741   214
10.6841   206
10.6941   219
10.7041   200
10.7141   223
10.7241   264
10.7341   258
10.7441   230
10.7541   232
10.7641   262
10.7741   277
10.7841   281
10.7941   276
10.8041   317
10.8141   302
10.8241   301
10.8341   283
10.8441   297
10.8541   321
10.8641   327
10.8741   328
10.8841   342
10.8941   353
10.9041   342
10.9141   325
10.9241   319
10.9341   308
10.9441   307
10.9541   309
10.9641   325
10.9741   323
10.9841   314
10.9941   316
11.0041   276
11.0141   280
11.0241   291
11.0341   289
11.0441   291
11.0541   288
11.0641   263
11.0741   271
11.0841   285
11.0941   280
11.1041   268
11.1141   292
11.1241   277
11.1341   281
11.1441   298
11.1541   291
11.1641   304
11.1741   319
11.1841   318
11.1941   331
11.2041   348
11.2141   367
11.2241   370
11.2341   410
11.2441   412
11.2541   446
11.2641   455
11.2741   437
11.2841   427
11.2941   410
11.3041   409
11.3141   406
11.3241   412
11.3341   385
11.3441   345
11.3541   352
11.3641   349
11.3741   328
11.3841   321
11.3941   303
11.4041   271
11.4141   263
11.4241   235
11.4341   236
11.4441   229
11.4541   234
11.4641   225
11.4741   212
11.4841   227
11.4941   214
11.5041   217
11.5141   220
11.5241   228
11.5341   235
11.5441   213
11.5541   233
11.5641   248
11.5741   234
11.5841   225
11.5941   243
11.6041   257
11.6141   254
11.6241   238
11.6341   218
11.6441   231
11.6541   236
11.6641   242
11.6741   245
11.6841   248
11.6941   224
11.7041   208
11.7141   205
11.7241   199
11.7341   208
11.7441   200
11.7541   182
11.7641   173
11.7741   188
11.7841   173
11.7941   178
11.8041   179
11.8141   178
11.8241   164
11.8341   159
11.8441   165
11.8541   162
11.8641   157
11.8741   150
11.8841   158
11.8941   166
11.9041   174
11.9141   172
11.9241   170
11.9341   173
11.9441   162
11.9541   177
11.9641   188
11.9741   186
11.9841   179
11.9941   192
12.0041   194
12.0141   173
12.0241   167
12.0341   174
12.0441   179
12.0541   180
12.0641   165
12.0741   159
12.0841   168
12.0941   185
12.1041   191
12.1141   185
12.1241   172
12.1341   180
12.1441   163
12.1541   158
12.1641   170
12.1741   168
12.1841   154
12.1941   160
12.2041   158
12.2141   161
12.2241   165
12.2341   160
12.2441   171
12.2541   163
12.2641   146
12.2741   147
12.2841   157
12.2941   153
12.3041   155
12.3141   160
12.3241   156
12.3341   157
12.3441   164
12.3541   166
12.3641   155
12.3741   159
12.3841   152
12.3941   159
12.4041   158
12.4141   156
12.4241   160
12.4341   166
12.4441   158
12.4541   163
12.4641   152
12.4741   158
12.4841   162
12.4941   144
12.5041   155
12.5141   192
12.5241   186
12.5341   160
12.5441   158
12.5541   161
12.5641   160
12.5741   174
12.5841   169
12.5941   168
12.6041   173
12.6141   168
12.6241   157
12.6341   166
12.6441   174
12.6541   165
12.6641   154
12.6741   170
12.6841   170
12.6941   165
12.7041   161
12.7141   164
12.7241   176
12.7341   176
12.7441   172
12.7541   178
12.7641   180
12.7741   178
12.7841   183
12.7941   191
12.8041   188
12.8141   180
12.8241   180
12.8341   184
12.8441   184
12.8541   184
12.8641   182
12.8741   184
12.8841   192
12.8941   195
12.9041   186
12.9141   173
12.9241   173
12.9341   185
12.9441   193
12.9541   201
12.9641   192
12.9741   185
12.9841   180
12.9941   182
13.0041   193
13.0141   191
13.0241   170
13.0341   168
13.0441   176
13.0541   184
13.0641   194
13.0741   191
13.0841   178
13.0941   182
13.1041   179
13.1141   170
13.1241   173
13.1341   193
13.1441   209
13.1541   204
13.1641   200
13.1741   210
13.1841   225
13.1941   232
13.2041   211
13.2141   215
13.2241   227
13.2341   238
13.2441   258
13.2541   272
13.2641   302
13.2741   341
13.2841   328
13.2941   295
13.3041   308
13.3141   350
13.3241   386
13.3341   379
13.3441   389
13.3541   390
13.3641   381
13.3741   384
13.3841   379
13.3941   388
13.4041   388
13.4141   397
13.4241   401
13.4341   363
13.4441   314
13.4541   310
13.4641   334
13.4741   340
13.4841   318
13.4941   297
13.5041   278
13.5141   269
13.5241   255
13.5341   240
13.5441   244
13.5541   236
13.5641   220
13.5741   220
13.5841   219
13.5941   217
13.6041   214
13.6141   221
13.6241   222
13.6341   225
13.6441   226
13.6541   210
13.6641   214
13.6741   217
13.6841   209
13.6941   221
13.7041   229
13.7141   229
13.7241   233
13.7341   227
13.7441   214
13.7541   212
13.7641   211
13.7741   217
13.7841   225
13.7941   224
13.8041   217
13.8141   207
13.8241   206
13.8341   216
13.8441   230
13.8541   237
13.8641   236
13.8741   234
13.8841   232
13.8941   233
13.9041   248
13.9141   251
13.9241   243
13.9341   249
13.9441   273
13.9541   289
13.9641   288
13.9741   309
13.9841   312
13.9941   323
14.0041   347
14.0141   369
14.0241   393
14.0341   421
14.0441   450
14.0541   456
14.0641   480
14.0741   553
14.0841   579
14.0941   562
14.1041   591
14.1141   610
14.1241   633
14.1341   634
14.1441   626
14.1541   634
14.1641   616
14.1741   607
14.1841   603
14.1941   583
14.2041   567
14.2141   536
14.2241   495
14.2341   477
14.2441   459
14.2541   440
14.2641   408
14.2741   378
14.2841   368
14.2941   346
14.3041   337
14.3141   308
14.3241   274
14.3341   268
14.3441   275
14.3541   267
14.3641   280
14.3741   287
14.3841   273
14.3941   257
14.4041   237
14.4141   227
14.4241   234
14.4341   246
14.4441   238
14.4541   227
14.4641   238
14.4741   248
14.4841   240
14.4941   235
14.5041   238
14.5141   236
14.5241   235
14.5341   243
14.5441   257
14.5541   240
14.5641   229
14.5741   243
14.5841   246
14.5941   255
14.6041   262
14.6141   273
14.6241   267
14.6341   263
14.6441   257
14.6541   247
14.6641   240
14.6741   245
14.6841   266
14.6941   267
14.7041   261
14.7141   253
14.7241   257
14.7341   262
14.7441   273
14.7541   263
14.7641   263
14.7741   271
14.7841   279
14.7941   279
14.8041   298
14.8141   296
14.8241   301
14.8341   302
14.8441   289
14.8541   289
14.8641   287
14.8741   304
14.8841   316
14.8941   306
14.9041   323
14.9141   325
14.9241   299
14.9341   301
14.9441   313
14.9541   305
14.9641   325
14.9741   318
14.9841   299
14.9941   315
15.0041   312
15.0141   299
15.0241   309
15.0341   301
15.0441   302
15.0541   303
15.0641   279
15.0741   286
15.0841   296
15.0941   292
15.1041   302
15.1141   281
15.1241   280
15.1341   293
15.1441   277
15.1541   266
15.1641   286
15.1741   302
15.1841   299
15.1941   286
15.2041   290
15.2141   290
15.2241   288
15.2341   273
15.2441   278
15.2541   277
15.2641   285
15.2741   283
15.2841   260
15.2941   278
15.3041   287
15.3141   260
15.3241   260
15.3341   280
15.3441   282
15.3541   285
15.3641   290
15.3741   293
15.3841   273
15.3941   270
15.4041   298
15.4141   297
15.4241   297
15.4341   298
15.4441   286
15.4541   287
15.4641   285
15.4741   285
15.4841   311
15.4941   313
15.5041   300
15.5141   292
15.5241   302
15.5341   310
15.5441   279
15.5541   290
15.5641   288
15.5741   331
15.5841   313
15.5941   301
15.6041   330
15.6141   325
15.6241   349
15.6341   367
15.6441   357
15.6541   362
15.6641   381
15.6741   396
15.6841   415
15.6941   431
15.7041   426
15.7141   434
15.7241   422
15.7341   425
15.7441   445
15.7541   450
15.7641   464
15.7741   492
15.7841   486
15.7941   471
15.8041   456
15.8141   422
15.8241   447
15.8341   455
15.8441   409
15.8541   420
15.8641   399
15.8741   405
15.8841   409
15.8941   389
15.9041   381
15.9141   385
15.9241   383
15.9341   353
15.9441   346
15.9541   345
15.9641   322
15.9741   332
15.9841   350
15.9941   345
16.0041   321
16.0141   299
16.0241   301
16.0341   341
16.0441   350
16.0541   321
16.0641   314
16.0741   334
16.0841   341
16.0941   332
16.1041   302
16.1141   323
16.1241   331
16.1341   322
16.1441   316
16.1541   305
16.1641   339
16.1741   343
16.1841   345
16.1941   341
16.2041   349
16.2141   328
16.2241   333
16.2341   330
16.2441   334
16.2541   331
16.2641   297
16.2741   310
16.2841   351
16.2941   328
16.3041   300
16.3141   310
16.3241   340
16.3341   328
16.3441   336
16.3541   332
16.3641   325
16.3741   329
16.3841   329
16.3941   326
16.4041   336
16.4141   349
16.4241   349
16.4341   321
16.4441   352
16.4541   330
16.4641   343
16.4741   364
16.4841   329
16.4941   344
16.5041   365
16.5141   356
16.5241   355
16.5341   365
16.5441   351
16.5541   335
16.5641   361
16.5741   365
16.5841   344
16.5941   348
16.6041   362
16.6141   368
16.6241   380
16.6341   354
16.6441   356
16.6541   370
16.6641   377
16.6741   362
16.6841   348
16.6941   370
16.7041   376
16.7141   405
16.7241   380
16.7341   373
16.7441   361
16.7541   346
16.7641   358
16.7741   357
16.7841   354
16.7941   341
16.8041   359
16.8141   375
16.8241   369
16.8341   347
16.8441   345
16.8541   342
16.8641   370
16.8741   387
16.8841   365
16.8941   367
16.9041   336
16.9141   371
16.9241   370
16.9341   360
16.9441   375
16.9541   370
16.9641   370
16.9741   353
16.9841   381
16.9941   400
17.0041   388
17.0141   327
17.0241   356
17.0341   390
17.0441   400
17.0541   356
17.0641   350
17.0741   356
17.0841   370
17.0941   372
17.1041   374
17.1141   383
17.1241   365
17.1341   380
17.1441   387
17.1541   394
17.1641   409
17.1741   382
17.1841   358
17.1941   362
17.2041   362
17.2141   380
17.2241   401
17.2341   389
17.2441   377
17.2541   371
17.2641   372
17.2741   378
17.2841   387
17.2941   403
17.3041   404
17.3141   399
17.3241   398
17.3341   385
17.3441   394
17.3541   396
17.3641   405
17.3741   374
17.3841   384
17.3941   375
17.4041   392
17.4141   409
17.4241   417
17.4341   419
17.4441   407
17.4541   423
17.4641   410
17.4741   411
17.4841   400
17.4941   438
17.5041   411
17.5141   425
17.5241   416
17.5341   386
17.5441   396
17.5541   412
17.5641   446
17.5741   408
17.5841   405
17.5941   450
17.6041   433
17.6141   414
17.6241   451
17.6341   441
17.6441   432
17.6541   424
17.6641   416
17.6741   421
17.6841   431
17.6941   431
17.7041   420
17.7141   398
17.7241   435
17.7341   427
17.7441   421
17.7541   430
17.7641   456
17.7741   445
17.7841   424
17.7941   431
17.8041   406
17.8141   430
17.8241   442
17.8341   423
17.8441   430
17.8541   428
17.8641   412
17.8741   431
17.8841   443
17.8941   400
17.9041   379
17.9141   404
17.9241   428
17.9341   418
17.9441   420
17.9541   405
17.9641   405
17.9741   421
17.9841   428
17.9941   433
18.0041   414
18.0141   437
18.0241   423
18.0341   425
18.0441   441
18.0541   457
18.0641   433
18.0741   430
18.0841   435
18.0941   427
18.1041   449
18.1141   416
18.1241   419
18.1341   435
18.1441   440
18.1541   432
18.1641   432
18.1741   444
18.1841   460
18.1941   409
18.2041   452
18.2141   442
18.2241   413
18.2341   409
18.2441   426
18.2541   440
18.2641   444
18.2741   462
18.2841   435
18.2941   437
18.3041   452
18.3141   475
18.3241   441
18.3341   433
18.3441   444
18.3541   431
18.3641   438
18.3741   440
18.3841   461
18.3941   473
18.4041   440
18.4141   477
18.4241   428
18.4341   436
18.4441   418
18.4541   453
18.4641   438
18.4741   455
18.4841   465
18.4941   439
18.5041   466
18.5141   470
18.5241   421
18.5341   462
18.5441   444
18.5541   478
18.5641   485
18.5741   471
18.5841   468
18.5941   456
18.6041   461
18.6141   440
18.6241   465
18.6341   461
18.6441   440
18.6541   476
18.6641   487
18.6741   464
18.6841   463
18.6941   490
18.7041   460
18.7141   462
18.7241   452
18.7341   476
18.7441   451
18.7541   459
18.7641   469
18.7741   489
18.7841   452
18.7941   470
18.8041   460
18.8141   459
18.8241   453
18.8341   474
18.8441   480
18.8541   470
18.8641   455
18.8741   459
18.8841   479
18.8941   475
18.9041   494
18.9141   485
18.9241   492
18.9341   469
18.9441   463
18.9541   469
18.9641   474
18.9741   482
18.9841   476
18.9941   507
19.0041   441
19.0141   457
19.0241   467
19.0341   492
19.0441   480
19.0541   478
19.0641   472
19.0741   464
19.0841   508
19.0941   505
19.1041   493
19.1141   492
19.1241   473
19.1341   481
19.1441   460
19.1541   464
19.1641   472
19.1741   477
19.1841   461
19.1941   480
19.2041   469
19.2141   468
19.2241   489
19.2341   490
19.2441   453
19.2541   462
19.2641   496
19.2741   510
19.2841   534
19.2941   504
19.3041   482
19.3141   466
19.3241   508
19.3341   480
19.3441   498
19.3541   488
19.3641   505
19.3741   495
19.3841   513
19.3941   504
19.4041   501
19.4141   494
19.4241   490
19.4341   501
19.4441   481
19.4541   507
19.4641   502
19.4741   501
19.4841   488
19.4941   477
19.5041   463
19.5141   477
19.5241   483
19.5341   486
19.5441   480
19.5541   498
19.5641   519
19.5741   513
19.5841   521
19.5941   526
19.6041   520
19.6141   533
19.6241   518
19.6341   519
19.6441   506
19.6541   497
19.6641   479
19.6741   513
19.6841   544
19.6941   501
19.7041   480
19.7141   471
19.7241   522
19.7341   495
19.7441   500
19.7541   515
19.7641   520
19.7741   504
19.7841   520
19.7941   489
19.8041   520
19.8141   503
19.8241   487
19.8341   512
19.8441   506
19.8541   512
19.8641   493
19.8741   469
19.8841   474
19.8941   549
19.9041   533
19.9141   513
19.9241   516
19.9341   524
19.9441   490
19.9541   501
19.9641   508
19.9741   522
19.9841   550
19.9941   531
20.0041   510
20.0141   532
20.0241   505
20.0341   488
20.0441   510
20.0541   499
20.0641   487
20.0741   530
20.0841   539
20.0941   506
20.1041   514
20.1141   477
20.1241   514
20.1341   527
20.1441   529
20.1541   546
20.1641   528
20.1741   519
20.1841   556
20.1941   511
20.2041   543
20.2141   529
20.2241   510
20.2341   481
20.2441   487
20.2541   533
20.2641   536
20.2741   525
20.2841   555
20.2941   541
20.3041   532
20.3141   512
20.3241   546
20.3341   533
20.3441   525
20.3541   509
20.3641   518
20.3741   501
20.3841   534
20.3941   549
20.4041   567
20.4141   512
20.4241   531
20.4341   515
20.4441   551
20.4541   548
20.4641   508
20.4741   529
20.4841   519
20.4941   520
20.5041   533
20.5141   554
20.5241   581
20.5341   568
20.5441   517
20.5541   536
20.5641   548
20.5741   517
20.5841   511
20.5941   571
20.6041   512
20.6141   543
20.6241   568
20.6341   576
20.6441   554
20.6541   531
20.6641   504
20.6741   555
20.6841   526
20.6941   547
20.7041   548
20.7141   565
20.7241   565
20.7341   521
20.7441   554
20.7541   556
20.7641   533
20.7741   545
20.7841   564
20.7941   550
20.8041   560
20.8141   547
20.8241   573
20.8341   554
20.8441   575
20.8541   559
20.8641   557
20.8741   593
20.8841   600
20.8941   581
20.9041   609
20.9141   631
20.9241   607
20.9341   658
20.9441   691
20.9541   723
20.9641   712
20.9741   739
20.9841   681
20.9941   728
21.0041   734
21.0141   767
21.0241   767
21.0341   749
21.0441   791
21.0541   818
21.0641   845
21.0741   809
21.0841   859
21.0941   851
21.1041   794
21.1141   838
21.1241   855
21.1341   846
21.1441   837
21.1541   864
21.1641   795
21.1741   850
21.1841   799
21.1941   894
21.2041   824
21.2141   765
21.2241   744
21.2341   823
21.2441   733
21.2541   749
21.2641   695
21.2741   707
21.2841   699
21.2941   679
21.3041   600
21.3141   648
21.3241   644
21.3341   637
21.3441   604
21.3541   564
21.3641   604
21.3741   571
21.3841   548
21.3941   605
21.4041   580
21.4141   517
21.4241   540
21.4341   552
21.4441   516
21.4541   569
21.4641   546
21.4741   539
21.4841   528
21.4941   555
21.5041   550
21.5141   541
21.5241   565
21.5341   575
21.5441   573
21.5541   540
21.5641   564
21.5741   580
21.5841   536
21.5941   561
21.6041   545
21.6141   517
21.6241   525
21.6341   569
21.6441   562
21.6541   596
21.6641   619
21.6741   568
21.6841   554
21.6941   540
21.7041   560
21.7141   501
21.7241   526
21.7341   557
21.7441   558
21.7541   554
21.7641   507
21.7741   565
21.7841   558
21.7941   588
21.8041   534
21.8141   560
21.8241   546
21.8341   518
21.8441   545
21.8541   545
21.8641   524
21.8741   562
21.8841   580
21.8941   543
21.9041   570
21.9141   532
21.9241   546
21.9341   516
21.9441   530
21.9541   586
21.9641   561
21.9741   538
21.9841   549
21.9941   503
22.0041   537
22.0141   546
22.0241   547
22.0341   514
22.0441   543
22.0541   575
22.0641   554
22.0741   597
22.0841   558
22.0941   559
22.1041   519
22.1141   561
22.1241   592
22.1341   558
22.1441   543
22.1541   569
22.1641   609
22.1741   547
22.1841   565
22.1941   592
22.2041   579
22.2141   542
22.2241   519
22.2341   530
22.2441   529
22.2541   555
22.2641   528
22.2741   576
22.2841   564
22.2941   536
22.3041   581
22.3141   563
22.3241   560
22.3341   545
22.3441   543
22.3541   605
22.3641   556
22.3741   561
22.3841   471
22.3941   518
22.4041   555
22.4141   515
22.4241   554
22.4341   539
22.4441   530
22.4541   546
22.4641   581
22.4741   567
22.4841   571
22.4941   573
22.5041   547
22.5141   569
22.5241   576
22.5341   525
22.5441   554
22.5541   498
22.5641   552
22.5741   541
22.5841   552
22.5941   538
22.6041   547
22.6141   562
22.6241   537
22.6341   537
22.6441   547
22.6541   569
22.6641   557
22.6741   532
22.6841   544
22.6941   552
22.7041   547
22.7141   512
22.7241   526
22.7341   551
22.7441   545
22.7541   557
22.7641   551
22.7741   565
22.7841   579
22.7941   551
22.8041   563
22.8141   536
22.8241   570
22.8341   553
22.8441   516
22.8541   506
22.8641   570
22.8741   567
22.8841   547
22.8941   575
22.9041   555
22.9141   541
22.9241   509
22.9341   513
22.9441   537
22.9541   540
22.9641   515
22.9741   563
22.9841   539
22.9941   502
23.0041   534
23.0141   528
23.0241   540
23.0341   585
23.0441   488
23.0541   553
23.0641   519
23.0741   551
23.0841   544
23.0941   558
23.1041   554
23.1141   517
23.1241   548
23.1341   562
23.1441   552
23.1541   568
23.1641   527
23.1741   487
23.1841   514
23.1941   525
23.2041   537
23.2141   508
23.2241   550
23.2341   541
23.2441   505
23.2541   506
23.2641   559
23.2741   540
23.2841   587
23.2941   529
23.3041   575
23.3141   517
23.3241   571
23.3341   504
23.3441   603
23.3541   547
23.3641   518
23.3741   558
23.3841   556
23.3941   506
23.4041   530
23.4141   554
23.4241   514
23.4341   555
23.4441   555
23.4541   511
23.4641   558
23.4741   558
23.4841   565
23.4941   521
23.5041   513
23.5141   575
23.5241   530
23.5341   501
23.5441   585
23.5541   526
23.5641   498
23.5741   543
23.5841   553
23.5941   511
23.6041   580
23.6141   526
23.6241   574
23.6341   575
23.6441   566
23.6541   544
23.6641   549
23.6741   496
23.6841   585
23.6941   538
23.7041   535
23.7141   581
23.7241   559
23.7341   562
23.7441   585
23.7541   534
23.7641   577
23.7741   552
23.7841   583
23.7941   593
23.8041   598
23.8141   601
23.8241   569
23.8341   566
23.8441   607
23.8541   582
23.8641   598
23.8741   547
23.8841   583
23.8941   543
23.9041   558
23.9141   553
23.9241   581
23.9341   542
23.9441   563
23.9541   548
23.9641   535
23.9741   573
23.9841   543
23.9941   538
24.0041   570
24.0141   534
24.0241   540
24.0341   543
24.0441   532
24.0541   534
24.0641   519
24.0741   532
24.0841   529
24.0941   496
24.1041   536
24.1141   535
24.1241   535
24.1341   513
24.1441   504
24.1541   524
24.1641   507
24.1741   508
24.1841   505
24.1941   488
24.2041   529
24.2141   491
24.2241   498
24.2341   528
24.2441   587
24.2541   484
24.2641   514
24.2741   546
24.2841   504
24.2941   497
24.3041   556
24.3141   494
24.3241   531
24.3341   523
24.3441   535
24.3541   564
24.3641   541
24.3741   503
24.3841   516
24.3941   582
24.4041   548
24.4141   538
24.4241   554
24.4341   530
24.4441   569
24.4541   553
24.4641   471
24.4741   471
24.4841   496
24.4941   450
24.5041   499
24.5141   484
24.5241   522
24.5341   534
24.5441   501
24.5541   498
24.5641   482
24.5741   487
24.5841   512
24.5941   525
24.6041   496
24.6141   500
24.6241   510
24.6341   522
24.6441   483
24.6541   489
24.6641   522
24.6741   525
24.6841   533
24.6941   486
24.7041   480
24.7141   508
24.7241   569
24.7341   508
24.7441   494
24.7541   473
24.7641   509
24.7741   431
24.7841   475
24.7941   481
24.8041   527
24.8141   529
24.8241   522
24.8341   515
24.8441   532
24.8541   525
24.8641   534
24.8741   509
24.8841   498
24.8941   503
24.9041   490
24.9141   467
24.9241   496
24.9341   489
24.9441   493
24.9541   524
24.9641   541
24.9741   526
24.9841   501
24.9941   517
25.0041   528
25.0141   512
25.0241   506
25.0341   540
25.0441   508
25.0541   493
25.0641   518
25.0741   532
25.0841   504
25.0941   466
25.1041   473
25.1141   534
25.1241   526
25.1341   510
25.1441   531
25.1541   548
25.1641   514
25.1741   488
25.1841   516
25.1941   509
25.2041   522
25.2141   530
25.2241   538
25.2341   493
25.2441   531
25.2541   498
25.2641   546
25.2741   529
25.2841   507
25.2941   531
25.3041   530
25.3141   525
25.3241   497
25.3341   513
25.3441   488
25.3541   537
25.3641   501
25.3741   482
25.3841   519
25.3941   498
25.4041   528
25.4141   481
25.4241   522
25.4341   533
25.4441   474
25.4541   479
25.4641   485
25.4741   485
25.4841   475
25.4941   477
25.5041   482
25.5141   493
25.5241   456
25.5341   479
25.5441   468
25.5541   472
25.5641   509
25.5741   475
25.5841   504
25.5941   445
25.6041   490
25.6141   463
25.6241   479
25.6341   470
25.6441   451
25.6541   471
25.6641   472
25.6741   453
25.6841   455
25.6941   466
25.7041   513
25.7141   478
25.7241   449
25.7341   458
25.7441   503
25.7541   494
25.7641   499
25.7741   479
25.7841   513
25.7941   493
25.8041   452
25.8141   502
25.8241   481
25.8341   453
25.8441   487
25.8541   460
25.8641   488
25.8741   497
25.8841   473
25.8941   456
25.9041   467
25.9141   483
25.9241   472
25.9341   477
25.9441   483
25.9541   451
25.9641   460
25.9741   480
25.9841   446
25.9941   455
26.0041   469
26.0141   483
26.0241   492
26.0341   463
26.0441   472
26.0541   454
26.0641   457
26.0741   437
26.0841   422
26.0941   448
26.1041   485
26.1141   443
26.1241   430
26.1341   457
26.1441   444
26.1541   454
26.1641   469
26.1741   448
26.1841   488
26.1941   458
26.2041   481
26.2141   468
26.2241   457
26.2341   465
26.2441   450
26.2541   422
26.2641   415
26.2741   501
26.2841   441
26.2941   438
26.3041   436
26.3141   468
26.3241   467
26.3341   481
26.3441   438
26.3541   418
26.3641   458
26.3741   461
26.3841   475
26.3941   467
26.4041   471
26.4141   483
26.4241   470
26.4341   441
26.4441   447
26.4541   471
26.4641   436
26.4741   483
26.4841   444
26.4941   430
26.5041   451
26.5141   423
26.5241   452
26.5341   461
26.5441   455
26.5541   450
26.5641   444
26.5741   459
26.5841   460
26.5941   462
26.6041   435
26.6141   447
26.6241   457
26.6341   457
26.6441   440
26.6541   427
26.6641   444
26.6741   434
26.6841   420
26.6941   441
26.7041   444
26.7141   447
26.7241   452
26.7341   435
26.7441   455
26.7541   463
26.7641   457
26.7741   450
26.7841   436
26.7941   393
26.8041   422
26.8141   440
26.8241   433
26.8341   426
26.8441   425
26.8541   438
26.8641   431
26.8741   387
26.8841   438
26.8941   466
26.9041   418
26.9141   392
26.9241   434
26.9341   397
26.9441   432
26.9541   399
26.9641   430
26.9741   427
26.9841   418
26.9941   408
27.0041   432
27.0141   442
27.0241   436
27.0341   399
27.0441   390
27.0541   416
27.0641   433
27.0741   429
27.0841   473
27.0941   434
27.1041   433
27.1141   429
27.1241   414
27.1341   408
27.1441   426
27.1541   472
27.1641   425
27.1741   414
27.1841   407
27.1941   432
27.2041   430
27.2141   451
27.2241   415
27.2341   420
27.2441   439
27.2541   396
27.2641   420
27.2741   442
27.2841   440
27.2941   463
27.3041   419
27.3141   438
27.3241   422
27.3341   408
27.3441   402
27.3541   404
27.3641   408
27.3741   440
27.3841   435
27.3941   451
27.4041   452
27.4141   412
27.4241   426
27.4341   403
27.4441   395
27.4541   416
27.4641   414
27.4741   394
27.4841   410
27.4941   402
27.5041   386
27.5141   410
27.5241   387
27.5341   410
27.5441   397
27.5541   407
27.5641   424
27.5741   383
27.5841   382
27.5941   402
27.6041   413
27.6141   390
27.6241   368
27.6341   391
27.6441   386
27.6541   427
27.6641   417
27.6741   389
27.6841   410
27.6941   391
27.7041   416
27.7141   383
27.7241   410
27.7341   366
27.7441   405
27.7541   393
27.7641   405
27.7741   382
27.7841   364
27.7941   395
27.8041   387
27.8141   421
27.8241   401
27.8341   381
27.8441   381
27.8541   411
27.8641   379
27.8741   374
27.8841   382
27.8941   408
27.9041   386
27.9141   378
27.9241   385
27.9341   419
27.9441   364
27.9541   393
27.9641   412
27.9741   403
27.9841   411
27.9941   375
28.0041   382
28.0141   416
28.0241   404
28.0341   392
28.0441   367
28.0541   420
28.0641   384
28.0741   352
28.0841   370
28.0941   362
28.1041   387
28.1141   367
28.1241   371
28.1341   376
28.1441   360
28.1541   380
28.1641   359
28.1741   347
28.1841   370
28.1941   386
28.2041   378
28.2141   395
28.2241   396
28.2341   358
28.2441   395
28.2541   367
28.2641   354
28.2741   339
28.2841   380
28.2941   388
28.3041   392
28.3141   336
28.3241   359
28.3341   369
28.3441   353
28.3541   380
28.3641   379
28.3741   340
28.3841   341
28.3941   353
28.4041   381
28.4141   387
28.4241   388
28.4341   381
28.4441   374
28.4541   386
28.4641   363
28.4741   357
28.4841   368
28.4941   359
28.5041   354
28.5141   394
28.5241   338
28.5341   333
28.5441   349
28.5541   360
28.5641   386
28.5741   414
28.5841   358
28.5941   383
28.6041   394
28.6141   352
28.6241   351
28.6341   367
28.6441   328
28.6541   349
28.6641   378
28.6741   364
28.6841   380
28.6941   332
28.7041   391
28.7141   354
28.7241   374
28.7341   333
28.7441   353
28.7541   338
28.7641   364
28.7741   367
28.7841   337
28.7941   339
28.8041   370
28.8141   366
28.8241   359
28.8341   352
28.8441   343
28.8541   353
28.8641   331
28.8741   344
28.8841   366
28.8941   359
28.9041   357
28.9141   338
28.9241   376
28.9341   352
28.9441   319
28.9541   336
28.9641   376
28.9741   329
28.9841   351
28.9941   335
29.0041   342
29.0141   359
29.0241   333
29.0341   331
29.0441   328
29.0541   316
29.0641   352
29.0741   411
29.0841   343
29.0941   332
29.1041   343
29.1141   329
29.1241   332
29.1341   326
29.1441   344
29.1541   348
29.1641   326
29.1741   351
29.1841   352
29.1941   354
29.2041   353
29.2141   333
29.2241   315
29.2341   328
29.2441   323
29.2541   298
29.2641   377
29.2741   346
29.2841   311
29.2941   327
29.3041   344
29.3141   340
29.3241   354
29.3341   332
29.3441   311
29.3541   330
29.3641   336
29.3741   335
29.3841   331
29.3941   321
29.4041   326
29.4141   334
29.4241   306
29.4341   329
29.4441   357
29.4541   330
29.4641   298
29.4741   308
29.4841   346
29.4941   314
29.5041   314
29.5141   345
29.5241   326
29.5341   317
29.5441   332
29.5541   360
29.5641   330
29.5741   336
29.5841   345
29.5941   304
29.6041   341
29.6141   295
29.6241   317
29.6341   306
29.6441   321
29.6541   357
29.6641   311
29.6741   290
29.6841   315
29.6941   317
29.7041   295
29.7141   306
29.7241   336
29.7341   306
29.7441   325
29.7541   329
29.7641   303
29.7741   310
29.7841   308
29.7941   328
29.8041   285
29.8141   311
29.8241   333
29.8341   324
29.8441   301
29.8541   328
29.8641   287
29.8741   316
29.8841   307
29.8941   299
29.9041   297
29.9141   290
29.9241   313
29.9341   306
29.9441   328
29.9541   279
29.9641   301
29.9741   283
29.9841   286
29.9941   303
30.0041   306
30.0141   303
30.0241   319
30.0341   322
30.0441   289
30.0541   313
30.0641   295
30.0741   293
30.0841   304
30.0941   295
30.1041   290
30.1141   293
30.1241   319
30.1341   313
30.1441   270
30.1541   282
30.1641   290
30.1741   289
30.1841   281
30.1941   297
30.2041   302
30.2141   289
30.2241   291
30.2341   320
30.2441   268
30.2541   289
30.2641   279
30.2741   294
30.2841   300
30.2941   291
30.3041   312
30.3141   312
30.3241   284
30.3341   260
30.3441   297
30.3541   268
30.3641   270
30.3741   255
30.3841   297
30.3941   287
30.4041   302
30.4141   282
30.4241   304
30.4341   281
30.4441   264
30.4541   278
30.4641   298
30.4741   323
30.4841   287
30.4941   271
30.5041   267
30.5141   278
30.5241   265
30.5341   270
30.5441   256
30.5541   288
30.5641   288
30.5741   277
30.5841   291
30.5941   314
30.6041   274
30.6141   286
30.6241   253
30.6341   292
30.6441   280
30.6541   266
30.6641   268
30.6741   305
30.6841   299
30.6941   258
30.7041   275
30.7141   263
30.7241   271
30.7341   276
30.7441   280
30.7541   249
30.7641   273
30.7741   271
30.7841   265
30.7941   291
30.8041   284
30.8141   292
30.8241   268
30.8341   273
30.8441   280
30.8541   262
30.8641   269
30.8741   260
30.8841   263
30.8941   269
30.9041   269
30.9141   273
30.9241   279
30.9341   277
30.9441   263
30.9541   270
30.9641   260
30.9741   250
30.9841   262
30.9941   264
31.0041   291
31.0141   262
31.0241   263
31.0341   259
31.0441   253
31.0541   288
31.0641   276
31.0741   275
31.0841   249
31.0941   270
31.1041   259
31.1141   245
31.1241   230
31.1341   246
31.1441   273
31.1541   260
31.1641   244
31.1741   261
31.1841   262
31.1941   239
31.2041   264
31.2141   263
31.2241   280
31.2341   246
31.2441   250
31.2541   256
31.2641   258
31.2741   258
31.2841   259
31.2941   267
31.3041   223
31.3141   231
31.3241   261
31.3341   249
31.3441   233
31.3541   252
31.3641   242
31.3741   234
31.3841   239
31.3941   237
31.4041   258
31.4141   238
31.4241   259
31.4341   255
31.4441   237
31.4541   245
31.4641   254
31.4741   246
31.4841   276
31.4941   230
31.5041   282
31.5141   225
31.5241   240
31.5341   233
31.5441   252
31.5541   255
31.5641   270
31.5741   258
31.5841   229
31.5941   260
31.6041   256
31.6141   224
31.6241   239
31.6341   262
31.6441   239
31.6541   241
31.6641   258
31.6741   243
31.6841   234
31.6941   256
31.7041   234
31.7141   272
31.7241   263
31.7341   259
31.7441   244
31.7541   251
31.7641   245
31.7741   264
31.7841   255
31.7941   248
31.8041   215
31.8141   244
31.8241   271
31.8341   241
31.8441   259
31.8541   210
31.8641   254
31.8741   248
31.8841   240
31.8941   246
31.9041   247
31.9141   248
31.9241   237
31.9341   232
31.9441   239
31.9541   250
31.9641   242
31.9741   236
31.9841   242
31.9941   257
32.0041   234
32.0141   227
32.0241   236
32.0341   213
32.0441   248
32.0541   240
32.0641   258
32.0741   266
32.0841   243
32.0941   239
32.1041   235
32.1141   227
32.1241   219
32.1341   241
32.1441   245
32.1541   273
32.1641   237
32.1741   244
32.1841   242
32.1941   239
32.2041   246
32.2141   273
32.2241   268
32.2341   245
32.2441   265
32.2541   240
32.2641   233
32.2741   244
32.2841   274
32.2941   234
32.3041   215
32.3141   235
32.3241   253
32.3341   249
32.3441   225
32.3541   218
32.3641   215
32.3741   214
32.3841   243
32.3941   241
32.4041   216
32.4141   215
32.4241   257
32.4341   215
32.4441   203
32.4541   200
32.4641   204
32.4741   232
32.4841   206
32.4941   193
32.5041   203
32.5141   191
32.5241   206
32.5341   196
32.5441   195
32.5541   215
32.5641   209
32.5741   193
32.5841   204
32.5941   205
32.6041   186
32.6141   193
32.6241   197
32.6341   186
32.6441   218
32.6541   180
32.6641   187
32.6741   181
32.6841   206
32.6941   209
32.7041   208
32.7141   205
32.7241   178
32.7341   191
32.7441   218
32.7541   186
32.7641   202
32.7741   172
32.7841   192
32.7941   177
32.8041   199
32.8141   196
32.8241   197
32.8341   192
32.8441   200
32.8541   200
32.8641   175
32.8741   183
32.8841   186
32.8941   213
32.9041   180
32.9141   200
32.9241   172
32.9341   197
32.9441   177
32.9541   206
32.9641   210
32.9741   201
32.9841   193
32.9941   176
33.0041   185
33.0141   196
33.0241   194
33.0341   201
33.0441   207
33.0541   187
33.0641   182
33.0741   168
33.0841   198
33.0941   184
33.1041   174
33.1141   179
33.1241   191
33.1341   185
33.1441   177
33.1541   180
33.1641   176
33.1741   171
33.1841   181
33.1941   175
33.2041   162
33.2141   175
33.2241   172
33.2341   157
33.2441   177
33.2541   199
33.2641   177
33.2741   184
33.2841   203
33.2941   194
33.3041   180
33.3141   168
33.3241   159
33.3341   162
33.3441   166
33.3541   160
33.3641   187
33.3741   166
33.3841   171
33.3941   201
33.4041   176
33.4141   171
33.4241   168
33.4341   167
33.4441   172
33.4541   176
33.4641   173
33.4741   186
33.4841   171
33.4941   183
33.5041   164
33.5141   156
33.5241   181
33.5341   194
33.5441   189
33.5541   174
33.5641   188
33.5741   160
33.5841   159
33.5941   168
33.6041   148
33.6141   159
33.6241   171
33.6341   180
33.6441   145
33.6541   204
33.6641   165
33.6741   152
33.6841   157
33.6941   159
33.7041   179
33.7141   167
33.7241   171
33.7341   161
33.7441   150
33.7541   176
33.7641   138
33.7741   161
33.7841   164
33.7941   176
33.8041   167
33.8141   164
33.8241   167
33.8341   174
33.8441   156
33.8541   173
33.8641   175
33.8741   164
33.8841   166
33.8941   162
33.9041   176
33.9141   148
33.9241   166
33.9341   164
33.9441   158
33.9541   162
33.9641   175
33.9741   162
33.9841   169
33.9941   163
34.0041   164
34.0141   145
34.0241   151
34.0341   164
34.0441   163
34.0541   149
34.0641   139
34.0741   152
34.0841   135
34.0941   176
34.1041   147
34.1141   168
34.1241   159
34.1341   161
34.1441   165
34.1541   144
34.1641   146
34.1741   152
34.1841   184
34.1941   168
34.2041   146
34.2141   145
34.2241   163
34.2341   171
34.2441   151
34.2541   156
34.2641   162
34.2741   142
34.2841   154
34.2941   160
34.3041   147
34.3141   155
34.3241   135
34.3341   137
34.3441   130
34.3541   147
34.3641   154
34.3741   146
34.3841   140
34.3941   149
34.4041   144
34.4141   149
34.4241   148
34.4341   158
34.4441   131
34.4541   167
34.4641   157
34.4741   143
34.4841   141
34.4941   135
34.5041   147
34.5141   155
34.5241   134
34.5341   120
34.5441   149
34.5541   132
34.5641   127
34.5741   149
34.5841   114
34.5941   131
34.6041   125
34.6141   133
34.6241   151
34.6341   153
34.6441   149
34.6541   146
34.6641   137
34.6741   149
34.6841   147
34.6941   145
34.7041   118
34.7141   152
34.7241   135
34.7341   144
34.7441   123
34.7541   129
34.7641   145
34.7741   128
34.7841   138
34.7941   142
34.8041   127
34.8141   150
34.8241   129
34.8341   121
34.8441   148
34.8541   133
34.8641   147
34.8741   131
34.8841   140
34.8941   161
34.9041   129
34.9141   134
34.9241   127
34.9341   149
34.9441   117
34.9541   136
34.9641   148
34.9741    99
34.9841   134
34.9941   134
35.0041   142
35.0141   114
35.0241   135
35.0341   137
35.0441   126
35.0541   130
35.0641   126
35.0741   139
35.0841   129
35.0941   136
35.1041   119
35.1141   138
35.1241   131
35.1341   116
35.1441   129
35.1541   136
35.1641   125
35.1741   125
35.1841   132
35.1941   113
35.2041   123
35.2141   110
35.2241   129
35.2341   123
35.2441   120
35.2541   132
35.2641   131
35.2741   123
35.2841   100
35.2941   122
35.3041   118
35.3141   113
35.3241   123
35.3341   119
35.3441   123
35.3541   122
35.3641   128
35.3741   117
35.3841   125
35.3941   140
35.4041   122
35.4141   121
35.4241   108
35.4341   126
35.4441   108
35.4541   112
35.4641   120
35.4741   112
35.4841   118
35.4941   119
35.5041   131
35.5141   139
35.5241   120
35.5341   115
35.5441   119
35.5541   123
35.5641   120
35.5741   117
35.5841   126
35.5941   111
35.6041   101
35.6141   103
35.6241   112
35.6341   116
35.6441   106
35.6541   111
35.6641   129
35.6741   110
35.6841   129
35.6941   117
35.7041   103
35.7141   120
35.7241   103
35.7341   103
35.7441    98
35.7541   115
35.7641   123
35.7741   101
35.7841   100
35.7941   104
35.8041   111
35.8141   108
35.8241   104
35.8341   100
35.8441   124
35.8541   111
35.8641   107
35.8741   115
35.8841   111
35.8941    98
35.9041   146
35.9141   113
35.9241   102
35.9341   112
35.9441   106
35.9541    91
35.9641   104
35.9741   109
35.9841   114
35.9941   110
36.0041   102
36.0141   115
36.0241   112
36.0341    97
36.0441   117
36.0541   102
36.0641   103
36.0741   115
36.0841   109
36.0941   120
36.1041   105
36.1141    93
36.1241   113
36.1341    91
36.1441    98
36.1541   106
36.1641   111
36.1741    90
36.1841   117
36.1941   118
36.2041    99
36.2141    90
36.2241    98
36.2341   117
36.2441   108
36.2541    89
36.2641    98
36.2741    95
36.2841   110
36.2941    94
36.3041    91
36.3141   111
36.3241   107
36.3341    93
36.3441   107
36.3541    93
36.3641    94
36.3741    93
36.3841    93
36.3941   127
36.4041    99
36.4141   105
36.4241    97
36.4341   107
36.4441   107
36.4541   100
36.4641   115
36.4741   105
36.4841   105
36.4941    95
36.5041    93
36.5141   106
36.5241   111
36.5341    94
36.5441    96
36.5541   102
36.5641    90
36.5741   102
36.5841   101
36.5941   113
36.6041    89
36.6141   110
36.6241    72
36.6341    97
36.6441    78
36.6541    91
36.6641    98
36.6741   100
36.6841    93
36.6941    92
36.7041    73
36.7141    78
36.7241    77
36.7341    83
36.7441    83
36.7541    95
36.7641    90
36.7741    83
36.7841    69
36.7941   102
36.8041    90
36.8141   101
36.8241    89
36.8341    82
36.8441    93
36.8541    90
36.8641    96
36.8741    90
36.8841    89
36.8941    87
36.9041    63
36.9141    89
36.9241    80
36.9341    94
36.9441    85
36.9541    97
36.9641    83
36.9741    95
36.9841    98
36.9941    76
37.0041    99
37.0141    85
37.0241    75
37.0341    86
37.0441    80
37.0541    89
37.0641    92
37.0741    89
37.0841    85
37.0941    85
37.1041    89
37.1141    91
37.1241    73
37.1341    70
37.1441    93
37.1541    79
37.1641    77
37.1741    64
37.1841    77
37.1941    74
37.2041    62
37.2141    75
37.2241    72
37.2341    70
37.2441    88
37.2541    84
37.2641    67
37.2741    85
37.2841    89
37.2941    94
37.3041    75
37.3141    79
37.3241    79
37.3341    59
37.3441    69
37.3541    83
37.3641    75
37.3741    70
37.3841    69
37.3941    76
37.4041    75
37.4141    74
37.4241    84
37.4341    76
37.4441    79
37.4541    75
37.4641    73
37.4741    77
37.4841    66
37.4941    89
37.5041    69
37.5141    76
37.5241    76
37.5341    70
37.5441    85
37.5541    74
37.5641    76
37.5741    76
37.5841    69
37.5941    62
37.6041    68
37.6141    65
37.6241    74
37.6341    74
37.6441    71
37.6541    68
37.6641    72
37.6741    58
37.6841    69
37.6941    65
37.7041    76
37.7141    57
37.7241    60
37.7341    74
37.7441    77
37.7541    61
37.7641    66
37.7741    80
37.7841    72
37.7941    52
37.8041    58
37.8141    70
37.8241    64
37.8341    66
37.8441    67
37.8541    66
37.8641    66
37.8741    66
37.8841    61
37.8941    67
37.9041    68
37.9141    78
37.9241    65
37.9341    68
37.9441    64
37.9541    70
37.9641    77
37.9741    68
37.9841    54
37.9941    60
38.0041    67
38.0141    75
38.0241    70
38.0341    61
38.0441    61
38.0541    73
38.0641    61
38.0741    61
38.0841    72
38.0941    72
38.1041    64
38.1141    71
38.1241    56
38.1341    77
38.1441    59
38.1541    79
38.1641    86
38.1741    59
38.1841    49
38.1941    58
38.2041    54
38.2141    69
38.2241    71
38.2341    66
38.2441    66
38.2541    52
38.2641    57
38.2741    67
38.2841    54
38.2941    69
38.3041    74
38.3141    49
38.3241    51
38.3341    74
38.3441    65
38.3541    64
38.3641    71
38.3741    61
38.3841    47
38.3941    63
38.4041    60
38.4141    52
38.4241    65
38.4341    53
38.4441    73
38.4541    45
38.4641    49
38.4741    50
38.4841    57
38.4941    65
38.5041    49
38.5141    70
38.5241    60
38.5341    72
38.5441    48
38.5541    52
38.5641    51
38.5741    49
38.5841    65
38.5941    50
38.6041    69
38.6141    58
38.6241    64
38.6341    63
38.6441    65
38.6541    57
38.6641    59
38.6741    61
38.6841    54
38.6941    53
38.7041    43
38.7141    59
38.7241    59
38.7341    55
38.7441    57
38.7541    57
38.7641    50
38.7741    49
38.7841    48
38.7941    54
38.8041    61
38.8141    47
38.8241    59
38.8341    53
38.8441    53
38.8541    68
38.8641    50
38.8741    48
38.8841    54
38.8941    50
38.9041    55
38.9141    38
38.9241    49
38.9341    56
38.9441    35
38.9541    46
38.9641    48
38.9741    46
38.9841    49
38.9941    38
39.0041    59
39.0141    37
39.0241    47
39.0341    51
39.0441    37
39.0541    42
39.0641    43
39.0741    46
39.0841    48
39.0941    46
39.1041    37
39.1141    49
39.1241    37
39.1341    52
39.1441    53
39.1541    43
39.1641    46
39.1741    55
39.1841    41
39.1941    54
39.2041    39
39.2141    41
39.2241    44
39.2341    47
39.2441    43
39.2541    46
39.2641    44
39.2741    36
39.2841    46
39.2941    44
39.3041    52
39.3141    33
39.3241    53
39.3341    39
39.3441    33
39.3541    44
39.3641    49
39.3741    57
39.3841    51
39.3941    41
39.4041    43
39.4141    32
39.4241    40
39.4341    41
39.4441    45
39.4541    50
39.4641    48
39.4741    45
39.4841    38
39.4941    42
39.5041    57
39.5141    37
39.5241    51
39.5341    33
39.5441    40
39.5541    32
39.5641    30
39.5741    51
39.5841    40
39.5941    35
39.6041    31
39.6141    47
39.6241    36
39.6341    30
39.6441    48
39.6541    40
39.6641    41
39.6741    29
39.6841    33
39.6941    38
39.7041    44
39.7141    41
39.7241    33
39.7341    31
39.7441    30
39.7541    35
39.7641    32
39.7741    33
39.7841    34
39.7941    33
39.8041    39
39.8141    43
39.8241    42
39.8341    27
39.8441    24
39.8541    37
39.8641    40
39.8741    34
39.8841    41
39.8941    34
39.9041    33
39.9141    23
39.9241    28
39.9341    38
39.9441    49
39.9541    29
39.9641    30
39.9741    31
39.9841    40
