Bruker Nano GmbH Berlin, Germany
Esprit 1.9

Date: 4/21/2021 2:27:07 PM
Real time: 17683
Life time: 16304
Pulse density: 115356


Detector type: XFlash 430
Window type: Custom type
Detector thickness: 0.45
Si dead layer:0.029

Calibration, lin.: 10
Calibration, abs.: -955.9
Mn FWHM: 137.05
Fano factor: 0.121
Channels: 4095

Energy Counts
-0.9559     0
-0.9459     0
-0.9359     0
-0.9259     0
-0.9159     0
-0.9059     0
-0.8959     0
-0.8859     0
-0.8759     0
-0.8659     0
-0.8559     0
-0.8459     0
-0.8359     0
-0.8259     0
-0.8159     0
-0.8059     0
-0.7959     0
-0.7859     0
-0.7759     0
-0.7659     0
-0.7559     0
-0.7459     0
-0.7359     0
-0.7259     0
-0.7159     0
-0.7059     0
-0.6959     0
-0.6859     0
-0.6759     0
-0.6659     0
-0.6559     0
-0.6459     0
-0.6359     0
-0.6259     0
-0.6159     0
-0.6059     0
-0.5959     0
-0.5859     0
-0.5759     0
-0.5659     0
-0.5559     0
-0.5459     0
-0.5359     0
-0.5259     0
-0.5159     0
-0.5059     0
-0.4959     0
-0.4859     0
-0.4759     0
-0.4659     0
-0.4559     0
-0.4459     0
-0.4359     0
-0.4259     0
-0.4159     0
-0.4059     0
-0.3959     0
-0.3859     0
-0.3759     0
-0.3659     0
-0.3559     0
-0.3459     0
-0.3359     0
-0.3259     0
-0.3159     0
-0.3059     0
-0.2959     0
-0.2859     0
-0.2759     0
-0.2659     0
-0.2559     0
-0.2459     0
-0.2359     0
-0.2259     0
-0.2159     0
-0.2059     0
-0.1959     0
-0.1859     0
-0.1759     0
-0.1659     0
-0.1559     0
-0.1459     1
-0.1359     0
-0.1259     0
-0.1159     3
-0.1059    12
-0.0959    51
-0.0859   200
-0.0759   663
-0.0659  1824
-0.0559  4764
-0.0459 10393
-0.0359 19300
-0.0259 31167
-0.0159 42676
-0.0059 49514
 0.0041 50436
 0.0141 43255
 0.0241 31980
 0.0341 20310
 0.0441 10953
 0.0541  5071
 0.0641  2144
 0.0741   757
 0.0841   247
 0.0941    67
 0.1041    20
 0.1141     3
 0.1241     3
 0.1341     4
 0.1441     6
 0.1541    12
 0.1641     5
 0.1741     1
 0.1841   189
 0.1941   331
 0.2041   295
 0.2141   296
 0.2241   287
 0.2341   324
 0.2441   289
 0.2541   301
 0.2641   297
 0.2741   285
 0.2841   289
 0.2941   304
 0.3041   287
 0.3141   286
 0.3241   263
 0.3341   270
 0.3441   275
 0.3541   265
 0.3641   273
 0.3741   263
 0.3841   265
 0.3941   266
 0.4041   271
 0.4141   269
 0.4241   252
 0.4341   241
 0.4441   258
 0.4541   249
 0.4641   253
 0.4741   237
 0.4841   242
 0.4941   249
 0.5041   256
 0.5141   265
 0.5241   286
 0.5341   264
 0.5441   239
 0.5541   228
 0.5641   241
 0.5741   252
 0.5841   225
 0.5941   233
 0.6041   234
 0.6141   225
 0.6241   222
 0.6341   224
 0.6441   220
 0.6541   231
 0.6641   223
 0.6741   228
 0.6841   231
 0.6941   229
 0.7041   223
 0.7141   209
 0.7241   204
 0.7341   213
 0.7441   211
 0.7541   205
 0.7641   211
 0.7741   219
 0.7841   216
 0.7941   205
 0.8041   221
 0.8141   221
 0.8241   203
 0.8341   199
 0.8441   213
 0.8541   217
 0.8641   208
 0.8741   189
 0.8841   196
 0.8941   201
 0.9041   210
 0.9141   202
 0.9241   213
 0.9341   217
 0.9441   199
 0.9541   187
 0.9641   191
 0.9741   196
 0.9841   189
 0.9941   186
 1.0041   200
 1.0141   205
 1.0241   189
 1.0341   184
 1.0441   171
 1.0541   180
 1.0641   185
 1.0741   189
 1.0841   192
 1.0941   181
 1.1041   169
 1.1141   202
 1.1241   182
 1.1341   185
 1.1441   187
 1.1541   199
 1.1641   187
 1.1741   195
 1.1841   201
 1.1941   205
 1.2041   191
 1.2141   182
 1.2241   189
 1.2341   180
 1.2441   167
 1.2541   192
 1.2641   186
 1.2741   199
 1.2841   175
 1.2941   186
 1.3041   187
 1.3141   185
 1.3241   175
 1.3341   175
 1.3441   165
 1.3541   159
 1.3641   164
 1.3741   166
 1.3841   182
 1.3941   176
 1.4041   177
 1.4141   185
 1.4241   161
 1.4341   168
 1.4441   172
 1.4541   173
 1.4641   161
 1.4741   189
 1.4841   175
 1.4941   186
 1.5041   159
 1.5141   160
 1.5241   166
 1.5341   178
 1.5441   161
 1.5541   164
 1.5641   173
 1.5741   145
 1.5841   171
 1.5941   167
 1.6041   159
 1.6141   174
 1.6241   160
 1.6341   180
 1.6441   182
 1.6541   205
 1.6641   234
 1.6741   297
 1.6841   322
 1.6941   425
 1.7041   483
 1.7141   557
 1.7241   604
 1.7341   629
 1.7441   609
 1.7541   597
 1.7641   537
 1.7741   473
 1.7841   418
 1.7941   347
 1.8041   302
 1.8141   248
 1.8241   256
 1.8341   209
 1.8441   184
 1.8541   181
 1.8641   183
 1.8741   192
 1.8841   185
 1.8941   164
 1.9041   161
 1.9141   175
 1.9241   152
 1.9341   165
 1.9441   183
 1.9541   169
 1.9641   166
 1.9741   156
 1.9841   198
 1.9941   198
 2.0041   200
 2.0141   192
 2.0241   194
 2.0341   181
 2.0441   177
 2.0541   178
 2.0641   183
 2.0741   174
 2.0841   163
 2.0941   169
 2.1041   145
 2.1141   166
 2.1241   149
 2.1341   148
 2.1441   137
 2.1541   152
 2.1641   164
 2.1741   165
 2.1841   151
 2.1941   146
 2.2041   152
 2.2141   150
 2.2241   149
 2.2341   138
 2.2441   149
 2.2541   142
 2.2641   136
 2.2741   159
 2.2841   150
 2.2941   162
 2.3041   136
 2.3141   148
 2.3241   154
 2.3341   160
 2.3441   126
 2.3541   145
 2.3641   146
 2.3741   129
 2.3841   123
 2.3941   136
 2.4041   155
 2.4141   128
 2.4241   133
 2.4341   125
 2.4441   144
 2.4541   132
 2.4641   139
 2.4741   140
 2.4841   132
 2.4941   138
 2.5041   130
 2.5141   124
 2.5241   119
 2.5341   123
 2.5441   128
 2.5541   128
 2.5641   134
 2.5741   141
 2.5841   135
 2.5941   134
 2.6041   128
 2.6141   112
 2.6241   146
 2.6341   140
 2.6441   119
 2.6541   147
 2.6641   123
 2.6741   146
 2.6841   119
 2.6941   133
 2.7041   132
 2.7141   128
 2.7241   118
 2.7341   115
 2.7441   120
 2.7541   134
 2.7641   135
 2.7741   117
 2.7841   142
 2.7941   114
 2.8041   126
 2.8141   153
 2.8241   137
 2.8341   125
 2.8441   156
 2.8541   143
 2.8641   126
 2.8741   127
 2.8841   118
 2.8941   106
 2.9041   122
 2.9141   108
 2.9241   116
 2.9341   114
 2.9441   115
 2.9541   107
 2.9641   110
 2.9741   126
 2.9841   115
 2.9941    97
 3.0041   125
 3.0141   104
 3.0241   107
 3.0341   113
 3.0441   108
 3.0541   102
 3.0641   116
 3.0741   121
 3.0841    94
 3.0941   102
 3.1041   101
 3.1141   116
 3.1241   107
 3.1341   121
 3.1441   100
 3.1541   103
 3.1641   112
 3.1741    99
 3.1841    99
 3.1941   112
 3.2041   108
 3.2141   121
 3.2241   117
 3.2341   139
 3.2441   145
 3.2541   170
 3.2641   174
 3.2741   188
 3.2841   214
 3.2941   218
 3.3041   260
 3.3141   257
 3.3241   252
 3.3341   229
 3.3441   215
 3.3541   203
 3.3641   169
 3.3741   155
 3.3841   141
 3.3941   119
 3.4041   114
 3.4141   117
 3.4241   106
 3.4341    94
 3.4441    94
 3.4541   102
 3.4641   102
 3.4741    88
 3.4841    98
 3.4941    95
 3.5041    92
 3.5141   112
 3.5241   112
 3.5341   148
 3.5441   137
 3.5541   140
 3.5641   169
 3.5741   193
 3.5841   227
 3.5941   325
 3.6041   394
 3.6141   514
 3.6241   616
 3.6341   808
 3.6441   944
 3.6541  1084
 3.6641  1175
 3.6741  1292
 3.6841  1332
 3.6941  1309
 3.7041  1334
 3.7141  1200
 3.7241  1080
 3.7341   907
 3.7441   763
 3.7541   598
 3.7641   446
 3.7741   357
 3.7841   292
 3.7941   210
 3.8041   169
 3.8141   133
 3.8241   114
 3.8341    90
 3.8441    90
 3.8541    88
 3.8641    79
 3.8741    94
 3.8841    79
 3.8941   106
 3.9041    94
 3.9141   113
 3.9241   122
 3.9341   126
 3.9441   168
 3.9541   182
 3.9641   208
 3.9741   206
 3.9841   252
 3.9941   258
 4.0041   319
 4.0141   295
 4.0241   268
 4.0341   270
 4.0441   271
 4.0541   232
 4.0641   224
 4.0741   156
 4.0841   170
 4.0941   108
 4.1041   115
 4.1141   101
 4.1241    80
 4.1341    95
 4.1441    78
 4.1541    87
 4.1641    70
 4.1741    61
 4.1841    59
 4.1941    59
 4.2041    72
 4.2141    66
 4.2241    69
 4.2341    61
 4.2441    53
 4.2541    64
 4.2641    75
 4.2741    72
 4.2841    66
 4.2941    71
 4.3041    82
 4.3141    69
 4.3241    93
 4.3341    69
 4.3441    87
 4.3541    82
 4.3641    73
 4.3741    97
 4.3841   101
 4.3941   133
 4.4041   159
 4.4141   182
 4.4241   224
 4.4341   263
 4.4441   298
 4.4541   384
 4.4641   464
 4.4741   512
 4.4841   593
 4.4941   583
 4.5041   622
 4.5141   597
 4.5241   592
 4.5341   534
 4.5441   514
 4.5541   440
 4.5641   365
 4.5741   287
 4.5841   273
 4.5941   201
 4.6041   178
 4.6141   162
 4.6241   123
 4.6341   119
 4.6441    88
 4.6541    69
 4.6641    72
 4.6741    80
 4.6841    78
 4.6941    88
 4.7041    83
 4.7141    78
 4.7241    85
 4.7341    81
 4.7441    72
 4.7541   100
 4.7641    86
 4.7741   107
 4.7841    96
 4.7941    98
 4.8041    95
 4.8141   108
 4.8241   114
 4.8341   132
 4.8441   115
 4.8541   133
 4.8641   157
 4.8741   181
 4.8841   183
 4.8941   184
 4.9041   175
 4.9141   182
 4.9241   216
 4.9341   204
 4.9441   201
 4.9541   184
 4.9641   177
 4.9741   175
 4.9841   158
 4.9941   144
 5.0041   132
 5.0141   151
 5.0241   107
 5.0341   114
 5.0441    84
 5.0541    95
 5.0641    87
 5.0741    90
 5.0841   103
 5.0941    80
 5.1041    69
 5.1141    90
 5.1241    85
 5.1341    97
 5.1441    85
 5.1541   105
 5.1641    83
 5.1741    77
 5.1841    66
 5.1941    89
 5.2041   100
 5.2141    95
 5.2241   113
 5.2341    90
 5.2441    89
 5.2541    72
 5.2641    67
 5.2741    87
 5.2841   115
 5.2941    84
 5.3041   107
 5.3141   113
 5.3241    95
 5.3341   101
 5.3441   120
 5.3541   129
 5.3641   134
 5.3741   164
 5.3841   162
 5.3941   183
 5.4041   170
 5.4141   165
 5.4241   194
 5.4341   179
 5.4441   156
 5.4541   169
 5.4641   139
 5.4741   142
 5.4841   123
 5.4941   125
 5.5041   102
 5.5141   109
 5.5241   102
 5.5341    99
 5.5441   103
 5.5541    79
 5.5641    98
 5.5741    96
 5.5841    89
 5.5941    86
 5.6041    93
 5.6141   118
 5.6241    96
 5.6341   108
 5.6441    82
 5.6541    90
 5.6641    95
 5.6741    91
 5.6841   107
 5.6941    97
 5.7041   100
 5.7141    99
 5.7241   110
 5.7341   135
 5.7441   106
 5.7541   124
 5.7641   140
 5.7741   148
 5.7841   178
 5.7941   215
 5.8041   255
 5.8141   320
 5.8241   358
 5.8341   426
 5.8441   449
 5.8541   488
 5.8641   614
 5.8741   623
 5.8841   609
 5.8941   657
 5.9041   677
 5.9141   600
 5.9241   574
 5.9341   528
 5.9441   492
 5.9541   426
 5.9641   403
 5.9741   333
 5.9841   302
 5.9941   247
 6.0041   192
 6.0141   202
 6.0241   166
 6.0341   156
 6.0441   145
 6.0541   131
 6.0641   147
 6.0741   123
 6.0841   135
 6.0941   137
 6.1041   155
 6.1141   147
 6.1241   165
 6.1341   175
 6.1441   167
 6.1541   202
 6.1641   208
 6.1741   220
 6.1841   245
 6.1941   303
 6.2041   374
 6.2141   484
 6.2241   672
 6.2341   919
 6.2441  1298
 6.2541  1857
 6.2641  2557
 6.2741  3426
 6.2841  4789
 6.2941  6190
 6.3041  8026
 6.3141 10234
 6.3241 12695
 6.3341 15152
 6.3441 17987
 6.3541 20438
 6.3641 22793
 6.3741 24718
 6.3841 26076
 6.3941 26824
 6.4041 26910
 6.4141 25813
 6.4241 24470
 6.4341 22761
 6.4441 20023
 6.4541 17511
 6.4641 15036
 6.4741 12344
 6.4841  9942
 6.4941  7597
 6.5041  5836
 6.5141  4287
 6.5241  3190
 6.5341  2272
 6.5441  1672
 6.5541  1140
 6.5641   777
 6.5741   535
 6.5841   443
 6.5941   334
 6.6041   249
 6.6141   206
 6.6241   184
 6.6341   163
 6.6441   177
 6.6541   151
 6.6641   163
 6.6741   147
 6.6841   165
 6.6941   181
 6.7041   167
 6.7141   179
 6.7241   157
 6.7341   171
 6.7441   175
 6.7541   157
 6.7641   183
 6.7741   167
 6.7841   182
 6.7941   190
 6.8041   187
 6.8141   239
 6.8241   227
 6.8341   224
 6.8441   248
 6.8541   251
 6.8641   302
 6.8741   349
 6.8841   394
 6.8941   493
 6.9041   581
 6.9141   711
 6.9241   883
 6.9341  1125
 6.9441  1232
 6.9541  1510
 6.9641  1893
 6.9741  2212
 6.9841  2759
 6.9941  3166
 7.0041  3431
 7.0141  3799
 7.0241  4145
 7.0341  4451
 7.0441  4514
 7.0541  4718
 7.0641  4551
 7.0741  4451
 7.0841  4055
 7.0941  3797
 7.1041  3443
 7.1141  3080
 7.1241  2578
 7.1341  2127
 7.1441  1792
 7.1541  1465
 7.1641  1196
 7.1741   937
 7.1841   720
 7.1941   586
 7.2041   431
 7.2141   352
 7.2241   283
 7.2341   266
 7.2441   247
 7.2541   221
 7.2641   222
 7.2741   217
 7.2841   204
 7.2941   194
 7.3041   209
 7.3141   226
 7.3241   244
 7.3341   218
 7.3441   223
 7.3541   293
 7.3641   259
 7.3741   274
 7.3841   285
 7.3941   305
 7.4041   313
 7.4141   283
 7.4241   313
 7.4341   317
 7.4441   323
 7.4541   344
 7.4641   379
 7.4741   335
 7.4841   311
 7.4941   298
 7.5041   297
 7.5141   282
 7.5241   262
 7.5341   262
 7.5441   227
 7.5541   229
 7.5641   212
 7.5741   209
 7.5841   178
 7.5941   181
 7.6041   204
 7.6141   202
 7.6241   201
 7.6341   192
 7.6441   187
 7.6541   194
 7.6641   196
 7.6741   188
 7.6841   165
 7.6941   200
 7.7041   209
 7.7141   201
 7.7241   202
 7.7341   199
 7.7441   201
 7.7541   189
 7.7641   219
 7.7741   222
 7.7841   224
 7.7941   241
 7.8041   242
 7.8141   256
 7.8241   258
 7.8341   269
 7.8441   233
 7.8541   270
 7.8641   282
 7.8741   280
 7.8841   292
 7.8941   294
 7.9041   315
 7.9141   324
 7.9241   333
 7.9341   350
 7.9441   405
 7.9541   376
 7.9641   421
 7.9741   431
 7.9841   514
 7.9941   514
 8.0041   559
 8.0141   630
 8.0241   648
 8.0341   697
 8.0441   749
 8.0541   804
 8.0641   794
 8.0741   887
 8.0841   914
 8.0941   984
 8.1041  1034
 8.1141  1071
 8.1241  1171
 8.1341  1155
 8.1441  1252
 8.1541  1253
 8.1641  1256
 8.1741  1304
 8.1841  1365
 8.1941  1258
 8.2041  1275
 8.2141  1358
 8.2241  1313
 8.2341  1359
 8.2441  1423
 8.2541  1460
 8.2641  1509
 8.2741  1642
 8.2841  1744
 8.2941  1832
 8.3041  2014
 8.3141  2174
 8.3241  2253
 8.3341  2481
 8.3441  2553
 8.3541  2751
 8.3641  2864
 8.3741  2949
 8.3841  2998
 8.3941  3006
 8.4041  2919
 8.4141  2754
 8.4241  2640
 8.4341  2449
 8.4441  2300
 8.4541  2061
 8.4641  1831
 8.4741  1639
 8.4841  1356
 8.4941  1196
 8.5041   968
 8.5141   829
 8.5241   683
 8.5341   642
 8.5441   595
 8.5541   550
 8.5641   516
 8.5741   477
 8.5841   484
 8.5941   448
 8.6041   488
 8.6141   452
 8.6241   459
 8.6341   461
 8.6441   469
 8.6541   439
 8.6641   468
 8.6741   420
 8.6841   435
 8.6941   410
 8.7041   411
 8.7141   389
 8.7241   372
 8.7341   372
 8.7441   347
 8.7541   335
 8.7641   308
 8.7741   298
 8.7841   273
 8.7941   310
 8.8041   314
 8.8141   309
 8.8241   282
 8.8341   287
 8.8441   260
 8.8541   286
 8.8641   314
 8.8741   271
 8.8841   274
 8.8941   294
 8.9041   316
 8.9141   309
 8.9241   300
 8.9341   304
 8.9441   326
 8.9541   330
 8.9641   322
 8.9741   341
 8.9841   323
 8.9941   318
 9.0041   339
 9.0141   348
 9.0241   334
 9.0341   349
 9.0441   358
 9.0541   371
 9.0641   411
 9.0741   395
 9.0841   388
 9.0941   432
 9.1041   418
 9.1141   461
 9.1241   473
 9.1341   449
 9.1441   499
 9.1541   537
 9.1641   554
 9.1741   578
 9.1841   593
 9.1941   639
 9.2041   696
 9.2141   734
 9.2241   740
 9.2341   772
 9.2441   844
 9.2541   869
 9.2641   883
 9.2741   923
 9.2841   959
 9.2941   999
 9.3041  1047
 9.3141  1079
 9.3241  1090
 9.3341  1131
 9.3441  1138
 9.3541  1226
 9.3641  1184
 9.3741  1302
 9.3841  1278
 9.3941  1295
 9.4041  1333
 9.4141  1337
 9.4241  1345
 9.4341  1334
 9.4441  1406
 9.4541  1397
 9.4641  1413
 9.4741  1385
 9.4841  1481
 9.4941  1581
 9.5041  1554
 9.5141  1574
 9.5241  1693
 9.5341  1719
 9.5441  1778
 9.5541  1849
 9.5641  1937
 9.5741  2007
 9.5841  2125
 9.5941  2222
 9.6041  2357
 9.6141  2470
 9.6241  2590
 9.6341  2662
 9.6441  2739
 9.6541  2807
 9.6641  2757
 9.6741  2711
 9.6841  2776
 9.6941  2751
 9.7041  2608
 9.7141  2451
 9.7241  2322
 9.7341  2256
 9.7441  2102
 9.7541  1949
 9.7641  1768
 9.7741  1582
 9.7841  1470
 9.7941  1409
 9.8041  1332
 9.8141  1293
 9.8241  1196
 9.8341  1139
 9.8441  1118
 9.8541  1082
 9.8641  1127
 9.8741  1121
 9.8841  1145
 9.8941  1171
 9.9041  1174
 9.9141  1244
 9.9241  1268
 9.9341  1309
 9.9441  1289
 9.9541  1305
 9.9641  1254
 9.9741  1254
 9.9841  1209
 9.9941  1088
10.0041  1035
10.0141   965
10.0241   892
10.0341   874
10.0441   820
10.0541   657
10.0641   574
10.0741   531
10.0841   486
10.0941   433
10.1041   394
10.1141   361
10.1241   307
10.1341   324
10.1441   287
10.1541   268
10.1641   255
10.1741   263
10.1841   251
10.1941   229
10.2041   206
10.2141   191
10.2241   202
10.2341   201
10.2441   182
10.2541   175
10.2641   180
10.2741   175
10.2841   192
10.2941   175
10.3041   178
10.3141   184
10.3241   190
10.3341   170
10.3441   150
10.3541   144
10.3641   175
10.3741   161
10.3841   161
10.3941   163
10.4041   173
10.4141   185
10.4241   167
10.4341   165
10.4441   176
10.4541   186
10.4641   175
10.4741   192
10.4841   175
10.4941   166
10.5041   170
10.5141   181
10.5241   181
10.5341   188
10.5441   199
10.5541   190
10.5641   180
10.5741   192
10.5841   204
10.5941   201
10.6041   214
10.6141   203
10.6241   205
10.6341   208
10.6441   187
10.6541   189
10.6641   179
10.6741   194
10.6841   215
10.6941   219
10.7041   204
10.7141   204
10.7241   192
10.7341   217
10.7441   253
10.7541   226
10.7641   234
10.7741   260
10.7841   265
10.7941   262
10.8041   248
10.8141   274
10.8241   269
10.8341   267
10.8441   270
10.8541   292
10.8641   299
10.8741   278
10.8841   283
10.8941   299
10.9041   267
10.9141   308
10.9241   308
10.9341   306
10.9441   302
10.9541   287
10.9641   300
10.9741   270
10.9841   290
10.9941   284
11.0041   263
11.0141   274
11.0241   280
11.0341   289
11.0441   261
11.0541   290
11.0641   297
11.0741   250
11.0841   242
11.0941   236
11.1041   267
11.1141   281
11.1241   253
11.1341   259
11.1441   276
11.1541   299
11.1641   295
11.1741   318
11.1841   324
11.1941   307
11.2041   329
11.2141   364
11.2241   371
11.2341   398
11.2441   392
11.2541   389
11.2641   434
11.2741   429
11.2841   428
11.2941   404
11.3041   374
11.3141   378
11.3241   397
11.3341   376
11.3441   330
11.3541   341
11.3641   343
11.3741   321
11.3841   297
11.3941   278
11.4041   279
11.4141   259
11.4241   243
11.4341   230
11.4441   216
11.4541   209
11.4641   188
11.4741   210
11.4841   219
11.4941   211
11.5041   203
11.5141   218
11.5241   200
11.5341   195
11.5441   184
11.5541   205
11.5641   210
11.5741   210
11.5841   206
11.5941   200
11.6041   205
11.6141   224
11.6241   231
11.6341   228
11.6441   227
11.6541   214
11.6641   230
11.6741   209
11.6841   212
11.6941   216
11.7041   213
11.7141   199
11.7241   182
11.7341   192
11.7441   197
11.7541   195
11.7641   175
11.7741   170
11.7841   166
11.7941   159
11.8041   160
11.8141   157
11.8241   157
11.8341   159
11.8441   157
11.8541   167
11.8641   171
11.8741   179
11.8841   153
11.8941   140
11.9041   173
11.9141   169
11.9241   166
11.9341   165
11.9441   166
11.9541   175
11.9641   173
11.9741   179
11.9841   173
11.9941   175
12.0041   159
12.0141   154
12.0241   152
12.0341   153
12.0441   159
12.0541   166
12.0641   163
12.0741   154
12.0841   151
12.0941   171
12.1041   168
12.1141   166
12.1241   160
12.1341   157
12.1441   159
12.1541   166
12.1641   165
12.1741   150
12.1841   151
12.1941   166
12.2041   158
12.2141   147
12.2241   173
12.2341   163
12.2441   142
12.2541   152
12.2641   156
12.2741   169
12.2841   172
12.2941   158
12.3041   144
12.3141   153
12.3241   156
12.3341   164
12.3441   156
12.3541   165
12.3641   163
12.3741   163
12.3841   158
12.3941   144
12.4041   147
12.4141   165
12.4241   177
12.4341   174
12.4441   153
12.4541   149
12.4641   156
12.4741   178
12.4841   184
12.4941   176
12.5041   167
12.5141   171
12.5241   184
12.5341   168
12.5441   164
12.5541   179
12.5641   174
12.5741   184
12.5841   190
12.5941   192
12.6041   188
12.6141   193
12.6241   193
12.6341   186
12.6441   182
12.6541   185
12.6641   191
12.6741   188
12.6841   182
12.6941   181
12.7041   184
12.7141   180
12.7241   177
12.7341   185
12.7441   191
12.7541   187
12.7641   188
12.7741   199
12.7841   203
12.7941   197
12.8041   189
12.8141   182
12.8241   175
12.8341   178
12.8441   191
12.8541   199
12.8641   197
12.8741   189
12.8841   186
12.8941   190
12.9041   196
12.9141   195
12.9241   196
12.9341   201
12.9441   200
12.9541   193
12.9641   190
12.9741   195
12.9841   207
12.9941   208
13.0041   202
13.0141   192
13.0241   195
13.0341   204
13.0441   188
13.0541   191
13.0641   186
13.0741   176
13.0841   190
13.0941   203
13.1041   198
13.1141   189
13.1241   197
13.1341   204
13.1441   203
13.1541   197
13.1641   182
13.1741   193
13.1841   221
13.1941   218
13.2041   199
13.2141   201
13.2241   207
13.2341   228
13.2441   263
13.2541   246
13.2641   237
13.2741   265
13.2841   284
13.2941   297
13.3041   303
13.3141   283
13.3241   302
13.3341   324
13.3441   312
13.3541   311
13.3641   310
13.3741   311
13.3841   324
13.3941   334
13.4041   328
13.4141   318
13.4241   312
13.4341   307
13.4441   303
13.4541   299
13.4641   293
13.4741   287
13.4841   280
13.4941   265
13.5041   248
13.5141   238
13.5241   236
13.5341   239
13.5441   249
13.5541   253
13.5641   241
13.5741   232
13.5841   233
13.5941   234
13.6041   235
13.6141   232
13.6241   222
13.6341   221
13.6441   220
13.6541   227
13.6641   248
13.6741   239
13.6841   227
13.6941   231
13.7041   227
13.7141   223
13.7241   216
13.7341   218
13.7441   229
13.7541   237
13.7641   239
13.7741   229
13.7841   234
13.7941   237
13.8041   237
13.8141   239
13.8241   238
13.8341   242
13.8441   248
13.8541   248
13.8641   247
13.8741   248
13.8841   247
13.8941   252
13.9041   262
13.9141   265
13.9241   263
13.9341   266
13.9441   275
13.9541   282
13.9641   285
13.9741   286
13.9841   288
13.9941   296
14.0041   303
14.0141   311
14.0241   323
14.0341   333
14.0441   338
14.0541   347
14.0641   364
14.0741   385
14.0841   403
14.0941   412
14.1041   411
14.1141   406
14.1241   409
14.1341   422
14.1441   437
14.1541   438
14.1641   426
14.1741   417
14.1841   414
14.1941   422
14.2041   403
14.2141   382
14.2241   374
14.2341   365
14.2441   380
14.2541   368
14.2641   335
14.2741   322
14.2841   303
14.2941   289
14.3041   319
14.3141   329
14.3241   310
14.3341   298
14.3441   294
14.3541   290
14.3641   280
14.3741   263
14.3841   277
14.3941   290
14.4041   284
14.4141   283
14.4241   282
14.4341   278
14.4441   283
14.4541   302
14.4641   301
14.4741   288
14.4841   295
14.4941   285
14.5041   276
14.5141   286
14.5241   288
14.5341   293
14.5441   284
14.5541   275
14.5641   290
14.5741   298
14.5841   310
14.5941   308
14.6041   289
14.6141   281
14.6241   292
14.6341   317
14.6441   303
14.6541   278
14.6641   284
14.6741   304
14.6841   318
14.6941   315
14.7041   330
14.7141   309
14.7241   315
14.7341   331
14.7441   328
14.7541   327
14.7641   332
14.7741   330
14.7841   320
14.7941   331
14.8041   320
14.8141   314
14.8241   329
14.8341   329
14.8441   328
14.8541   329
14.8641   342
14.8741   359
14.8841   361
14.8941   355
14.9041   341
14.9141   342
14.9241   346
14.9341   354
14.9441   373
14.9541   365
14.9641   356
14.9741   347
14.9841   350
14.9941   364
15.0041   389
15.0141   387
15.0241   373
15.0341   368
15.0441   354
15.0541   336
15.0641   345
15.0741   343
15.0841   360
15.0941   372
15.1041   364
15.1141   342
15.1241   340
15.1341   326
15.1441   323
15.1541   339
15.1641   326
15.1741   334
15.1841   348
15.1941   337
15.2041   324
15.2141   342
15.2241   358
15.2341   338
15.2441   344
15.2541   349
15.2641   337
15.2741   339
15.2841   350
15.2941   353
15.3041   360
15.3141   356
15.3241   346
15.3341   342
15.3441   326
15.3541   344
15.3641   335
15.3741   335
15.3841   345
15.3941   350
15.4041   357
15.4141   359
15.4241   364
15.4341   375
15.4441   364
15.4541   363
15.4641   380
15.4741   374
15.4841   361
15.4941   390
15.5041   381
15.5141   371
15.5241   380
15.5341   381
15.5441   398
15.5541   393
15.5641   384
15.5741   436
15.5841   452
15.5941   447
15.6041   495
15.6141   525
15.6241   532
15.6341   571
15.6441   603
15.6541   581
15.6641   588
15.6741   624
15.6841   652
15.6941   666
15.7041   681
15.7141   741
15.7241   726
15.7341   711
15.7441   681
15.7541   702
15.7641   748
15.7741   709
15.7841   723
15.7941   736
15.8041   701
15.8141   686
15.8241   640
15.8341   632
15.8441   637
15.8541   607
15.8641   590
15.8741   571
15.8841   533
15.8941   519
15.9041   513
15.9141   485
15.9241   444
15.9341   455
15.9441   436
15.9541   428
15.9641   440
15.9741   435
15.9841   419
15.9941   404
16.0041   411
16.0141   417
16.0241   397
16.0341   408
16.0441   392
16.0541   396
16.0641   410
16.0741   397
16.0841   390
16.0941   417
16.1041   421
16.1141   410
16.1241   410
16.1341   392
16.1441   378
16.1541   412
16.1641   411
16.1741   406
16.1841   409
16.1941   409
16.2041   438
16.2141   429
16.2241   409
16.2341   400
16.2441   407
16.2541   443
16.2641   430
16.2741   395
16.2841   390
16.2941   402
16.3041   397
16.3141   389
16.3241   411
16.3341   431
16.3441   422
16.3541   429
16.3641   416
16.3741   411
16.3841   405
16.3941   444
16.4041   465
16.4141   442
16.4241   419
16.4341   412
16.4441   410
16.4541   431
16.4641   427
16.4741   441
16.4841   447
16.4941   440
16.5041   451
16.5141   438
16.5241   468
16.5341   469
16.5441   471
16.5541   463
16.5641   460
16.5741   454
16.5841   446
16.5941   454
16.6041   470
16.6141   488
16.6241   494
16.6341   489
16.6441   454
16.6541   463
16.6641   463
16.6741   483
16.6841   466
16.6941   467
16.7041   488
16.7141   438
16.7241   450
16.7341   493
16.7441   490
16.7541   460
16.7641   458
16.7741   447
16.7841   458
16.7941   443
16.8041   464
16.8141   461
16.8241   465
16.8341   464
16.8441   485
16.8541   484
16.8641   475
16.8741   468
16.8841   448
16.8941   462
16.9041   497
16.9141   475
16.9241   453
16.9341   447
16.9441   445
16.9541   456
16.9641   469
16.9741   490
16.9841   490
16.9941   465
17.0041   502
17.0141   458
17.0241   470
17.0341   474
17.0441   473
17.0541   459
17.0641   467
17.0741   486
17.0841   499
17.0941   483
17.1041   496
17.1141   488
17.1241   455
17.1341   467
17.1441   464
17.1541   481
17.1641   499
17.1741   479
17.1841   484
17.1941   482
17.2041   476
17.2141   524
17.2241   501
17.2341   477
17.2441   512
17.2541   470
17.2641   477
17.2741   514
17.2841   512
17.2941   490
17.3041   488
17.3141   480
17.3241   508
17.3341   501
17.3441   483
17.3541   488
17.3641   501
17.3741   500
17.3841   536
17.3941   530
17.4041   518
17.4141   522
17.4241   512
17.4341   529
17.4441   536
17.4541   521
17.4641   525
17.4741   514
17.4841   514
17.4941   524
17.5041   519
17.5141   535
17.5241   519
17.5341   534
17.5441   525
17.5541   544
17.5641   565
17.5741   555
17.5841   534
17.5941   563
17.6041   567
17.6141   554
17.6241   563
17.6341   590
17.6441   597
17.6541   595
17.6641   549
17.6741   553
17.6841   554
17.6941   560
17.7041   586
17.7141   560
17.7241   558
17.7341   549
17.7441   560
17.7541   529
17.7641   561
17.7741   566
17.7841   544
17.7941   536
17.8041   550
17.8141   559
17.8241   566
17.8341   539
17.8441   534
17.8541   513
17.8641   542
17.8741   569
17.8841   570
17.8941   540
17.9041   525
17.9141   539
17.9241   501
17.9341   505
17.9441   525
17.9541   534
17.9641   558
17.9741   535
17.9841   545
17.9941   554
18.0041   560
18.0141   560
18.0241   539
18.0341   566
18.0441   582
18.0541   561
18.0641   575
18.0741   525
18.0841   508
18.0941   538
18.1041   568
18.1141   562
18.1241   558
18.1341   565
18.1441   565
18.1541   523
18.1641   537
18.1741   534
18.1841   565
18.1941   547
18.2041   553
18.2141   572
18.2241   555
18.2341   533
18.2441   535
18.2541   583
18.2641   550
18.2741   565
18.2841   558
18.2941   553
18.3041   543
18.3141   529
18.3241   552
18.3341   572
18.3441   566
18.3541   527
18.3641   562
18.3741   597
18.3841   576
18.3941   563
18.4041   562
18.4141   558
18.4241   542
18.4341   547
18.4441   555
18.4541   594
18.4641   571
18.4741   551
18.4841   543
18.4941   548
18.5041   574
18.5141   566
18.5241   584
18.5341   577
18.5441   584
18.5541   559
18.5641   574
18.5741   544
18.5841   557
18.5941   562
18.6041   582
18.6141   554
18.6241   551
18.6341   595
18.6441   600
18.6541   577
18.6641   564
18.6741   557
18.6841   593
18.6941   591
18.7041   572
18.7141   556
18.7241   597
18.7341   586
18.7441   584
18.7541   546
18.7641   554
18.7741   607
18.7841   611
18.7941   564
18.8041   576
18.8141   569
18.8241   549
18.8341   599
18.8441   620
18.8541   585
18.8641   562
18.8741   539
18.8841   593
18.8941   563
18.9041   549
18.9141   568
18.9241   571
18.9341   605
18.9441   589
18.9541   535
18.9641   541
18.9741   574
18.9841   584
18.9941   580
19.0041   564
19.0141   580
19.0241   602
19.0341   582
19.0441   585
19.0541   591
19.0641   630
19.0741   647
19.0841   599
19.0941   591
19.1041   592
19.1141   631
19.1241   614
19.1341   576
19.1441   602
19.1541   578
19.1641   573
19.1741   584
19.1841   562
19.1941   564
19.2041   559
19.2141   583
19.2241   587
19.2341   595
19.2441   606
19.2541   585
19.2641   571
19.2741   544
19.2841   548
19.2941   619
19.3041   591
19.3141   611
19.3241   611
19.3341   597
19.3441   616
19.3541   589
19.3641   584
19.3741   585
19.3841   586
19.3941   603
19.4041   634
19.4141   596
19.4241   598
19.4341   582
19.4441   582
19.4541   585
19.4641   577
19.4741   589
19.4841   614
19.4941   646
19.5041   640
19.5141   572
19.5241   595
19.5341   609
19.5441   587
19.5541   648
19.5641   619
19.5741   603
19.5841   590
19.5941   608
19.6041   629
19.6141   574
19.6241   590
19.6341   607
19.6441   604
19.6541   638
19.6641   592
19.6741   609
19.6841   619
19.6941   625
19.7041   625
19.7141   583
19.7241   626
19.7341   621
19.7441   586
19.7541   589
19.7641   593
19.7741   594
19.7841   567
19.7941   585
19.8041   575
19.8141   627
19.8241   608
19.8341   595
19.8441   618
19.8541   614
19.8641   597
19.8741   637
19.8841   644
19.8941   621
19.9041   629
19.9141   599
19.9241   629
19.9341   604
19.9441   609
19.9541   624
19.9641   614
19.9741   603
19.9841   634
19.9941   610
20.0041   627
20.0141   624
20.0241   592
20.0341   607
20.0441   615
20.0541   634
20.0641   596
20.0741   612
20.0841   606
20.0941   599
20.1041   606
20.1141   632
20.1241   611
20.1341   576
20.1441   591
20.1541   639
20.1641   636
20.1741   614
20.1841   614
20.1941   591
20.2041   630
20.2141   585
20.2241   645
20.2341   650
20.2441   620
20.2541   576
20.2641   614
20.2741   635
20.2841   586
20.2941   587
20.3041   585
20.3141   619
20.3241   597
20.3341   603
20.3441   602
20.3541   594
20.3641   621
20.3741   590
20.3841   600
20.3941   579
20.4041   605
20.4141   587
20.4241   626
20.4341   619
20.4441   629
20.4541   598
20.4641   609
20.4741   608
20.4841   616
20.4941   609
20.5041   608
20.5141   612
20.5241   576
20.5341   600
20.5441   602
20.5541   595
20.5641   610
20.5741   610
20.5841   606
20.5941   574
20.6041   631
20.6141   624
20.6241   602
20.6341   589
20.6441   593
20.6541   616
20.6641   612
20.6741   610
20.6841   620
20.6941   617
20.7041   621
20.7141   630
20.7241   632
20.7341   619
20.7441   587
20.7541   592
20.7641   595
20.7741   656
20.7841   643
20.7941   634
20.8041   646
20.8141   613
20.8241   649
20.8341   644
20.8441   632
20.8541   665
20.8641   638
20.8741   646
20.8841   715
20.8941   700
20.9041   652
20.9141   650
20.9241   684
20.9341   711
20.9441   730
20.9541   723
20.9641   729
20.9741   765
20.9841   811
20.9941   805
21.0041   827
21.0141   786
21.0241   804
21.0341   824
21.0441   845
21.0541   839
21.0641   828
21.0741   858
21.0841   836
21.0941   843
21.1041   836
21.1141   872
21.1241   911
21.1341   880
21.1441   876
21.1541   854
21.1641   873
21.1741   875
21.1841   880
21.1941   860
21.2041   849
21.2141   893
21.2241   853
21.2341   843
21.2441   789
21.2541   797
21.2641   775
21.2741   745
21.2841   741
21.2941   729
21.3041   701
21.3141   676
21.3241   764
21.3341   714
21.3441   667
21.3541   630
21.3641   643
21.3741   652
21.3841   630
21.3941   626
21.4041   609
21.4141   626
21.4241   638
21.4341   630
21.4441   611
21.4541   629
21.4641   601
21.4741   620
21.4841   613
21.4941   599
21.5041   619
21.5141   599
21.5241   623
21.5341   589
21.5441   614
21.5541   615
21.5641   567
21.5741   595
21.5841   596
21.5941   594
21.6041   624
21.6141   635
21.6241   627
21.6341   607
21.6441   665
21.6541   615
21.6641   573
21.6741   589
21.6841   582
21.6941   571
21.7041   569
21.7141   607
21.7241   602
21.7341   614
21.7441   618
21.7541   621
21.7641   591
21.7741   627
21.7841   626
21.7941   632
21.8041   602
21.8141   580
21.8241   553
21.8341   622
21.8441   682
21.8541   608
21.8641   597
21.8741   631
21.8841   602
21.8941   616
21.9041   622
21.9141   615
21.9241   613
21.9341   646
21.9441   596
21.9541   609
21.9641   544
21.9741   564
21.9841   589
21.9941   604
22.0041   602
22.0141   572
22.0241   601
22.0341   577
22.0441   582
22.0541   567
22.0641   605
22.0741   593
22.0841   559
22.0941   582
22.1041   578
22.1141   612
22.1241   571
22.1341   619
22.1441   624
22.1541   585
22.1641   602
22.1741   574
22.1841   598
22.1941   537
22.2041   573
22.2141   593
22.2241   600
22.2341   588
22.2441   606
22.2541   620
22.2641   615
22.2741   611
22.2841   589
22.2941   621
22.3041   589
22.3141   622
22.3241   564
22.3341   587
22.3441   596
22.3541   572
22.3641   597
22.3741   614
22.3841   591
22.3941   584
22.4041   592
22.4141   599
22.4241   633
22.4341   594
22.4441   588
22.4541   612
22.4641   565
22.4741   574
22.4841   579
22.4941   600
22.5041   593
22.5141   580
22.5241   593
22.5341   584
22.5441   589
22.5541   643
22.5641   608
22.5741   551
22.5841   570
22.5941   593
22.6041   582
22.6141   610
22.6241   543
22.6341   556
22.6441   606
22.6541   593
22.6641   608
22.6741   554
22.6841   601
22.6941   558
22.7041   585
22.7141   561
22.7241   578
22.7341   584
22.7441   576
22.7541   596
22.7641   582
22.7741   566
22.7841   612
22.7941   567
22.8041   574
22.8141   551
22.8241   534
22.8341   570
22.8441   612
22.8541   587
22.8641   568
22.8741   600
22.8841   598
22.8941   561
22.9041   588
22.9141   571
22.9241   547
22.9341   547
22.9441   617
22.9541   625
22.9641   563
22.9741   564
22.9841   588
22.9941   524
23.0041   611
23.0141   586
23.0241   520
23.0341   583
23.0441   540
23.0541   550
23.0641   576
23.0741   598
23.0841   597
23.0941   575
23.1041   597
23.1141   548
23.1241   552
23.1341   606
23.1441   588
23.1541   568
23.1641   580
23.1741   571
23.1841   582
23.1941   638
23.2041   576
23.2141   552
23.2241   534
23.2341   560
23.2441   556
23.2541   604
23.2641   595
23.2741   574
23.2841   558
23.2941   599
23.3041   585
23.3141   588
23.3241   568
23.3341   559
23.3441   552
23.3541   577
23.3641   567
23.3741   559
23.3841   567
23.3941   605
23.4041   550
23.4141   542
23.4241   544
23.4341   562
23.4441   553
23.4541   618
23.4641   537
23.4741   567
23.4841   544
23.4941   570
23.5041   565
23.5141   567
23.5241   539
23.5341   541
23.5441   516
23.5541   551
23.5641   554
23.5741   590
23.5841   598
23.5941   554
23.6041   528
23.6141   542
23.6241   574
23.6341   558
23.6441   564
23.6541   539
23.6641   574
23.6741   563
23.6841   596
23.6941   586
23.7041   630
23.7141   587
23.7241   557
23.7341   616
23.7441   606
23.7541   604
23.7641   590
23.7741   619
23.7841   618
23.7941   625
23.8041   605
23.8141   593
23.8241   584
23.8341   600
23.8441   608
23.8541   599
23.8641   574
23.8741   578
23.8841   579
23.8941   561
23.9041   574
23.9141   588
23.9241   602
23.9341   598
23.9441   526
23.9541   595
23.9641   560
23.9741   561
23.9841   515
23.9941   523
24.0041   532
24.0141   509
24.0241   560
24.0341   505
24.0441   578
24.0541   474
24.0641   526
24.0741   542
24.0841   563
24.0941   574
24.1041   481
24.1141   541
24.1241   532
24.1341   533
24.1441   528
24.1541   529
24.1641   492
24.1741   546
24.1841   572
24.1941   534
24.2041   489
24.2141   566
24.2241   559
24.2341   559
24.2441   524
24.2541   537
24.2641   534
24.2741   545
24.2841   540
24.2941   522
24.3041   541
24.3141   504
24.3241   532
24.3341   529
24.3441   546
24.3541   511
24.3641   529
24.3741   517
24.3841   533
24.3941   508
24.4041   539
24.4141   507
24.4241   530
24.4341   538
24.4441   535
24.4541   469
24.4641   509
24.4741   491
24.4841   526
24.4941   534
24.5041   522
24.5141   481
24.5241   509
24.5341   520
24.5441   542
24.5541   538
24.5641   491
24.5741   529
24.5841   567
24.5941   526
24.6041   499
24.6141   516
24.6241   562
24.6341   521
24.6441   524
24.6541   508
24.6641   512
24.6741   505
24.6841   502
24.6941   460
24.7041   498
24.7141   526
24.7241   505
24.7341   514
24.7441   538
24.7541   527
24.7641   492
24.7741   488
24.7841   499
24.7941   477
24.8041   498
24.8141   501
24.8241   528
24.8341   553
24.8441   504
24.8541   545
24.8641   507
24.8741   501
24.8841   516
24.8941   512
24.9041   510
24.9141   519
24.9241   495
24.9341   503
24.9441   483
24.9541   505
24.9641   498
24.9741   515
24.9841   480
24.9941   505
25.0041   516
25.0141   487
25.0241   514
25.0341   531
25.0441   509
25.0541   556
25.0641   504
25.0741   500
25.0841   498
25.0941   514
25.1041   502
25.1141   484
25.1241   505
25.1341   519
25.1441   510
25.1541   514
25.1641   506
25.1741   479
25.1841   499
25.1941   537
25.2041   497
25.2141   521
25.2241   522
25.2341   501
25.2441   497
25.2541   520
25.2641   514
25.2741   517
25.2841   500
25.2941   483
25.3041   509
25.3141   506
25.3241   511
25.3341   490
25.3441   503
25.3541   474
25.3641   492
25.3741   462
25.3841   488
25.3941   474
25.4041   495
25.4141   502
25.4241   488
25.4341   487
25.4441   485
25.4541   461
25.4641   478
25.4741   477
25.4841   467
25.4941   492
25.5041   446
25.5141   495
25.5241   477
25.5341   474
25.5441   455
25.5541   479
25.5641   487
25.5741   481
25.5841   462
25.5941   462
25.6041   466
25.6141   463
25.6241   471
25.6341   455
25.6441   482
25.6541   461
25.6641   460
25.6741   476
25.6841   481
25.6941   457
25.7041   461
25.7141   475
25.7241   452
25.7341   464
25.7441   469
25.7541   455
25.7641   491
25.7741   472
25.7841   470
25.7941   488
25.8041   483
25.8141   488
25.8241   479
25.8341   476
25.8441   447
25.8541   433
25.8641   412
25.8741   423
25.8841   456
25.8941   444
25.9041   473
25.9141   438
25.9241   451
25.9341   452
25.9441   470
25.9541   420
25.9641   472
25.9741   443
25.9841   455
25.9941   434
26.0041   450
26.0141   451
26.0241   411
26.0341   454
26.0441   450
26.0541   446
26.0641   454
26.0741   455
26.0841   490
26.0941   464
26.1041   461
26.1141   441
26.1241   424
26.1341   445
26.1441   433
26.1541   432
26.1641   408
26.1741   424
26.1841   455
26.1941   452
26.2041   434
26.2141   424
26.2241   461
26.2341   414
26.2441   464
26.2541   460
26.2641   434
26.2741   419
26.2841   426
26.2941   429
26.3041   425
26.3141   418
26.3241   405
26.3341   419
26.3441   425
26.3541   450
26.3641   430
26.3741   441
26.3841   420
26.3941   437
26.4041   460
26.4141   463
26.4241   429
26.4341   407
26.4441   410
26.4541   427
26.4641   434
26.4741   386
26.4841   465
26.4941   441
26.5041   436
26.5141   381
26.5241   445
26.5341   434
26.5441   424
26.5541   390
26.5641   411
26.5741   444
26.5841   463
26.5941   419
26.6041   442
26.6141   415
26.6241   421
26.6341   412
26.6441   425
26.6541   436
26.6641   414
26.6741   439
26.6841   441
26.6941   396
26.7041   375
26.7141   402
26.7241   411
26.7341   428
26.7441   436
26.7541   417
26.7641   399
26.7741   384
26.7841   393
26.7941   404
26.8041   416
26.8141   429
26.8241   415
26.8341   431
26.8441   435
26.8541   441
26.8641   401
26.8741   410
26.8841   410
26.8941   403
26.9041   417
26.9141   432
26.9241   371
26.9341   402
26.9441   416
26.9541   405
26.9641   432
26.9741   391
26.9841   427
26.9941   408
27.0041   403
27.0141   387
27.0241   402
27.0341   394
27.0441   418
27.0541   425
27.0641   401
27.0741   436
27.0841   384
27.0941   360
27.1041   400
27.1141   413
27.1241   394
27.1341   427
27.1441   417
27.1541   413
27.1641   380
27.1741   397
27.1841   370
27.1941   394
27.2041   398
27.2141   418
27.2241   387
27.2341   398
27.2441   376
27.2541   398
27.2641   383
27.2741   360
27.2841   388
27.2941   369
27.3041   362
27.3141   402
27.3241   394
27.3341   421
27.3441   380
27.3541   402
27.3641   373
27.3741   394
27.3841   408
27.3941   397
27.4041   393
27.4141   409
27.4241   393
27.4341   394
27.4441   398
27.4541   422
27.4641   420
27.4741   401
27.4841   370
27.4941   374
27.5041   399
27.5141   432
27.5241   387
27.5341   417
27.5441   377
27.5541   407
27.5641   362
27.5741   408
27.5841   393
27.5941   407
27.6041   383
27.6141   342
27.6241   357
27.6341   372
27.6441   389
27.6541   350
27.6641   385
27.6741   365
27.6841   376
27.6941   361
27.7041   363
27.7141   420
27.7241   366
27.7341   375
27.7441   384
27.7541   340
27.7641   383
27.7741   372
27.7841   328
27.7941   360
27.8041   358
27.8141   358
27.8241   348
27.8341   362
27.8441   357
27.8541   362
27.8641   349
27.8741   367
27.8841   339
27.8941   392
27.9041   364
27.9141   345
27.9241   350
27.9341   355
27.9441   363
27.9541   351
27.9641   325
27.9741   375
27.9841   377
27.9941   360
28.0041   346
28.0141   338
28.0241   357
28.0341   367
28.0441   382
28.0541   368
28.0641   346
28.0741   342
28.0841   372
28.0941   355
28.1041   339
28.1141   309
28.1241   342
28.1341   352
28.1441   343
28.1541   344
28.1641   371
28.1741   339
28.1841   364
28.1941   363
28.2041   322
28.2141   356
28.2241   358
28.2341   330
28.2441   377
28.2541   348
28.2641   396
28.2741   311
28.2841   341
28.2941   302
28.3041   337
28.3141   349
28.3241   340
28.3341   334
28.3441   340
28.3541   335
28.3641   353
28.3741   345
28.3841   354
28.3941   331
28.4041   351
28.4141   323
28.4241   344
28.4341   362
28.4441   335
28.4541   327
28.4641   364
28.4741   344
28.4841   329
28.4941   330
28.5041   330
28.5141   330
28.5241   340
28.5341   340
28.5441   359
28.5541   364
28.5641   349
28.5741   332
28.5841   330
28.5941   333
28.6041   357
28.6141   300
28.6241   341
28.6341   314
28.6441   307
28.6541   324
28.6641   344
28.6741   315
28.6841   305
28.6941   322
28.7041   289
28.7141   318
28.7241   319
28.7341   306
28.7441   328
28.7541   315
28.7641   332
28.7741   327
28.7841   333
28.7941   309
28.8041   291
28.8141   323
28.8241   314
28.8341   305
28.8441   305
28.8541   333
28.8641   292
28.8741   341
28.8841   305
28.8941   313
28.9041   299
28.9141   328
28.9241   305
28.9341   301
28.9441   321
28.9541   320
28.9641   296
28.9741   313
28.9841   335
28.9941   332
29.0041   321
29.0141   318
29.0241   324
29.0341   325
29.0441   301
29.0541   289
29.0641   301
29.0741   310
29.0841   282
29.0941   293
29.1041   307
29.1141   305
29.1241   340
29.1341   293
29.1441   300
29.1541   293
29.1641   282
29.1741   306
29.1841   295
29.1941   296
29.2041   278
29.2141   317
29.2241   290
29.2341   284
29.2441   302
29.2541   313
29.2641   279
29.2741   295
29.2841   303
29.2941   311
29.3041   313
29.3141   285
29.3241   293
29.3341   313
29.3441   289
29.3541   294
29.3641   294
29.3741   289
29.3841   321
29.3941   322
29.4041   292
29.4141   282
29.4241   293
29.4341   277
29.4441   276
29.4541   276
29.4641   281
29.4741   273
29.4841   269
29.4941   293
29.5041   280
29.5141   305
29.5241   258
29.5341   263
29.5441   281
29.5541   254
29.5641   288
29.5741   283
29.5841   296
29.5941   274
29.6041   280
29.6141   295
29.6241   271
29.6341   275
29.6441   296
29.6541   270
29.6641   279
29.6741   272
29.6841   293
29.6941   270
29.7041   286
29.7141   271
29.7241   285
29.7341   303
29.7441   302
29.7541   267
29.7641   298
29.7741   270
29.7841   253
29.7941   264
29.8041   275
29.8141   271
29.8241   268
29.8341   286
29.8441   295
29.8541   267
29.8641   275
29.8741   283
29.8841   266
29.8941   274
29.9041   261
29.9141   280
29.9241   256
29.9341   281
29.9441   278
29.9541   277
29.9641   265
29.9741   259
29.9841   310
29.9941   275
30.0041   254
30.0141   259
30.0241   274
30.0341   271
30.0441   245
30.0541   270
30.0641   260
30.0741   271
30.0841   264
30.0941   292
30.1041   260
30.1141   254
30.1241   288
30.1341   247
30.1441   249
30.1541   245
30.1641   242
30.1741   268
30.1841   249
30.1941   288
30.2041   263
30.2141   260
30.2241   236
30.2341   248
30.2441   270
30.2541   249
30.2641   260
30.2741   268
30.2841   265
30.2941   259
30.3041   254
30.3141   258
30.3241   233
30.3341   256
30.3441   257
30.3541   243
30.3641   251
30.3741   252
30.3841   229
30.3941   223
30.4041   271
30.4141   269
30.4241   239
30.4341   247
30.4441   240
30.4541   254
30.4641   244
30.4741   235
30.4841   268
30.4941   263
30.5041   231
30.5141   226
30.5241   237
30.5341   226
30.5441   252
30.5541   249
30.5641   242
30.5741   246
30.5841   257
30.5941   249
30.6041   236
30.6141   239
30.6241   236
30.6341   248
30.6441   217
30.6541   243
30.6641   235
30.6741   240
30.6841   250
30.6941   247
30.7041   238
30.7141   246
30.7241   219
30.7341   240
30.7441   251
30.7541   237
30.7641   265
30.7741   241
30.7841   223
30.7941   231
30.8041   248
30.8141   240
30.8241   261
30.8341   238
30.8441   246
30.8541   232
30.8641   235
30.8741   245
30.8841   239
30.8941   233
30.9041   218
30.9141   205
30.9241   227
30.9341   242
30.9441   219
30.9541   255
30.9641   224
30.9741   232
30.9841   235
30.9941   223
31.0041   227
31.0141   245
31.0241   225
31.0341   255
31.0441   230
31.0541   225
31.0641   218
31.0741   221
31.0841   220
31.0941   215
31.1041   220
31.1141   237
31.1241   238
31.1341   222
31.1441   218
31.1541   217
31.1641   207
31.1741   233
31.1841   228
31.1941   199
31.2041   207
31.2141   256
31.2241   221
31.2341   220
31.2441   227
31.2541   223
31.2641   229
31.2741   229
31.2841   229
31.2941   234
31.3041   238
31.3141   244
31.3241   219
31.3341   207
31.3441   221
31.3541   216
31.3641   215
31.3741   230
31.3841   233
31.3941   230
31.4041   226
31.4141   196
31.4241   234
31.4341   209
31.4441   207
31.4541   222
31.4641   198
31.4741   217
31.4841   204
31.4941   214
31.5041   209
31.5141   216
31.5241   229
31.5341   250
31.5441   235
31.5541   202
31.5641   212
31.5741   205
31.5841   203
31.5941   222
31.6041   231
31.6141   222
31.6241   193
31.6341   195
31.6441   207
31.6541   200
31.6641   216
31.6741   227
31.6841   204
31.6941   201
31.7041   229
31.7141   197
31.7241   219
31.7341   198
31.7441   226
31.7541   216
31.7641   200
31.7741   231
31.7841   210
31.7941   210
31.8041   211
31.8141   204
31.8241   195
31.8341   186
31.8441   232
31.8541   206
31.8641   205
31.8741   184
31.8841   188
31.8941   199
31.9041   226
31.9141   214
31.9241   198
31.9341   200
31.9441   222
31.9541   193
31.9641   225
31.9741   202
31.9841   196
31.9941   182
32.0041   211
32.0141   234
32.0241   229
32.0341   220
32.0441   207
32.0541   157
32.0641   192
32.0741   209
32.0841   223
32.0941   190
32.1041   214
32.1141   196
32.1241   192
32.1341   191
32.1441   206
32.1541   191
32.1641   189
32.1741   210
32.1841   209
32.1941   195
32.2041   205
32.2141   200
32.2241   212
32.2341   190
32.2441   216
32.2541   192
32.2641   177
32.2741   183
32.2841   200
32.2941   188
32.3041   195
32.3141   182
32.3241   194
32.3341   195
32.3441   188
32.3541   193
32.3641   181
32.3741   199
32.3841   194
32.3941   190
32.4041   162
32.4141   150
32.4241   199
32.4341   185
32.4441   167
32.4541   167
32.4641   199
32.4741   190
32.4841   195
32.4941   184
32.5041   163
32.5141   188
32.5241   170
32.5341   179
32.5441   182
32.5541   182
32.5641   183
32.5741   182
32.5841   177
32.5941   186
32.6041   176
32.6141   164
32.6241   178
32.6341   171
32.6441   185
32.6541   180
32.6641   179
32.6741   188
32.6841   167
32.6941   161
32.7041   168
32.7141   163
32.7241   179
32.7341   173
32.7441   166
32.7541   177
32.7641   174
32.7741   162
32.7841   183
32.7941   155
32.8041   179
32.8141   160
32.8241   173
32.8341   168
32.8441   159
32.8541   147
32.8641   190
32.8741   186
32.8841   169
32.8941   169
32.9041   170
32.9141   183
32.9241   163
32.9341   168
32.9441   151
32.9541   168
32.9641   192
32.9741   177
32.9841   196
32.9941   171
33.0041   160
33.0141   169
33.0241   164
33.0341   172
33.0441   136
33.0541   184
33.0641   169
33.0741   170
33.0841   173
33.0941   149
33.1041   161
33.1141   161
33.1241   163
33.1341   151
33.1441   158
33.1541   174
33.1641   171
33.1741   169
33.1841   143
33.1941   169
33.2041   155
33.2141   164
33.2241   169
33.2341   165
33.2441   170
33.2541   161
33.2641   145
33.2741   174
33.2841   160
33.2941   156
33.3041   179
33.3141   157
33.3241   162
33.3341   149
33.3441   160
33.3541   144
33.3641   152
33.3741   168
33.3841   149
33.3941   147
33.4041   149
33.4141   165
33.4241   154
33.4341   133
33.4441   165
33.4541   158
33.4641   156
33.4741   161
33.4841   162
33.4941   155
33.5041   153
33.5141   132
33.5241   150
33.5341   143
33.5441   154
33.5541   154
33.5641   144
33.5741   150
33.5841   164
33.5941   140
33.6041   144
33.6141   134
33.6241   139
33.6341   143
33.6441   154
33.6541   139
33.6641   151
33.6741   149
33.6841   146
33.6941   149
33.7041   132
33.7141   160
33.7241   156
33.7341   151
33.7441   151
33.7541   145
33.7641   135
33.7741   137
33.7841   158
33.7941   142
33.8041   146
33.8141   141
33.8241   138
33.8341   159
33.8441   157
33.8541   135
33.8641   136
33.8741   168
33.8841   140
33.8941   158
33.9041   145
33.9141   135
33.9241   130
33.9341   126
33.9441   134
33.9541   148
33.9641   136
33.9741   132
33.9841   127
33.9941   142
34.0041   149
34.0141   128
34.0241   133
34.0341   131
34.0441   148
34.0541   153
34.0641   147
34.0741   132
34.0841   132
34.0941   131
34.1041   137
34.1141   141
34.1241   151
34.1341   127
34.1441   142
34.1541   145
34.1641   141
34.1741   137
34.1841   134
34.1941   153
34.2041   154
34.2141   115
34.2241   124
34.2341   127
34.2441   127
34.2541   123
34.2641   133
34.2741   129
34.2841   114
34.2941   111
34.3041   130
34.3141   137
34.3241   141
34.3341   131
34.3441   133
34.3541   141
34.3641   123
34.3741   137
34.3841   123
34.3941   141
34.4041   126
34.4141   111
34.4241   132
34.4341   137
34.4441   111
34.4541   132
34.4641   131
34.4741   121
34.4841   137
34.4941   119
34.5041   129
34.5141   108
34.5241   131
34.5341   123
34.5441   128
34.5541   132
34.5641   120
34.5741   112
34.5841   120
34.5941   111
34.6041   112
34.6141   116
34.6241   109
34.6341   126
34.6441   101
34.6541   122
34.6641   116
34.6741   121
34.6841   126
34.6941   129
34.7041   119
34.7141   122
34.7241   133
34.7341   108
34.7441   113
34.7541   109
34.7641   125
34.7741   131
34.7841   106
34.7941   118
34.8041   118
34.8141   114
34.8241   128
34.8341   102
34.8441   121
34.8541   135
34.8641   114
34.8741   109
34.8841   112
34.8941   124
34.9041   101
34.9141   121
34.9241   123
34.9341   116
34.9441   124
34.9541   133
34.9641   103
34.9741   123
34.9841   138
34.9941   111
35.0041   115
35.0141    94
35.0241   114
35.0341   121
35.0441   116
35.0541   110
35.0641    98
35.0741   108
35.0841   129
35.0941    98
35.1041   111
35.1141   121
35.1241   131
35.1341    96
35.1441   103
35.1541   110
35.1641   115
35.1741   120
35.1841    98
35.1941   106
35.2041   119
35.2141    97
35.2241   117
35.2341    87
35.2441   111
35.2541   101
35.2641   105
35.2741   122
35.2841   112
35.2941   121
35.3041   111
35.3141    91
35.3241    86
35.3341   109
35.3441    98
35.3541   104
35.3641   109
35.3741   119
35.3841    85
35.3941   121
35.4041   106
35.4141   100
35.4241   114
35.4341   108
35.4441   102
35.4541    97
35.4641    95
35.4741    92
35.4841   102
35.4941   105
35.5041    99
35.5141    93
35.5241   105
35.5341    93
35.5441   109
35.5541    91
35.5641   113
35.5741   110
35.5841   105
35.5941    97
35.6041   117
35.6141    96
35.6241   107
35.6341    95
35.6441   105
35.6541   107
35.6641   100
35.6741   101
35.6841   105
35.6941   101
35.7041   110
35.7141    90
35.7241    89
35.7341    86
35.7441   101
35.7541   104
35.7641    79
35.7741    91
35.7841    97
35.7941    86
35.8041    86
35.8141    95
35.8241    90
35.8341    93
35.8441   113
35.8541    92
35.8641    95
35.8741    94
35.8841   107
35.8941    93
35.9041   112
35.9141    93
35.9241    73
35.9341    89
35.9441    93
35.9541    90
35.9641    99
35.9741    81
35.9841    74
35.9941    86
36.0041    99
36.0141    92
36.0241    95
36.0341    87
36.0441    94
36.0541    90
36.0641    92
36.0741    92
36.0841    67
36.0941    97
36.1041    91
36.1141    78
36.1241    93
36.1341    82
36.1441    98
36.1541    84
36.1641    72
36.1741    86
36.1841    93
36.1941    82
36.2041    79
36.2141    76
36.2241    89
36.2341   103
36.2441    85
36.2541    76
36.2641    79
36.2741    73
36.2841    84
36.2941    90
36.3041    79
36.3141    77
36.3241    89
36.3341    90
36.3441    84
36.3541    85
36.3641    95
36.3741    90
36.3841    87
36.3941    94
36.4041    93
36.4141    83
36.4241    90
36.4341    91
36.4441    87
36.4541    80
36.4641    90
36.4741   102
36.4841    83
36.4941    92
36.5041    81
36.5141    93
36.5241    99
36.5341    78
36.5441    88
36.5541    75
36.5641    68
36.5741    76
36.5841    76
36.5941    75
36.6041    89
36.6141    69
36.6241    85
36.6341    73
36.6441    80
36.6541    76
36.6641    73
36.6741    72
36.6841    81
36.6941    79
36.7041    90
36.7141    66
36.7241    66
36.7341    70
36.7441    64
36.7541    69
36.7641    64
36.7741    68
36.7841    88
36.7941    83
36.8041    85
36.8141    76
36.8241    79
36.8341    61
36.8441    81
36.8541    76
36.8641    72
36.8741    74
36.8841    61
36.8941    88
36.9041    86
36.9141    75
36.9241    71
36.9341    77
36.9441    56
36.9541    72
36.9641    58
36.9741    65
36.9841    76
36.9941    57
37.0041    61
37.0141    81
37.0241    87
37.0341    69
37.0441    69
37.0541    76
37.0641    61
37.0741    72
37.0841    76
37.0941    61
37.1041    72
37.1141    64
37.1241    79
37.1341    74
37.1441    64
37.1541    82
37.1641    63
37.1741    59
37.1841    63
37.1941    64
37.2041    69
37.2141    65
37.2241    60
37.2341    61
37.2441    80
37.2541    64
37.2641    55
37.2741    58
37.2841    66
37.2941    67
37.3041    63
37.3141    60
37.3241    67
37.3341    60
37.3441    72
37.3541    61
37.3641    68
37.3741    62
37.3841    67
37.3941    67
37.4041    65
37.4141    64
37.4241    71
37.4341    74
37.4441    67
37.4541    49
37.4641    53
37.4741    66
37.4841    59
37.4941    49
37.5041    60
37.5141    66
37.5241    72
37.5341    66
37.5441    67
37.5541    63
37.5641    46
37.5741    61
37.5841    62
37.5941    72
37.6041    58
37.6141    73
37.6241    58
37.6341    56
37.6441    54
37.6541    63
37.6641    76
37.6741    60
37.6841    52
37.6941    65
37.7041    51
37.7141    74
37.7241    70
37.7341    65
37.7441    65
37.7541    63
37.7641    56
37.7741    64
37.7841    48
37.7941    46
37.8041    68
37.8141    71
37.8241    57
37.8341    58
37.8441    60
37.8541    55
37.8641    54
37.8741    67
37.8841    61
37.8941    64
37.9041    52
37.9141    46
37.9241    46
37.9341    48
37.9441    51
37.9541    59
37.9641    55
37.9741    71
37.9841    51
37.9941    62
38.0041    58
38.0141    49
38.0241    42
38.0341    58
38.0441    46
38.0541    53
38.0641    55
38.0741    38
38.0841    61
38.0941    49
38.1041    58
38.1141    55
38.1241    50
38.1341    42
38.1441    51
38.1541    54
38.1641    49
38.1741    45
38.1841    50
38.1941    54
38.2041    48
38.2141    60
38.2241    37
38.2341    56
38.2441    51
38.2541    59
38.2641    55
38.2741    33
38.2841    62
38.2941    56
38.3041    47
38.3141    40
38.3241    62
38.3341    60
38.3441    51
38.3541    43
38.3641    43
38.3741    51
38.3841    49
38.3941    58
38.4041    46
38.4141    55
38.4241    53
38.4341    44
38.4441    39
38.4541    47
38.4641    50
38.4741    41
38.4841    48
38.4941    49
38.5041    42
38.5141    43
38.5241    52
38.5341    40
38.5441    49
38.5541    47
38.5641    46
38.5741    42
38.5841    51
38.5941    44
38.6041    49
38.6141    55
38.6241    35
38.6341    62
38.6441    46
38.6541    59
38.6641    52
38.6741    41
38.6841    39
38.6941    35
38.7041    43
38.7141    53
38.7241    44
38.7341    39
38.7441    42
38.7541    55
38.7641    61
38.7741    44
38.7841    42
38.7941    38
38.8041    34
38.8141    44
38.8241    39
38.8341    44
38.8441    57
38.8541    42
38.8641    50
38.8741    47
38.8841    52
38.8941    40
38.9041    53
38.9141    55
38.9241    42
38.9341    35
38.9441    32
38.9541    42
38.9641    33
38.9741    32
38.9841    41
38.9941    34
39.0041    40
39.0141    54
39.0241    47
39.0341    28
39.0441    42
39.0541    33
39.0641    36
39.0741    51
39.0841    48
39.0941    48
39.1041    27
39.1141    48
39.1241    38
39.1341    41
39.1441    44
39.1541    38
39.1641    43
39.1741    35
39.1841    40
39.1941    39
39.2041    54
39.2141    38
39.2241    31
39.2341    35
39.2441    44
39.2541    37
39.2641    32
39.2741    28
39.2841    26
39.2941    49
39.3041    34
39.3141    35
39.3241    41
39.3341    29
39.3441    34
39.3541    38
39.3641    40
39.3741    40
39.3841    38
39.3941    25
39.4041    29
39.4141    35
39.4241    40
39.4341    31
39.4441    39
39.4541    38
39.4641    36
39.4741    24
39.4841    35
39.4941    34
39.5041    29
39.5141    34
39.5241    32
39.5341    27
39.5441    35
39.5541    36
39.5641    33
39.5741    37
39.5841    28
39.5941    31
39.6041    33
39.6141    26
39.6241    27
39.6341    23
39.6441    24
39.6541    33
39.6641    34
39.6741    42
39.6841    30
39.6941    35
39.7041    30
39.7141    39
39.7241    29
39.7341    26
39.7441    20
39.7541    26
39.7641    33
39.7741    32
39.7841    30
39.7941    35
39.8041    30
39.8141    34
39.8241    25
39.8341    24
39.8441    31
39.8541    33
39.8641    31
39.8741    39
39.8841    24
39.8941    27
39.9041    31
39.9141    25
39.9241    35
39.9341    21
39.9441    28
39.9541    34
39.9641    31
39.9741    28
39.9841    24
