Bruker Nano GmbH Berlin, Germany
Esprit 1.9

Date: 6/2/2021 1:05:33 PM
Real time: 5000
Life time: 4661
Pulse density: 95565


Detector type: XFlash 430
Window type: Custom type
Detector thickness: 0.45
Si dead layer:0.029

Calibration, lin.: 10
Calibration, abs.: -955.9
Mn FWHM: 137.05
Fano factor: 0.121
Channels: 4096

Energy Counts
-0.9559     0
-0.9459     0
-0.9359     0
-0.9259     0
-0.9159     0
-0.9059     0
-0.8959     0
-0.8859     0
-0.8759     0
-0.8659     0
-0.8559     0
-0.8459     0
-0.8359     0
-0.8259     0
-0.8159     0
-0.8059     0
-0.7959     0
-0.7859     0
-0.7759     0
-0.7659     0
-0.7559     0
-0.7459     0
-0.7359     0
-0.7259     0
-0.7159     0
-0.7059     0
-0.6959     0
-0.6859     0
-0.6759     0
-0.6659     0
-0.6559     0
-0.6459     0
-0.6359     0
-0.6259     0
-0.6159     0
-0.6059     0
-0.5959     0
-0.5859     0
-0.5759     0
-0.5659     0
-0.5559     0
-0.5459     0
-0.5359     0
-0.5259     0
-0.5159     0
-0.5059     0
-0.4959     0
-0.4859     0
-0.4759     0
-0.4659     0
-0.4559     0
-0.4459     0
-0.4359     0
-0.4259     0
-0.4159     0
-0.4059     0
-0.3959     0
-0.3859     0
-0.3759     0
-0.3659     0
-0.3559     0
-0.3459     0
-0.3359     0
-0.3259     0
-0.3159     0
-0.3059     0
-0.2959     0
-0.2859     0
-0.2759     0
-0.2659     0
-0.2559     0
-0.2459     0
-0.2359     0
-0.2259     0
-0.2159     0
-0.2059     0
-0.1959     0
-0.1859     0
-0.1759     0
-0.1659     0
-0.1559     0
-0.1459     1
-0.1359     0
-0.1259     0
-0.1159     2
-0.1059     6
-0.0959    16
-0.0859    57
-0.0759   189
-0.0659   518
-0.0559  1374
-0.0459  2992
-0.0359  5475
-0.0259  8855
-0.0159 12024
-0.0059 14307
 0.0041 14477
 0.0141 12508
 0.0241  9018
 0.0341  5776
 0.0441  3164
 0.0541  1462
 0.0641   615
 0.0741   198
 0.0841    70
 0.0941    15
 0.1041     6
 0.1141     2
 0.1241     1
 0.1341     0
 0.1441     2
 0.1541     0
 0.1641     0
 0.1741     7
 0.1841    46
 0.1941    88
 0.2041    84
 0.2141    91
 0.2241    95
 0.2341    83
 0.2441    74
 0.2541    72
 0.2641    89
 0.2741    79
 0.2841   100
 0.2941    86
 0.3041    74
 0.3141    79
 0.3241    85
 0.3341    92
 0.3441    72
 0.3541    80
 0.3641    81
 0.3741    79
 0.3841    88
 0.3941    84
 0.4041    68
 0.4141    75
 0.4241    85
 0.4341    73
 0.4441    79
 0.4541    83
 0.4641    82
 0.4741    78
 0.4841    66
 0.4941    69
 0.5041    81
 0.5141    82
 0.5241    88
 0.5341    72
 0.5441    69
 0.5541    70
 0.5641    74
 0.5741    70
 0.5841    67
 0.5941    64
 0.6041    72
 0.6141    82
 0.6241    74
 0.6341    64
 0.6441    67
 0.6541    68
 0.6641    64
 0.6741    72
 0.6841    82
 0.6941    69
 0.7041    60
 0.7141    56
 0.7241    57
 0.7341    59
 0.7441    60
 0.7541    60
 0.7641    61
 0.7741    64
 0.7841    64
 0.7941    63
 0.8041    66
 0.8141    63
 0.8241    64
 0.8341    65
 0.8441    57
 0.8541    56
 0.8641    58
 0.8741    61
 0.8841    54
 0.8941    67
 0.9041    66
 0.9141    60
 0.9241    57
 0.9341    57
 0.9441    59
 0.9541    58
 0.9641    57
 0.9741    53
 0.9841    47
 0.9941    42
 1.0041    52
 1.0141    60
 1.0241    50
 1.0341    61
 1.0441    47
 1.0541    49
 1.0641    57
 1.0741    65
 1.0841    52
 1.0941    43
 1.1041    50
 1.1141    62
 1.1241    51
 1.1341    54
 1.1441    57
 1.1541    55
 1.1641    54
 1.1741    60
 1.1841    51
 1.1941    59
 1.2041    59
 1.2141    56
 1.2241    55
 1.2341    61
 1.2441    53
 1.2541    50
 1.2641    47
 1.2741    48
 1.2841    60
 1.2941    53
 1.3041    55
 1.3141    42
 1.3241    43
 1.3341    47
 1.3441    56
 1.3541    67
 1.3641    55
 1.3741    51
 1.3841    50
 1.3941    63
 1.4041    51
 1.4141    52
 1.4241    43
 1.4341    62
 1.4441    43
 1.4541    49
 1.4641    60
 1.4741    48
 1.4841    53
 1.4941    47
 1.5041    49
 1.5141    53
 1.5241    38
 1.5341    49
 1.5441    43
 1.5541    52
 1.5641    52
 1.5741    49
 1.5841    46
 1.5941    54
 1.6041    42
 1.6141    43
 1.6241    41
 1.6341    54
 1.6441    54
 1.6541    61
 1.6641    65
 1.6741    71
 1.6841   104
 1.6941   111
 1.7041   157
 1.7141   152
 1.7241   157
 1.7341   163
 1.7441   181
 1.7541   188
 1.7641   161
 1.7741   154
 1.7841   128
 1.7941    84
 1.8041    73
 1.8141    67
 1.8241    70
 1.8341    64
 1.8441    59
 1.8541    54
 1.8641    67
 1.8741    44
 1.8841    61
 1.8941    50
 1.9041    45
 1.9141    50
 1.9241    47
 1.9341    56
 1.9441    53
 1.9541    51
 1.9641    52
 1.9741    54
 1.9841    53
 1.9941    58
 2.0041    54
 2.0141    57
 2.0241    65
 2.0341    65
 2.0441    69
 2.0541    50
 2.0641    50
 2.0741    53
 2.0841    49
 2.0941    50
 2.1041    43
 2.1141    40
 2.1241    37
 2.1341    45
 2.1441    48
 2.1541    44
 2.1641    44
 2.1741    48
 2.1841    42
 2.1941    36
 2.2041    37
 2.2141    37
 2.2241    42
 2.2341    51
 2.2441    41
 2.2541    53
 2.2641    32
 2.2741    40
 2.2841    53
 2.2941    42
 2.3041    33
 2.3141    32
 2.3241    53
 2.3341    41
 2.3441    47
 2.3541    46
 2.3641    30
 2.3741    47
 2.3841    41
 2.3941    35
 2.4041    31
 2.4141    33
 2.4241    38
 2.4341    43
 2.4441    41
 2.4541    42
 2.4641    46
 2.4741    35
 2.4841    30
 2.4941    42
 2.5041    50
 2.5141    34
 2.5241    37
 2.5341    39
 2.5441    30
 2.5541    37
 2.5641    51
 2.5741    40
 2.5841    38
 2.5941    49
 2.6041    37
 2.6141    48
 2.6241    49
 2.6341    45
 2.6441    42
 2.6541    45
 2.6641    40
 2.6741    37
 2.6841    33
 2.6941    32
 2.7041    26
 2.7141    49
 2.7241    36
 2.7341    28
 2.7441    37
 2.7541    30
 2.7641    40
 2.7741    38
 2.7841    34
 2.7941    46
 2.8041    41
 2.8141    35
 2.8241    38
 2.8341    43
 2.8441    39
 2.8541    32
 2.8641    35
 2.8741    30
 2.8841    26
 2.8941    36
 2.9041    38
 2.9141    35
 2.9241    30
 2.9341    33
 2.9441    27
 2.9541    23
 2.9641    25
 2.9741    30
 2.9841    49
 2.9941    52
 3.0041    40
 3.0141    35
 3.0241    34
 3.0341    23
 3.0441    41
 3.0541    40
 3.0641    26
 3.0741    36
 3.0841    30
 3.0941    36
 3.1041    27
 3.1141    25
 3.1241    25
 3.1341    32
 3.1441    39
 3.1541    38
 3.1641    33
 3.1741    29
 3.1841    35
 3.1941    27
 3.2041    33
 3.2141    24
 3.2241    25
 3.2341    26
 3.2441    27
 3.2541    45
 3.2641    31
 3.2741    43
 3.2841    45
 3.2941    59
 3.3041    38
 3.3141    34
 3.3241    48
 3.3341    38
 3.3441    26
 3.3541    41
 3.3641    25
 3.3741    30
 3.3841    26
 3.3941    34
 3.4041    24
 3.4141    30
 3.4241    28
 3.4341    33
 3.4441    29
 3.4541    33
 3.4641    26
 3.4741    26
 3.4841    27
 3.4941    23
 3.5041    28
 3.5141    31
 3.5241    32
 3.5341    30
 3.5441    33
 3.5541    35
 3.5641    40
 3.5741    59
 3.5841    68
 3.5941    80
 3.6041   101
 3.6141   139
 3.6241   183
 3.6341   202
 3.6441   260
 3.6541   310
 3.6641   342
 3.6741   376
 3.6841   372
 3.6941   382
 3.7041   332
 3.7141   333
 3.7241   286
 3.7341   230
 3.7441   192
 3.7541   135
 3.7641   124
 3.7741    77
 3.7841    68
 3.7941    52
 3.8041    43
 3.8141    34
 3.8241    24
 3.8341    25
 3.8441    28
 3.8541    28
 3.8641    29
 3.8741    31
 3.8841    28
 3.8941    29
 3.9041    23
 3.9141    30
 3.9241    44
 3.9341    54
 3.9441    50
 3.9541    46
 3.9641    59
 3.9741    73
 3.9841    59
 3.9941    59
 4.0041    78
 4.0141    69
 4.0241    70
 4.0341    70
 4.0441    76
 4.0541    69
 4.0641    42
 4.0741    52
 4.0841    38
 4.0941    35
 4.1041    39
 4.1141    29
 4.1241    23
 4.1341    20
 4.1441    25
 4.1541    14
 4.1641    22
 4.1741    22
 4.1841    21
 4.1941    15
 4.2041    14
 4.2141    19
 4.2241    21
 4.2341    17
 4.2441    21
 4.2541    26
 4.2641    18
 4.2741    18
 4.2841    27
 4.2941    25
 4.3041    15
 4.3141    18
 4.3241    22
 4.3341    16
 4.3441    20
 4.3541    20
 4.3641    25
 4.3741    21
 4.3841    23
 4.3941    32
 4.4041    39
 4.4141    28
 4.4241    43
 4.4341    40
 4.4441    46
 4.4541    55
 4.4641    60
 4.4741    56
 4.4841    91
 4.4941    74
 4.5041    85
 4.5141    89
 4.5241    67
 4.5341    70
 4.5441    53
 4.5541    57
 4.5641    50
 4.5741    44
 4.5841    39
 4.5941    32
 4.6041    33
 4.6141    28
 4.6241    34
 4.6341    31
 4.6441    31
 4.6541    21
 4.6641    20
 4.6741    26
 4.6841    16
 4.6941    31
 4.7041    24
 4.7141    25
 4.7241    26
 4.7341    26
 4.7441    15
 4.7541    18
 4.7641    15
 4.7741    19
 4.7841    26
 4.7941    25
 4.8041    22
 4.8141    27
 4.8241    22
 4.8341    30
 4.8441    27
 4.8541    21
 4.8641    25
 4.8741    19
 4.8841    30
 4.8941    29
 4.9041    34
 4.9141    28
 4.9241    31
 4.9341    30
 4.9441    27
 4.9541    36
 4.9641    37
 4.9741    31
 4.9841    27
 4.9941    38
 5.0041    28
 5.0141    36
 5.0241    28
 5.0341    16
 5.0441    32
 5.0541    20
 5.0641    28
 5.0741    27
 5.0841    15
 5.0941    16
 5.1041    26
 5.1141    32
 5.1241    31
 5.1341    22
 5.1441    18
 5.1541    18
 5.1641    18
 5.1741    27
 5.1841    20
 5.1941    28
 5.2041    25
 5.2141    29
 5.2241    27
 5.2341    25
 5.2441    32
 5.2541    19
 5.2641    33
 5.2741    31
 5.2841    28
 5.2941    31
 5.3041    45
 5.3141    45
 5.3241    45
 5.3341    58
 5.3441    54
 5.3541    70
 5.3641    85
 5.3741    98
 5.3841   121
 5.3941   113
 5.4041   109
 5.4141   107
 5.4241    97
 5.4341   100
 5.4441    87
 5.4541    66
 5.4641    80
 5.4741    75
 5.4841    55
 5.4941    48
 5.5041    46
 5.5141    31
 5.5241    43
 5.5341    27
 5.5441    28
 5.5541    24
 5.5641    21
 5.5741    19
 5.5841    20
 5.5941    23
 5.6041    28
 5.6141    28
 5.6241    27
 5.6341    25
 5.6441    21
 5.6541    26
 5.6641    34
 5.6741    20
 5.6841    29
 5.6941    27
 5.7041    28
 5.7141    24
 5.7241    31
 5.7341    40
 5.7441    33
 5.7541    24
 5.7641    23
 5.7741    37
 5.7841    40
 5.7941    37
 5.8041    40
 5.8141    71
 5.8241    76
 5.8341    82
 5.8441    98
 5.8541    96
 5.8641   115
 5.8741    98
 5.8841   109
 5.8941   120
 5.9041   113
 5.9141   105
 5.9241   102
 5.9341    89
 5.9441    85
 5.9541    79
 5.9641    76
 5.9741    59
 5.9841    61
 5.9941    67
 6.0041    57
 6.0141    50
 6.0241    36
 6.0341    39
 6.0441    34
 6.0541    38
 6.0641    38
 6.0741    31
 6.0841    35
 6.0941    46
 6.1041    36
 6.1141    42
 6.1241    34
 6.1341    38
 6.1441    41
 6.1541    39
 6.1641    39
 6.1741    53
 6.1841    64
 6.1941    56
 6.2041    79
 6.2141    82
 6.2241   124
 6.2341   176
 6.2441   210
 6.2541   323
 6.2641   444
 6.2741   574
 6.2841   771
 6.2941   992
 6.3041  1319
 6.3141  1596
 6.3241  1906
 6.3341  2281
 6.3441  2701
 6.3541  3065
 6.3641  3472
 6.3741  3523
 6.3841  3744
 6.3941  3831
 6.4041  3851
 6.4141  3585
 6.4241  3418
 6.4341  3120
 6.4441  2818
 6.4541  2350
 6.4641  2022
 6.4741  1682
 6.4841  1311
 6.4941  1010
 6.5041   798
 6.5141   566
 6.5241   440
 6.5341   302
 6.5441   216
 6.5541   151
 6.5641   119
 6.5741    81
 6.5841    63
 6.5941    63
 6.6041    37
 6.6141    37
 6.6241    41
 6.6341    32
 6.6441    33
 6.6541    47
 6.6641    37
 6.6741    39
 6.6841    42
 6.6941    40
 6.7041    31
 6.7141    37
 6.7241    46
 6.7341    33
 6.7441    38
 6.7541    46
 6.7641    47
 6.7741    46
 6.7841    52
 6.7941    60
 6.8041    49
 6.8141    53
 6.8241    46
 6.8341    60
 6.8441    59
 6.8541    50
 6.8641    64
 6.8741    79
 6.8841    72
 6.8941    97
 6.9041    99
 6.9141   103
 6.9241   149
 6.9341   180
 6.9441   214
 6.9541   264
 6.9641   318
 6.9741   341
 6.9841   392
 6.9941   445
 7.0041   504
 7.0141   535
 7.0241   604
 7.0341   606
 7.0441   619
 7.0541   614
 7.0641   614
 7.0741   577
 7.0841   552
 7.0941   549
 7.1041   467
 7.1141   404
 7.1241   376
 7.1341   296
 7.1441   268
 7.1541   198
 7.1641   164
 7.1741   146
 7.1841   118
 7.1941    93
 7.2041    78
 7.2141    56
 7.2241    77
 7.2341    56
 7.2441    41
 7.2541    64
 7.2641    57
 7.2741    61
 7.2841    50
 7.2941    58
 7.3041    62
 7.3141    77
 7.3241    67
 7.3341    67
 7.3441    88
 7.3541    82
 7.3641   112
 7.3741   106
 7.3841   119
 7.3941   138
 7.4041   145
 7.4141   140
 7.4241   176
 7.4341   190
 7.4441   176
 7.4541   210
 7.4641   192
 7.4741   184
 7.4841   174
 7.4941   175
 7.5041   150
 7.5141   170
 7.5241   149
 7.5341   125
 7.5441   104
 7.5541   103
 7.5641    89
 7.5741    82
 7.5841    86
 7.5941    76
 7.6041    65
 7.6141    55
 7.6241    63
 7.6341    65
 7.6441    67
 7.6541    48
 7.6641    55
 7.6741    57
 7.6841    65
 7.6941    76
 7.7041    57
 7.7141    49
 7.7241    65
 7.7341    51
 7.7441    56
 7.7541    74
 7.7641    77
 7.7741    79
 7.7841    80
 7.7941    69
 7.8041    67
 7.8141    68
 7.8241    83
 7.8341    55
 7.8441    77
 7.8541    71
 7.8641    79
 7.8741    66
 7.8841    88
 7.8941    83
 7.9041    89
 7.9141    97
 7.9241    92
 7.9341    99
 7.9441   111
 7.9541   127
 7.9641   135
 7.9741   133
 7.9841   142
 7.9941   146
 8.0041   156
 8.0141   175
 8.0241   188
 8.0341   219
 8.0441   205
 8.0541   231
 8.0641   265
 8.0741   261
 8.0841   282
 8.0941   267
 8.1041   311
 8.1141   352
 8.1241   307
 8.1341   305
 8.1441   344
 8.1541   366
 8.1641   389
 8.1741   387
 8.1841   346
 8.1941   373
 8.2041   401
 8.2141   405
 8.2241   415
 8.2341   383
 8.2441   423
 8.2541   487
 8.2641   463
 8.2741   468
 8.2841   525
 8.2941   581
 8.3041   609
 8.3141   654
 8.3241   694
 8.3341   728
 8.3441   771
 8.3541   806
 8.3641   908
 8.3741   863
 8.3841   883
 8.3941   856
 8.4041   863
 8.4141   773
 8.4241   766
 8.4341   669
 8.4441   666
 8.4541   583
 8.4641   538
 8.4741   457
 8.4841   358
 8.4941   297
 8.5041   286
 8.5141   222
 8.5241   211
 8.5341   154
 8.5441   154
 8.5541   139
 8.5641   113
 8.5741   121
 8.5841   130
 8.5941   121
 8.6041   114
 8.6141   110
 8.6241   115
 8.6341    99
 8.6441    89
 8.6541    96
 8.6641   112
 8.6741   103
 8.6841   119
 8.6941   104
 8.7041   103
 8.7141   102
 8.7241   108
 8.7341   103
 8.7441   103
 8.7541   102
 8.7641   101
 8.7741    91
 8.7841   101
 8.7941    90
 8.8041    97
 8.8141    79
 8.8241    92
 8.8341    84
 8.8441    85
 8.8541    94
 8.8641    70
 8.8741    89
 8.8841    86
 8.8941    89
 8.9041    87
 8.9141    72
 8.9241    78
 8.9341    80
 8.9441    83
 8.9541   100
 8.9641   114
 8.9741    84
 8.9841    98
 8.9941    98
 9.0041   101
 9.0141   101
 9.0241    99
 9.0341    92
 9.0441   106
 9.0541   113
 9.0641   132
 9.0741   125
 9.0841   107
 9.0941   126
 9.1041   144
 9.1141   140
 9.1241   146
 9.1341   146
 9.1441   147
 9.1541   169
 9.1641   169
 9.1741   171
 9.1841   172
 9.1941   176
 9.2041   192
 9.2141   208
 9.2241   214
 9.2341   217
 9.2441   256
 9.2541   251
 9.2641   254
 9.2741   264
 9.2841   279
 9.2941   325
 9.3041   280
 9.3141   324
 9.3241   360
 9.3341   364
 9.3441   343
 9.3541   357
 9.3641   389
 9.3741   343
 9.3841   395
 9.3941   377
 9.4041   381
 9.4141   369
 9.4241   417
 9.4341   378
 9.4441   428
 9.4541   436
 9.4641   436
 9.4741   421
 9.4841   425
 9.4941   414
 9.5041   442
 9.5141   480
 9.5241   477
 9.5341   475
 9.5441   543
 9.5541   560
 9.5641   612
 9.5741   649
 9.5841   684
 9.5941   682
 9.6041   757
 9.6141   753
 9.6241   798
 9.6341   876
 9.6441   865
 9.6541   854
 9.6641   837
 9.6741   874
 9.6841   861
 9.6941   811
 9.7041   775
 9.7141   765
 9.7241   698
 9.7341   643
 9.7441   601
 9.7541   591
 9.7641   529
 9.7741   499
 9.7841   454
 9.7941   400
 9.8041   384
 9.8141   383
 9.8241   354
 9.8341   346
 9.8441   344
 9.8541   345
 9.8641   360
 9.8741   347
 9.8841   344
 9.8941   341
 9.9041   346
 9.9141   381
 9.9241   389
 9.9341   394
 9.9441   344
 9.9541   377
 9.9641   370
 9.9741   375
 9.9841   353
 9.9941   347
10.0041   296
10.0141   261
10.0241   264
10.0341   252
10.0441   211
10.0541   175
10.0641   171
10.0741   161
10.0841   154
10.0941   122
10.1041   104
10.1141   110
10.1241   124
10.1341    98
10.1441    85
10.1541    78
10.1641    75
10.1741    71
10.1841    70
10.1941    61
10.2041    52
10.2141    52
10.2241    56
10.2341    49
10.2441    56
10.2541    54
10.2641    54
10.2741    61
10.2841    45
10.2941    48
10.3041    44
10.3141    35
10.3241    51
10.3341    56
10.3441    41
10.3541    39
10.3641    47
10.3741    41
10.3841    33
10.3941    40
10.4041    54
10.4141    49
10.4241    52
10.4341    52
10.4441    46
10.4541    48
10.4641    40
10.4741    51
10.4841    55
10.4941    53
10.5041    43
10.5141    60
10.5241    52
10.5341    53
10.5441    49
10.5541    60
10.5641    48
10.5741    53
10.5841    59
10.5941    62
10.6041    56
10.6141    51
10.6241    55
10.6341    52
10.6441    53
10.6541    58
10.6641    47
10.6741    70
10.6841    71
10.6941    64
10.7041    64
10.7141    64
10.7241    68
10.7341    69
10.7441    62
10.7541    60
10.7641    61
10.7741    69
10.7841    61
10.7941    64
10.8041    75
10.8141    69
10.8241    77
10.8341    81
10.8441    82
10.8541    75
10.8641    71
10.8741    79
10.8841    80
10.8941    85
10.9041    93
10.9141    85
10.9241    83
10.9341    80
10.9441    88
10.9541    84
10.9641    87
10.9741    84
10.9841    74
10.9941    67
11.0041    76
11.0141    79
11.0241    74
11.0341    73
11.0441    70
11.0541    61
11.0641    62
11.0741    64
11.0841    50
11.0941    55
11.1041    75
11.1141    71
11.1241    63
11.1341    78
11.1441    86
11.1541    82
11.1641    92
11.1741    97
11.1841    96
11.1941    93
11.2041   100
11.2141   103
11.2241   113
11.2341   126
11.2441   107
11.2541   112
11.2641   141
11.2741   123
11.2841   132
11.2941   137
11.3041   115
11.3141   109
11.3241   130
11.3341   123
11.3441   119
11.3541   106
11.3641    91
11.3741    91
11.3841    87
11.3941    73
11.4041    71
11.4141    74
11.4241    63
11.4341    72
11.4441    70
11.4541    53
11.4641    64
11.4741    64
11.4841    59
11.4941    57
11.5041    58
11.5141    59
11.5241    63
11.5341    61
11.5441    68
11.5541    67
11.5641    75
11.5741    69
11.5841    64
11.5941    54
11.6041    64
11.6141    70
11.6241    73
11.6341    74
11.6441    63
11.6541    62
11.6641    63
11.6741    62
11.6841    61
11.6941    62
11.7041    56
11.7141    60
11.7241    52
11.7341    43
11.7441    51
11.7541    50
11.7641    49
11.7741    51
11.7841    47
11.7941    39
11.8041    44
11.8141    55
11.8241    54
11.8341    49
11.8441    46
11.8541    44
11.8641    44
11.8741    44
11.8841    38
11.8941    37
11.9041    41
11.9141    45
11.9241    42
11.9341    35
11.9441    46
11.9541    51
11.9641    42
11.9741    43
11.9841    47
11.9941    54
12.0041    52
12.0141    52
12.0241    44
12.0341    45
12.0441    47
12.0541    45
12.0641    53
12.0741    49
12.0841    43
12.0941    42
12.1041    48
12.1141    43
12.1241    37
12.1341    39
12.1441    38
12.1541    43
12.1641    42
12.1741    38
12.1841    40
12.1941    37
12.2041    36
12.2141    43
12.2241    43
12.2341    44
12.2441    46
12.2541    47
12.2641    41
12.2741    35
12.2841    37
12.2941    40
12.3041    40
12.3141    35
12.3241    33
12.3341    43
12.3441    37
12.3541    38
12.3641    43
12.3741    49
12.3841    50
12.3941    40
12.4041    39
12.4141    39
12.4241    34
12.4341    32
12.4441    44
12.4541    44
12.4641    42
12.4741    51
12.4841    40
12.4941    39
12.5041    42
12.5141    46
12.5241    47
12.5341    43
12.5441    47
12.5541    47
12.5641    48
12.5741    56
12.5841    56
12.5941    51
12.6041    45
12.6141    40
12.6241    49
12.6341    51
12.6441    55
12.6541    52
12.6641    39
12.6741    39
12.6841    41
12.6941    45
12.7041    51
12.7141    52
12.7241    50
12.7341    61
12.7441    63
12.7541    50
12.7641    42
12.7741    45
12.7841    51
12.7941    54
12.8041    47
12.8141    40
12.8241    46
12.8341    55
12.8441    50
12.8541    43
12.8641    54
12.8741    56
12.8841    44
12.8941    43
12.9041    49
12.9141    45
12.9241    55
12.9341    61
12.9441    53
12.9541    50
12.9641    52
12.9741    48
12.9841    53
12.9941    51
13.0041    48
13.0141    51
13.0241    46
13.0341    52
13.0441    57
13.0541    52
13.0641    44
13.0741    44
13.0841    43
13.0941    42
13.1041    50
13.1141    54
13.1241    59
13.1341    56
13.1441    58
13.1541    51
13.1641    43
13.1741    48
13.1841    54
13.1941    49
13.2041    48
13.2141    49
13.2241    56
13.2341    54
13.2441    45
13.2541    49
13.2641    49
13.2741    53
13.2841    61
13.2941    61
13.3041    57
13.3141    55
13.3241    54
13.3341    54
13.3441    57
13.3541    60
13.3641    58
13.3741    60
13.3841    57
13.3941    51
13.4041    51
13.4141    56
13.4241    59
13.4341    60
13.4441    65
13.4541    65
13.4641    66
13.4741    59
13.4841    50
13.4941    55
13.5041    65
13.5141    62
13.5241    51
13.5341    49
13.5441    54
13.5541    60
13.5641    65
13.5741    68
13.5841    62
13.5941    58
13.6041    61
13.6141    66
13.6241    58
13.6341    58
13.6441    70
13.6541    59
13.6641    58
13.6741    61
13.6841    58
13.6941    62
13.7041    58
13.7141    59
13.7241    61
13.7341    58
13.7441    59
13.7541    51
13.7641    56
13.7741    63
13.7841    54
13.7941    57
13.8041    64
13.8141    56
13.8241    59
13.8341    65
13.8441    65
13.8541    70
13.8641    76
13.8741    67
13.8841    66
13.8941    70
13.9041    61
13.9141    59
13.9241    61
13.9341    64
13.9441    67
13.9541    69
13.9641    70
13.9741    69
13.9841    65
13.9941    71
14.0041    68
14.0141    63
14.0241    70
14.0341    75
14.0441    73
14.0541    66
14.0641    73
14.0741    80
14.0841    74
14.0941    70
14.1041    74
14.1141    75
14.1241    73
14.1341    82
14.1441    78
14.1541    74
14.1641    82
14.1741    76
14.1841    68
14.1941    70
14.2041    70
14.2141    64
14.2241    72
14.2341    79
14.2441    70
14.2541    63
14.2641    69
14.2741    73
14.2841    70
14.2941    66
14.3041    73
14.3141    80
14.3241    73
14.3341    66
14.3441    68
14.3541    65
14.3641    68
14.3741    79
14.3841    74
14.3941    75
14.4041    67
14.4141    58
14.4241    55
14.4341    55
14.4441    68
14.4541    75
14.4641    72
14.4741    68
14.4841    75
14.4941    77
14.5041    66
14.5141    67
14.5241    73
14.5341    65
14.5441    59
14.5541    66
14.5641    70
14.5741    66
14.5841    70
14.5941    70
14.6041    65
14.6141    63
14.6241    68
14.6341    65
14.6441    60
14.6541    65
14.6641    72
14.6741    77
14.6841    75
14.6941    74
14.7041    72
14.7141    69
14.7241    69
14.7341    74
14.7441    71
14.7541    73
14.7641    72
14.7741    80
14.7841    89
14.7941    76
14.8041    74
14.8141    78
14.8241    72
14.8341    72
14.8441    71
14.8541    76
14.8641    77
14.8741    76
14.8841    72
14.8941    74
14.9041    78
14.9141    72
14.9241    69
14.9341    66
14.9441    73
14.9541    88
14.9641    87
14.9741    81
14.9841    85
14.9941    93
15.0041    87
15.0141    72
15.0241    64
15.0341    70
15.0441    82
15.0541    81
15.0641    75
15.0741    77
15.0841    86
15.0941    80
15.1041    73
15.1141    74
15.1241    82
15.1341    86
15.1441    91
15.1541    86
15.1641    69
15.1741    67
15.1841    74
15.1941    76
15.2041    81
15.2141    83
15.2241    84
15.2341    79
15.2441    75
15.2541    79
15.2641    81
15.2741    87
15.2841    87
15.2941    87
15.3041    80
15.3141    79
15.3241    85
15.3341    89
15.3441    94
15.3541    89
15.3641    85
15.3741    87
15.3841    92
15.3941    86
15.4041    81
15.4141    84
15.4241    87
15.4341    85
15.4441    77
15.4541    91
15.4641    96
15.4741    93
15.4841    94
15.4941    91
15.5041    91
15.5141   102
15.5241    99
15.5341    92
15.5441    99
15.5541   106
15.5641   107
15.5741   102
15.5841   104
15.5941   109
15.6041   125
15.6141   131
15.6241   139
15.6341   153
15.6441   145
15.6541   151
15.6641   165
15.6741   175
15.6841   175
15.6941   189
15.7041   189
15.7141   192
15.7241   196
15.7341   182
15.7441   196
15.7541   199
15.7641   194
15.7741   199
15.7841   185
15.7941   178
15.8041   182
15.8141   162
15.8241   152
15.8341   152
15.8441   153
15.8541   138
15.8641   130
15.8741   123
15.8841   123
15.8941   119
15.9041   114
15.9141   105
15.9241   108
15.9341   116
15.9441   112
15.9541   103
15.9641    77
15.9741    91
15.9841    99
15.9941    91
16.0041    89
16.0141    93
16.0241    87
16.0341    94
16.0441    86
16.0541    92
16.0641    94
16.0741    87
16.0841    88
16.0941    86
16.1041    90
16.1141   100
16.1241    97
16.1341   101
16.1441    89
16.1541    98
16.1641   102
16.1741   100
16.1841    96
16.1941    92
16.2041    88
16.2141    91
16.2241    91
16.2341    92
16.2441    89
16.2541    97
16.2641    96
16.2741    84
16.2841    81
16.2941    95
16.3041    80
16.3141    95
16.3241   105
16.3341    95
16.3441    95
16.3541    80
16.3641    88
16.3741    98
16.3841    92
16.3941    77
16.4041    75
16.4141    91
16.4241   103
16.4341    92
16.4441    96
16.4541    93
16.4641   103
16.4741   111
16.4841    96
16.4941    91
16.5041    91
16.5141   105
16.5241   117
16.5341   110
16.5441    97
16.5541    98
16.5641    94
16.5741    79
16.5841    92
16.5941    90
16.6041    95
16.6141    96
16.6241   108
16.6341   108
16.6441   102
16.6541   102
16.6641   102
16.6741   109
16.6841   113
16.6941    97
16.7041    95
16.7141    96
16.7241    94
16.7341    96
16.7441    97
16.7541   101
16.7641    97
16.7741    90
16.7841    98
16.7941    97
16.8041   100
16.8141   104
16.8241   101
16.8341   104
16.8441   111
16.8541    93
16.8641   102
16.8741    98
16.8841    90
16.8941   105
16.9041   108
16.9141   107
16.9241   106
16.9341   104
16.9441    94
16.9541   101
16.9641   107
16.9741   105
16.9841   112
16.9941   110
17.0041   101
17.0141    90
17.0241    95
17.0341   109
17.0441    97
17.0541    95
17.0641   106
17.0741   118
17.0841   120
17.0941   115
17.1041   111
17.1141   112
17.1241   114
17.1341   106
17.1441   107
17.1541   114
17.1641   105
17.1741   122
17.1841   102
17.1941    99
17.2041   107
17.2141   115
17.2241   104
17.2341   114
17.2441   108
17.2541    99
17.2641   103
17.2741   110
17.2841   103
17.2941    99
17.3041   101
17.3141   104
17.3241   123
17.3341   122
17.3441   104
17.3541   105
17.3641    98
17.3741   108
17.3841   110
17.3941   115
17.4041   114
17.4141   124
17.4241   121
17.4341   117
17.4441   116
17.4541   121
17.4641   114
17.4741   115
17.4841   132
17.4941   124
17.5041   120
17.5141   131
17.5241   126
17.5341   123
17.5441   124
17.5541   127
17.5641   125
17.5741   135
17.5841   144
17.5941   136
17.6041   120
17.6141   130
17.6241   137
17.6341   120
17.6441   132
17.6541   122
17.6641   120
17.6741   135
17.6841   142
17.6941   134
17.7041   143
17.7141   136
17.7241   133
17.7341   129
17.7441   141
17.7541   127
17.7641   129
17.7741   122
17.7841   117
17.7941   108
17.8041   114
17.8141   129
17.8241   117
17.8341   126
17.8441   120
17.8541   122
17.8641   138
17.8741   136
17.8841   132
17.8941   124
17.9041   116
17.9141   115
17.9241   122
17.9341   126
17.9441   123
17.9541   122
17.9641   141
17.9741   135
17.9841   121
17.9941   130
18.0041   121
18.0141   131
18.0241   129
18.0341   124
18.0441   121
18.0541   116
18.0641   121
18.0741   132
18.0841   112
18.0941   108
18.1041   122
18.1141   120
18.1241   103
18.1341   117
18.1441   129
18.1541   118
18.1641   124
18.1741   127
18.1841   119
18.1941   117
18.2041   115
18.2141   109
18.2241   120
18.2341   118
18.2441   113
18.2541   124
18.2641   127
18.2741   119
18.2841   138
18.2941   134
18.3041   131
18.3141   140
18.3241   126
18.3341   126
18.3441   127
18.3541   125
18.3641   139
18.3741   131
18.3841   121
18.3941   130
18.4041   120
18.4141   135
18.4241   127
18.4341   135
18.4441   139
18.4541   127
18.4641   126
18.4741   126
18.4841   123
18.4941   113
18.5041   140
18.5141   133
18.5241   122
18.5341   131
18.5441   125
18.5541   126
18.5641   119
18.5741   134
18.5841   125
18.5941   117
18.6041   139
18.6141   122
18.6241   137
18.6341   137
18.6441   129
18.6541   130
18.6641   131
18.6741   142
18.6841   128
18.6941   126
18.7041   118
18.7141   128
18.7241   139
18.7341   142
18.7441   133
18.7541   137
18.7641   127
18.7741   127
18.7841   131
18.7941   130
18.8041   147
18.8141   154
18.8241   129
18.8341   120
18.8441   129
18.8541   121
18.8641   133
18.8741   134
18.8841   138
18.8941   129
18.9041   130
18.9141   116
18.9241   137
18.9341   139
18.9441   143
18.9541   149
18.9641   145
18.9741   122
18.9841   117
18.9941   123
19.0041   138
19.0141   127
19.0241   129
19.0341   140
19.0441   135
19.0541   127
19.0641   126
19.0741   127
19.0841   154
19.0941   146
19.1041   137
19.1141   139
19.1241   142
19.1341   149
19.1441   129
19.1541   121
19.1641   128
19.1741   126
19.1841   139
19.1941   145
19.2041   148
19.2141   125
19.2241   142
19.2341   144
19.2441   120
19.2541   118
19.2641   137
19.2741   116
19.2841   114
19.2941   142
19.3041   129
19.3141   128
19.3241   119
19.3341   139
19.3441   109
19.3541   140
19.3641   136
19.3741   135
19.3841   134
19.3941   136
19.4041   132
19.4141   139
19.4241   124
19.4341   126
19.4441   112
19.4541   149
19.4641   137
19.4741   118
19.4841   155
19.4941   145
19.5041   136
19.5141   131
19.5241   135
19.5341   126
19.5441   129
19.5541   136
19.5641   143
19.5741   149
19.5841   125
19.5941   142
19.6041   143
19.6141   152
19.6241   142
19.6341   147
19.6441   142
19.6541   142
19.6641   149
19.6741   154
19.6841   141
19.6941   138
19.7041   132
19.7141   144
19.7241   139
19.7341   129
19.7441   144
19.7541   139
19.7641   138
19.7741   142
19.7841   133
19.7941   131
19.8041   155
19.8141   150
19.8241   137
19.8341   151
19.8441   138
19.8541   128
19.8641   130
19.8741   158
19.8841   159
19.8941   145
19.9041   145
19.9141   151
19.9241   152
19.9341   168
19.9441   157
19.9541   136
19.9641   121
19.9741   140
19.9841   159
19.9941   159
20.0041   146
20.0141   145
20.0241   144
20.0341   131
20.0441   150
20.0541   172
20.0641   156
20.0741   136
20.0841   136
20.0941   146
20.1041   148
20.1141   139
20.1241   149
20.1341   136
20.1441   149
20.1541   144
20.1641   164
20.1741   168
20.1841   131
20.1941   140
20.2041   132
20.2141   136
20.2241   142
20.2341   121
20.2441   143
20.2541   145
20.2641   145
20.2741   138
20.2841   137
20.2941   141
20.3041   151
20.3141   155
20.3241   150
20.3341   142
20.3441   141
20.3541   136
20.3641   139
20.3741   150
20.3841   165
20.3941   142
20.4041   125
20.4141   165
20.4241   156
20.4341   157
20.4441   152
20.4541   152
20.4641   116
20.4741   132
20.4841   124
20.4941   140
20.5041   132
20.5141   147
20.5241   145
20.5341   153
20.5441   155
20.5541   151
20.5641   144
20.5741   151
20.5841   161
20.5941   153
20.6041   170
20.6141   140
20.6241   136
20.6341   135
20.6441   145
20.6541   147
20.6641   172
20.6741   156
20.6841   155
20.6941   146
20.7041   149
20.7141   154
20.7241   148
20.7341   148
20.7441   163
20.7541   135
20.7641   153
20.7741   149
20.7841   143
20.7941   140
20.8041   155
20.8141   150
20.8241   148
20.8341   156
20.8441   148
20.8541   173
20.8641   170
20.8741   168
20.8841   184
20.8941   186
20.9041   172
20.9141   193
20.9241   178
20.9341   189
20.9441   190
20.9541   192
20.9641   199
20.9741   197
20.9841   200
20.9941   223
21.0041   239
21.0141   208
21.0241   223
21.0341   217
21.0441   196
21.0541   229
21.0641   218
21.0741   217
21.0841   204
21.0941   222
21.1041   254
21.1141   238
21.1241   239
21.1341   235
21.1441   230
21.1541   227
21.1641   231
21.1741   222
21.1841   196
21.1941   233
21.2041   209
21.2141   204
21.2241   212
21.2341   202
21.2441   200
21.2541   203
21.2641   188
21.2741   185
21.2841   197
21.2941   196
21.3041   184
21.3141   155
21.3241   153
21.3341   169
21.3441   162
21.3541   166
21.3641   160
21.3741   175
21.3841   169
21.3941   174
21.4041   171
21.4141   149
21.4241   149
21.4341   144
21.4441   175
21.4541   167
21.4641   182
21.4741   174
21.4841   139
21.4941   154
21.5041   159
21.5141   148
21.5241   160
21.5341   147
21.5441   156
21.5541   158
21.5641   159
21.5741   151
21.5841   153
21.5941   127
21.6041   133
21.6141   149
21.6241   143
21.6341   171
21.6441   154
21.6541   157
21.6641   151
21.6741   164
21.6841   139
21.6941   160
21.7041   144
21.7141   161
21.7241   157
21.7341   150
21.7441   145
21.7541   146
21.7641   165
21.7741   150
21.7841   168
21.7941   138
21.8041   155
21.8141   155
21.8241   168
21.8341   170
21.8441   149
21.8541   140
21.8641   161
21.8741   154
21.8841   177
21.8941   139
21.9041   148
21.9141   141
21.9241   165
21.9341   146
21.9441   140
21.9541   148
21.9641   134
21.9741   148
21.9841   157
21.9941   141
22.0041   154
22.0141   158
22.0241   164
22.0341   159
22.0441   158
22.0541   152
22.0641   161
22.0741   144
22.0841   140
22.0941   179
22.1041   156
22.1141   157
22.1241   134
22.1341   144
22.1441   153
22.1541   162
22.1641   165
22.1741   166
22.1841   171
22.1941   134
22.2041   161
22.2141   142
22.2241   160
22.2341   142
22.2441   142
22.2541   137
22.2641   140
22.2741   148
22.2841   142
22.2941   157
22.3041   180
22.3141   178
22.3241   150
22.3341   148
22.3441   125
22.3541   163
22.3641   165
22.3741   158
22.3841   142
22.3941   166
22.4041   143
22.4141   136
22.4241   146
22.4341   158
22.4441   138
22.4541   146
22.4641   150
22.4741   134
22.4841   136
22.4941   167
22.5041   168
22.5141   143
22.5241   181
22.5341   164
22.5441   138
22.5541   154
22.5641   152
22.5741   162
22.5841   159
22.5941   171
22.6041   128
22.6141   126
22.6241   138
22.6341   139
22.6441   156
22.6541   153
22.6641   151
22.6741   165
22.6841   168
22.6941   159
22.7041   149
22.7141   168
22.7241   145
22.7341   149
22.7441   150
22.7541   164
22.7641   130
22.7741   156
22.7841   155
22.7941   154
22.8041   172
22.8141   148
22.8241   140
22.8341   164
22.8441   163
22.8541   148
22.8641   133
22.8741   133
22.8841   137
22.8941   138
22.9041   149
22.9141   144
22.9241   188
22.9341   148
22.9441   126
22.9541   139
22.9641   165
22.9741   165
22.9841   176
22.9941   153
23.0041   162
23.0141   141
23.0241   132
23.0341   151
23.0441   144
23.0541   144
23.0641   158
23.0741   143
23.0841   147
23.0941   152
23.1041   152
23.1141   144
23.1241   163
23.1341   153
23.1441   143
23.1541   156
23.1641   138
23.1741   149
23.1841   135
23.1941   145
23.2041   144
23.2141   164
23.2241   154
23.2341   147
23.2441   150
23.2541   168
23.2641   145
23.2741   142
23.2841   157
23.2941   148
23.3041   161
23.3141   148
23.3241   151
23.3341   152
23.3441   149
23.3541   163
23.3641   149
23.3741   131
23.3841   132
23.3941   142
23.4041   161
23.4141   116
23.4241   129
23.4341   160
23.4441   148
23.4541   140
23.4641   135
23.4741   164
23.4841   139
23.4941   151
23.5041   143
23.5141   139
23.5241   136
23.5341   144
23.5441   157
23.5541   152
23.5641   138
23.5741   122
23.5841   137
23.5941   121
23.6041   151
23.6141   161
23.6241   148
23.6341   140
23.6441   146
23.6541   133
23.6641   152
23.6741   149
23.6841   154
23.6941   165
23.7041   173
23.7141   181
23.7241   163
23.7341   163
23.7441   157
23.7541   156
23.7641   168
23.7741   147
23.7841   140
23.7941   161
23.8041   163
23.8141   141
23.8241   178
23.8341   169
23.8441   169
23.8541   151
23.8641   170
23.8741   152
23.8841   141
23.8941   164
23.9041   161
23.9141   144
23.9241   177
23.9341   144
23.9441   152
23.9541   142
23.9641   170
23.9741   163
23.9841   125
23.9941   141
24.0041   141
24.0141   147
24.0241   167
24.0341   143
24.0441   134
24.0541   156
24.0641   148
24.0741   161
24.0841   156
24.0941   159
24.1041   150
24.1141   149
24.1241   137
24.1341   134
24.1441   130
24.1541   144
24.1641   139
24.1741   151
24.1841   144
24.1941   127
24.2041   133
24.2141   147
24.2241   140
24.2341   133
24.2441   139
24.2541   144
24.2641   147
24.2741   155
24.2841   142
24.2941   146
24.3041   117
24.3141   133
24.3241   147
24.3341   125
24.3441   151
24.3541   168
24.3641   153
24.3741   131
24.3841   149
24.3941   141
24.4041   141
24.4141   137
24.4241   124
24.4341   140
24.4441   146
24.4541   143
24.4641   146
24.4741   152
24.4841   142
24.4941   145
24.5041   139
24.5141   133
24.5241   140
24.5341   145
24.5441   134
24.5541   131
24.5641   125
24.5741   135
24.5841   145
24.5941   143
24.6041   129
24.6141   141
24.6241   116
24.6341   154
24.6441   145
24.6541   159
24.6641   138
24.6741   137
24.6841   147
24.6941   137
24.7041   129
24.7141   147
24.7241   143
24.7341   154
24.7441   133
24.7541   153
24.7641   136
24.7741   138
24.7841   119
24.7941   127
24.8041   128
24.8141   128
24.8241   157
24.8341   148
24.8441   126
24.8541   154
24.8641   141
24.8741   153
24.8841   144
24.8941   141
24.9041   143
24.9141   142
24.9241   146
24.9341   144
24.9441   126
24.9541   138
24.9641   131
24.9741   132
24.9841   125
24.9941   138
25.0041   133
25.0141   140
25.0241   144
25.0341   171
25.0441   133
25.0541   142
25.0641   151
25.0741   138
25.0841   134
25.0941   149
25.1041   145
25.1141   132
25.1241   132
25.1341   141
25.1441   173
25.1541   145
25.1641   125
25.1741   158
25.1841   157
25.1941   132
25.2041   147
25.2141   160
25.2241   142
25.2341   126
25.2441   137
25.2541   133
25.2641   145
25.2741   144
25.2841   140
25.2941   141
25.3041   127
25.3141   159
25.3241   137
25.3341   136
25.3441   142
25.3541   141
25.3641   128
25.3741   154
25.3841   126
25.3941   146
25.4041   149
25.4141   139
25.4241   127
25.4341   113
25.4441   145
25.4541   155
25.4641   132
25.4741   138
25.4841   145
25.4941   149
25.5041   147
25.5141   125
25.5241   134
25.5341   130
25.5441   145
25.5541   102
25.5641   126
25.5741   119
25.5841   114
25.5941   142
25.6041   133
25.6141   129
25.6241   126
25.6341   131
25.6441   109
25.6541   130
25.6641   139
25.6741   148
25.6841   147
25.6941   137
25.7041   133
25.7141   125
25.7241   108
25.7341   134
25.7441   128
25.7541   128
25.7641   131
25.7741   132
25.7841   123
25.7941   108
25.8041   125
25.8141   109
25.8241   128
25.8341   122
25.8441   137
25.8541   137
25.8641   126
25.8741   126
25.8841   129
25.8941   119
25.9041   124
25.9141   142
25.9241   138
25.9341   131
25.9441   158
25.9541   139
25.9641   131
25.9741   124
25.9841   137
25.9941   136
26.0041   126
26.0141   122
26.0241   141
26.0341   120
26.0441   121
26.0541   129
26.0641   128
26.0741   148
26.0841   107
26.0941   107
26.1041   128
26.1141   129
26.1241   124
26.1341   143
26.1441   132
26.1541   137
26.1641   143
26.1741   123
26.1841   124
26.1941   128
26.2041   125
26.2141   117
26.2241   112
26.2341   111
26.2441   125
26.2541   120
26.2641   132
26.2741   124
26.2841   132
26.2941   135
26.3041   133
26.3141   129
26.3241   141
26.3341   126
26.3441   123
26.3541   111
26.3641   123
26.3741   110
26.3841   118
26.3941   124
26.4041   126
26.4141   105
26.4241    97
26.4341   134
26.4441   124
26.4541   105
26.4641   137
26.4741   131
26.4841   125
26.4941   118
26.5041   151
26.5141   117
26.5241   126
26.5341   128
26.5441   115
26.5541   129
26.5641   123
26.5741   120
26.5841   104
26.5941   111
26.6041   113
26.6141   112
26.6241   117
26.6341   151
26.6441   122
26.6541   107
26.6641   121
26.6741   127
26.6841   120
26.6941   128
26.7041   118
26.7141   136
26.7241   125
26.7341   126
26.7441   132
26.7541   104
26.7641   103
26.7741   121
26.7841   119
26.7941   130
26.8041   116
26.8141   119
26.8241   132
26.8341   128
26.8441   116
26.8541   124
26.8641   121
26.8741   137
26.8841   108
26.8941   103
26.9041   120
26.9141   113
26.9241   108
26.9341   104
26.9441   107
26.9541   138
26.9641   137
26.9741   144
26.9841   117
26.9941   120
27.0041   106
27.0141   114
27.0241   111
27.0341   114
27.0441   101
27.0541   114
27.0641   108
27.0741   141
27.0841   139
27.0941   123
27.1041   114
27.1141   121
27.1241   125
27.1341   122
27.1441   124
27.1541   100
27.1641   112
27.1741   122
27.1841   116
27.1941   114
27.2041   122
27.2141   119
27.2241   114
27.2341   129
27.2441   134
27.2541   119
27.2641   105
27.2741   122
27.2841   107
27.2941   105
27.3041   101
27.3141   113
27.3241   106
27.3341    98
27.3441   110
27.3541    98
27.3641   104
27.3741   105
27.3841   123
27.3941   101
27.4041   127
27.4141   118
27.4241   106
27.4341   124
27.4441   112
27.4541   109
27.4641   111
27.4741   116
27.4841   112
27.4941   125
27.5041   125
27.5141   123
27.5241   112
27.5341   100
27.5441   103
27.5541   117
27.5641   144
27.5741    92
27.5841   124
27.5941   105
27.6041   115
27.6141   119
27.6241   114
27.6341   121
27.6441   129
27.6541    91
27.6641    97
27.6741    99
27.6841    97
27.6941   109
27.7041   112
27.7141    99
27.7241   117
27.7341   100
27.7441   109
27.7541    88
27.7641   106
27.7741   107
27.7841   103
27.7941   122
27.8041   107
27.8141   101
27.8241   119
27.8341    97
27.8441    99
27.8541   103
27.8641   123
27.8741   120
27.8841   108
27.8941   106
27.9041    98
27.9141   100
27.9241   103
27.9341   103
27.9441    95
27.9541    91
27.9641   111
27.9741   111
27.9841    96
27.9941   112
28.0041   118
28.0141   100
28.0241    97
28.0341   122
28.0441   120
28.0541   102
28.0641    93
28.0741    99
28.0841    96
28.0941   117
28.1041   107
28.1141   112
28.1241    99
28.1341   111
28.1441   105
28.1541    97
28.1641    91
28.1741    84
28.1841    88
28.1941   107
28.2041    99
28.2141   103
28.2241   120
28.2341   109
28.2441   106
28.2541    80
28.2641   108
28.2741   116
28.2841   102
28.2941    95
28.3041    88
28.3141    96
28.3241   118
28.3341    93
28.3441   106
28.3541    99
28.3641   108
28.3741   122
28.3841    93
28.3941   115
28.4041    95
28.4141   109
28.4241    86
28.4341    97
28.4441   100
28.4541   107
28.4641   105
28.4741   101
28.4841    96
28.4941    83
28.5041   104
28.5141    95
28.5241    91
28.5341    95
28.5441   123
28.5541   100
28.5641   101
28.5741    88
28.5841   110
28.5941   105
28.6041    90
28.6141    99
28.6241    89
28.6341   104
28.6441    96
28.6541   101
28.6641    99
28.6741   107
28.6841   103
28.6941    98
28.7041   102
28.7141    96
28.7241   111
28.7341    95
28.7441   108
28.7541    87
28.7641    92
28.7741    95
28.7841   104
28.7941    97
28.8041   108
28.8141   115
28.8241   106
28.8341   115
28.8441   109
28.8541    94
28.8641    93
28.8741    82
28.8841    95
28.8941    84
28.9041   103
28.9141    95
28.9241    86
28.9341    92
28.9441    80
28.9541    86
28.9641   103
28.9741    83
28.9841    97
28.9941    80
29.0041    83
29.0141    89
29.0241    85
29.0341    80
29.0441    95
29.0541   109
29.0641    81
29.0741   102
29.0841    89
29.0941    95
29.1041   108
29.1141   101
29.1241   103
29.1341    96
29.1441    83
29.1541   101
29.1641    97
29.1741   106
29.1841    95
29.1941    80
29.2041    99
29.2141    97
29.2241    88
29.2341    91
29.2441   102
29.2541    84
29.2641    97
29.2741   103
29.2841    94
29.2941    93
29.3041    80
29.3141    88
29.3241    95
29.3341    85
29.3441    71
29.3541    85
29.3641    88
29.3741    91
29.3841    81
29.3941   106
29.4041    78
29.4141   103
29.4241    80
29.4341    94
29.4441    97
29.4541    93
29.4641    90
29.4741    79
29.4841   104
29.4941    70
29.5041    80
29.5141    89
29.5241   103
29.5341    94
29.5441    97
29.5541    92
29.5641    78
29.5741    75
29.5841    76
29.5941    90
29.6041    95
29.6141    74
29.6241   100
29.6341    78
29.6441    94
29.6541    65
29.6641    94
29.6741    79
29.6841    87
29.6941    98
29.7041    98
29.7141    98
29.7241    90
29.7341    84
29.7441    90
29.7541    80
29.7641   101
29.7741    88
29.7841    82
29.7941    83
29.8041    83
29.8141    78
29.8241    89
29.8341    87
29.8441    69
29.8541    78
29.8641    78
29.8741    90
29.8841    87
29.8941    70
29.9041    88
29.9141    78
29.9241    79
29.9341    85
29.9441    76
29.9541    85
29.9641    97
29.9741    82
29.9841    84
29.9941    96
30.0041    88
30.0141    86
30.0241    90
30.0341    88
30.0441    86
30.0541    75
30.0641    92
30.0741    66
30.0841    93
30.0941    90
30.1041    71
30.1141    78
30.1241    85
30.1341    71
30.1441    88
30.1541    77
30.1641    89
30.1741    83
30.1841    89
30.1941    81
30.2041    86
30.2141    77
30.2241    85
30.2341    84
30.2441    79
30.2541    92
30.2641    89
30.2741    69
30.2841    81
30.2941    96
30.3041    70
30.3141    71
30.3241    79
30.3341    78
30.3441    83
30.3541    69
30.3641    77
30.3741    81
30.3841    70
30.3941    85
30.4041    72
30.4141    74
30.4241    76
30.4341    71
30.4441    87
30.4541    79
30.4641    81
30.4741    78
30.4841    67
30.4941    78
30.5041    82
30.5141    87
30.5241    77
30.5341    67
30.5441    67
30.5541    79
30.5641    98
30.5741    76
30.5841    89
30.5941    78
30.6041    83
30.6141    92
30.6241    77
30.6341    74
30.6441    74
30.6541    81
30.6641    85
30.6741    85
30.6841    72
30.6941    72
30.7041    79
30.7141    85
30.7241    89
30.7341    83
30.7441    79
30.7541    71
30.7641    56
30.7741    78
30.7841    66
30.7941    76
30.8041    73
30.8141    67
30.8241    71
30.8341    85
30.8441    74
30.8541    79
30.8641    73
30.8741    67
30.8841    62
30.8941    63
30.9041    71
30.9141    64
30.9241    68
30.9341    72
30.9441    78
30.9541    74
30.9641    79
30.9741    75
30.9841    71
30.9941    75
31.0041    81
31.0141    72
31.0241    77
31.0341    73
31.0441    70
31.0541    70
31.0641    72
31.0741    76
31.0841    68
31.0941    56
31.1041    69
31.1141    65
31.1241    63
31.1341    81
31.1441    77
31.1541    73
31.1641    77
31.1741    71
31.1841    64
31.1941    74
31.2041    77
31.2141    62
31.2241    73
31.2341    76
31.2441    72
31.2541    79
31.2641    65
31.2741    85
31.2841    54
31.2941    68
31.3041    65
31.3141    65
31.3241    80
31.3341    66
31.3441    67
31.3541    74
31.3641    59
31.3741    67
31.3841    70
31.3941    61
31.4041    55
31.4141    68
31.4241    63
31.4341    77
31.4441    72
31.4541    56
31.4641    71
31.4741    68
31.4841    78
31.4941    64
31.5041    57
31.5141    68
31.5241    58
31.5341    67
31.5441    57
31.5541    69
31.5641    57
31.5741    54
31.5841    73
31.5941    52
31.6041    59
31.6141    52
31.6241    60
31.6341    77
31.6441    53
31.6541    59
31.6641    55
31.6741    81
31.6841    73
31.6941    76
31.7041    72
31.7141    55
31.7241    71
31.7341    62
31.7441    58
31.7541    80
31.7641    65
31.7741    79
31.7841    60
31.7941    61
31.8041    71
31.8141    69
31.8241    54
31.8341    57
31.8441    67
31.8541    59
31.8641    67
31.8741    62
31.8841    57
31.8941    52
31.9041    70
31.9141    65
31.9241    65
31.9341    78
31.9441    53
31.9541    61
31.9641    69
31.9741    65
31.9841    61
31.9941    58
32.0041    66
32.0141    60
32.0241    56
32.0341    70
32.0441    63
32.0541    56
32.0641    51
32.0741    62
32.0841    65
32.0941    74
32.1041    59
32.1141    67
32.1241    61
32.1341    48
32.1441    52
32.1541    74
32.1641    69
32.1741    71
32.1841    50
32.1941    52
32.2041    73
32.2141    61
32.2241    68
32.2341    63
32.2441    64
32.2541    69
32.2641    59
32.2741    55
32.2841    59
32.2941    66
32.3041    60
32.3141    46
32.3241    56
32.3341    64
32.3441    58
32.3541    60
32.3641    54
32.3741    42
32.3841    56
32.3941    64
32.4041    68
32.4141    70
32.4241    52
32.4341    60
32.4441    60
32.4541    61
32.4641    65
32.4741    91
32.4841    61
32.4941    54
32.5041    58
32.5141    56
32.5241    47
32.5341    62
32.5441    65
32.5541    53
32.5641    62
32.5741    57
32.5841    58
32.5941    61
32.6041    51
32.6141    57
32.6241    55
32.6341    56
32.6441    54
32.6541    49
32.6641    50
32.6741    49
32.6841    43
32.6941    52
32.7041    57
32.7141    44
32.7241    51
32.7341    43
32.7441    75
32.7541    49
32.7641    59
32.7741    58
32.7841    49
32.7941    51
32.8041    50
32.8141    61
32.8241    55
32.8341    43
32.8441    37
32.8541    48
32.8641    55
32.8741    40
32.8841    59
32.8941    51
32.9041    64
32.9141    62
32.9241    44
32.9341    55
32.9441    57
32.9541    54
32.9641    71
32.9741    48
32.9841    62
32.9941    50
33.0041    50
33.0141    47
33.0241    47
33.0341    68
33.0441    62
33.0541    53
33.0641    51
33.0741    50
33.0841    50
33.0941    58
33.1041    50
33.1141    48
33.1241    57
33.1341    53
33.1441    59
33.1541    49
33.1641    56
33.1741    55
33.1841    63
33.1941    49
33.2041    48
33.2141    45
33.2241    64
33.2341    43
33.2441    48
33.2541    43
33.2641    59
33.2741    50
33.2841    49
33.2941    50
33.3041    50
33.3141    61
33.3241    48
33.3341    53
33.3441    48
33.3541    49
33.3641    54
33.3741    55
33.3841    46
33.3941    53
33.4041    48
33.4141    56
33.4241    49
33.4341    55
33.4441    40
33.4541    52
33.4641    46
33.4741    48
33.4841    59
33.4941    45
33.5041    43
33.5141    46
33.5241    35
33.5341    37
33.5441    45
33.5541    48
33.5641    37
33.5741    43
33.5841    41
33.5941    55
33.6041    48
33.6141    49
33.6241    70
33.6341    38
33.6441    55
33.6541    47
33.6641    46
33.6741    53
33.6841    53
33.6941    42
33.7041    38
33.7141    37
33.7241    46
33.7341    50
33.7441    42
33.7541    51
33.7641    54
33.7741    48
33.7841    52
33.7941    45
33.8041    54
33.8141    38
33.8241    50
33.8341    49
33.8441    45
33.8541    52
33.8641    47
33.8741    42
33.8841    39
33.8941    39
33.9041    42
33.9141    32
33.9241    50
33.9341    44
33.9441    44
33.9541    47
33.9641    40
33.9741    48
33.9841    57
33.9941    40
34.0041    47
34.0141    32
34.0241    40
34.0341    40
34.0441    43
34.0541    45
34.0641    40
34.0741    45
34.0841    50
34.0941    38
34.1041    45
34.1141    40
34.1241    47
34.1341    35
34.1441    45
34.1541    41
34.1641    47
34.1741    48
34.1841    42
34.1941    51
34.2041    45
34.2141    53
34.2241    43
34.2341    46
34.2441    44
34.2541    45
34.2641    44
34.2741    37
34.2841    43
34.2941    40
34.3041    41
34.3141    43
34.3241    49
34.3341    53
34.3441    52
34.3541    43
34.3641    43
34.3741    40
34.3841    37
34.3941    33
34.4041    41
34.4141    34
34.4241    46
34.4341    36
34.4441    32
34.4541    49
34.4641    38
34.4741    31
34.4841    42
34.4941    45
34.5041    46
34.5141    42
34.5241    29
34.5341    39
34.5441    37
34.5541    42
34.5641    34
34.5741    48
34.5841    38
34.5941    42
34.6041    40
34.6141    32
34.6241    36
34.6341    47
34.6441    41
34.6541    44
34.6641    31
34.6741    47
34.6841    38
34.6941    33
34.7041    41
34.7141    49
34.7241    42
34.7341    45
34.7441    42
34.7541    51
34.7641    39
34.7741    39
34.7841    31
34.7941    34
34.8041    37
34.8141    35
34.8241    31
34.8341    40
34.8441    31
34.8541    45
34.8641    43
34.8741    36
34.8841    29
34.8941    33
34.9041    41
34.9141    31
34.9241    26
34.9341    39
34.9441    30
34.9541    31
34.9641    36
34.9741    39
34.9841    37
34.9941    32
35.0041    41
35.0141    34
35.0241    28
35.0341    36
35.0441    37
35.0541    39
35.0641    34
35.0741    32
35.0841    37
35.0941    27
35.1041    37
35.1141    31
35.1241    39
35.1341    33
35.1441    34
35.1541    34
35.1641    26
35.1741    36
35.1841    33
35.1941    29
35.2041    29
35.2141    37
35.2241    44
35.2341    43
35.2441    44
35.2541    37
35.2641    38
35.2741    38
35.2841    36
35.2941    35
35.3041    43
35.3141    30
35.3241    26
35.3341    19
35.3441    27
35.3541    26
35.3641    40
35.3741    36
35.3841    28
35.3941    44
35.4041    37
35.4141    30
35.4241    36
35.4341    35
35.4441    30
35.4541    39
35.4641    26
35.4741    35
35.4841    32
35.4941    32
35.5041    28
35.5141    36
35.5241    32
35.5341    23
35.5441    36
35.5541    36
35.5641    38
35.5741    26
35.5841    34
35.5941    37
35.6041    35
35.6141    41
35.6241    43
35.6341    52
35.6441    35
35.6541    36
35.6641    36
35.6741    30
35.6841    38
35.6941    25
35.7041    29
35.7141    37
35.7241    26
35.7341    28
35.7441    35
35.7541    27
35.7641    28
35.7741    31
35.7841    35
35.7941    39
35.8041    40
35.8141    37
35.8241    34
35.8341    27
35.8441    35
35.8541    29
35.8641    34
35.8741    29
35.8841    32
35.8941    35
35.9041    24
35.9141    32
35.9241    26
35.9341    25
35.9441    37
35.9541    34
35.9641    36
35.9741    31
35.9841    24
35.9941    26
36.0041    20
36.0141    25
36.0241    37
36.0341    43
36.0441    32
36.0541    25
36.0641    31
36.0741    28
36.0841    25
36.0941    21
36.1041    24
36.1141    34
36.1241    22
36.1341    30
36.1441    28
36.1541    30
36.1641    24
36.1741    19
36.1841    22
36.1941    29
36.2041    26
36.2141    22
36.2241    24
36.2341    33
36.2441    26
36.2541    31
36.2641    31
36.2741    31
36.2841    32
36.2941    24
36.3041    35
36.3141    45
36.3241    25
36.3341    23
36.3441    32
36.3541    23
36.3641    32
36.3741    27
36.3841    28
36.3941    23
36.4041    32
36.4141    23
36.4241    26
36.4341    24
36.4441    22
36.4541    25
36.4641    28
36.4741    18
36.4841    21
36.4941    24
36.5041    27
36.5141    23
36.5241    29
36.5341    27
36.5441    26
36.5541    28
36.5641    22
36.5741    23
36.5841    29
36.5941    32
36.6041    28
36.6141    23
36.6241    31
36.6341    22
36.6441    22
36.6541    42
36.6641    22
36.6741    30
36.6841    28
36.6941    25
36.7041    29
36.7141    26
36.7241    36
36.7341    30
36.7441    29
36.7541    34
36.7641    23
36.7741    18
36.7841    19
36.7941    25
36.8041    24
36.8141    20
36.8241    16
36.8341    24
36.8441    32
36.8541    23
36.8641    22
36.8741    21
36.8841    25
36.8941    20
36.9041    26
36.9141    25
36.9241    26
36.9341    23
36.9441    22
36.9541    23
36.9641    29
36.9741    15
36.9841    18
36.9941    22
37.0041    25
37.0141    17
37.0241    22
37.0341    18
37.0441    17
37.0541    35
37.0641    25
37.0741    22
37.0841    17
37.0941    14
37.1041    21
37.1141    14
37.1241    22
37.1341    18
37.1441    23
37.1541    19
37.1641    36
37.1741    24
37.1841    17
37.1941    31
37.2041    25
37.2141    26
37.2241    22
37.2341    24
37.2441    15
37.2541    23
37.2641    23
37.2741    19
37.2841    21
37.2941    17
37.3041    25
37.3141    28
37.3241    24
37.3341    34
37.3441    15
37.3541    20
37.3641    28
37.3741    26
37.3841    17
37.3941    26
37.4041    28
37.4141    19
37.4241    24
37.4341    21
37.4441    21
37.4541    19
37.4641    23
37.4741    15
37.4841    20
37.4941    17
37.5041    23
37.5141    18
37.5241    14
37.5341    23
37.5441    15
37.5541    14
37.5641    12
37.5741    20
37.5841    25
37.5941    24
37.6041    19
37.6141    21
37.6241    19
37.6341    15
37.6441    22
37.6541    19
37.6641    19
37.6741    18
37.6841    22
37.6941    15
37.7041    20
37.7141    20
37.7241    20
37.7341    19
37.7441    13
37.7541    23
37.7641    17
37.7741    19
37.7841    21
37.7941    19
37.8041    16
37.8141    14
37.8241    11
37.8341    24
37.8441    19
37.8541    20
37.8641    10
37.8741    13
37.8841    21
37.8941    16
37.9041    16
37.9141    20
37.9241    21
37.9341    24
37.9441    13
37.9541    22
37.9641    18
37.9741    19
37.9841    24
37.9941    20
38.0041    18
38.0141    20
38.0241    12
38.0341    26
38.0441    16
38.0541    21
38.0641    24
38.0741    17
38.0841    25
38.0941    18
38.1041    21
38.1141    17
38.1241    21
38.1341    15
38.1441    21
38.1541    13
38.1641    11
38.1741    14
38.1841    22
38.1941    18
38.2041    14
38.2141    20
38.2241    11
38.2341    22
38.2441    23
38.2541    15
38.2641    21
38.2741    15
38.2841    18
38.2941    17
38.3041    11
38.3141    11
38.3241    17
38.3341    18
38.3441    23
38.3541    18
38.3641    12
38.3741    13
38.3841    23
38.3941    14
38.4041    18
38.4141    14
38.4241    16
38.4341     9
38.4441    19
38.4541    21
38.4641    17
38.4741    21
38.4841    13
38.4941    12
38.5041    19
38.5141    17
38.5241    13
38.5341    11
38.5441    13
38.5541    16
38.5641    17
38.5741    17
38.5841    15
38.5941    18
38.6041    18
38.6141    15
38.6241    10
38.6341    18
38.6441    17
38.6541    16
38.6641    14
38.6741    13
38.6841    13
38.6941    13
38.7041    19
38.7141    18
38.7241    17
38.7341    13
38.7441    12
38.7541    17
38.7641    18
38.7741    18
38.7841    15
38.7941    14
38.8041    13
38.8141    14
38.8241    15
38.8341    12
38.8441    17
38.8541    13
38.8641    12
38.8741     8
38.8841    14
38.8941    15
38.9041    15
38.9141    14
38.9241    15
38.9341     8
38.9441    16
38.9541    20
38.9641     8
38.9741    18
38.9841    16
38.9941    13
39.0041    13
39.0141     9
39.0241    15
39.0341    17
39.0441    16
39.0541    17
39.0641    21
39.0741    10
39.0841    19
39.0941    16
39.1041    21
39.1141    12
39.1241     9
39.1341    13
39.1441    11
39.1541     6
39.1641    12
39.1741    12
39.1841    10
39.1941    12
39.2041    12
39.2141    16
39.2241    14
39.2341    17
39.2441    16
39.2541    10
39.2641    14
39.2741    17
39.2841     9
39.2941    17
39.3041    12
39.3141     7
39.3241    12
39.3341    11
39.3441    13
39.3541    10
39.3641    12
39.3741    13
39.3841    14
39.3941    14
39.4041    17
39.4141    17
39.4241    14
39.4341     7
39.4441     8
39.4541    15
39.4641    16
39.4741    13
39.4841    12
39.4941    11
39.5041    11
39.5141    13
39.5241     8
39.5341     6
39.5441     9
39.5541     8
39.5641    15
39.5741     8
39.5841    12
39.5941    10
39.6041     9
39.6141    12
39.6241     8
39.6341    13
39.6441    10
39.6541    13
39.6641    12
39.6741     8
39.6841     8
39.6941    10
39.7041    14
39.7141    14
39.7241    12
39.7341    10
39.7441     6
39.7541     8
39.7641    11
39.7741    11
39.7841     9
39.7941    11
39.8041    13
39.8141    13
39.8241    10
39.8341     9
39.8441     7
39.8541     6
39.8641    14
39.8741     6
39.8841    12
39.8941    14
39.9041    12
39.9141     9
39.9241    10
39.9341    13
39.9441     6
39.9541     4
39.9641    12
39.9741    12
39.9841     9
39.9941     5
