Bruker Nano GmbH Berlin, Germany
Esprit 1.9

Date: 4/1/2021 4:09:43 PM
Real time: 22405
Life time: 20984
Pulse density: 92629


Detector type: XFlash 430
Window type: Custom type
Detector thickness: 0.45
Si dead layer:0.029

Calibration, lin.: 10
Calibration, abs.: -955.9
Mn FWHM: 137.05
Fano factor: 0.121
Channels: 4095

Energy Counts
-0.9559     0
-0.9459     0
-0.9359     0
-0.9259     0
-0.9159     0
-0.9059     0
-0.8959     0
-0.8859     0
-0.8759     0
-0.8659     0
-0.8559     0
-0.8459     0
-0.8359     0
-0.8259     0
-0.8159     0
-0.8059     0
-0.7959     0
-0.7859     0
-0.7759     0
-0.7659     0
-0.7559     0
-0.7459     0
-0.7359     0
-0.7259     0
-0.7159     0
-0.7059     0
-0.6959     0
-0.6859     0
-0.6759     0
-0.6659     0
-0.6559     0
-0.6459     0
-0.6359     0
-0.6259     0
-0.6159     0
-0.6059     0
-0.5959     0
-0.5859     0
-0.5759     0
-0.5659     0
-0.5559     0
-0.5459     0
-0.5359     0
-0.5259     0
-0.5159     0
-0.5059     0
-0.4959     0
-0.4859     0
-0.4759     0
-0.4659     0
-0.4559     0
-0.4459     0
-0.4359     0
-0.4259     0
-0.4159     0
-0.4059     0
-0.3959     0
-0.3859     0
-0.3759     0
-0.3659     0
-0.3559     0
-0.3459     0
-0.3359     0
-0.3259     0
-0.3159     0
-0.3059     0
-0.2959     0
-0.2859     0
-0.2759     0
-0.2659     0
-0.2559     0
-0.2459     0
-0.2359     0
-0.2259     0
-0.2159     0
-0.2059     0
-0.1959     0
-0.1859     0
-0.1759     0
-0.1659     0
-0.1559     0
-0.1459     0
-0.1359     0
-0.1259     1
-0.1159     6
-0.1059    11
-0.0959    57
-0.0859   225
-0.0759   806
-0.0659  2315
-0.0559  6145
-0.0459 13257
-0.0359 24870
-0.0259 39951
-0.0159 54902
-0.0059 64544
 0.0041 64796
 0.0141 55398
 0.0241 41190
 0.0341 26083
 0.0441 14074
 0.0541  6532
 0.0641  2650
 0.0741   896
 0.0841   262
 0.0941    79
 0.1041    29
 0.1141    12
 0.1241     6
 0.1341    10
 0.1441     8
 0.1541     6
 0.1641     4
 0.1741    14
 0.1841   183
 0.1941   402
 0.2041   341
 0.2141   327
 0.2241   329
 0.2341   346
 0.2441   341
 0.2541   353
 0.2641   352
 0.2741   338
 0.2841   334
 0.2941   341
 0.3041   365
 0.3141   369
 0.3241   349
 0.3341   333
 0.3441   343
 0.3541   324
 0.3641   339
 0.3741   314
 0.3841   314
 0.3941   323
 0.4041   297
 0.4141   324
 0.4241   289
 0.4341   286
 0.4441   305
 0.4541   328
 0.4641   329
 0.4741   292
 0.4841   298
 0.4941   301
 0.5041   304
 0.5141   307
 0.5241   303
 0.5341   292
 0.5441   298
 0.5541   312
 0.5641   303
 0.5741   284
 0.5841   305
 0.5941   298
 0.6041   283
 0.6141   285
 0.6241   292
 0.6341   292
 0.6441   277
 0.6541   262
 0.6641   266
 0.6741   292
 0.6841   293
 0.6941   291
 0.7041   272
 0.7141   260
 0.7241   263
 0.7341   251
 0.7441   255
 0.7541   260
 0.7641   258
 0.7741   263
 0.7841   269
 0.7941   244
 0.8041   226
 0.8141   227
 0.8241   250
 0.8341   245
 0.8441   247
 0.8541   256
 0.8641   267
 0.8741   247
 0.8841   250
 0.8941   249
 0.9041   248
 0.9141   260
 0.9241   252
 0.9341   259
 0.9441   245
 0.9541   237
 0.9641   242
 0.9741   242
 0.9841   268
 0.9941   243
 1.0041   230
 1.0141   217
 1.0241   235
 1.0341   243
 1.0441   232
 1.0541   204
 1.0641   230
 1.0741   236
 1.0841   229
 1.0941   230
 1.1041   212
 1.1141   213
 1.1241   231
 1.1341   242
 1.1441   203
 1.1541   235
 1.1641   224
 1.1741   200
 1.1841   209
 1.1941   226
 1.2041   219
 1.2141   215
 1.2241   217
 1.2341   220
 1.2441   214
 1.2541   206
 1.2641   223
 1.2741   221
 1.2841   221
 1.2941   213
 1.3041   212
 1.3141   228
 1.3241   222
 1.3341   203
 1.3441   205
 1.3541   213
 1.3641   220
 1.3741   211
 1.3841   183
 1.3941   190
 1.4041   196
 1.4141   189
 1.4241   193
 1.4341   201
 1.4441   211
 1.4541   218
 1.4641   215
 1.4741   212
 1.4841   192
 1.4941   198
 1.5041   222
 1.5141   208
 1.5241   204
 1.5341   220
 1.5441   208
 1.5541   210
 1.5641   171
 1.5741   206
 1.5841   202
 1.5941   180
 1.6041   193
 1.6141   196
 1.6241   205
 1.6341   185
 1.6441   199
 1.6541   252
 1.6641   302
 1.6741   335
 1.6841   378
 1.6941   479
 1.7041   590
 1.7141   700
 1.7241   765
 1.7341   778
 1.7441   825
 1.7541   739
 1.7641   732
 1.7741   592
 1.7841   524
 1.7941   433
 1.8041   389
 1.8141   339
 1.8241   278
 1.8341   255
 1.8441   246
 1.8541   211
 1.8641   210
 1.8741   205
 1.8841   206
 1.8941   221
 1.9041   247
 1.9141   234
 1.9241   207
 1.9341   201
 1.9441   222
 1.9541   212
 1.9641   223
 1.9741   250
 1.9841   239
 1.9941   244
 2.0041   264
 2.0141   256
 2.0241   252
 2.0341   231
 2.0441   240
 2.0541   237
 2.0641   206
 2.0741   235
 2.0841   187
 2.0941   203
 2.1041   181
 2.1141   209
 2.1241   182
 2.1341   187
 2.1441   181
 2.1541   199
 2.1641   180
 2.1741   180
 2.1841   193
 2.1941   166
 2.2041   156
 2.2141   166
 2.2241   172
 2.2341   196
 2.2441   189
 2.2541   196
 2.2641   177
 2.2741   165
 2.2841   183
 2.2941   149
 2.3041   165
 2.3141   194
 2.3241   169
 2.3341   173
 2.3441   154
 2.3541   173
 2.3641   188
 2.3741   176
 2.3841   177
 2.3941   167
 2.4041   176
 2.4141   168
 2.4241   153
 2.4341   179
 2.4441   173
 2.4541   162
 2.4641   170
 2.4741   171
 2.4841   162
 2.4941   158
 2.5041   153
 2.5141   151
 2.5241   156
 2.5341   150
 2.5441   139
 2.5541   178
 2.5641   159
 2.5741   180
 2.5841   141
 2.5941   143
 2.6041   148
 2.6141   158
 2.6241   156
 2.6341   151
 2.6441   149
 2.6541   142
 2.6641   156
 2.6741   150
 2.6841   160
 2.6941   145
 2.7041   159
 2.7141   138
 2.7241   130
 2.7341   158
 2.7441   142
 2.7541   135
 2.7641   167
 2.7741   156
 2.7841   184
 2.7941   136
 2.8041   153
 2.8141   157
 2.8241   152
 2.8341   145
 2.8441   150
 2.8541   149
 2.8641   148
 2.8741   147
 2.8841   148
 2.8941   152
 2.9041   134
 2.9141   162
 2.9241   158
 2.9341   155
 2.9441   135
 2.9541   138
 2.9641   137
 2.9741   161
 2.9841   150
 2.9941   149
 3.0041   148
 3.0141   131
 3.0241   152
 3.0341   138
 3.0441   137
 3.0541   139
 3.0641   138
 3.0741   112
 3.0841   134
 3.0941   144
 3.1041   130
 3.1141   114
 3.1241   140
 3.1341   140
 3.1441   116
 3.1541   109
 3.1641   137
 3.1741   140
 3.1841   130
 3.1941   149
 3.2041   125
 3.2141   156
 3.2241   154
 3.2341   157
 3.2441   153
 3.2541   198
 3.2641   223
 3.2741   227
 3.2841   295
 3.2941   297
 3.3041   312
 3.3141   306
 3.3241   280
 3.3341   272
 3.3441   269
 3.3541   251
 3.3641   220
 3.3741   161
 3.3841   167
 3.3941   177
 3.4041   130
 3.4141   128
 3.4241   104
 3.4341   127
 3.4441   124
 3.4541    95
 3.4641   131
 3.4741   130
 3.4841   123
 3.4941   127
 3.5041   126
 3.5141   130
 3.5241   128
 3.5341   147
 3.5441   188
 3.5541   182
 3.5641   202
 3.5741   257
 3.5841   303
 3.5941   365
 3.6041   488
 3.6141   564
 3.6241   750
 3.6341   921
 3.6441  1059
 3.6541  1258
 3.6641  1386
 3.6741  1512
 3.6841  1628
 3.6941  1587
 3.7041  1563
 3.7141  1390
 3.7241  1287
 3.7341  1069
 3.7441   893
 3.7541   698
 3.7641   569
 3.7741   446
 3.7841   311
 3.7941   235
 3.8041   179
 3.8141   144
 3.8241   127
 3.8341   110
 3.8441   122
 3.8541   100
 3.8641    96
 3.8741   119
 3.8841   126
 3.8941   133
 3.9041   133
 3.9141   145
 3.9241   168
 3.9341   193
 3.9441   200
 3.9541   204
 3.9641   244
 3.9741   286
 3.9841   261
 3.9941   287
 4.0041   312
 4.0141   335
 4.0241   317
 4.0341   319
 4.0441   271
 4.0541   280
 4.0641   262
 4.0741   232
 4.0841   188
 4.0941   152
 4.1041   128
 4.1141   105
 4.1241   110
 4.1341   103
 4.1441    99
 4.1541   108
 4.1641    94
 4.1741    86
 4.1841    74
 4.1941    84
 4.2041    96
 4.2141    78
 4.2241    86
 4.2341    83
 4.2441    80
 4.2541    83
 4.2641    79
 4.2741    92
 4.2841    84
 4.2941    93
 4.3041   101
 4.3141    79
 4.3241    70
 4.3341    79
 4.3441   103
 4.3541   109
 4.3641   114
 4.3741   106
 4.3841   131
 4.3941   153
 4.4041   185
 4.4141   203
 4.4241   249
 4.4341   314
 4.4441   367
 4.4541   440
 4.4641   440
 4.4741   519
 4.4841   553
 4.4941   629
 4.5041   631
 4.5141   623
 4.5241   587
 4.5341   526
 4.5441   511
 4.5541   432
 4.5641   384
 4.5741   307
 4.5841   282
 4.5941   242
 4.6041   188
 4.6141   147
 4.6241   162
 4.6341   122
 4.6441   118
 4.6541   121
 4.6641   109
 4.6741    97
 4.6841   111
 4.6941   102
 4.7041   119
 4.7141   105
 4.7241    87
 4.7341   130
 4.7441   106
 4.7541    87
 4.7641    98
 4.7741    99
 4.7841   111
 4.7941   116
 4.8041   127
 4.8141   129
 4.8241   143
 4.8341   153
 4.8441   161
 4.8541   154
 4.8641   166
 4.8741   190
 4.8841   210
 4.8941   203
 4.9041   201
 4.9141   216
 4.9241   223
 4.9341   227
 4.9441   221
 4.9541   193
 4.9641   199
 4.9741   184
 4.9841   168
 4.9941   154
 5.0041   169
 5.0141   157
 5.0241   138
 5.0341   123
 5.0441   113
 5.0541   117
 5.0641   112
 5.0741   116
 5.0841   106
 5.0941   136
 5.1041   108
 5.1141    99
 5.1241   105
 5.1341   122
 5.1441   104
 5.1541   111
 5.1641   103
 5.1741   106
 5.1841   118
 5.1941   102
 5.2041   101
 5.2141   118
 5.2241   124
 5.2341   111
 5.2441    97
 5.2541    96
 5.2641    94
 5.2741   123
 5.2841   100
 5.2941   121
 5.3041   102
 5.3141   107
 5.3241   112
 5.3341   136
 5.3441   112
 5.3541   155
 5.3641   151
 5.3741   151
 5.3841   132
 5.3941   139
 5.4041   158
 5.4141   148
 5.4241   135
 5.4341   139
 5.4441   151
 5.4541   145
 5.4641   135
 5.4741   134
 5.4841   148
 5.4941   117
 5.5041   143
 5.5141   134
 5.5241   111
 5.5341   123
 5.5441   126
 5.5541   110
 5.5641   131
 5.5741   112
 5.5841   112
 5.5941   108
 5.6041   120
 5.6141   113
 5.6241   123
 5.6341   110
 5.6441   116
 5.6541   144
 5.6641   127
 5.6741   127
 5.6841   113
 5.6941   112
 5.7041   108
 5.7141   119
 5.7241   129
 5.7341   156
 5.7441   125
 5.7541   148
 5.7641   155
 5.7741   152
 5.7841   163
 5.7941   175
 5.8041   200
 5.8141   225
 5.8241   222
 5.8341   282
 5.8441   288
 5.8541   313
 5.8641   320
 5.8741   374
 5.8841   350
 5.8941   357
 5.9041   388
 5.9141   381
 5.9241   320
 5.9341   356
 5.9441   296
 5.9541   243
 5.9641   232
 5.9741   217
 5.9841   197
 5.9941   203
 6.0041   183
 6.0141   160
 6.0241   154
 6.0341   148
 6.0441   146
 6.0541   112
 6.0641   132
 6.0741   150
 6.0841   132
 6.0941   158
 6.1041   159
 6.1141   140
 6.1241   159
 6.1341   178
 6.1441   173
 6.1541   179
 6.1641   207
 6.1741   199
 6.1841   208
 6.1941   275
 6.2041   341
 6.2141   435
 6.2241   619
 6.2341   826
 6.2441  1158
 6.2541  1548
 6.2641  2097
 6.2741  2969
 6.2841  3952
 6.2941  5190
 6.3041  6592
 6.3141  8525
 6.3241 10362
 6.3341 12638
 6.3441 14863
 6.3541 16963
 6.3641 19026
 6.3741 20570
 6.3841 21595
 6.3941 22035
 6.4041 21685
 6.4141 21174
 6.4241 19948
 6.4341 18282
 6.4441 16170
 6.4541 14174
 6.4641 11733
 6.4741  9799
 6.4841  7882
 6.4941  6019
 6.5041  4732
 6.5141  3438
 6.5241  2489
 6.5341  1804
 6.5441  1278
 6.5541   951
 6.5641   626
 6.5741   509
 6.5841   334
 6.5941   286
 6.6041   227
 6.6141   198
 6.6241   190
 6.6341   187
 6.6441   183
 6.6541   168
 6.6641   171
 6.6741   168
 6.6841   165
 6.6941   173
 6.7041   181
 6.7141   162
 6.7241   195
 6.7341   198
 6.7441   152
 6.7541   169
 6.7641   187
 6.7741   164
 6.7841   198
 6.7941   178
 6.8041   190
 6.8141   200
 6.8241   227
 6.8341   206
 6.8441   250
 6.8541   272
 6.8641   279
 6.8741   351
 6.8841   349
 6.8941   404
 6.9041   481
 6.9141   569
 6.9241   742
 6.9341   903
 6.9441  1061
 6.9541  1341
 6.9641  1544
 6.9741  1819
 6.9841  2119
 6.9941  2528
 7.0041  2848
 7.0141  3133
 7.0241  3429
 7.0341  3549
 7.0441  3787
 7.0541  3628
 7.0641  3701
 7.0741  3547
 7.0841  3399
 7.0941  2985
 7.1041  2787
 7.1141  2399
 7.1241  2012
 7.1341  1722
 7.1441  1393
 7.1541  1174
 7.1641   975
 7.1741   760
 7.1841   609
 7.1941   505
 7.2041   434
 7.2141   316
 7.2241   315
 7.2341   272
 7.2441   231
 7.2541   235
 7.2641   212
 7.2741   226
 7.2841   229
 7.2941   236
 7.3041   225
 7.3141   266
 7.3241   253
 7.3341   264
 7.3441   261
 7.3541   293
 7.3641   283
 7.3741   295
 7.3841   308
 7.3941   292
 7.4041   310
 7.4141   341
 7.4241   293
 7.4341   295
 7.4441   288
 7.4541   297
 7.4641   285
 7.4741   265
 7.4841   269
 7.4941   247
 7.5041   255
 7.5141   236
 7.5241   234
 7.5341   256
 7.5441   245
 7.5541   202
 7.5641   199
 7.5741   229
 7.5841   210
 7.5941   217
 7.6041   225
 7.6141   245
 7.6241   221
 7.6341   225
 7.6441   219
 7.6541   266
 7.6641   202
 7.6741   251
 7.6841   242
 7.6941   231
 7.7041   220
 7.7141   244
 7.7241   250
 7.7341   241
 7.7441   262
 7.7541   256
 7.7641   238
 7.7741   218
 7.7841   277
 7.7941   302
 7.8041   294
 7.8141   294
 7.8241   294
 7.8341   308
 7.8441   314
 7.8541   334
 7.8641   312
 7.8741   355
 7.8841   318
 7.8941   362
 7.9041   351
 7.9141   360
 7.9241   398
 7.9341   419
 7.9441   409
 7.9541   482
 7.9641   451
 7.9741   505
 7.9841   580
 7.9941   570
 8.0041   636
 8.0141   672
 8.0241   727
 8.0341   801
 8.0441   851
 8.0541   924
 8.0641   920
 8.0741  1051
 8.0841  1080
 8.0941  1090
 8.1041  1241
 8.1141  1278
 8.1241  1291
 8.1341  1381
 8.1441  1374
 8.1541  1479
 8.1641  1462
 8.1741  1533
 8.1841  1516
 8.1941  1524
 8.2041  1575
 8.2141  1597
 8.2241  1547
 8.2341  1633
 8.2441  1659
 8.2541  1667
 8.2641  1820
 8.2741  1936
 8.2841  2021
 8.2941  2187
 8.3041  2321
 8.3141  2420
 8.3241  2741
 8.3341  2869
 8.3441  2962
 8.3541  3037
 8.3641  3193
 8.3741  3359
 8.3841  3297
 8.3941  3262
 8.4041  3216
 8.4141  3231
 8.4241  3040
 8.4341  2774
 8.4441  2513
 8.4541  2235
 8.4641  2023
 8.4741  1809
 8.4841  1496
 8.4941  1266
 8.5041  1116
 8.5141   887
 8.5241   819
 8.5341   718
 8.5441   612
 8.5541   568
 8.5641   529
 8.5741   487
 8.5841   473
 8.5941   504
 8.6041   477
 8.6141   453
 8.6241   457
 8.6341   423
 8.6441   450
 8.6541   464
 8.6641   445
 8.6741   421
 8.6841   422
 8.6941   428
 8.7041   404
 8.7141   441
 8.7241   397
 8.7341   387
 8.7441   386
 8.7541   367
 8.7641   350
 8.7741   348
 8.7841   355
 8.7941   338
 8.8041   355
 8.8141   314
 8.8241   324
 8.8341   327
 8.8441   347
 8.8541   337
 8.8641   359
 8.8741   325
 8.8841   355
 8.8941   354
 8.9041   353
 8.9141   341
 8.9241   366
 8.9341   354
 8.9441   361
 8.9541   359
 8.9641   349
 8.9741   376
 8.9841   376
 8.9941   391
 9.0041   432
 9.0141   408
 9.0241   412
 9.0341   397
 9.0441   440
 9.0541   469
 9.0641   452
 9.0741   501
 9.0841   490
 9.0941   530
 9.1041   522
 9.1141   559
 9.1241   553
 9.1341   592
 9.1441   588
 9.1541   622
 9.1641   634
 9.1741   699
 9.1841   702
 9.1941   745
 9.2041   792
 9.2141   805
 9.2241   844
 9.2341   911
 9.2441   967
 9.2541   983
 9.2641  1025
 9.2741  1054
 9.2841  1098
 9.2941  1166
 9.3041  1243
 9.3141  1251
 9.3241  1284
 9.3341  1309
 9.3441  1413
 9.3541  1439
 9.3641  1442
 9.3741  1456
 9.3841  1481
 9.3941  1482
 9.4041  1464
 9.4141  1516
 9.4241  1573
 9.4341  1655
 9.4441  1647
 9.4541  1582
 9.4641  1666
 9.4741  1704
 9.4841  1708
 9.4941  1726
 9.5041  1696
 9.5141  1808
 9.5241  1974
 9.5341  2006
 9.5441  2081
 9.5541  2210
 9.5641  2310
 9.5741  2427
 9.5841  2698
 9.5941  2905
 9.6041  3141
 9.6141  3308
 9.6241  3448
 9.6341  3632
 9.6441  3755
 9.6541  3993
 9.6641  4069
 9.6741  4056
 9.6841  4032
 9.6941  3886
 9.7041  3747
 9.7141  3631
 9.7241  3342
 9.7341  3165
 9.7441  2893
 9.7541  2704
 9.7641  2473
 9.7741  2206
 9.7841  2049
 9.7941  1880
 9.8041  1734
 9.8141  1589
 9.8241  1546
 9.8341  1487
 9.8441  1404
 9.8541  1351
 9.8641  1336
 9.8741  1355
 9.8841  1420
 9.8941  1442
 9.9041  1493
 9.9141  1487
 9.9241  1497
 9.9341  1472
 9.9441  1528
 9.9541  1546
 9.9641  1503
 9.9741  1412
 9.9841  1429
 9.9941  1334
10.0041  1234
10.0141  1185
10.0241  1094
10.0341  1005
10.0441   914
10.0541   827
10.0641   749
10.0741   643
10.0841   551
10.0941   513
10.1041   466
10.1141   403
10.1241   390
10.1341   367
10.1441   320
10.1541   305
10.1641   324
10.1741   304
10.1841   291
10.1941   272
10.2041   244
10.2141   268
10.2241   248
10.2341   232
10.2441   247
10.2541   221
10.2641   214
10.2741   196
10.2841   195
10.2941   212
10.3041   194
10.3141   205
10.3241   180
10.3341   177
10.3441   179
10.3541   188
10.3641   199
10.3741   176
10.3841   182
10.3941   176
10.4041   192
10.4141   194
10.4241   181
10.4341   192
10.4441   181
10.4541   194
10.4641   201
10.4741   200
10.4841   186
10.4941   205
10.5041   191
10.5141   210
10.5241   216
10.5341   206
10.5441   215
10.5541   212
10.5641   203
10.5741   226
10.5841   240
10.5941   228
10.6041   220
10.6141   223
10.6241   248
10.6341   244
10.6441   208
10.6541   222
10.6641   222
10.6741   241
10.6841   237
10.6941   261
10.7041   265
10.7141   242
10.7241   232
10.7341   231
10.7441   243
10.7541   270
10.7641   276
10.7741   290
10.7841   286
10.7941   283
10.8041   297
10.8141   290
10.8241   289
10.8341   298
10.8441   306
10.8541   289
10.8641   319
10.8741   326
10.8841   330
10.8941   350
10.9041   349
10.9141   353
10.9241   333
10.9341   307
10.9441   321
10.9541   336
10.9641   345
10.9741   337
10.9841   309
10.9941   317
11.0041   315
11.0141   323
11.0241   329
11.0341   319
11.0441   310
11.0541   328
11.0641   294
11.0741   298
11.0841   299
11.0941   311
11.1041   313
11.1141   304
11.1241   301
11.1341   304
11.1441   317
11.1541   322
11.1641   340
11.1741   362
11.1841   365
11.1941   369
11.2041   379
11.2141   420
11.2241   437
11.2341   437
11.2441   446
11.2541   457
11.2641   458
11.2741   477
11.2841   526
11.2941   496
11.3041   465
11.3141   437
11.3241   438
11.3341   424
11.3441   436
11.3541   406
11.3641   354
11.3741   363
11.3841   355
11.3941   302
11.4041   281
11.4141   270
11.4241   259
11.4341   265
11.4441   259
11.4541   250
11.4641   235
11.4741   233
11.4841   256
11.4941   247
11.5041   235
11.5141   242
11.5241   232
11.5341   235
11.5441   229
11.5541   222
11.5641   227
11.5741   235
11.5841   257
11.5941   266
11.6041   256
11.6141   267
11.6241   250
11.6341   249
11.6441   260
11.6541   261
11.6641   241
11.6741   236
11.6841   236
11.6941   242
11.7041   245
11.7141   220
11.7241   218
11.7341   236
11.7441   211
11.7541   195
11.7641   211
11.7741   206
11.7841   204
11.7941   195
11.8041   176
11.8141   173
11.8241   178
11.8341   164
11.8441   170
11.8541   194
11.8641   172
11.8741   183
11.8841   178
11.8941   175
11.9041   175
11.9141   165
11.9241   154
11.9341   170
11.9441   186
11.9541   173
11.9641   167
11.9741   179
11.9841   182
11.9941   171
12.0041   175
12.0141   184
12.0241   188
12.0341   193
12.0441   197
12.0541   190
12.0641   178
12.0741   180
12.0841   169
12.0941   161
12.1041   179
12.1141   191
12.1241   180
12.1341   144
12.1441   136
12.1541   171
12.1641   181
12.1741   165
12.1841   165
12.1941   176
12.2041   174
12.2141   172
12.2241   184
12.2341   169
12.2441   165
12.2541   167
12.2641   172
12.2741   165
12.2841   159
12.2941   160
12.3041   169
12.3141   176
12.3241   170
12.3341   169
12.3441   171
12.3541   169
12.3641   182
12.3741   179
12.3841   163
12.3941   178
12.4041   193
12.4141   173
12.4241   170
12.4341   178
12.4441   185
12.4541   178
12.4641   173
12.4741   172
12.4841   173
12.4941   171
12.5041   176
12.5141   166
12.5241   183
12.5341   188
12.5441   176
12.5541   188
12.5641   200
12.5741   197
12.5841   191
12.5941   188
12.6041   183
12.6141   186
12.6241   202
12.6341   207
12.6441   192
12.6541   185
12.6641   195
12.6741   191
12.6841   195
12.6941   191
12.7041   205
12.7141   201
12.7241   190
12.7341   191
12.7441   196
12.7541   196
12.7641   186
12.7741   175
12.7841   176
12.7941   185
12.8041   190
12.8141   189
12.8241   193
12.8341   196
12.8441   192
12.8541   184
12.8641   181
12.8741   186
12.8841   194
12.8941   199
12.9041   200
12.9141   198
12.9241   203
12.9341   190
12.9441   185
12.9541   195
12.9641   195
12.9741   197
12.9841   187
12.9941   195
13.0041   203
13.0141   201
13.0241   199
13.0341   181
13.0441   178
13.0541   187
13.0641   194
13.0741   201
13.0841   207
13.0941   212
13.1041   217
13.1141   212
13.1241   199
13.1341   204
13.1441   212
13.1541   209
13.1641   219
13.1741   231
13.1841   242
13.1941   249
13.2041   245
13.2141   255
13.2241   269
13.2341   268
13.2441   272
13.2541   272
13.2641   288
13.2741   308
13.2841   315
13.2941   325
13.3041   339
13.3141   363
13.3241   371
13.3341   389
13.3441   397
13.3541   384
13.3641   381
13.3741   372
13.3841   367
13.3941   387
13.4041   396
13.4141   383
13.4241   365
13.4341   352
13.4441   342
13.4541   341
13.4641   341
13.4741   307
13.4841   300
13.4941   306
13.5041   288
13.5141   268
13.5241   260
13.5341   261
13.5441   241
13.5541   225
13.5641   234
13.5741   245
13.5841   233
13.5941   230
13.6041   240
13.6141   229
13.6241   219
13.6341   228
13.6441   224
13.6541   220
13.6641   232
13.6741   237
13.6841   245
13.6941   244
13.7041   235
13.7141   227
13.7241   225
13.7341   237
13.7441   238
13.7541   226
13.7641   230
13.7741   226
13.7841   218
13.7941   217
13.8041   236
13.8141   252
13.8241   249
13.8341   245
13.8441   234
13.8541   234
13.8641   252
13.8741   258
13.8841   275
13.8941   289
13.9041   277
13.9141   275
13.9241   280
13.9341   295
13.9441   325
13.9541   355
13.9641   359
13.9741   380
13.9841   445
13.9941   496
14.0041   513
14.0141   567
14.0241   630
14.0341   665
14.0441   725
14.0541   765
14.0641   802
14.0741   867
14.0841   924
14.0941   968
14.1041  1005
14.1141  1021
14.1241  1014
14.1341  1049
14.1441  1071
14.1541  1053
14.1641  1040
14.1741  1016
14.1841   998
14.1941   986
14.2041   952
14.2141   865
14.2241   774
14.2341   736
14.2441   694
14.2541   632
14.2641   588
14.2741   551
14.2841   497
14.2941   453
14.3041   431
14.3141   399
14.3241   368
14.3341   331
14.3441   320
14.3541   317
14.3641   293
14.3741   287
14.3841   293
14.3941   284
14.4041   285
14.4141   301
14.4241   305
14.4341   269
14.4441   245
14.4541   254
14.4641   276
14.4741   267
14.4841   268
14.4941   270
14.5041   264
14.5141   278
14.5241   278
14.5341   261
14.5441   254
14.5541   266
14.5641   267
14.5741   261
14.5841   267
14.5941   259
14.6041   259
14.6141   270
14.6241   265
14.6341   268
14.6441   281
14.6541   295
14.6641   295
14.6741   291
14.6841   271
14.6941   261
14.7041   274
14.7141   270
14.7241   286
14.7341   292
14.7441   279
14.7541   278
14.7641   285
14.7741   286
14.7841   299
14.7941   300
14.8041   298
14.8141   309
14.8241   322
14.8341   301
14.8441   305
14.8541   308
14.8641   306
14.8741   299
14.8841   314
14.8941   327
14.9041   300
14.9141   306
14.9241   315
14.9341   332
14.9441   321
14.9541   299
14.9641   316
14.9741   314
14.9841   334
14.9941   328
15.0041   326
15.0141   333
15.0241   333
15.0341   337
15.0441   329
15.0541   306
15.0641   310
15.0741   319
15.0841   319
15.0941   304
15.1041   328
15.1141   316
15.1241   304
15.1341   306
15.1441   299
15.1541   300
15.1641   298
15.1741   283
15.1841   300
15.1941   310
15.2041   312
15.2141   317
15.2241   310
15.2341   304
15.2441   311
15.2541   309
15.2641   292
15.2741   292
15.2841   288
15.2941   288
15.3041   303
15.3141   307
15.3241   313
15.3341   302
15.3441   299
15.3541   298
15.3641   318
15.3741   312
15.3841   289
15.3941   269
15.4041   272
15.4141   303
15.4241   290
15.4341   297
15.4441   323
15.4541   316
15.4641   298
15.4741   310
15.4841   312
15.4941   315
15.5041   336
15.5141   350
15.5241   346
15.5341   362
15.5441   361
15.5541   388
15.5641   396
15.5741   360
15.5841   391
15.5941   417
15.6041   445
15.6141   474
15.6241   479
15.6341   495
15.6441   537
15.6541   547
15.6641   578
15.6741   595
15.6841   612
15.6941   635
15.7041   657
15.7141   704
15.7241   705
15.7341   688
15.7441   714
15.7541   723
15.7641   730
15.7741   715
15.7841   699
15.7941   706
15.8041   716
15.8141   722
15.8241   674
15.8341   644
15.8441   696
15.8541   682
15.8641   645
15.8741   618
15.8841   560
15.8941   532
15.9041   538
15.9141   497
15.9241   472
15.9341   460
15.9441   447
15.9541   451
15.9641   435
15.9741   397
15.9841   389
15.9941   372
16.0041   357
16.0141   360
16.0241   362
16.0341   367
16.0441   372
16.0541   381
16.0641   364
16.0741   361
16.0841   359
16.0941   374
16.1041   362
16.1141   359
16.1241   383
16.1341   380
16.1441   366
16.1541   356
16.1641   343
16.1741   351
16.1841   371
16.1941   344
16.2041   331
16.2141   355
16.2241   362
16.2341   364
16.2441   351
16.2541   357
16.2641   365
16.2741   359
16.2841   371
16.2941   375
16.3041   339
16.3141   340
16.3241   348
16.3341   356
16.3441   361
16.3541   344
16.3641   357
16.3741   386
16.3841   382
16.3941   376
16.4041   357
16.4141   367
16.4241   377
16.4341   386
16.4441   375
16.4541   371
16.4641   361
16.4741   347
16.4841   353
16.4941   359
16.5041   399
16.5141   420
16.5241   377
16.5341   353
16.5441   363
16.5541   391
16.5641   402
16.5741   386
16.5841   367
16.5941   362
16.6041   370
16.6141   388
16.6241   382
16.6341   370
16.6441   385
16.6541   384
16.6641   397
16.6741   393
16.6841   410
16.6941   399
16.7041   394
16.7141   385
16.7241   372
16.7341   406
16.7441   375
16.7541   373
16.7641   389
16.7741   403
16.7841   383
16.7941   392
16.8041   404
16.8141   398
16.8241   368
16.8341   362
16.8441   407
16.8541   427
16.8641   391
16.8741   391
16.8841   384
16.8941   377
16.9041   394
16.9141   381
16.9241   380
16.9341   384
16.9441   399
16.9541   403
16.9641   365
16.9741   399
16.9841   386
16.9941   383
17.0041   378
17.0141   388
17.0241   371
17.0341   407
17.0441   434
17.0541   397
17.0641   399
17.0741   408
17.0841   388
17.0941   405
17.1041   408
17.1141   415
17.1241   400
17.1341   419
17.1441   430
17.1541   418
17.1641   407
17.1741   408
17.1841   436
17.1941   408
17.2041   404
17.2141   414
17.2241   428
17.2341   424
17.2441   434
17.2541   429
17.2641   418
17.2741   417
17.2841   415
17.2941   419
17.3041   413
17.3141   390
17.3241   415
17.3341   423
17.3441   422
17.3541   379
17.3641   386
17.3741   418
17.3841   438
17.3941   430
17.4041   440
17.4141   453
17.4241   452
17.4341   424
17.4441   451
17.4541   432
17.4641   405
17.4741   415
17.4841   425
17.4941   426
17.5041   408
17.5141   430
17.5241   451
17.5341   426
17.5441   445
17.5541   463
17.5641   461
17.5741   459
17.5841   491
17.5941   462
17.6041   469
17.6141   483
17.6241   483
17.6341   482
17.6441   481
17.6541   500
17.6641   473
17.6741   470
17.6841   466
17.6941   487
17.7041   508
17.7141   488
17.7241   485
17.7341   477
17.7441   485
17.7541   483
17.7641   484
17.7741   454
17.7841   477
17.7941   478
17.8041   474
17.8141   484
17.8241   479
17.8341   456
17.8441   460
17.8541   451
17.8641   426
17.8741   444
17.8841   432
17.8941   458
17.9041   488
17.9141   452
17.9241   435
17.9341   440
17.9441   491
17.9541   502
17.9641   470
17.9741   466
17.9841   464
17.9941   493
18.0041   465
18.0141   463
18.0241   448
18.0341   471
18.0441   453
18.0541   438
18.0641   448
18.0741   442
18.0841   470
18.0941   471
18.1041   465
18.1141   489
18.1241   464
18.1341   471
18.1441   447
18.1541   443
18.1641   489
18.1741   481
18.1841   487
18.1941   480
18.2041   442
18.2141   453
18.2241   473
18.2341   471
18.2441   483
18.2541   483
18.2641   495
18.2741   467
18.2841   472
18.2941   472
18.3041   501
18.3141   473
18.3241   446
18.3341   452
18.3441   474
18.3541   484
18.3641   467
18.3741   478
18.3841   449
18.3941   483
18.4041   482
18.4141   489
18.4241   491
18.4341   462
18.4441   488
18.4541   479
18.4641   490
18.4741   498
18.4841   496
18.4941   490
18.5041   525
18.5141   499
18.5241   492
18.5341   524
18.5441   511
18.5541   513
18.5641   493
18.5741   481
18.5841   484
18.5941   485
18.6041   483
18.6141   496
18.6241   473
18.6341   513
18.6441   522
18.6541   502
18.6641   514
18.6741   487
18.6841   510
18.6941   473
18.7041   508
18.7141   525
18.7241   535
18.7341   501
18.7441   516
18.7541   511
18.7641   499
18.7741   495
18.7841   512
18.7941   504
18.8041   514
18.8141   525
18.8241   502
18.8341   515
18.8441   504
18.8541   524
18.8641   522
18.8741   523
18.8841   487
18.8941   498
18.9041   524
18.9141   491
18.9241   522
18.9341   516
18.9441   488
18.9541   521
18.9641   493
18.9741   536
18.9841   531
18.9941   518
19.0041   502
19.0141   493
19.0241   530
19.0341   545
19.0441   514
19.0541   510
19.0641   518
19.0741   519
19.0841   535
19.0941   555
19.1041   551
19.1141   548
19.1241   530
19.1341   521
19.1441   513
19.1541   550
19.1641   533
19.1741   551
19.1841   493
19.1941   492
19.2041   534
19.2141   535
19.2241   530
19.2341   548
19.2441   543
19.2541   533
19.2641   542
19.2741   519
19.2841   568
19.2941   533
19.3041   517
19.3141   522
19.3241   522
19.3341   538
19.3441   551
19.3541   554
19.3641   535
19.3741   548
19.3841   532
19.3941   533
19.4041   517
19.4141   526
19.4241   543
19.4341   534
19.4441   569
19.4541   552
19.4641   528
19.4741   533
19.4841   527
19.4941   545
19.5041   541
19.5141   514
19.5241   525
19.5341   553
19.5441   513
19.5541   548
19.5641   555
19.5741   549
19.5841   554
19.5941   536
19.6041   527
19.6141   501
19.6241   522
19.6341   537
19.6441   560
19.6541   549
19.6641   533
19.6741   568
19.6841   536
19.6941   532
19.7041   553
19.7141   562
19.7241   539
19.7341   562
19.7441   542
19.7541   587
19.7641   571
19.7741   551
19.7841   549
19.7941   548
19.8041   552
19.8141   537
19.8241   556
19.8341   544
19.8441   555
19.8541   575
19.8641   553
19.8741   581
19.8841   573
19.8941   571
19.9041   556
19.9141   557
19.9241   578
19.9341   567
19.9441   534
19.9541   536
19.9641   547
19.9741   561
19.9841   527
19.9941   579
20.0041   559
20.0141   606
20.0241   557
20.0341   561
20.0441   551
20.0541   534
20.0641   508
20.0741   554
20.0841   573
20.0941   557
20.1041   570
20.1141   622
20.1241   570
20.1341   580
20.1441   571
20.1541   584
20.1641   549
20.1741   577
20.1841   576
20.1941   571
20.2041   557
20.2141   549
20.2241   553
20.2341   585
20.2441   580
20.2541   558
20.2641   599
20.2741   568
20.2841   545
20.2941   587
20.3041   588
20.3141   584
20.3241   560
20.3341   620
20.3441   600
20.3541   587
20.3641   644
20.3741   549
20.3841   546
20.3941   572
20.4041   550
20.4141   546
20.4241   587
20.4341   571
20.4441   559
20.4541   587
20.4641   584
20.4741   585
20.4841   608
20.4941   624
20.5041   578
20.5141   563
20.5241   573
20.5341   608
20.5441   591
20.5541   592
20.5641   602
20.5741   598
20.5841   569
20.5941   586
20.6041   551
20.6141   563
20.6241   557
20.6341   587
20.6441   570
20.6541   605
20.6641   594
20.6741   596
20.6841   586
20.6941   567
20.7041   574
20.7141   601
20.7241   591
20.7341   593
20.7441   605
20.7541   602
20.7641   598
20.7741   571
20.7841   604
20.7941   584
20.8041   590
20.8141   621
20.8241   588
20.8341   637
20.8441   613
20.8541   600
20.8641   692
20.8741   694
20.8841   668
20.8941   710
20.9041   709
20.9141   696
20.9241   713
20.9341   718
20.9441   725
20.9541   771
20.9641   782
20.9741   790
20.9841   769
20.9941   793
21.0041   846
21.0141   820
21.0241   862
21.0341   811
21.0441   874
21.0541   933
21.0641   910
21.0741   978
21.0841   887
21.0941   901
21.1041   934
21.1141   914
21.1241   891
21.1341   970
21.1441   976
21.1541   954
21.1641   950
21.1741   990
21.1841   956
21.1941   932
21.2041   913
21.2141   921
21.2241   834
21.2341   864
21.2441   858
21.2541   788
21.2641   781
21.2741   812
21.2841   745
21.2941   754
21.3041   731
21.3141   710
21.3241   735
21.3341   704
21.3441   696
21.3541   683
21.3641   665
21.3741   617
21.3841   645
21.3941   684
21.4041   613
21.4141   650
21.4241   608
21.4341   673
21.4441   637
21.4541   605
21.4641   586
21.4741   618
21.4841   600
21.4941   574
21.5041   599
21.5141   632
21.5241   619
21.5341   582
21.5441   629
21.5541   631
21.5641   593
21.5741   577
21.5841   632
21.5941   589
21.6041   641
21.6141   638
21.6241   620
21.6341   589
21.6441   601
21.6541   630
21.6641   607
21.6741   583
21.6841   587
21.6941   633
21.7041   588
21.7141   600
21.7241   582
21.7341   603
21.7441   595
21.7541   610
21.7641   622
21.7741   628
21.7841   580
21.7941   604
21.8041   622
21.8141   613
21.8241   612
21.8341   604
21.8441   611
21.8541   627
21.8641   616
21.8741   615
21.8841   604
21.8941   625
21.9041   578
21.9141   630
21.9241   564
21.9341   562
21.9441   596
21.9541   583
21.9641   590
21.9741   559
21.9841   588
21.9941   551
22.0041   576
22.0141   589
22.0241   609
22.0341   630
22.0441   603
22.0541   644
22.0641   636
22.0741   629
22.0841   610
22.0941   599
22.1041   611
22.1141   621
22.1241   608
22.1341   626
22.1441   622
22.1541   572
22.1641   612
22.1741   632
22.1841   612
22.1941   628
22.2041   618
22.2141   604
22.2241   643
22.2341   623
22.2441   611
22.2541   621
22.2641   624
22.2741   649
22.2841   572
22.2941   582
22.3041   613
22.3141   615
22.3241   606
22.3341   588
22.3441   576
22.3541   647
22.3641   603
22.3741   657
22.3841   593
22.3941   594
22.4041   627
22.4141   634
22.4241   613
22.4341   580
22.4441   556
22.4541   611
22.4641   619
22.4741   614
22.4841   615
22.4941   621
22.5041   624
22.5141   637
22.5241   608
22.5341   635
22.5441   578
22.5541   587
22.5641   593
22.5741   610
22.5841   634
22.5941   551
22.6041   632
22.6141   620
22.6241   601
22.6341   609
22.6441   574
22.6541   566
22.6641   650
22.6741   564
22.6841   632
22.6941   612
22.7041   564
22.7141   597
22.7241   589
22.7341   603
22.7441   640
22.7541   643
22.7641   614
22.7741   577
22.7841   596
22.7941   600
22.8041   611
22.8141   593
22.8241   640
22.8341   605
22.8441   639
22.8541   617
22.8641   604
22.8741   618
22.8841   607
22.8941   628
22.9041   615
22.9141   590
22.9241   610
22.9341   606
22.9441   615
22.9541   540
22.9641   644
22.9741   599
22.9841   640
22.9941   573
23.0041   590
23.0141   619
23.0241   629
23.0341   604
23.0441   613
23.0541   617
23.0641   648
23.0741   623
23.0841   619
23.0941   645
23.1041   599
23.1141   606
23.1241   572
23.1341   626
23.1441   576
23.1541   572
23.1641   642
23.1741   620
23.1841   607
23.1941   614
23.2041   593
23.2141   669
23.2241   622
23.2341   597
23.2441   624
23.2541   633
23.2641   613
23.2741   622
23.2841   613
23.2941   568
23.3041   604
23.3141   581
23.3241   613
23.3341   565
23.3441   588
23.3541   582
23.3641   659
23.3741   593
23.3841   553
23.3941   610
23.4041   577
23.4141   604
23.4241   608
23.4341   611
23.4441   635
23.4541   627
23.4641   597
23.4741   613
23.4841   622
23.4941   672
23.5041   594
23.5141   579
23.5241   650
23.5341   566
23.5441   563
23.5541   582
23.5641   586
23.5741   620
23.5841   602
23.5941   597
23.6041   647
23.6141   621
23.6241   584
23.6341   612
23.6441   615
23.6541   635
23.6641   608
23.6741   640
23.6841   604
23.6941   643
23.7041   637
23.7141   634
23.7241   684
23.7341   667
23.7441   673
23.7541   621
23.7641   656
23.7741   667
23.7841   661
23.7941   645
23.8041   668
23.8141   660
23.8241   648
23.8341   655
23.8441   648
23.8541   631
23.8641   687
23.8741   692
23.8841   688
23.8941   604
23.9041   593
23.9141   634
23.9241   648
23.9341   633
23.9441   625
23.9541   629
23.9641   576
23.9741   578
23.9841   628
23.9941   633
24.0041   598
24.0141   613
24.0241   633
24.0341   544
24.0441   624
24.0541   613
24.0641   615
24.0741   611
24.0841   568
24.0941   624
24.1041   584
24.1141   592
24.1241   586
24.1341   585
24.1441   577
24.1541   594
24.1641   584
24.1741   628
24.1841   575
24.1941   592
24.2041   548
24.2141   587
24.2241   589
24.2341   637
24.2441   597
24.2541   588
24.2641   626
24.2741   583
24.2841   580
24.2941   595
24.3041   597
24.3141   617
24.3241   590
24.3341   558
24.3441   599
24.3541   589
24.3641   549
24.3741   565
24.3841   584
24.3941   606
24.4041   582
24.4141   591
24.4241   547
24.4341   599
24.4441   582
24.4541   593
24.4641   560
24.4741   578
24.4841   589
24.4941   569
24.5041   576
24.5141   588
24.5241   544
24.5341   504
24.5441   539
24.5541   548
24.5641   612
24.5741   536
24.5841   570
24.5941   556
24.6041   579
24.6141   555
24.6241   584
24.6341   539
24.6441   566
24.6541   611
24.6641   577
24.6741   591
24.6841   574
24.6941   564
24.7041   569
24.7141   538
24.7241   564
24.7341   574
24.7441   595
24.7541   532
24.7641   559
24.7741   586
24.7841   594
24.7941   572
24.8041   594
24.8141   572
24.8241   566
24.8341   536
24.8441   565
24.8541   558
24.8641   558
24.8741   565
24.8841   576
24.8941   575
24.9041   545
24.9141   542
24.9241   559
24.9341   555
24.9441   560
24.9541   549
24.9641   562
24.9741   580
24.9841   609
24.9941   564
25.0041   567
25.0141   534
25.0241   576
25.0341   580
25.0441   559
25.0541   608
25.0641   604
25.0741   584
25.0841   618
25.0941   545
25.1041   565
25.1141   584
25.1241   568
25.1341   572
25.1441   555
25.1541   566
25.1641   555
25.1741   577
25.1841   546
25.1941   577
25.2041   589
25.2141   593
25.2241   549
25.2341   590
25.2441   566
25.2541   558
25.2641   537
25.2741   539
25.2841   544
25.2941   566
25.3041   580
25.3141   585
25.3241   556
25.3341   566
25.3441   554
25.3541   558
25.3641   617
25.3741   549
25.3841   585
25.3941   556
25.4041   522
25.4141   582
25.4241   534
25.4341   568
25.4441   551
25.4541   596
25.4641   537
25.4741   529
25.4841   496
25.4941   545
25.5041   546
25.5141   553
25.5241   558
25.5341   536
25.5441   550
25.5541   545
25.5641   530
25.5741   558
25.5841   549
25.5941   535
25.6041   558
25.6141   564
25.6241   527
25.6341   543
25.6441   560
25.6541   504
25.6641   546
25.6741   543
25.6841   554
25.6941   558
25.7041   526
25.7141   590
25.7241   567
25.7341   549
25.7441   546
25.7541   534
25.7641   523
25.7741   538
25.7841   503
25.7941   517
25.8041   523
25.8141   547
25.8241   555
25.8341   564
25.8441   579
25.8541   541
25.8641   535
25.8741   533
25.8841   531
25.8941   575
25.9041   572
25.9141   525
25.9241   530
25.9341   533
25.9441   521
25.9541   533
25.9641   557
25.9741   525
25.9841   523
25.9941   512
26.0041   518
26.0141   524
26.0241   540
26.0341   525
26.0441   532
26.0541   505
26.0641   495
26.0741   506
26.0841   528
26.0941   561
26.1041   532
26.1141   529
26.1241   521
26.1341   506
26.1441   497
26.1541   521
26.1641   540
26.1741   506
26.1841   524
26.1941   510
26.2041   539
26.2141   516
26.2241   543
26.2341   542
26.2441   522
26.2541   569
26.2641   581
26.2741   537
26.2841   553
26.2941   496
26.3041   534
26.3141   548
26.3241   533
26.3341   526
26.3441   561
26.3541   556
26.3641   534
26.3741   513
26.3841   511
26.3941   501
26.4041   476
26.4141   501
26.4241   501
26.4341   496
26.4441   540
26.4541   499
26.4641   530
26.4741   537
26.4841   534
26.4941   532
26.5041   531
26.5141   519
26.5241   506
26.5341   525
26.5441   498
26.5541   504
26.5641   497
26.5741   463
26.5841   522
26.5941   473
26.6041   501
26.6141   520
26.6241   519
26.6341   500
26.6441   476
26.6541   480
26.6641   512
26.6741   503
26.6841   513
26.6941   497
26.7041   511
26.7141   490
26.7241   495
26.7341   503
26.7441   501
26.7541   500
26.7641   470
26.7741   500
26.7841   484
26.7941   497
26.8041   478
26.8141   515
26.8241   518
26.8341   499
26.8441   542
26.8541   489
26.8641   434
26.8741   487
26.8841   474
26.8941   496
26.9041   489
26.9141   484
26.9241   463
26.9341   478
26.9441   499
26.9541   460
26.9641   476
26.9741   488
26.9841   486
26.9941   505
27.0041   479
27.0141   482
27.0241   511
27.0341   489
27.0441   478
27.0541   509
27.0641   493
27.0741   473
27.0841   450
27.0941   445
27.1041   480
27.1141   471
27.1241   525
27.1341   504
27.1441   511
27.1541   518
27.1641   485
27.1741   502
27.1841   475
27.1941   498
27.2041   468
27.2141   503
27.2241   453
27.2341   489
27.2441   496
27.2541   485
27.2641   473
27.2741   474
27.2841   450
27.2941   496
27.3041   461
27.3141   445
27.3241   441
27.3341   462
27.3441   473
27.3541   477
27.3641   483
27.3741   513
27.3841   463
27.3941   477
27.4041   452
27.4141   453
27.4241   482
27.4341   496
27.4441   473
27.4541   471
27.4641   448
27.4741   451
27.4841   482
27.4941   448
27.5041   459
27.5141   470
27.5241   462
27.5341   457
27.5441   455
27.5541   479
27.5641   454
27.5741   430
27.5841   468
27.5941   462
27.6041   455
27.6141   463
27.6241   459
27.6341   470
27.6441   484
27.6541   475
27.6641   469
27.6741   466
27.6841   462
27.6941   460
27.7041   490
27.7141   433
27.7241   438
27.7341   438
27.7441   441
27.7541   462
27.7641   427
27.7741   443
27.7841   457
27.7941   432
27.8041   463
27.8141   457
27.8241   443
27.8341   464
27.8441   439
27.8541   467
27.8641   444
27.8741   474
27.8841   443
27.8941   408
27.9041   387
27.9141   432
27.9241   455
27.9341   426
27.9441   465
27.9541   433
27.9641   428
27.9741   456
27.9841   460
27.9941   419
28.0041   431
28.0141   456
28.0241   442
28.0341   434
28.0441   450
28.0541   453
28.0641   446
28.0741   431
28.0841   424
28.0941   422
28.1041   426
28.1141   409
28.1241   455
28.1341   453
28.1441   434
28.1541   416
28.1641   429
28.1741   407
28.1841   442
28.1941   441
28.2041   429
28.2141   420
28.2241   442
28.2341   459
28.2441   458
28.2541   439
28.2641   447
28.2741   405
28.2841   426
28.2941   395
28.3041   393
28.3141   457
28.3241   440
28.3341   435
28.3441   445
28.3541   435
28.3641   424
28.3741   433
28.3841   407
28.3941   409
28.4041   402
28.4141   427
28.4241   395
28.4341   454
28.4441   444
28.4541   443
28.4641   374
28.4741   440
28.4841   388
28.4941   418
28.5041   423
28.5141   446
28.5241   427
28.5341   407
28.5441   459
28.5541   391
28.5641   430
28.5741   445
28.5841   438
28.5941   420
28.6041   429
28.6141   427
28.6241   419
28.6341   383
28.6441   401
28.6541   444
28.6641   390
28.6741   384
28.6841   433
28.6941   470
28.7041   429
28.7141   427
28.7241   418
28.7341   420
28.7441   392
28.7541   405
28.7641   389
28.7741   410
28.7841   397
28.7941   423
28.8041   398
28.8141   395
28.8241   396
28.8341   434
28.8441   384
28.8541   407
28.8641   420
28.8741   412
28.8841   369
28.8941   383
28.9041   381
28.9141   375
28.9241   377
28.9341   392
28.9441   379
28.9541   382
28.9641   382
28.9741   380
28.9841   359
28.9941   391
29.0041   373
29.0141   400
29.0241   394
29.0341   398
29.0441   366
29.0541   416
29.0641   413
29.0741   361
29.0841   361
29.0941   373
29.1041   403
29.1141   341
29.1241   392
29.1341   417
29.1441   372
29.1541   386
29.1641   360
29.1741   377
29.1841   370
29.1941   378
29.2041   386
29.2141   365
29.2241   377
29.2341   359
29.2441   385
29.2541   361
29.2641   366
29.2741   351
29.2841   380
29.2941   379
29.3041   373
29.3141   388
29.3241   359
29.3341   376
29.3441   341
29.3541   381
29.3641   395
29.3741   392
29.3841   362
29.3941   330
29.4041   384
29.4141   396
29.4241   386
29.4341   357
29.4441   351
29.4541   390
29.4641   370
29.4741   360
29.4841   345
29.4941   377
29.5041   391
29.5141   392
29.5241   372
29.5341   363
29.5441   381
29.5541   388
29.5641   392
29.5741   348
29.5841   367
29.5941   358
29.6041   366
29.6141   370
29.6241   362
29.6341   368
29.6441   361
29.6541   368
29.6641   347
29.6741   345
29.6841   351
29.6941   367
29.7041   363
29.7141   378
29.7241   387
29.7341   354
29.7441   367
29.7541   370
29.7641   333
29.7741   374
29.7841   351
29.7941   352
29.8041   350
29.8141   347
29.8241   363
29.8341   339
29.8441   360
29.8541   375
29.8641   357
29.8741   355
29.8841   382
29.8941   341
29.9041   351
29.9141   305
29.9241   361
29.9341   359
29.9441   348
29.9541   369
29.9641   332
29.9741   371
29.9841   351
29.9941   361
30.0041   352
30.0141   332
30.0241   342
30.0341   358
30.0441   342
30.0541   384
30.0641   371
30.0741   328
30.0841   317
30.0941   361
30.1041   308
30.1141   353
30.1241   326
30.1341   321
30.1441   331
30.1541   357
30.1641   336
30.1741   363
30.1841   355
30.1941   309
30.2041   346
30.2141   335
30.2241   302
30.2341   360
30.2441   325
30.2541   324
30.2641   321
30.2741   312
30.2841   342
30.2941   348
30.3041   335
30.3141   328
30.3241   346
30.3341   304
30.3441   330
30.3541   328
30.3641   327
30.3741   318
30.3841   316
30.3941   309
30.4041   327
30.4141   351
30.4241   329
30.4341   323
30.4441   311
30.4541   308
30.4641   300
30.4741   315
30.4841   344
30.4941   317
30.5041   283
30.5141   325
30.5241   300
30.5341   313
30.5441   320
30.5541   345
30.5641   350
30.5741   342
30.5841   331
30.5941   360
30.6041   323
30.6141   300
30.6241   301
30.6341   309
30.6441   325
30.6541   327
30.6641   305
30.6741   326
30.6841   294
30.6941   311
30.7041   348
30.7141   317
30.7241   331
30.7341   328
30.7441   319
30.7541   312
30.7641   294
30.7741   309
30.7841   314
30.7941   309
30.8041   290
30.8141   308
30.8241   294
30.8341   290
30.8441   343
30.8541   303
30.8641   295
30.8741   303
30.8841   306
30.8941   321
30.9041   292
30.9141   297
30.9241   316
30.9341   275
30.9441   320
30.9541   287
30.9641   290
30.9741   305
30.9841   304
30.9941   294
31.0041   280
31.0141   322
31.0241   307
31.0341   289
31.0441   281
31.0541   293
31.0641   283
31.0741   293
31.0841   309
31.0941   297
31.1041   274
31.1141   290
31.1241   288
31.1341   303
31.1441   307
31.1541   335
31.1641   289
31.1741   301
31.1841   255
31.1941   306
31.2041   297
31.2141   290
31.2241   276
31.2341   291
31.2441   295
31.2541   296
31.2641   285
31.2741   290
31.2841   291
31.2941   278
31.3041   297
31.3141   294
31.3241   290
31.3341   288
31.3441   287
31.3541   301
31.3641   292
31.3741   296
31.3841   268
31.3941   293
31.4041   227
31.4141   274
31.4241   305
31.4341   284
31.4441   305
31.4541   312
31.4641   282
31.4741   267
31.4841   271
31.4941   250
31.5041   273
31.5141   257
31.5241   278
31.5341   280
31.5441   260
31.5541   261
31.5641   250
31.5741   273
31.5841   262
31.5941   225
31.6041   286
31.6141   292
31.6241   292
31.6341   285
31.6441   282
31.6541   292
31.6641   281
31.6741   291
31.6841   303
31.6941   314
31.7041   276
31.7141   266
31.7241   285
31.7341   282
31.7441   306
31.7541   295
31.7641   296
31.7741   301
31.7841   289
31.7941   266
31.8041   302
31.8141   291
31.8241   275
31.8341   273
31.8441   304
31.8541   298
31.8641   301
31.8741   279
31.8841   307
31.8941   318
31.9041   283
31.9141   258
31.9241   288
31.9341   259
31.9441   278
31.9541   241
31.9641   284
31.9741   281
31.9841   268
31.9941   311
32.0041   294
32.0141   288
32.0241   293
32.0341   303
32.0441   278
32.0541   287
32.0641   258
32.0741   268
32.0841   298
32.0941   304
32.1041   289
32.1141   290
32.1241   291
32.1341   260
32.1441   277
32.1541   300
32.1641   285
32.1741   297
32.1841   296
32.1941   316
32.2041   296
32.2141   306
32.2241   291
32.2341   289
32.2441   278
32.2541   312
32.2641   266
32.2741   312
32.2841   287
32.2941   308
32.3041   283
32.3141   269
32.3241   281
32.3341   279
32.3441   283
32.3541   268
32.3641   253
32.3741   244
32.3841   247
32.3941   277
32.4041   253
32.4141   258
32.4241   252
32.4341   257
32.4441   260
32.4541   239
32.4641   196
32.4741   222
32.4841   252
32.4941   248
32.5041   238
32.5141   251
32.5241   259
32.5341   244
32.5441   238
32.5541   210
32.5641   222
32.5741   260
32.5841   191
32.5941   210
32.6041   220
32.6141   219
32.6241   223
32.6341   226
32.6441   227
32.6541   210
32.6641   208
32.6741   245
32.6841   248
32.6941   237
32.7041   227
32.7141   230
32.7241   197
32.7341   212
32.7441   220
32.7541   241
32.7641   216
32.7741   228
32.7841   224
32.7941   223
32.8041   188
32.8141   232
32.8241   195
32.8341   240
32.8441   233
32.8541   221
32.8641   201
32.8741   192
32.8841   212
32.8941   255
32.9041   212
32.9141   235
32.9241   211
32.9341   209
32.9441   203
32.9541   217
32.9641   211
32.9741   235
32.9841   214
32.9941   217
33.0041   201
33.0141   195
33.0241   216
33.0341   211
33.0441   200
33.0541   206
33.0641   213
33.0741   227
33.0841   223
33.0941   212
33.1041   218
33.1141   215
33.1241   228
33.1341   203
33.1441   201
33.1541   219
33.1641   205
33.1741   212
33.1841   201
33.1941   223
33.2041   207
33.2141   201
33.2241   228
33.2341   199
33.2441   199
33.2541   202
33.2641   201
33.2741   227
33.2841   210
33.2941   205
33.3041   215
33.3141   224
33.3241   200
33.3341   191
33.3441   206
33.3541   206
33.3641   212
33.3741   196
33.3841   202
33.3941   206
33.4041   229
33.4141   206
33.4241   211
33.4341   206
33.4441   201
33.4541   194
33.4641   188
33.4741   210
33.4841   192
33.4941   207
33.5041   210
33.5141   203
33.5241   209
33.5341   216
33.5441   194
33.5541   212
33.5641   192
33.5741   222
33.5841   194
33.5941   207
33.6041   179
33.6141   210
33.6241   206
33.6341   197
33.6441   180
33.6541   216
33.6641   175
33.6741   196
33.6841   191
33.6941   171
33.7041   198
33.7141   188
33.7241   177
33.7341   212
33.7441   197
33.7541   164
33.7641   201
33.7741   221
33.7841   168
33.7941   185
33.8041   178
33.8141   185
33.8241   202
33.8341   200
33.8441   196
33.8541   188
33.8641   188
33.8741   181
33.8841   162
33.8941   198
33.9041   211
33.9141   199
33.9241   166
33.9341   181
33.9441   178
33.9541   172
33.9641   186
33.9741   166
33.9841   198
33.9941   183
34.0041   179
34.0141   199
34.0241   164
34.0341   193
34.0441   189
34.0541   186
34.0641   193
34.0741   199
34.0841   198
34.0941   162
34.1041   177
34.1141   182
34.1241   162
34.1341   171
34.1441   186
34.1541   195
34.1641   197
34.1741   141
34.1841   181
34.1941   181
34.2041   183
34.2141   191
34.2241   178
34.2341   147
34.2441   170
34.2541   187
34.2641   181
34.2741   160
34.2841   165
34.2941   171
34.3041   188
34.3141   155
34.3241   164
34.3341   181
34.3441   193
34.3541   181
34.3641   166
34.3741   172
34.3841   157
34.3941   175
34.4041   178
34.4141   203
34.4241   178
34.4341   158
34.4441   161
34.4541   151
34.4641   183
34.4741   184
34.4841   191
34.4941   160
34.5041   151
34.5141   147
34.5241   153
34.5341   173
34.5441   165
34.5541   173
34.5641   171
34.5741   184
34.5841   164
34.5941   155
34.6041   153
34.6141   158
34.6241   161
34.6341   171
34.6441   151
34.6541   176
34.6641   177
34.6741   139
34.6841   154
34.6941   174
34.7041   173
34.7141   172
34.7241   154
34.7341   149
34.7441   159
34.7541   169
34.7641   178
34.7741   170
34.7841   163
34.7941   161
34.8041   151
34.8141   173
34.8241   171
34.8341   131
34.8441   146
34.8541   158
34.8641   159
34.8741   166
34.8841   183
34.8941   139
34.9041   166
34.9141   158
34.9241   163
34.9341   149
34.9441   129
34.9541   165
34.9641   144
34.9741   159
34.9841   158
34.9941   156
35.0041   166
35.0141   156
35.0241   159
35.0341   140
35.0441   162
35.0541   155
35.0641   157
35.0741   147
35.0841   144
35.0941   157
35.1041   136
35.1141   156
35.1241   169
35.1341   143
35.1441   135
35.1541   145
35.1641   127
35.1741   152
35.1841   126
35.1941   126
35.2041   143
35.2141   157
35.2241   146
35.2341   135
35.2441   142
35.2541   149
35.2641   152
35.2741   155
35.2841   146
35.2941   146
35.3041   145
35.3141   140
35.3241   150
35.3341   139
35.3441   136
35.3541   132
35.3641   118
35.3741   140
35.3841   145
35.3941   132
35.4041   151
35.4141   147
35.4241   119
35.4341   144
35.4441   146
35.4541   149
35.4641   141
35.4741   127
35.4841   122
35.4941   139
35.5041   139
35.5141   145
35.5241   125
35.5341   151
35.5441   128
35.5541   130
35.5641   139
35.5741   134
35.5841   128
35.5941   134
35.6041   141
35.6141   139
35.6241   120
35.6341   136
35.6441   115
35.6541   121
35.6641   130
35.6741   148
35.6841   123
35.6941   138
35.7041   133
35.7141   131
35.7241   155
35.7341   121
35.7441   136
35.7541   113
35.7641   135
35.7741   130
35.7841   122
35.7941   140
35.8041   119
35.8141   129
35.8241   144
35.8341   129
35.8441   117
35.8541   119
35.8641   106
35.8741   116
35.8841   133
35.8941   123
35.9041   117
35.9141   105
35.9241   127
35.9341   127
35.9441   119
35.9541   122
35.9641   128
35.9741   122
35.9841   141
35.9941   127
36.0041   112
36.0141   119
36.0241   125
36.0341   135
36.0441   111
36.0541   135
36.0641   110
36.0741   116
36.0841   125
36.0941   110
36.1041   138
36.1141   134
36.1241   120
36.1341   129
36.1441   123
36.1541   121
36.1641   129
36.1741   125
36.1841   124
36.1941   115
36.2041   116
36.2141   135
36.2241   119
36.2341   132
36.2441   135
36.2541   129
36.2641   113
36.2741   119
36.2841   126
36.2941   125
36.3041   129
36.3141   128
36.3241   116
36.3341   120
36.3441   127
36.3541   139
36.3641   108
36.3741   130
36.3841   134
36.3941   132
36.4041   118
36.4141    98
36.4241   118
36.4341   115
36.4441   108
36.4541   128
36.4641   106
36.4741   123
36.4841   130
36.4941   109
36.5041   109
36.5141   133
36.5241    95
36.5341   126
36.5441    96
36.5541   118
36.5641   101
36.5741   132
36.5841   102
36.5941   114
36.6041   101
36.6141   104
36.6241   107
36.6341   103
36.6441    93
36.6541    98
36.6641   109
36.6741   112
36.6841    84
36.6941   108
36.7041   105
36.7141    90
36.7241   101
36.7341    95
36.7441    96
36.7541   122
36.7641   100
36.7741   111
36.7841   106
36.7941   113
36.8041   120
36.8141    91
36.8241   100
36.8341   122
36.8441   121
36.8541   108
36.8641   105
36.8741   103
36.8841   118
36.8941    97
36.9041    96
36.9141    92
36.9241   100
36.9341    84
36.9441    84
36.9541   116
36.9641   110
36.9741    94
36.9841   107
36.9941   113
37.0041    85
37.0141    83
37.0241    90
37.0341   103
37.0441   117
37.0541    84
37.0641    95
37.0741    88
37.0841    92
37.0941   104
37.1041    92
37.1141    89
37.1241    83
37.1341    94
37.1441   106
37.1541   102
37.1641    97
37.1741    98
37.1841   100
37.1941    91
37.2041    75
37.2141    81
37.2241    90
37.2341   111
37.2441   103
37.2541    97
37.2641    83
37.2741    89
37.2841    93
37.2941    93
37.3041    91
37.3141    92
37.3241    90
37.3341    94
37.3441    91
37.3541   107
37.3641   102
37.3741    99
37.3841    81
37.3941    98
37.4041    99
37.4141    85
37.4241    86
37.4341   102
37.4441    85
37.4541    89
37.4641    90
37.4741    90
37.4841    93
37.4941   103
37.5041    89
37.5141    94
37.5241    81
37.5341    88
37.5441   105
37.5541    85
37.5641    77
37.5741    91
37.5841    87
37.5941    82
37.6041    80
37.6141    85
37.6241    78
37.6341    95
37.6441    70
37.6541    73
37.6641    95
37.6741    75
37.6841    82
37.6941    80
37.7041    69
37.7141    74
37.7241    69
37.7341    86
37.7441    85
37.7541    73
37.7641    75
37.7741    87
37.7841    80
37.7941    79
37.8041    71
37.8141    88
37.8241    85
37.8341    64
37.8441    75
37.8541    85
37.8641    82
37.8741    93
37.8841    75
37.8941    74
37.9041    84
37.9141    85
37.9241    78
37.9341    73
37.9441    81
37.9541    81
37.9641    76
37.9741    77
37.9841    58
37.9941    89
38.0041    72
38.0141    69
38.0241    82
38.0341    76
38.0441    82
38.0541    67
38.0641    69
38.0741    76
38.0841    72
38.0941    68
38.1041    74
38.1141    71
38.1241    76
38.1341    68
38.1441    60
38.1541    73
38.1641    86
38.1741    84
38.1841    72
38.1941    74
38.2041    62
38.2141    68
38.2241    67
38.2341    79
38.2441    66
38.2541    68
38.2641    70
38.2741    73
38.2841    83
38.2941    63
38.3041    65
38.3141    62
38.3241    60
38.3341    75
38.3441    59
38.3541    70
38.3641    89
38.3741    85
38.3841    77
38.3941    80
38.4041    57
38.4141    75
38.4241    55
38.4341    69
38.4441    71
38.4541    66
38.4641    66
38.4741    79
38.4841    79
38.4941    57
38.5041    56
38.5141    62
38.5241    62
38.5341    61
38.5441    65
38.5541    64
38.5641    68
38.5741    66
38.5841    52
38.5941    64
38.6041    82
38.6141    66
38.6241    64
38.6341    69
38.6441    57
38.6541    62
38.6641    53
38.6741    72
38.6841    71
38.6941    66
38.7041    47
38.7141    59
38.7241    63
38.7341    65
38.7441    69
38.7541    66
38.7641    55
38.7741    70
38.7841    72
38.7941    44
38.8041    66
38.8141    56
38.8241    53
38.8341    46
38.8441    59
38.8541    51
38.8641    59
38.8741    63
38.8841    53
38.8941    55
38.9041    65
38.9141    57
38.9241    62
38.9341    71
38.9441    76
38.9541    46
38.9641    52
38.9741    50
38.9841    59
38.9941    48
39.0041    39
39.0141    49
39.0241    48
39.0341    49
39.0441    57
39.0541    57
39.0641    51
39.0741    57
39.0841    61
39.0941    53
39.1041    53
39.1141    66
39.1241    41
39.1341    48
39.1441    48
39.1541    51
39.1641    43
39.1741    49
39.1841    61
39.1941    57
39.2041    54
39.2141    60
39.2241    55
39.2341    58
39.2441    51
39.2541    40
39.2641    45
39.2741    57
39.2841    42
39.2941    49
39.3041    60
39.3141    48
39.3241    47
39.3341    52
39.3441    48
39.3541    46
39.3641    54
39.3741    49
39.3841    70
39.3941    42
39.4041    50
39.4141    49
39.4241    52
39.4341    47
39.4441    44
39.4541    57
39.4641    52
39.4741    44
39.4841    50
39.4941    37
39.5041    48
39.5141    49
39.5241    37
39.5341    55
39.5441    55
39.5541    56
39.5641    51
39.5741    39
39.5841    47
39.5941    47
39.6041    42
39.6141    48
39.6241    52
39.6341    44
39.6441    50
39.6541    41
39.6641    42
39.6741    50
39.6841    53
39.6941    56
39.7041    48
39.7141    52
39.7241    55
39.7341    44
39.7441    44
39.7541    42
39.7641    35
39.7741    30
39.7841    37
39.7941    38
39.8041    42
39.8141    45
39.8241    46
39.8341    41
39.8441    39
39.8541    42
39.8641    41
39.8741    44
39.8841    43
39.8941    39
39.9041    36
39.9141    36
39.9241    37
39.9341    29
39.9441    34
39.9541    35
39.9641    37
39.9741    56
39.9841    42
