Bruker Nano GmbH Berlin, Germany
Esprit 1.9

Date: 4/1/2021 4:16:15 PM
Real time: 20294
Life time: 18929
Pulse density: 98687


Detector type: XFlash 430
Window type: Custom type
Detector thickness: 0.45
Si dead layer:0.029

Calibration, lin.: 10
Calibration, abs.: -955.9
Mn FWHM: 137.05
Fano factor: 0.121
Channels: 4095

Energy Counts
-0.9559     0
-0.9459     0
-0.9359     0
-0.9259     0
-0.9159     0
-0.9059     0
-0.8959     0
-0.8859     0
-0.8759     0
-0.8659     0
-0.8559     0
-0.8459     0
-0.8359     0
-0.8259     0
-0.8159     0
-0.8059     0
-0.7959     0
-0.7859     0
-0.7759     0
-0.7659     0
-0.7559     0
-0.7459     0
-0.7359     0
-0.7259     0
-0.7159     0
-0.7059     0
-0.6959     0
-0.6859     0
-0.6759     0
-0.6659     0
-0.6559     0
-0.6459     0
-0.6359     0
-0.6259     0
-0.6159     0
-0.6059     0
-0.5959     0
-0.5859     0
-0.5759     0
-0.5659     0
-0.5559     0
-0.5459     0
-0.5359     0
-0.5259     0
-0.5159     0
-0.5059     0
-0.4959     0
-0.4859     0
-0.4759     0
-0.4659     0
-0.4559     0
-0.4459     0
-0.4359     0
-0.4259     0
-0.4159     0
-0.4059     0
-0.3959     0
-0.3859     0
-0.3759     0
-0.3659     0
-0.3559     0
-0.3459     0
-0.3359     0
-0.3259     0
-0.3159     0
-0.3059     0
-0.2959     0
-0.2859     0
-0.2759     0
-0.2659     0
-0.2559     0
-0.2459     0
-0.2359     0
-0.2259     0
-0.2159     0
-0.2059     0
-0.1959     0
-0.1859     0
-0.1759     0
-0.1659     0
-0.1559     0
-0.1459     1
-0.1359     0
-0.1259     2
-0.1159     4
-0.1059    10
-0.0959    58
-0.0859   217
-0.0759   718
-0.0659  2106
-0.0559  5457
-0.0459 11904
-0.0359 22449
-0.0259 36114
-0.0159 49655
-0.0059 58354
 0.0041 57939
 0.0141 50222
 0.0241 37288
 0.0341 23559
 0.0441 12620
 0.0541  5826
 0.0641  2387
 0.0741   801
 0.0841   240
 0.0941    76
 0.1041    24
 0.1141     9
 0.1241    10
 0.1341     1
 0.1441     7
 0.1541     0
 0.1641     4
 0.1741    17
 0.1841   180
 0.1941   329
 0.2041   303
 0.2141   337
 0.2241   326
 0.2341   318
 0.2441   308
 0.2541   309
 0.2641   323
 0.2741   306
 0.2841   288
 0.2941   297
 0.3041   307
 0.3141   322
 0.3241   289
 0.3341   296
 0.3441   311
 0.3541   282
 0.3641   280
 0.3741   294
 0.3841   277
 0.3941   258
 0.4041   253
 0.4141   289
 0.4241   300
 0.4341   276
 0.4441   269
 0.4541   276
 0.4641   270
 0.4741   293
 0.4841   274
 0.4941   271
 0.5041   273
 0.5141   271
 0.5241   273
 0.5341   256
 0.5441   252
 0.5541   254
 0.5641   263
 0.5741   258
 0.5841   250
 0.5941   249
 0.6041   253
 0.6141   245
 0.6241   243
 0.6341   239
 0.6441   242
 0.6541   261
 0.6641   257
 0.6741   233
 0.6841   219
 0.6941   243
 0.7041   249
 0.7141   219
 0.7241   226
 0.7341   242
 0.7441   239
 0.7541   237
 0.7641   221
 0.7741   243
 0.7841   255
 0.7941   226
 0.8041   210
 0.8141   211
 0.8241   221
 0.8341   226
 0.8441   237
 0.8541   241
 0.8641   215
 0.8741   213
 0.8841   218
 0.8941   218
 0.9041   220
 0.9141   226
 0.9241   232
 0.9341   221
 0.9441   217
 0.9541   218
 0.9641   212
 0.9741   218
 0.9841   220
 0.9941   209
 1.0041   213
 1.0141   208
 1.0241   222
 1.0341   233
 1.0441   202
 1.0541   184
 1.0641   215
 1.0741   206
 1.0841   200
 1.0941   223
 1.1041   205
 1.1141   200
 1.1241   210
 1.1341   196
 1.1441   222
 1.1541   212
 1.1641   205
 1.1741   194
 1.1841   182
 1.1941   206
 1.2041   194
 1.2141   208
 1.2241   215
 1.2341   212
 1.2441   225
 1.2541   216
 1.2641   187
 1.2741   175
 1.2841   173
 1.2941   188
 1.3041   189
 1.3141   166
 1.3241   185
 1.3341   206
 1.3441   184
 1.3541   194
 1.3641   188
 1.3741   199
 1.3841   184
 1.3941   177
 1.4041   185
 1.4141   187
 1.4241   191
 1.4341   206
 1.4441   194
 1.4541   180
 1.4641   195
 1.4741   199
 1.4841   179
 1.4941   206
 1.5041   199
 1.5141   210
 1.5241   193
 1.5341   172
 1.5441   184
 1.5541   182
 1.5641   189
 1.5741   178
 1.5841   170
 1.5941   202
 1.6041   164
 1.6141   173
 1.6241   193
 1.6341   178
 1.6441   197
 1.6541   226
 1.6641   263
 1.6741   312
 1.6841   379
 1.6941   486
 1.7041   592
 1.7141   688
 1.7241   739
 1.7341   747
 1.7441   754
 1.7541   704
 1.7641   664
 1.7741   554
 1.7841   472
 1.7941   413
 1.8041   325
 1.8141   309
 1.8241   255
 1.8341   260
 1.8441   219
 1.8541   215
 1.8641   198
 1.8741   205
 1.8841   199
 1.8941   174
 1.9041   191
 1.9141   198
 1.9241   177
 1.9341   177
 1.9441   176
 1.9541   214
 1.9641   208
 1.9741   222
 1.9841   220
 1.9941   216
 2.0041   228
 2.0141   237
 2.0241   236
 2.0341   236
 2.0441   214
 2.0541   188
 2.0641   223
 2.0741   209
 2.0841   199
 2.0941   198
 2.1041   189
 2.1141   182
 2.1241   161
 2.1341   166
 2.1441   178
 2.1541   177
 2.1641   165
 2.1741   150
 2.1841   146
 2.1941   174
 2.2041   170
 2.2141   186
 2.2241   195
 2.2341   185
 2.2441   167
 2.2541   160
 2.2641   143
 2.2741   141
 2.2841   177
 2.2941   154
 2.3041   152
 2.3141   184
 2.3241   175
 2.3341   166
 2.3441   158
 2.3541   160
 2.3641   127
 2.3741   153
 2.3841   136
 2.3941   138
 2.4041   159
 2.4141   151
 2.4241   159
 2.4341   155
 2.4441   155
 2.4541   155
 2.4641   153
 2.4741   150
 2.4841   152
 2.4941   151
 2.5041   155
 2.5141   153
 2.5241   143
 2.5341   145
 2.5441   178
 2.5541   155
 2.5641   150
 2.5741   156
 2.5841   153
 2.5941   149
 2.6041   150
 2.6141   155
 2.6241   166
 2.6341   161
 2.6441   145
 2.6541   141
 2.6641   146
 2.6741   150
 2.6841   143
 2.6941   130
 2.7041   121
 2.7141   124
 2.7241   141
 2.7341   136
 2.7441   153
 2.7541   140
 2.7641   148
 2.7741   132
 2.7841   132
 2.7941   156
 2.8041   130
 2.8141   169
 2.8241   128
 2.8341   158
 2.8441   145
 2.8541   126
 2.8641   154
 2.8741   123
 2.8841   132
 2.8941   153
 2.9041   131
 2.9141   125
 2.9241   124
 2.9341   128
 2.9441   130
 2.9541   135
 2.9641   137
 2.9741   137
 2.9841   147
 2.9941   137
 3.0041   118
 3.0141   116
 3.0241   121
 3.0341   145
 3.0441   141
 3.0541   112
 3.0641   129
 3.0741   117
 3.0841   116
 3.0941   116
 3.1041   110
 3.1141   114
 3.1241   119
 3.1341   111
 3.1441   114
 3.1541   122
 3.1641   119
 3.1741   129
 3.1841   115
 3.1941   118
 3.2041   126
 3.2141   109
 3.2241   130
 3.2341   139
 3.2441   141
 3.2541   173
 3.2641   162
 3.2741   196
 3.2841   208
 3.2941   249
 3.3041   260
 3.3141   239
 3.3241   240
 3.3341   242
 3.3441   231
 3.3541   220
 3.3641   168
 3.3741   160
 3.3841   137
 3.3941   108
 3.4041   123
 3.4141   109
 3.4241   123
 3.4341   109
 3.4441    98
 3.4541   105
 3.4641   110
 3.4741   109
 3.4841   115
 3.4941    98
 3.5041   128
 3.5141   126
 3.5241   122
 3.5341   131
 3.5441   156
 3.5541   177
 3.5641   196
 3.5741   214
 3.5841   261
 3.5941   347
 3.6041   430
 3.6141   548
 3.6241   742
 3.6341   859
 3.6441  1031
 3.6541  1228
 3.6641  1351
 3.6741  1490
 3.6841  1544
 3.6941  1555
 3.7041  1516
 3.7141  1376
 3.7241  1156
 3.7341  1011
 3.7441   907
 3.7541   689
 3.7641   559
 3.7741   439
 3.7841   332
 3.7941   245
 3.8041   195
 3.8141   147
 3.8241   118
 3.8341    93
 3.8441    94
 3.8541    97
 3.8641    95
 3.8741   111
 3.8841   124
 3.8941   114
 3.9041   141
 3.9141   134
 3.9241   144
 3.9341   164
 3.9441   189
 3.9541   217
 3.9641   205
 3.9741   260
 3.9841   285
 3.9941   310
 4.0041   275
 4.0141   309
 4.0241   322
 4.0341   303
 4.0441   285
 4.0541   269
 4.0641   225
 4.0741   202
 4.0841   160
 4.0941   171
 4.1041   139
 4.1141   124
 4.1241   112
 4.1341    89
 4.1441    81
 4.1541    87
 4.1641    85
 4.1741    98
 4.1841    69
 4.1941    81
 4.2041    89
 4.2141    78
 4.2241    78
 4.2341    92
 4.2441    80
 4.2541    80
 4.2641    89
 4.2741    76
 4.2841    75
 4.2941    88
 4.3041    87
 4.3141    92
 4.3241    74
 4.3341    91
 4.3441    98
 4.3541    98
 4.3641   112
 4.3741   112
 4.3841   138
 4.3941   134
 4.4041   177
 4.4141   205
 4.4241   260
 4.4341   307
 4.4441   362
 4.4541   425
 4.4641   525
 4.4741   561
 4.4841   607
 4.4941   626
 4.5041   667
 4.5141   655
 4.5241   623
 4.5341   574
 4.5441   522
 4.5541   461
 4.5641   386
 4.5741   320
 4.5841   299
 4.5941   215
 4.6041   181
 4.6141   160
 4.6241   150
 4.6341   110
 4.6441   123
 4.6541   103
 4.6641   107
 4.6741   100
 4.6841    96
 4.6941   107
 4.7041   100
 4.7141    97
 4.7241    81
 4.7341    94
 4.7441    99
 4.7541    91
 4.7641    92
 4.7741   112
 4.7841   126
 4.7941   107
 4.8041   123
 4.8141   103
 4.8241   122
 4.8341   133
 4.8441   150
 4.8541   165
 4.8641   168
 4.8741   158
 4.8841   166
 4.8941   195
 4.9041   199
 4.9141   213
 4.9241   210
 4.9341   229
 4.9441   223
 4.9541   212
 4.9641   194
 4.9741   182
 4.9841   182
 4.9941   146
 5.0041   143
 5.0141   136
 5.0241   134
 5.0341   111
 5.0441   111
 5.0541   107
 5.0641   103
 5.0741   100
 5.0841    86
 5.0941    95
 5.1041    91
 5.1141    82
 5.1241    88
 5.1341    92
 5.1441    95
 5.1541    89
 5.1641   103
 5.1741    86
 5.1841    90
 5.1941   110
 5.2041    92
 5.2141    98
 5.2241   101
 5.2341   102
 5.2441    87
 5.2541    91
 5.2641    80
 5.2741   105
 5.2841    86
 5.2941   102
 5.3041    81
 5.3141   108
 5.3241   113
 5.3341    98
 5.3441   129
 5.3541   121
 5.3641   123
 5.3741   118
 5.3841   137
 5.3941   131
 5.4041   129
 5.4141   136
 5.4241   147
 5.4341   113
 5.4441   114
 5.4541   132
 5.4641   121
 5.4741   128
 5.4841   136
 5.4941   105
 5.5041   111
 5.5141    98
 5.5241   102
 5.5341    95
 5.5441   124
 5.5541    97
 5.5641   103
 5.5741   119
 5.5841    99
 5.5941    85
 5.6041    94
 5.6141    95
 5.6241   103
 5.6341    90
 5.6441    93
 5.6541   113
 5.6641   107
 5.6741   102
 5.6841   110
 5.6941   115
 5.7041   104
 5.7141   107
 5.7241   104
 5.7341   106
 5.7441   127
 5.7541   121
 5.7641   152
 5.7741   158
 5.7841   162
 5.7941   173
 5.8041   220
 5.8141   240
 5.8241   250
 5.8341   277
 5.8441   330
 5.8541   341
 5.8641   366
 5.8741   418
 5.8841   435
 5.8941   432
 5.9041   392
 5.9141   389
 5.9241   384
 5.9341   354
 5.9441   309
 5.9541   265
 5.9641   279
 5.9741   259
 5.9841   234
 5.9941   171
 6.0041   176
 6.0141   159
 6.0241   156
 6.0341   156
 6.0441   136
 6.0541   156
 6.0641   156
 6.0741   140
 6.0841   124
 6.0941   136
 6.1041   150
 6.1141   177
 6.1241   163
 6.1341   160
 6.1441   166
 6.1541   176
 6.1641   192
 6.1741   204
 6.1841   262
 6.1941   339
 6.2041   366
 6.2141   457
 6.2241   643
 6.2341   874
 6.2441  1311
 6.2541  1745
 6.2641  2442
 6.2741  3347
 6.2841  4410
 6.2941  5866
 6.3041  7784
 6.3141  9774
 6.3241 12238
 6.3341 14598
 6.3441 17071
 6.3541 19193
 6.3641 21496
 6.3741 23472
 6.3841 24308
 6.3941 25149
 6.4041 25189
 6.4141 24452
 6.4241 22853
 6.4341 21130
 6.4441 18657
 6.4541 16128
 6.4641 13704
 6.4741 11203
 6.4841  8901
 6.4941  7185
 6.5041  5311
 6.5141  3990
 6.5241  2961
 6.5341  2079
 6.5441  1467
 6.5541  1074
 6.5641   669
 6.5741   505
 6.5841   409
 6.5941   303
 6.6041   239
 6.6141   221
 6.6241   191
 6.6341   184
 6.6441   195
 6.6541   162
 6.6641   174
 6.6741   194
 6.6841   167
 6.6941   193
 6.7041   150
 6.7141   166
 6.7241   168
 6.7341   149
 6.7441   143
 6.7541   170
 6.7641   197
 6.7741   185
 6.7841   188
 6.7941   221
 6.8041   207
 6.8141   218
 6.8241   248
 6.8341   214
 6.8441   234
 6.8541   244
 6.8641   329
 6.8741   306
 6.8841   402
 6.8941   447
 6.9041   535
 6.9141   632
 6.9241   763
 6.9341  1018
 6.9441  1240
 6.9541  1499
 6.9641  1660
 6.9741  2117
 6.9841  2416
 6.9941  2848
 7.0041  3175
 7.0141  3506
 7.0241  3767
 7.0341  3874
 7.0441  4285
 7.0541  4276
 7.0641  4010
 7.0741  3986
 7.0841  3744
 7.0941  3475
 7.1041  3153
 7.1141  2647
 7.1241  2329
 7.1341  1995
 7.1441  1672
 7.1541  1241
 7.1641  1059
 7.1741   816
 7.1841   625
 7.1941   510
 7.2041   406
 7.2141   387
 7.2241   287
 7.2341   257
 7.2441   244
 7.2541   224
 7.2641   234
 7.2741   219
 7.2841   216
 7.2941   199
 7.3041   203
 7.3141   241
 7.3241   221
 7.3341   244
 7.3441   254
 7.3541   239
 7.3641   258
 7.3741   249
 7.3841   270
 7.3941   266
 7.4041   262
 7.4141   292
 7.4241   266
 7.4341   272
 7.4441   239
 7.4541   249
 7.4641   261
 7.4741   227
 7.4841   231
 7.4941   252
 7.5041   232
 7.5141   215
 7.5241   222
 7.5341   207
 7.5441   184
 7.5541   204
 7.5641   202
 7.5741   150
 7.5841   192
 7.5941   203
 7.6041   188
 7.6141   198
 7.6241   182
 7.6341   192
 7.6441   178
 7.6541   185
 7.6641   183
 7.6741   231
 7.6841   212
 7.6941   187
 7.7041   212
 7.7141   219
 7.7241   226
 7.7341   225
 7.7441   227
 7.7541   227
 7.7641   257
 7.7741   235
 7.7841   266
 7.7941   270
 7.8041   245
 7.8141   268
 7.8241   261
 7.8341   255
 7.8441   282
 7.8541   285
 7.8641   284
 7.8741   317
 7.8841   318
 7.8941   318
 7.9041   329
 7.9141   355
 7.9241   340
 7.9341   398
 7.9441   429
 7.9541   405
 7.9641   443
 7.9741   494
 7.9841   570
 7.9941   545
 8.0041   588
 8.0141   645
 8.0241   687
 8.0341   683
 8.0441   755
 8.0541   805
 8.0641   887
 8.0741   957
 8.0841  1009
 8.0941  1021
 8.1041  1091
 8.1141  1126
 8.1241  1230
 8.1341  1226
 8.1441  1231
 8.1541  1276
 8.1641  1277
 8.1741  1407
 8.1841  1329
 8.1941  1369
 8.2041  1384
 8.2141  1468
 8.2241  1458
 8.2341  1428
 8.2441  1494
 8.2541  1689
 8.2641  1686
 8.2741  1692
 8.2841  1862
 8.2941  1940
 8.3041  2211
 8.3141  2291
 8.3241  2433
 8.3341  2632
 8.3441  2785
 8.3541  3009
 8.3641  3015
 8.3741  3117
 8.3841  3119
 8.3941  3167
 8.4041  3035
 8.4141  2872
 8.4241  2769
 8.4341  2579
 8.4441  2356
 8.4541  2019
 8.4641  1896
 8.4741  1664
 8.4841  1433
 8.4941  1216
 8.5041  1058
 8.5141   879
 8.5241   742
 8.5341   659
 8.5441   624
 8.5541   540
 8.5641   525
 8.5741   509
 8.5841   482
 8.5941   475
 8.6041   487
 8.6141   476
 8.6241   472
 8.6341   473
 8.6441   459
 8.6541   453
 8.6641   444
 8.6741   459
 8.6841   447
 8.6941   404
 8.7041   420
 8.7141   407
 8.7241   409
 8.7341   361
 8.7441   347
 8.7541   320
 8.7641   325
 8.7741   347
 8.7841   346
 8.7941   342
 8.8041   353
 8.8141   323
 8.8241   325
 8.8341   340
 8.8441   312
 8.8541   325
 8.8641   327
 8.8741   323
 8.8841   334
 8.8941   328
 8.9041   329
 8.9141   329
 8.9241   325
 8.9341   326
 8.9441   364
 8.9541   358
 8.9641   337
 8.9741   365
 8.9841   393
 8.9941   357
 9.0041   386
 9.0141   388
 9.0241   413
 9.0341   401
 9.0441   403
 9.0541   418
 9.0641   394
 9.0741   462
 9.0841   465
 9.0941   471
 9.1041   489
 9.1141   511
 9.1241   556
 9.1341   553
 9.1441   598
 9.1541   613
 9.1641   600
 9.1741   631
 9.1841   663
 9.1941   653
 9.2041   733
 9.2141   768
 9.2241   811
 9.2341   834
 9.2441   878
 9.2541   965
 9.2641   958
 9.2741  1014
 9.2841  1023
 9.2941  1021
 9.3041  1068
 9.3141  1175
 9.3241  1170
 9.3341  1206
 9.3441  1209
 9.3541  1286
 9.3641  1365
 9.3741  1343
 9.3841  1363
 9.3941  1391
 9.4041  1380
 9.4141  1434
 9.4241  1469
 9.4341  1524
 9.4441  1538
 9.4541  1446
 9.4641  1492
 9.4741  1537
 9.4841  1588
 9.4941  1610
 9.5041  1680
 9.5141  1667
 9.5241  1675
 9.5341  1751
 9.5441  1894
 9.5541  1903
 9.5641  2025
 9.5741  2124
 9.5841  2177
 9.5941  2328
 9.6041  2493
 9.6141  2631
 9.6241  2725
 9.6341  2864
 9.6441  2952
 9.6541  2917
 9.6641  2900
 9.6741  2906
 9.6841  2927
 9.6941  2787
 9.7041  2637
 9.7141  2566
 9.7241  2390
 9.7341  2277
 9.7441  2092
 9.7541  1903
 9.7641  1812
 9.7741  1714
 9.7841  1554
 9.7941  1490
 9.8041  1333
 9.8141  1256
 9.8241  1181
 9.8341  1162
 9.8441  1184
 9.8541  1197
 9.8641  1143
 9.8741  1157
 9.8841  1250
 9.8941  1249
 9.9041  1294
 9.9141  1288
 9.9241  1292
 9.9341  1272
 9.9441  1344
 9.9541  1331
 9.9641  1347
 9.9741  1254
 9.9841  1225
 9.9941  1180
10.0041  1126
10.0141  1021
10.0241   925
10.0341   910
10.0441   828
10.0541   748
10.0641   669
10.0741   568
10.0841   490
10.0941   451
10.1041   422
10.1141   395
10.1241   357
10.1341   317
10.1441   303
10.1541   301
10.1641   294
10.1741   283
10.1841   276
10.1941   245
10.2041   268
10.2141   237
10.2241   229
10.2341   210
10.2441   211
10.2541   200
10.2641   190
10.2741   194
10.2841   191
10.2941   192
10.3041   167
10.3141   198
10.3241   171
10.3341   184
10.3441   185
10.3541   180
10.3641   171
10.3741   177
10.3841   169
10.3941   177
10.4041   177
10.4141   168
10.4241   176
10.4341   174
10.4441   174
10.4541   175
10.4641   186
10.4741   177
10.4841   185
10.4941   178
10.5041   200
10.5141   202
10.5241   191
10.5341   202
10.5441   204
10.5541   198
10.5641   218
10.5741   217
10.5841   221
10.5941   208
10.6041   213
10.6141   217
10.6241   216
10.6341   213
10.6441   233
10.6541   229
10.6641   216
10.6741   215
10.6841   204
10.6941   234
10.7041   242
10.7141   212
10.7241   231
10.7341   233
10.7441   226
10.7541   265
10.7641   256
10.7741   257
10.7841   271
10.7941   268
10.8041   266
10.8141   265
10.8241   281
10.8341   282
10.8441   274
10.8541   298
10.8641   302
10.8741   303
10.8841   300
10.8941   311
10.9041   324
10.9141   322
10.9241   331
10.9341   332
10.9441   294
10.9541   295
10.9641   288
10.9741   299
10.9841   307
10.9941   289
11.0041   280
11.0141   286
11.0241   294
11.0341   294
11.0441   284
11.0541   287
11.0641   281
11.0741   277
11.0841   266
11.0941   257
11.1041   258
11.1141   272
11.1241   274
11.1341   282
11.1441   285
11.1541   299
11.1641   306
11.1741   342
11.1841   346
11.1941   342
11.2041   348
11.2141   375
11.2241   372
11.2341   394
11.2441   426
11.2541   421
11.2641   436
11.2741   438
11.2841   447
11.2941   424
11.3041   432
11.3141   418
11.3241   429
11.3341   403
11.3441   375
11.3541   338
11.3641   312
11.3741   310
11.3841   294
11.3941   276
11.4041   281
11.4141   271
11.4241   243
11.4341   229
11.4441   236
11.4541   219
11.4641   217
11.4741   224
11.4841   214
11.4941   206
11.5041   194
11.5141   191
11.5241   198
11.5341   209
11.5441   221
11.5541   216
11.5641   217
11.5741   220
11.5841   212
11.5941   215
11.6041   217
11.6141   216
11.6241   238
11.6341   237
11.6441   228
11.6541   223
11.6641   217
11.6741   215
11.6841   220
11.6941   217
11.7041   211
11.7141   184
11.7241   187
11.7341   197
11.7441   204
11.7541   199
11.7641   187
11.7741   183
11.7841   168
11.7941   176
11.8041   171
11.8141   158
11.8241   147
11.8341   148
11.8441   161
11.8541   177
11.8641   162
11.8741   155
11.8841   165
11.8941   158
11.9041   153
11.9141   165
11.9241   159
11.9341   153
11.9441   154
11.9541   163
11.9641   178
11.9741   151
11.9841   151
11.9941   159
12.0041   155
12.0141   154
12.0241   158
12.0341   166
12.0441   177
12.0541   173
12.0641   177
12.0741   172
12.0841   179
12.0941   176
12.1041   165
12.1141   154
12.1241   170
12.1341   173
12.1441   157
12.1541   166
12.1641   163
12.1741   153
12.1841   154
12.1941   146
12.2041   146
12.2141   146
12.2241   157
12.2341   165
12.2441   161
12.2541   158
12.2641   154
12.2741   163
12.2841   160
12.2941   161
12.3041   153
12.3141   153
12.3241   148
12.3341   155
12.3441   151
12.3541   141
12.3641   152
12.3741   163
12.3841   174
12.3941   158
12.4041   146
12.4141   165
12.4241   168
12.4341   168
12.4441   158
12.4541   166
12.4641   174
12.4741   163
12.4841   155
12.4941   154
12.5041   175
12.5141   177
12.5241   175
12.5341   187
12.5441   178
12.5541   175
12.5641   182
12.5741   185
12.5841   171
12.5941   164
12.6041   167
12.6141   165
12.6241   178
12.6341   173
12.6441   163
12.6541   161
12.6641   184
12.6741   184
12.6841   180
12.6941   174
12.7041   166
12.7141   174
12.7241   173
12.7341   181
12.7441   186
12.7541   180
12.7641   180
12.7741   184
12.7841   186
12.7941   186
12.8041   188
12.8141   189
12.8241   186
12.8341   184
12.8441   183
12.8541   184
12.8641   188
12.8741   190
12.8841   191
12.8941   190
12.9041   191
12.9141   197
12.9241   202
12.9341   205
12.9441   204
12.9541   200
12.9641   197
12.9741   195
12.9841   192
12.9941   191
13.0041   192
13.0141   193
13.0241   199
13.0341   207
13.0441   207
13.0541   201
13.0641   197
13.0741   197
13.0841   199
13.0941   201
13.1041   204
13.1141   208
13.1241   208
13.1341   206
13.1441   205
13.1541   204
13.1641   204
13.1741   209
13.1841   216
13.1941   217
13.2041   214
13.2141   215
13.2241   223
13.2341   232
13.2441   227
13.2541   232
13.2641   237
13.2741   254
13.2841   255
13.2941   260
13.3041   280
13.3141   291
13.3241   297
13.3341   295
13.3441   296
13.3541   303
13.3641   312
13.3741   301
13.3841   311
13.3941   326
13.4041   315
13.4141   305
13.4241   307
13.4341   288
13.4441   283
13.4541   306
13.4641   298
13.4741   270
13.4841   252
13.4941   233
13.5041   236
13.5141   237
13.5241   224
13.5341   226
13.5441   231
13.5541   238
13.5641   225
13.5741   222
13.5841   230
13.5941   219
13.6041   209
13.6141   218
13.6241   227
13.6341   225
13.6441   224
13.6541   227
13.6641   221
13.6741   210
13.6841   221
13.6941   219
13.7041   213
13.7141   213
13.7241   211
13.7341   211
13.7441   216
13.7541   221
13.7641   205
13.7741   220
13.7841   235
13.7941   234
13.8041   234
13.8141   228
13.8241   225
13.8341   234
13.8441   239
13.8541   230
13.8641   234
13.8741   238
13.8841   249
13.8941   249
13.9041   260
13.9141   265
13.9241   266
13.9341   288
13.9441   323
13.9541   335
13.9641   359
13.9741   412
13.9841   424
13.9941   457
14.0041   514
14.0141   561
14.0241   606
14.0341   639
14.0441   696
14.0541   744
14.0641   800
14.0741   890
14.0841   947
14.0941   981
14.1041   979
14.1141   987
14.1241  1033
14.1341  1051
14.1441  1065
14.1541  1061
14.1641  1051
14.1741  1040
14.1841   987
14.1941   958
14.2041   909
14.2141   852
14.2241   835
14.2341   743
14.2441   666
14.2541   623
14.2641   563
14.2741   535
14.2841   500
14.2941   459
14.3041   397
14.3141   375
14.3241   365
14.3341   317
14.3441   299
14.3541   299
14.3641   288
14.3741   276
14.3841   262
14.3941   259
14.4041   254
14.4141   240
14.4241   224
14.4341   242
14.4441   251
14.4541   244
14.4641   248
14.4741   230
14.4841   228
14.4941   224
14.5041   217
14.5141   241
14.5241   234
14.5341   229
14.5441   246
14.5541   240
14.5641   242
14.5741   261
14.5841   257
14.5941   253
14.6041   264
14.6141   269
14.6241   263
14.6341   278
14.6441   279
14.6541   270
14.6641   264
14.6741   267
14.6841   260
14.6941   247
14.7041   254
14.7141   264
14.7241   264
14.7341   262
14.7441   251
14.7541   242
14.7641   259
14.7741   267
14.7841   245
14.7941   245
14.8041   265
14.8141   278
14.8241   273
14.8341   270
14.8441   273
14.8541   282
14.8641   304
14.8741   296
14.8841   286
14.8941   286
14.9041   284
14.9141   298
14.9241   322
14.9341   321
14.9441   302
14.9541   295
14.9641   304
14.9741   324
14.9841   324
14.9941   316
15.0041   321
15.0141   313
15.0241   314
15.0341   309
15.0441   300
15.0541   306
15.0641   302
15.0741   289
15.0841   276
15.0941   286
15.1041   300
15.1141   307
15.1241   298
15.1341   283
15.1441   282
15.1541   280
15.1641   272
15.1741   281
15.1841   283
15.1941   281
15.2041   287
15.2141   289
15.2241   272
15.2341   268
15.2441   286
15.2541   290
15.2641   292
15.2741   280
15.2841   267
15.2941   264
15.3041   276
15.3141   269
15.3241   282
15.3341   312
15.3441   281
15.3541   272
15.3641   286
15.3741   266
15.3841   274
15.3941   300
15.4041   300
15.4141   273
15.4241   280
15.4341   310
15.4441   309
15.4541   302
15.4641   284
15.4741   288
15.4841   333
15.4941   326
15.5041   313
15.5141   305
15.5241   319
15.5341   325
15.5441   359
15.5541   343
15.5641   343
15.5741   378
15.5841   403
15.5941   398
15.6041   399
15.6141   403
15.6241   438
15.6341   494
15.6441   525
15.6541   517
15.6641   578
15.6741   590
15.6841   594
15.6941   616
15.7041   631
15.7141   663
15.7241   685
15.7341   671
15.7441   688
15.7541   741
15.7641   752
15.7741   731
15.7841   711
15.7941   701
15.8041   700
15.8141   724
15.8241   712
15.8341   676
15.8441   654
15.8541   637
15.8641   587
15.8741   541
15.8841   543
15.8941   527
15.9041   499
15.9141   473
15.9241   480
15.9341   442
15.9441   411
15.9541   397
15.9641   397
15.9741   389
15.9841   376
15.9941   376
16.0041   345
16.0141   349
16.0241   348
16.0341   345
16.0441   352
16.0541   345
16.0641   337
16.0741   349
16.0841   358
16.0941   344
16.1041   342
16.1141   359
16.1241   350
16.1341   349
16.1441   337
16.1541   334
16.1641   319
16.1741   321
16.1841   317
16.1941   326
16.2041   349
16.2141   353
16.2241   345
16.2341   326
16.2441   342
16.2541   329
16.2641   324
16.2741   321
16.2841   337
16.2941   347
16.3041   336
16.3141   341
16.3241   348
16.3341   350
16.3441   334
16.3541   336
16.3641   358
16.3741   351
16.3841   336
16.3941   348
16.4041   322
16.4141   343
16.4241   356
16.4341   345
16.4441   351
16.4541   366
16.4641   369
16.4741   363
16.4841   339
16.4941   352
16.5041   344
16.5141   350
16.5241   348
16.5341   367
16.5441   363
16.5541   362
16.5641   381
16.5741   374
16.5841   368
16.5941   352
16.6041   355
16.6141   352
16.6241   358
16.6341   360
16.6441   355
16.6541   359
16.6641   364
16.6741   360
16.6841   370
16.6941   353
16.7041   353
16.7141   352
16.7241   362
16.7341   355
16.7441   367
16.7541   338
16.7641   349
16.7741   369
16.7841   358
16.7941   374
16.8041   382
16.8141   390
16.8241   383
16.8341   357
16.8441   369
16.8541   366
16.8641   360
16.8741   346
16.8841   364
16.8941   374
16.9041   365
16.9141   385
16.9241   389
16.9341   368
16.9441   369
16.9541   380
16.9641   376
16.9741   383
16.9841   373
16.9941   386
17.0041   377
17.0141   377
17.0241   389
17.0341   384
17.0441   362
17.0541   369
17.0641   394
17.0741   409
17.0841   375
17.0941   372
17.1041   370
17.1141   351
17.1241   359
17.1341   377
17.1441   364
17.1541   365
17.1641   388
17.1741   384
17.1841   395
17.1941   379
17.2041   386
17.2141   397
17.2241   387
17.2341   385
17.2441   402
17.2541   422
17.2641   404
17.2741   410
17.2841   406
17.2941   400
17.3041   381
17.3141   398
17.3241   401
17.3341   396
17.3441   395
17.3541   381
17.3641   389
17.3741   400
17.3841   402
17.3941   378
17.4041   403
17.4141   385
17.4241   417
17.4341   424
17.4441   410
17.4541   391
17.4641   412
17.4741   429
17.4841   447
17.4941   427
17.5041   451
17.5141   411
17.5241   404
17.5341   442
17.5441   440
17.5541   429
17.5641   432
17.5741   427
17.5841   443
17.5941   427
17.6041   432
17.6141   451
17.6241   457
17.6341   466
17.6441   482
17.6541   488
17.6641   482
17.6741   444
17.6841   465
17.6941   468
17.7041   423
17.7141   439
17.7241   449
17.7341   434
17.7441   433
17.7541   434
17.7641   437
17.7741   446
17.7841   427
17.7941   462
17.8041   452
17.8141   417
17.8241   424
17.8341   427
17.8441   442
17.8541   435
17.8641   418
17.8741   422
17.8841   459
17.8941   453
17.9041   437
17.9141   446
17.9241   454
17.9341   458
17.9441   442
17.9541   427
17.9641   418
17.9741   415
17.9841   432
17.9941   462
18.0041   427
18.0141   429
18.0241   442
18.0341   435
18.0441   436
18.0541   438
18.0641   430
18.0741   425
18.0841   443
18.0941   425
18.1041   433
18.1141   463
18.1241   464
18.1341   440
18.1441   472
18.1541   459
18.1641   414
18.1741   411
18.1841   445
18.1941   478
18.2041   434
18.2141   427
18.2241   453
18.2341   439
18.2441   456
18.2541   458
18.2641   448
18.2741   425
18.2841   421
18.2941   435
18.3041   416
18.3141   439
18.3241   466
18.3341   448
18.3441   445
18.3541   460
18.3641   460
18.3741   463
18.3841   444
18.3941   434
18.4041   454
18.4141   440
18.4241   454
18.4341   446
18.4441   463
18.4541   443
18.4641   454
18.4741   495
18.4841   476
18.4941   449
18.5041   443
18.5141   442
18.5241   465
18.5341   476
18.5441   450
18.5541   471
18.5641   456
18.5741   471
18.5841   479
18.5941   470
18.6041   510
18.6141   438
18.6241   449
18.6341   459
18.6441   494
18.6541   498
18.6641   509
18.6741   461
18.6841   439
18.6941   476
18.7041   529
18.7141   483
18.7241   487
18.7341   477
18.7441   479
18.7541   439
18.7641   454
18.7741   496
18.7841   470
18.7941   492
18.8041   497
18.8141   472
18.8241   461
18.8341   461
18.8441   474
18.8541   479
18.8641   463
18.8741   470
18.8841   459
18.8941   473
18.9041   474
18.9141   469
18.9241   488
18.9341   489
18.9441   495
18.9541   476
18.9641   482
18.9741   477
18.9841   495
18.9941   498
19.0041   480
19.0141   457
19.0241   477
19.0341   471
19.0441   459
19.0541   467
19.0641   472
19.0741   504
19.0841   487
19.0941   485
19.1041   508
19.1141   478
19.1241   486
19.1341   480
19.1441   474
19.1541   478
19.1641   486
19.1741   484
19.1841   462
19.1941   496
19.2041   492
19.2141   489
19.2241   506
19.2341   517
19.2441   515
19.2541   491
19.2641   478
19.2741   483
19.2841   540
19.2941   493
19.3041   500
19.3141   485
19.3241   507
19.3341   545
19.3441   525
19.3541   494
19.3641   492
19.3741   505
19.3841   519
19.3941   480
19.4041   498
19.4141   510
19.4241   521
19.4341   508
19.4441   508
19.4541   499
19.4641   504
19.4741   499
19.4841   511
19.4941   504
19.5041   512
19.5141   494
19.5241   491
19.5341   513
19.5441   503
19.5541   454
19.5641   496
19.5741   510
19.5841   520
19.5941   508
19.6041   490
19.6141   530
19.6241   534
19.6341   517
19.6441   536
19.6541   506
19.6641   521
19.6741   491
19.6841   496
19.6941   496
19.7041   495
19.7141   519
19.7241   511
19.7341   503
19.7441   503
19.7541   505
19.7641   488
19.7741   473
19.7841   498
19.7941   509
19.8041   548
19.8141   543
19.8241   532
19.8341   514
19.8441   504
19.8541   530
19.8641   548
19.8741   531
19.8841   508
19.8941   509
19.9041   510
19.9141   553
19.9241   519
19.9341   516
19.9441   524
19.9541   519
19.9641   522
19.9741   512
19.9841   517
19.9941   518
20.0041   570
20.0141   541
20.0241   549
20.0341   543
20.0441   559
20.0541   519
20.0641   506
20.0741   520
20.0841   546
20.0941   552
20.1041   524
20.1141   535
20.1241   504
20.1341   526
20.1441   526
20.1541   545
20.1641   529
20.1741   553
20.1841   514
20.1941   508
20.2041   514
20.2141   526
20.2241   500
20.2341   510
20.2441   500
20.2541   540
20.2641   559
20.2741   547
20.2841   544
20.2941   508
20.3041   511
20.3141   503
20.3241   510
20.3341   534
20.3441   544
20.3541   542
20.3641   573
20.3741   537
20.3841   525
20.3941   536
20.4041   508
20.4141   558
20.4241   550
20.4341   534
20.4441   528
20.4541   564
20.4641   570
20.4741   569
20.4841   541
20.4941   547
20.5041   532
20.5141   536
20.5241   577
20.5341   556
20.5441   526
20.5541   533
20.5641   521
20.5741   555
20.5841   549
20.5941   534
20.6041   553
20.6141   550
20.6241   527
20.6341   539
20.6441   540
20.6541   528
20.6641   548
20.6741   520
20.6841   534
20.6941   540
20.7041   572
20.7141   542
20.7241   533
20.7341   563
20.7441   558
20.7541   525
20.7641   580
20.7741   599
20.7841   555
20.7941   568
20.8041   565
20.8141   548
20.8241   609
20.8341   585
20.8441   595
20.8541   591
20.8641   600
20.8741   621
20.8841   621
20.8941   642
20.9041   616
20.9141   640
20.9241   651
20.9341   677
20.9441   690
20.9541   712
20.9641   721
20.9741   742
20.9841   756
20.9941   760
21.0041   814
21.0141   779
21.0241   827
21.0341   816
21.0441   849
21.0541   824
21.0641   826
21.0741   903
21.0841   872
21.0941   872
21.1041   861
21.1141   893
21.1241   872
21.1341   854
21.1441   871
21.1541   867
21.1641   816
21.1741   853
21.1841   891
21.1941   804
21.2041   811
21.2141   864
21.2241   848
21.2341   831
21.2441   783
21.2541   773
21.2641   734
21.2741   803
21.2841   734
21.2941   679
21.3041   663
21.3141   655
21.3241   655
21.3341   610
21.3441   655
21.3541   611
21.3641   602
21.3741   594
21.3841   586
21.3941   619
21.4041   612
21.4141   608
21.4241   551
21.4341   571
21.4441   559
21.4541   550
21.4641   547
21.4741   583
21.4841   564
21.4941   550
21.5041   574
21.5141   563
21.5241   538
21.5341   556
21.5441   563
21.5541   559
21.5641   566
21.5741   569
21.5841   552
21.5941   532
21.6041   574
21.6141   578
21.6241   564
21.6341   554
21.6441   548
21.6541   572
21.6641   571
21.6741   551
21.6841   527
21.6941   535
21.7041   580
21.7141   535
21.7241   550
21.7341   567
21.7441   568
21.7541   576
21.7641   596
21.7741   587
21.7841   553
21.7941   559
21.8041   609
21.8141   562
21.8241   567
21.8341   570
21.8441   596
21.8541   546
21.8641   579
21.8741   573
21.8841   575
21.8941   589
21.9041   541
21.9141   577
21.9241   563
21.9341   548
21.9441   533
21.9541   510
21.9641   531
21.9741   554
21.9841   568
21.9941   574
22.0041   595
22.0141   590
22.0241   612
22.0341   577
22.0441   591
22.0541   578
22.0641   547
22.0741   550
22.0841   597
22.0941   559
22.1041   588
22.1141   566
22.1241   544
22.1341   550
22.1441   602
22.1541   542
22.1641   583
22.1741   545
22.1841   598
22.1941   518
22.2041   559
22.2141   568
22.2241   552
22.2341   547
22.2441   582
22.2541   530
22.2641   546
22.2741   576
22.2841   566
22.2941   575
22.3041   567
22.3141   578
22.3241   571
22.3341   564
22.3441   595
22.3541   576
22.3641   543
22.3741   540
22.3841   555
22.3941   551
22.4041   614
22.4141   597
22.4241   527
22.4341   562
22.4441   535
22.4541   546
22.4641   556
22.4741   534
22.4841   572
22.4941   554
22.5041   564
22.5141   601
22.5241   553
22.5341   588
22.5441   566
22.5541   531
22.5641   564
22.5741   571
22.5841   538
22.5941   558
22.6041   578
22.6141   575
22.6241   597
22.6341   573
22.6441   601
22.6541   561
22.6641   557
22.6741   558
22.6841   542
22.6941   577
22.7041   574
22.7141   555
22.7241   567
22.7341   539
22.7441   543
22.7541   581
22.7641   558
22.7741   556
22.7841   601
22.7941   539
22.8041   537
22.8141   548
22.8241   559
22.8341   567
22.8441   549
22.8541   564
22.8641   538
22.8741   556
22.8841   531
22.8941   553
22.9041   575
22.9141   568
22.9241   555
22.9341   565
22.9441   551
22.9541   564
22.9641   514
22.9741   557
22.9841   554
22.9941   558
23.0041   556
23.0141   536
23.0241   554
23.0341   629
23.0441   562
23.0541   607
23.0641   551
23.0741   531
23.0841   605
23.0941   586
23.1041   529
23.1141   571
23.1241   550
23.1341   554
23.1441   564
23.1541   565
23.1641   570
23.1741   573
23.1841   542
23.1941   549
23.2041   592
23.2141   529
23.2241   589
23.2341   573
23.2441   564
23.2541   560
23.2641   584
23.2741   593
23.2841   524
23.2941   568
23.3041   530
23.3141   573
23.3241   519
23.3341   598
23.3441   561
23.3541   609
23.3641   567
23.3741   557
23.3841   495
23.3941   560
23.4041   539
23.4141   543
23.4241   532
23.4341   562
23.4441   556
23.4541   562
23.4641   553
23.4741   576
23.4841   546
23.4941   567
23.5041   561
23.5141   571
23.5241   582
23.5341   554
23.5441   612
23.5541   548
23.5641   550
23.5741   574
23.5841   555
23.5941   584
23.6041   553
23.6141   530
23.6241   598
23.6341   578
23.6441   583
23.6541   574
23.6641   517
23.6741   598
23.6841   562
23.6941   571
23.7041   600
23.7141   604
23.7241   566
23.7341   610
23.7441   568
23.7541   583
23.7641   622
23.7741   633
23.7841   587
23.7941   627
23.8041   608
23.8141   614
23.8241   568
23.8341   586
23.8441   551
23.8541   596
23.8641   592
23.8741   638
23.8841   583
23.8941   599
23.9041   572
23.9141   575
23.9241   576
23.9341   562
23.9441   556
23.9541   585
23.9641   562
23.9741   576
23.9841   558
23.9941   565
24.0041   530
24.0141   570
24.0241   555
24.0341   535
24.0441   527
24.0541   541
24.0641   519
24.0741   546
24.0841   548
24.0941   526
24.1041   522
24.1141   561
24.1241   526
24.1341   519
24.1441   528
24.1541   575
24.1641   561
24.1741   499
24.1841   584
24.1941   568
24.2041   546
24.2141   529
24.2241   554
24.2341   555
24.2441   544
24.2541   556
24.2641   535
24.2741   559
24.2841   523
24.2941   532
24.3041   501
24.3141   571
24.3241   540
24.3341   512
24.3441   526
24.3541   497
24.3641   518
24.3741   534
24.3841   546
24.3941   506
24.4041   544
24.4141   538
24.4241   559
24.4341   518
24.4441   570
24.4541   506
24.4641   560
24.4741   491
24.4841   550
24.4941   524
24.5041   513
24.5141   500
24.5241   537
24.5341   516
24.5441   517
24.5541   531
24.5641   530
24.5741   530
24.5841   544
24.5941   522
24.6041   580
24.6141   564
24.6241   489
24.6341   511
24.6441   505
24.6541   545
24.6641   457
24.6741   516
24.6841   523
24.6941   556
24.7041   549
24.7141   519
24.7241   536
24.7341   538
24.7441   501
24.7541   553
24.7641   514
24.7741   534
24.7841   540
24.7941   530
24.8041   513
24.8141   513
24.8241   496
24.8341   547
24.8441   583
24.8541   540
24.8641   504
24.8741   518
24.8841   538
24.8941   500
24.9041   493
24.9141   532
24.9241   489
24.9341   528
24.9441   519
24.9541   571
24.9641   538
24.9741   518
24.9841   535
24.9941   508
25.0041   531
25.0141   519
25.0241   511
25.0341   552
25.0441   537
25.0541   587
25.0641   547
25.0741   525
25.0841   517
25.0941   531
25.1041   547
25.1141   528
25.1241   509
25.1341   506
25.1441   528
25.1541   524
25.1641   517
25.1741   558
25.1841   577
25.1941   559
25.2041   528
25.2141   515
25.2241   511
25.2341   507
25.2441   531
25.2541   534
25.2641   529
25.2741   542
25.2841   489
25.2941   510
25.3041   512
25.3141   582
25.3241   510
25.3341   547
25.3441   540
25.3541   551
25.3641   516
25.3741   495
25.3841   506
25.3941   498
25.4041   490
25.4141   519
25.4241   490
25.4341   516
25.4441   523
25.4541   515
25.4641   501
25.4741   506
25.4841   499
25.4941   505
25.5041   535
25.5141   504
25.5241   503
25.5341   517
25.5441   526
25.5541   551
25.5641   510
25.5741   482
25.5841   472
25.5941   494
25.6041   509
25.6141   502
25.6241   503
25.6341   504
25.6441   489
25.6541   471
25.6641   509
25.6741   497
25.6841   494
25.6941   485
25.7041   477
25.7141   517
25.7241   519
25.7341   492
25.7441   468
25.7541   525
25.7641   510
25.7741   496
25.7841   481
25.7941   479
25.8041   522
25.8141   504
25.8241   497
25.8341   494
25.8441   463
25.8541   530
25.8641   517
25.8741   487
25.8841   485
25.8941   483
25.9041   508
25.9141   531
25.9241   514
25.9341   496
25.9441   463
25.9541   441
25.9641   466
25.9741   479
25.9841   500
25.9941   474
26.0041   479
26.0141   481
26.0241   484
26.0341   456
26.0441   463
26.0541   484
26.0641   459
26.0741   444
26.0841   474
26.0941   464
26.1041   518
26.1141   427
26.1241   447
26.1341   495
26.1441   463
26.1541   470
26.1641   501
26.1741   469
26.1841   515
26.1941   462
26.2041   463
26.2141   480
26.2241   473
26.2341   465
26.2441   485
26.2541   475
26.2641   484
26.2741   481
26.2841   461
26.2941   475
26.3041   466
26.3141   460
26.3241   482
26.3341   488
26.3441   490
26.3541   443
26.3641   446
26.3741   457
26.3841   492
26.3941   436
26.4041   462
26.4141   451
26.4241   456
26.4341   472
26.4441   450
26.4541   446
26.4641   480
26.4741   443
26.4841   435
26.4941   450
26.5041   465
26.5141   455
26.5241   463
26.5341   470
26.5441   436
26.5541   428
26.5641   413
26.5741   438
26.5841   418
26.5941   447
26.6041   473
26.6141   464
26.6241   456
26.6341   449
26.6441   407
26.6541   449
26.6641   456
26.6741   455
26.6841   417
26.6941   469
26.7041   474
26.7141   470
26.7241   430
26.7341   423
26.7441   423
26.7541   408
26.7641   432
26.7741   439
26.7841   463
26.7941   435
26.8041   453
26.8141   433
26.8241   474
26.8341   467
26.8441   425
26.8541   452
26.8641   430
26.8741   449
26.8841   411
26.8941   457
26.9041   454
26.9141   435
26.9241   450
26.9341   460
26.9441   451
26.9541   427
26.9641   411
26.9741   419
26.9841   444
26.9941   440
27.0041   430
27.0141   478
27.0241   447
27.0341   458
27.0441   465
27.0541   443
27.0641   443
27.0741   432
27.0841   425
27.0941   470
27.1041   442
27.1141   449
27.1241   450
27.1341   434
27.1441   447
27.1541   432
27.1641   454
27.1741   438
27.1841   423
27.1941   457
27.2041   441
27.2141   438
27.2241   451
27.2341   417
27.2441   441
27.2541   427
27.2641   430
27.2741   427
27.2841   440
27.2941   450
27.3041   436
27.3141   455
27.3241   435
27.3341   436
27.3441   427
27.3541   392
27.3641   403
27.3741   429
27.3841   438
27.3941   413
27.4041   436
27.4141   424
27.4241   464
27.4341   428
27.4441   406
27.4541   400
27.4641   424
27.4741   421
27.4841   466
27.4941   426
27.5041   407
27.5141   453
27.5241   405
27.5341   405
27.5441   415
27.5541   414
27.5641   376
27.5741   424
27.5841   439
27.5941   411
27.6041   469
27.6141   441
27.6241   405
27.6341   414
27.6441   385
27.6541   428
27.6641   444
27.6741   411
27.6841   424
27.6941   422
27.7041   401
27.7141   429
27.7241   397
27.7341   436
27.7441   418
27.7541   437
27.7641   391
27.7741   407
27.7841   437
27.7941   394
27.8041   431
27.8141   428
27.8241   421
27.8341   433
27.8441   420
27.8541   404
27.8641   356
27.8741   401
27.8841   390
27.8941   389
27.9041   367
27.9141   420
27.9241   392
27.9341   413
27.9441   399
27.9541   424
27.9641   393
27.9741   387
27.9841   391
27.9941   370
28.0041   411
28.0141   385
28.0241   391
28.0341   388
28.0441   379
28.0541   376
28.0641   396
28.0741   383
28.0841   399
28.0941   393
28.1041   417
28.1141   365
28.1241   422
28.1341   393
28.1441   403
28.1541   419
28.1641   412
28.1741   400
28.1841   374
28.1941   389
28.2041   391
28.2141   366
28.2241   415
28.2341   372
28.2441   374
28.2541   420
28.2641   390
28.2741   393
28.2841   366
28.2941   408
28.3041   436
28.3141   398
28.3241   391
28.3341   372
28.3441   392
28.3541   420
28.3641   422
28.3741   405
28.3841   376
28.3941   370
28.4041   385
28.4141   408
28.4241   385
28.4341   380
28.4441   348
28.4541   364
28.4641   367
28.4741   381
28.4841   341
28.4941   385
28.5041   394
28.5141   410
28.5241   380
28.5341   362
28.5441   373
28.5541   314
28.5641   379
28.5741   400
28.5841   383
28.5941   349
28.6041   368
28.6141   386
28.6241   363
28.6341   377
28.6441   354
28.6541   363
28.6641   371
28.6741   355
28.6841   383
28.6941   350
28.7041   383
28.7141   352
28.7241   369
28.7341   352
28.7441   364
28.7541   383
28.7641   357
28.7741   361
28.7841   374
28.7941   346
28.8041   365
28.8141   399
28.8241   348
28.8341   382
28.8441   345
28.8541   348
28.8641   360
28.8741   397
28.8841   363
28.8941   364
28.9041   360
28.9141   347
28.9241   349
28.9341   347
28.9441   353
28.9541   366
28.9641   344
28.9741   363
28.9841   350
28.9941   357
29.0041   326
29.0141   363
29.0241   355
29.0341   354
29.0441   348
29.0541   337
29.0641   345
29.0741   354
29.0841   386
29.0941   349
29.1041   377
29.1141   345
29.1241   327
29.1341   354
29.1441   354
29.1541   338
29.1641   317
29.1741   338
29.1841   336
29.1941   342
29.2041   334
29.2141   323
29.2241   349
29.2341   334
29.2441   356
29.2541   355
29.2641   303
29.2741   357
29.2841   356
29.2941   324
29.3041   350
29.3141   368
29.3241   300
29.3341   318
29.3441   346
29.3541   349
29.3641   326
29.3741   315
29.3841   362
29.3941   350
29.4041   339
29.4141   337
29.4241   327
29.4341   353
29.4441   333
29.4541   334
29.4641   325
29.4741   373
29.4841   316
29.4941   326
29.5041   324
29.5141   315
29.5241   351
29.5341   315
29.5441   331
29.5541   305
29.5641   340
29.5741   344
29.5841   322
29.5941   343
29.6041   334
29.6141   318
29.6241   331
29.6341   309
29.6441   321
29.6541   348
29.6641   312
29.6741   349
29.6841   345
29.6941   321
29.7041   304
29.7141   305
29.7241   313
29.7341   316
29.7441   314
29.7541   287
29.7641   320
29.7741   308
29.7841   317
29.7941   336
29.8041   306
29.8141   341
29.8241   324
29.8341   307
29.8441   294
29.8541   337
29.8641   305
29.8741   311
29.8841   303
29.8941   296
29.9041   301
29.9141   317
29.9241   311
29.9341   329
29.9441   341
29.9541   337
29.9641   313
29.9741   307
29.9841   313
29.9941   320
30.0041   331
30.0141   303
30.0241   307
30.0341   318
30.0441   308
30.0541   300
30.0641   309
30.0741   308
30.0841   313
30.0941   334
30.1041   278
30.1141   299
30.1241   317
30.1341   319
30.1441   303
30.1541   292
30.1641   298
30.1741   292
30.1841   294
30.1941   303
30.2041   295
30.2141   297
30.2241   259
30.2341   293
30.2441   276
30.2541   295
30.2641   314
30.2741   325
30.2841   308
30.2941   302
30.3041   297
30.3141   305
30.3241   285
30.3341   291
30.3441   288
30.3541   301
30.3641   258
30.3741   280
30.3841   302
30.3941   293
30.4041   325
30.4141   302
30.4241   286
30.4341   301
30.4441   280
30.4541   281
30.4641   283
30.4741   310
30.4841   308
30.4941   282
30.5041   306
30.5141   302
30.5241   296
30.5341   275
30.5441   287
30.5541   286
30.5641   324
30.5741   311
30.5841   292
30.5941   265
30.6041   285
30.6141   265
30.6241   289
30.6341   302
30.6441   289
30.6541   280
30.6641   282
30.6741   295
30.6841   283
30.6941   294
30.7041   280
30.7141   256
30.7241   268
30.7341   281
30.7441   301
30.7541   318
30.7641   287
30.7741   259
30.7841   275
30.7941   286
30.8041   286
30.8141   283
30.8241   309
30.8341   264
30.8441   285
30.8541   273
30.8641   269
30.8741   308
30.8841   277
30.8941   289
30.9041   270
30.9141   281
30.9241   291
30.9341   261
30.9441   257
30.9541   270
30.9641   261
30.9741   285
30.9841   301
30.9941   245
31.0041   273
31.0141   283
31.0241   276
31.0341   259
31.0441   296
31.0541   280
31.0641   251
31.0741   267
31.0841   266
31.0941   250
31.1041   295
31.1141   268
31.1241   293
31.1341   260
31.1441   261
31.1541   257
31.1641   263
31.1741   255
31.1841   284
31.1941   246
31.2041   247
31.2141   249
31.2241   261
31.2341   257
31.2441   281
31.2541   276
31.2641   259
31.2741   287
31.2841   263
31.2941   247
31.3041   246
31.3141   268
31.3241   270
31.3341   264
31.3441   249
31.3541   240
31.3641   258
31.3741   250
31.3841   264
31.3941   268
31.4041   255
31.4141   280
31.4241   250
31.4341   264
31.4441   244
31.4541   234
31.4641   249
31.4741   241
31.4841   250
31.4941   263
31.5041   256
31.5141   238
31.5241   268
31.5341   240
31.5441   252
31.5541   253
31.5641   242
31.5741   236
31.5841   234
31.5941   264
31.6041   269
31.6141   235
31.6241   248
31.6341   235
31.6441   251
31.6541   260
31.6641   238
31.6741   258
31.6841   245
31.6941   257
31.7041   260
31.7141   224
31.7241   215
31.7341   245
31.7441   240
31.7541   270
31.7641   266
31.7741   250
31.7841   248
31.7941   269
31.8041   255
31.8141   231
31.8241   243
31.8341   257
31.8441   246
31.8541   242
31.8641   286
31.8741   272
31.8841   266
31.8941   246
31.9041   252
31.9141   252
31.9241   249
31.9341   245
31.9441   238
31.9541   264
31.9641   242
31.9741   250
31.9841   242
31.9941   226
32.0041   241
32.0141   253
32.0241   286
32.0341   243
32.0441   254
32.0541   249
32.0641   221
32.0741   274
32.0841   246
32.0941   265
32.1041   233
32.1141   248
32.1241   271
32.1341   246
32.1441   261
32.1541   252
32.1641   243
32.1741   258
32.1841   262
32.1941   265
32.2041   278
32.2141   276
32.2241   258
32.2341   266
32.2441   217
32.2541   231
32.2641   231
32.2741   246
32.2841   213
32.2941   258
32.3041   224
32.3141   235
32.3241   224
32.3341   260
32.3441   264
32.3541   249
32.3641   227
32.3741   224
32.3841   238
32.3941   221
32.4041   213
32.4141   227
32.4241   245
32.4341   225
32.4441   216
32.4541   211
32.4641   252
32.4741   211
32.4841   198
32.4941   197
32.5041   202
32.5141   221
32.5241   227
32.5341   200
32.5441   225
32.5541   219
32.5641   226
32.5741   188
32.5841   217
32.5941   211
32.6041   214
32.6141   217
32.6241   202
32.6341   209
32.6441   206
32.6541   181
32.6641   185
32.6741   191
32.6841   206
32.6941   200
32.7041   212
32.7141   219
32.7241   226
32.7341   204
32.7441   207
32.7541   185
32.7641   211
32.7741   199
32.7841   200
32.7941   208
32.8041   205
32.8141   191
32.8241   237
32.8341   194
32.8441   198
32.8541   204
32.8641   192
32.8741   202
32.8841   213
32.8941   180
32.9041   214
32.9141   192
32.9241   201
32.9341   185
32.9441   192
32.9541   188
32.9641   219
32.9741   195
32.9841   203
32.9941   179
33.0041   186
33.0141   193
33.0241   193
33.0341   214
33.0441   197
33.0541   197
33.0641   190
33.0741   182
33.0841   180
33.0941   173
33.1041   196
33.1141   186
33.1241   185
33.1341   177
33.1441   182
33.1541   204
33.1641   181
33.1741   200
33.1841   201
33.1941   197
33.2041   212
33.2141   188
33.2241   166
33.2341   177
33.2441   188
33.2541   184
33.2641   203
33.2741   199
33.2841   189
33.2941   164
33.3041   165
33.3141   190
33.3241   187
33.3341   181
33.3441   184
33.3541   177
33.3641   172
33.3741   185
33.3841   178
33.3941   167
33.4041   214
33.4141   168
33.4241   179
33.4341   186
33.4441   182
33.4541   168
33.4641   173
33.4741   185
33.4841   179
33.4941   181
33.5041   187
33.5141   172
33.5241   169
33.5341   181
33.5441   175
33.5541   186
33.5641   201
33.5741   185
33.5841   193
33.5941   171
33.6041   191
33.6141   179
33.6241   189
33.6341   163
33.6441   168
33.6541   175
33.6641   174
33.6741   167
33.6841   188
33.6941   174
33.7041   193
33.7141   176
33.7241   177
33.7341   168
33.7441   182
33.7541   185
33.7641   173
33.7741   170
33.7841   197
33.7941   177
33.8041   181
33.8141   175
33.8241   197
33.8341   163
33.8441   182
33.8541   169
33.8641   166
33.8741   147
33.8841   170
33.8941   156
33.9041   164
33.9141   182
33.9241   162
33.9341   159
33.9441   152
33.9541   174
33.9641   154
33.9741   186
33.9841   163
33.9941   157
34.0041   159
34.0141   151
34.0241   162
34.0341   167
34.0441   161
34.0541   162
34.0641   163
34.0741   171
34.0841   152
34.0941   161
34.1041   155
34.1141   174
34.1241   137
34.1341   155
34.1441   157
34.1541   160
34.1641   153
34.1741   161
34.1841   170
34.1941   152
34.2041   159
34.2141   174
34.2241   163
34.2341   145
34.2441   142
34.2541   161
34.2641   126
34.2741   160
34.2841   187
34.2941   169
34.3041   154
34.3141   159
34.3241   158
34.3341   150
34.3441   168
34.3541   146
34.3641   146
34.3741   171
34.3841   150
34.3941   165
34.4041   145
34.4141   142
34.4241   160
34.4341   150
34.4441   134
34.4541   162
34.4641   139
34.4741   137
34.4841   161
34.4941   155
34.5041   153
34.5141   153
34.5241   167
34.5341   146
34.5441   162
34.5541   154
34.5641   136
34.5741   150
34.5841   145
34.5941   134
34.6041   152
34.6141   157
34.6241   142
34.6341   147
34.6441   143
34.6541   171
34.6641   136
34.6741   141
34.6841   138
34.6941   154
34.7041   152
34.7141   176
34.7241   146
34.7341   164
34.7441   152
34.7541   145
34.7641   150
34.7741   139
34.7841   124
34.7941   158
34.8041   134
34.8141   165
34.8241   133
34.8341   135
34.8441   153
34.8541   134
34.8641   128
34.8741   115
34.8841   158
34.8941   136
34.9041   126
34.9141   144
34.9241   150
34.9341   135
34.9441   154
34.9541   165
34.9641   145
34.9741   126
34.9841   127
34.9941   151
35.0041   127
35.0141   135
35.0241   136
35.0341   137
35.0441   127
35.0541   146
35.0641   126
35.0741   144
35.0841   120
35.0941   146
35.1041   130
35.1141   125
35.1241   145
35.1341   130
35.1441   124
35.1541   136
35.1641   146
35.1741   149
35.1841   128
35.1941   136
35.2041   128
35.2141   115
35.2241   124
35.2341   125
35.2441   122
35.2541   117
35.2641   120
35.2741   128
35.2841   122
35.2941   121
35.3041   124
35.3141   118
35.3241    95
35.3341   129
35.3441   123
35.3541   142
35.3641   119
35.3741   122
35.3841   134
35.3941   130
35.4041   127
35.4141   133
35.4241   109
35.4341   133
35.4441   119
35.4541   112
35.4641   108
35.4741   126
35.4841   125
35.4941   143
35.5041   108
35.5141   101
35.5241   118
35.5341   124
35.5441   126
35.5541   110
35.5641    95
35.5741   125
35.5841   113
35.5941   122
35.6041   123
35.6141   130
35.6241   112
35.6341   118
35.6441   132
35.6541   113
35.6641   128
35.6741   123
35.6841   115
35.6941    94
35.7041   105
35.7141   120
35.7241   130
35.7341   123
35.7441   105
35.7541   108
35.7641   122
35.7741   119
35.7841   121
35.7941   117
35.8041   122
35.8141   111
35.8241   102
35.8341   121
35.8441   107
35.8541   129
35.8641   109
35.8741   115
35.8841    94
35.8941   122
35.9041   109
35.9141   141
35.9241   116
35.9341   115
35.9441   113
35.9541   117
35.9641   104
35.9741   113
35.9841   112
35.9941   119
36.0041   106
36.0141   126
36.0241   114
36.0341    99
36.0441   112
36.0541   122
36.0641   118
36.0741   100
36.0841    95
36.0941   116
36.1041   112
36.1141   115
36.1241   102
36.1341    87
36.1441    99
36.1541   113
36.1641   112
36.1741   116
36.1841   110
36.1941   123
36.2041   113
36.2141    87
36.2241   110
36.2341    95
36.2441    94
36.2541   116
36.2641    98
36.2741   124
36.2841   111
36.2941   106
36.3041   112
36.3141   129
36.3241   119
36.3341    94
36.3441   116
36.3541    96
36.3641   101
36.3741    97
36.3841    96
36.3941   103
36.4041   107
36.4141   115
36.4241   105
36.4341   106
36.4441   103
36.4541   110
36.4641    91
36.4741   103
36.4841    91
36.4941   104
36.5041    89
36.5141   110
36.5241   102
36.5341   109
36.5441    93
36.5541    89
36.5641   108
36.5741    99
36.5841    92
36.5941    93
36.6041    91
36.6141    99
36.6241    85
36.6341   106
36.6441    97
36.6541    85
36.6641   111
36.6741    94
36.6841    88
36.6941    95
36.7041   105
36.7141    96
36.7241    87
36.7341    82
36.7441   102
36.7541    87
36.7641    79
36.7741    95
36.7841   104
36.7941    87
36.8041    81
36.8141    93
36.8241    89
36.8341    76
36.8441    82
36.8541    81
36.8641    80
36.8741    75
36.8841    61
36.8941   114
36.9041    93
36.9141    72
36.9241    91
36.9341    81
36.9441    75
36.9541    85
36.9641    83
36.9741    92
36.9841    91
36.9941    87
37.0041    76
37.0141    91
37.0241   101
37.0341    78
37.0441    84
37.0541    80
37.0641    90
37.0741    75
37.0841    83
37.0941    82
37.1041    82
37.1141    90
37.1241    75
37.1341    87
37.1441    85
37.1541    85
37.1641    95
37.1741   104
37.1841    87
37.1941    94
37.2041    88
37.2141    72
37.2241    86
37.2341   102
37.2441    95
37.2541    80
37.2641    88
37.2741    79
37.2841    77
37.2941    66
37.3041    88
37.3141    67
37.3241    88
37.3341    97
37.3441    83
37.3541    88
37.3641    86
37.3741    91
37.3841    72
37.3941    86
37.4041    80
37.4141    76
37.4241    84
37.4341    78
37.4441    82
37.4541    72
37.4641    70
37.4741    85
37.4841    88
37.4941    72
37.5041    74
37.5141    81
37.5241    60
37.5341    58
37.5441    73
37.5541    65
37.5641    73
37.5741    85
37.5841    82
37.5941    71
37.6041    96
37.6141    65
37.6241    64
37.6341    69
37.6441    68
37.6541    85
37.6641    83
37.6741    64
37.6841    75
37.6941    84
37.7041    78
37.7141    73
37.7241    70
37.7341    72
37.7441    70
37.7541    73
37.7641    71
37.7741    73
37.7841    72
37.7941    58
37.8041    65
37.8141    79
37.8241    82
37.8341    80
37.8441    64
37.8541    60
37.8641    58
37.8741    61
37.8841    63
37.8941    57
37.9041    72
37.9141    66
37.9241    67
37.9341    72
37.9441    67
37.9541    69
37.9641    69
37.9741    66
37.9841    60
37.9941    74
38.0041    59
38.0141    78
38.0241    64
38.0341    62
38.0441    76
38.0541    63
38.0641    77
38.0741    62
38.0841    68
38.0941    64
38.1041    76
38.1141    76
38.1241    71
38.1341    65
38.1441    59
38.1541    71
38.1641    60
38.1741    63
38.1841    65
38.1941    63
38.2041    51
38.2141    75
38.2241    55
38.2341    61
38.2441    69
38.2541    64
38.2641    59
38.2741    53
38.2841    61
38.2941    48
38.3041    67
38.3141    59
38.3241    55
38.3341    57
38.3441    67
38.3541    63
38.3641    73
38.3741    59
38.3841    64
38.3941    61
38.4041    75
38.4141    68
38.4241    56
38.4341    59
38.4441    58
38.4541    58
38.4641    64
38.4741    68
38.4841    64
38.4941    69
38.5041    59
38.5141    58
38.5241    48
38.5341    63
38.5441    42
38.5541    55
38.5641    63
38.5741    56
38.5841    57
38.5941    67
38.6041    66
38.6141    54
38.6241    46
38.6341    53
38.6441    67
38.6541    58
38.6641    58
38.6741    47
38.6841    50
38.6941    62
38.7041    45
38.7141    47
38.7241    54
38.7341    55
38.7441    45
38.7541    57
38.7641    49
38.7741    54
38.7841    53
38.7941    44
38.8041    55
38.8141    43
38.8241    45
38.8341    46
38.8441    43
38.8541    47
38.8641    43
38.8741    49
38.8841    57
38.8941    63
38.9041    42
38.9141    43
38.9241    43
38.9341    49
38.9441    52
38.9541    48
38.9641    46
38.9741    56
38.9841    58
38.9941    39
39.0041    53
39.0141    63
39.0241    62
39.0341    46
39.0441    50
39.0541    46
39.0641    48
39.0741    52
39.0841    54
39.0941    55
39.1041    38
39.1141    52
39.1241    40
39.1341    51
39.1441    56
39.1541    39
39.1641    37
39.1741    41
39.1841    44
39.1941    45
39.2041    41
39.2141    34
39.2241    35
39.2341    31
39.2441    43
39.2541    46
39.2641    52
39.2741    51
39.2841    51
39.2941    41
39.3041    43
39.3141    46
39.3241    45
39.3341    47
39.3441    48
39.3541    51
39.3641    53
39.3741    45
39.3841    47
39.3941    42
39.4041    39
39.4141    41
39.4241    36
39.4341    52
39.4441    39
39.4541    43
39.4641    40
39.4741    50
39.4841    51
39.4941    35
39.5041    40
39.5141    36
39.5241    41
39.5341    36
39.5441    49
39.5541    43
39.5641    38
39.5741    47
39.5841    48
39.5941    39
39.6041    56
39.6141    32
39.6241    39
39.6341    47
39.6441    41
39.6541    41
39.6641    46
39.6741    47
39.6841    32
39.6941    37
39.7041    45
39.7141    39
39.7241    38
39.7341    37
39.7441    41
39.7541    32
39.7641    39
39.7741    33
39.7841    36
39.7941    32
39.8041    38
39.8141    34
39.8241    36
39.8341    39
39.8441    28
39.8541    36
39.8641    34
39.8741    38
39.8841    42
39.8941    28
39.9041    32
39.9141    31
39.9241    34
39.9341    36
39.9441    35
39.9541    34
39.9641    38
39.9741    30
39.9841    28
