Bruker Nano GmbH Berlin, Germany
Esprit 1.9

Date: 4/1/2021 5:03:23 PM
Real time: 21920
Life time: 20564
Pulse density: 92377


Detector type: XFlash 430
Window type: Custom type
Detector thickness: 0.45
Si dead layer:0.029

Calibration, lin.: 10
Calibration, abs.: -955.9
Mn FWHM: 137.05
Fano factor: 0.121
Channels: 4095

Energy Counts
-0.9559     0
-0.9459     0
-0.9359     0
-0.9259     0
-0.9159     0
-0.9059     0
-0.8959     0
-0.8859     0
-0.8759     0
-0.8659     0
-0.8559     0
-0.8459     0
-0.8359     0
-0.8259     0
-0.8159     0
-0.8059     0
-0.7959     0
-0.7859     0
-0.7759     0
-0.7659     0
-0.7559     0
-0.7459     0
-0.7359     0
-0.7259     0
-0.7159     0
-0.7059     0
-0.6959     0
-0.6859     0
-0.6759     0
-0.6659     0
-0.6559     0
-0.6459     0
-0.6359     0
-0.6259     0
-0.6159     0
-0.6059     0
-0.5959     0
-0.5859     0
-0.5759     0
-0.5659     0
-0.5559     0
-0.5459     0
-0.5359     0
-0.5259     0
-0.5159     0
-0.5059     0
-0.4959     0
-0.4859     0
-0.4759     0
-0.4659     0
-0.4559     0
-0.4459     0
-0.4359     0
-0.4259     0
-0.4159     0
-0.4059     0
-0.3959     0
-0.3859     0
-0.3759     0
-0.3659     0
-0.3559     0
-0.3459     0
-0.3359     0
-0.3259     0
-0.3159     0
-0.3059     0
-0.2959     0
-0.2859     0
-0.2759     0
-0.2659     0
-0.2559     0
-0.2459     0
-0.2359     0
-0.2259     0
-0.2159     0
-0.2059     0
-0.1959     0
-0.1859     0
-0.1759     0
-0.1659     0
-0.1559     0
-0.1459     0
-0.1359     0
-0.1259     2
-0.1159     3
-0.1059    24
-0.0959    64
-0.0859   226
-0.0759   843
-0.0659  2410
-0.0559  6034
-0.0459 13088
-0.0359 24558
-0.0259 39447
-0.0159 53747
-0.0059 62708
 0.0041 63655
 0.0141 54452
 0.0241 40156
 0.0341 25145
 0.0441 13823
 0.0541  6469
 0.0641  2583
 0.0741   840
 0.0841   256
 0.0941    83
 0.1041    27
 0.1141    13
 0.1241    10
 0.1341    13
 0.1441     3
 0.1541     5
 0.1641     4
 0.1741     2
 0.1841   171
 0.1941   305
 0.2041   285
 0.2141   299
 0.2241   301
 0.2341   305
 0.2441   288
 0.2541   306
 0.2641   300
 0.2741   322
 0.2841   319
 0.2941   291
 0.3041   297
 0.3141   296
 0.3241   278
 0.3341   262
 0.3441   272
 0.3541   282
 0.3641   273
 0.3741   273
 0.3841   280
 0.3941   262
 0.4041   264
 0.4141   265
 0.4241   298
 0.4341   277
 0.4441   265
 0.4541   272
 0.4641   253
 0.4741   258
 0.4841   264
 0.4941   292
 0.5041   274
 0.5141   262
 0.5241   251
 0.5341   254
 0.5441   249
 0.5541   256
 0.5641   256
 0.5741   231
 0.5841   231
 0.5941   217
 0.6041   224
 0.6141   243
 0.6241   236
 0.6341   248
 0.6441   249
 0.6541   232
 0.6641   228
 0.6741   229
 0.6841   224
 0.6941   215
 0.7041   225
 0.7141   225
 0.7241   222
 0.7341   219
 0.7441   200
 0.7541   212
 0.7641   220
 0.7741   220
 0.7841   223
 0.7941   233
 0.8041   227
 0.8141   219
 0.8241   232
 0.8341   227
 0.8441   230
 0.8541   233
 0.8641   232
 0.8741   212
 0.8841   217
 0.8941   221
 0.9041   209
 0.9141   204
 0.9241   205
 0.9341   215
 0.9441   223
 0.9541   205
 0.9641   193
 0.9741   191
 0.9841   188
 0.9941   205
 1.0041   178
 1.0141   186
 1.0241   193
 1.0341   197
 1.0441   199
 1.0541   212
 1.0641   200
 1.0741   183
 1.0841   179
 1.0941   197
 1.1041   188
 1.1141   202
 1.1241   195
 1.1341   208
 1.1441   201
 1.1541   212
 1.1641   189
 1.1741   182
 1.1841   193
 1.1941   176
 1.2041   177
 1.2141   178
 1.2241   169
 1.2341   178
 1.2441   168
 1.2541   180
 1.2641   181
 1.2741   178
 1.2841   177
 1.2941   196
 1.3041   196
 1.3141   191
 1.3241   178
 1.3341   186
 1.3441   203
 1.3541   200
 1.3641   179
 1.3741   184
 1.3841   171
 1.3941   183
 1.4041   179
 1.4141   178
 1.4241   174
 1.4341   170
 1.4441   174
 1.4541   181
 1.4641   187
 1.4741   191
 1.4841   179
 1.4941   165
 1.5041   165
 1.5141   169
 1.5241   177
 1.5341   174
 1.5441   169
 1.5541   179
 1.5641   167
 1.5741   170
 1.5841   168
 1.5941   179
 1.6041   174
 1.6141   181
 1.6241   169
 1.6341   182
 1.6441   193
 1.6541   207
 1.6641   267
 1.6741   277
 1.6841   383
 1.6941   456
 1.7041   575
 1.7141   623
 1.7241   738
 1.7341   810
 1.7441   795
 1.7541   755
 1.7641   624
 1.7741   613
 1.7841   502
 1.7941   396
 1.8041   308
 1.8141   272
 1.8241   250
 1.8341   222
 1.8441   203
 1.8541   239
 1.8641   195
 1.8741   199
 1.8841   189
 1.8941   185
 1.9041   179
 1.9141   191
 1.9241   170
 1.9341   180
 1.9441   168
 1.9541   169
 1.9641   189
 1.9741   186
 1.9841   219
 1.9941   215
 2.0041   210
 2.0141   228
 2.0241   215
 2.0341   218
 2.0441   197
 2.0541   202
 2.0641   195
 2.0741   182
 2.0841   158
 2.0941   155
 2.1041   158
 2.1141   155
 2.1241   153
 2.1341   143
 2.1441   176
 2.1541   169
 2.1641   151
 2.1741   167
 2.1841   178
 2.1941   163
 2.2041   142
 2.2141   150
 2.2241   138
 2.2341   126
 2.2441   139
 2.2541   143
 2.2641   135
 2.2741   155
 2.2841   141
 2.2941   151
 2.3041   134
 2.3141   164
 2.3241   152
 2.3341   123
 2.3441   140
 2.3541   132
 2.3641   147
 2.3741   141
 2.3841   133
 2.3941   121
 2.4041   131
 2.4141   141
 2.4241   144
 2.4341   168
 2.4441   146
 2.4541   123
 2.4641   157
 2.4741   122
 2.4841   143
 2.4941   136
 2.5041   127
 2.5141   127
 2.5241   125
 2.5341   126
 2.5441   123
 2.5541   122
 2.5641   136
 2.5741   141
 2.5841   151
 2.5941   124
 2.6041   130
 2.6141   131
 2.6241   149
 2.6341   117
 2.6441   129
 2.6541   144
 2.6641   130
 2.6741   120
 2.6841   112
 2.6941   134
 2.7041   124
 2.7141   116
 2.7241   124
 2.7341    99
 2.7441   123
 2.7541   105
 2.7641   118
 2.7741   115
 2.7841   127
 2.7941   118
 2.8041   119
 2.8141   114
 2.8241   143
 2.8341   131
 2.8441   145
 2.8541   141
 2.8641   127
 2.8741   122
 2.8841   138
 2.8941   130
 2.9041   115
 2.9141   118
 2.9241   116
 2.9341   124
 2.9441   104
 2.9541   121
 2.9641   124
 2.9741   130
 2.9841   124
 2.9941   118
 3.0041   135
 3.0141   112
 3.0241   128
 3.0341   110
 3.0441   111
 3.0541   107
 3.0641   114
 3.0741   137
 3.0841   113
 3.0941   107
 3.1041   103
 3.1141   117
 3.1241   126
 3.1341   106
 3.1441   113
 3.1541    96
 3.1641   110
 3.1741   108
 3.1841   128
 3.1941   126
 3.2041   121
 3.2141   116
 3.2241   138
 3.2341   165
 3.2441   194
 3.2541   209
 3.2641   194
 3.2741   222
 3.2841   266
 3.2941   297
 3.3041   270
 3.3141   279
 3.3241   310
 3.3341   270
 3.3441   249
 3.3541   226
 3.3641   212
 3.3741   167
 3.3841   142
 3.3941   135
 3.4041   112
 3.4141   127
 3.4241   103
 3.4341   110
 3.4441   119
 3.4541   125
 3.4641    93
 3.4741   111
 3.4841   108
 3.4941   115
 3.5041   116
 3.5141   140
 3.5241   169
 3.5341   186
 3.5441   242
 3.5541   267
 3.5641   384
 3.5741   526
 3.5841   731
 3.5941  1016
 3.6041  1352
 3.6141  1889
 3.6241  2438
 3.6341  3119
 3.6441  3796
 3.6541  4502
 3.6641  5084
 3.6741  5489
 3.6841  5916
 3.6941  5783
 3.7041  5620
 3.7141  5271
 3.7241  4601
 3.7341  3951
 3.7441  3164
 3.7541  2468
 3.7641  1874
 3.7741  1320
 3.7841   970
 3.7941   614
 3.8041   436
 3.8141   328
 3.8241   202
 3.8341   157
 3.8441   160
 3.8541   127
 3.8641   158
 3.8741   148
 3.8841   182
 3.8941   202
 3.9041   215
 3.9141   292
 3.9241   359
 3.9341   461
 3.9441   538
 3.9541   654
 3.9641   790
 3.9741   927
 3.9841  1021
 3.9941  1104
 4.0041  1279
 4.0141  1269
 4.0241  1249
 4.0341  1067
 4.0441  1000
 4.0541   922
 4.0641   770
 4.0741   578
 4.0841   488
 4.0941   411
 4.1041   269
 4.1141   227
 4.1241   168
 4.1341   145
 4.1441   134
 4.1541    97
 4.1641    76
 4.1741    72
 4.1841    72
 4.1941    79
 4.2041    75
 4.2141    82
 4.2241    61
 4.2341    76
 4.2441    73
 4.2541    87
 4.2641    77
 4.2741    82
 4.2841    80
 4.2941    77
 4.3041    76
 4.3141    83
 4.3241    73
 4.3341    71
 4.3441    81
 4.3541    76
 4.3641    92
 4.3741    93
 4.3841   108
 4.3941   129
 4.4041   124
 4.4141   153
 4.4241   200
 4.4341   234
 4.4441   272
 4.4541   299
 4.4641   333
 4.4741   390
 4.4841   419
 4.4941   459
 4.5041   480
 4.5141   452
 4.5241   416
 4.5341   393
 4.5441   368
 4.5541   341
 4.5641   251
 4.5741   238
 4.5841   214
 4.5941   174
 4.6041   170
 4.6141   114
 4.6241   114
 4.6341   129
 4.6441   105
 4.6541   107
 4.6641    85
 4.6741    83
 4.6841    74
 4.6941   109
 4.7041    77
 4.7141    91
 4.7241    88
 4.7341    96
 4.7441    91
 4.7541   100
 4.7641    82
 4.7741   103
 4.7841   110
 4.7941   113
 4.8041    78
 4.8141    94
 4.8241   101
 4.8341   119
 4.8441   131
 4.8541   134
 4.8641   156
 4.8741   152
 4.8841   143
 4.8941   171
 4.9041   188
 4.9141   158
 4.9241   176
 4.9341   164
 4.9441   145
 4.9541   170
 4.9641   170
 4.9741   138
 4.9841   145
 4.9941   134
 5.0041   126
 5.0141   116
 5.0241   116
 5.0341    93
 5.0441   107
 5.0541    91
 5.0641    92
 5.0741    83
 5.0841    92
 5.0941    84
 5.1041    89
 5.1141   105
 5.1241    94
 5.1341   102
 5.1441   103
 5.1541    99
 5.1641   107
 5.1741    98
 5.1841   102
 5.1941   113
 5.2041    89
 5.2141   110
 5.2241    94
 5.2341   108
 5.2441    90
 5.2541   109
 5.2641   100
 5.2741   102
 5.2841   112
 5.2941   101
 5.3041    91
 5.3141    90
 5.3241    97
 5.3341   108
 5.3441   123
 5.3541   132
 5.3641   119
 5.3741   145
 5.3841   138
 5.3941   138
 5.4041   143
 5.4141   151
 5.4241   134
 5.4341   133
 5.4441   114
 5.4541   126
 5.4641   126
 5.4741   111
 5.4841   135
 5.4941   107
 5.5041    97
 5.5141   115
 5.5241   110
 5.5341    99
 5.5441   107
 5.5541   103
 5.5641    95
 5.5741    97
 5.5841   122
 5.5941   101
 5.6041    99
 5.6141   104
 5.6241    87
 5.6341   108
 5.6441    98
 5.6541   116
 5.6641   104
 5.6741    81
 5.6841   106
 5.6941   113
 5.7041   115
 5.7141   112
 5.7241    92
 5.7341   108
 5.7441   125
 5.7541   141
 5.7641   168
 5.7741   204
 5.7841   214
 5.7941   251
 5.8041   286
 5.8141   337
 5.8241   414
 5.8341   431
 5.8441   521
 5.8541   595
 5.8641   681
 5.8741   701
 5.8841   711
 5.8941   726
 5.9041   665
 5.9141   703
 5.9241   629
 5.9341   530
 5.9441   567
 5.9541   439
 5.9641   382
 5.9741   358
 5.9841   310
 5.9941   256
 6.0041   204
 6.0141   204
 6.0241   191
 6.0341   143
 6.0441   147
 6.0541   130
 6.0641   136
 6.0741   153
 6.0841   165
 6.0941   135
 6.1041   149
 6.1141   136
 6.1241   142
 6.1341   173
 6.1441   133
 6.1541   188
 6.1641   182
 6.1741   180
 6.1841   251
 6.1941   284
 6.2041   357
 6.2141   502
 6.2241   598
 6.2341   791
 6.2441  1100
 6.2541  1529
 6.2641  2116
 6.2741  2860
 6.2841  3898
 6.2941  5055
 6.3041  6560
 6.3141  8363
 6.3241 10369
 6.3341 12570
 6.3441 14401
 6.3541 16289
 6.3641 18259
 6.3741 19810
 6.3841 20999
 6.3941 21281
 6.4041 21101
 6.4141 20379
 6.4241 19507
 6.4341 17816
 6.4441 15603
 6.4541 13808
 6.4641 11676
 6.4741  9612
 6.4841  7508
 6.4941  5862
 6.5041  4627
 6.5141  3481
 6.5241  2544
 6.5341  1813
 6.5441  1303
 6.5541   931
 6.5641   664
 6.5741   481
 6.5841   377
 6.5941   274
 6.6041   240
 6.6141   243
 6.6241   202
 6.6341   175
 6.6441   200
 6.6541   150
 6.6641   165
 6.6741   186
 6.6841   169
 6.6941   150
 6.7041   174
 6.7141   185
 6.7241   158
 6.7341   154
 6.7441   179
 6.7541   165
 6.7641   188
 6.7741   200
 6.7841   222
 6.7941   187
 6.8041   230
 6.8141   186
 6.8241   230
 6.8341   233
 6.8441   272
 6.8541   270
 6.8641   295
 6.8741   307
 6.8841   372
 6.8941   422
 6.9041   505
 6.9141   599
 6.9241   738
 6.9341   831
 6.9441  1054
 6.9541  1304
 6.9641  1497
 6.9741  1870
 6.9841  2218
 6.9941  2542
 7.0041  2977
 7.0141  3049
 7.0241  3369
 7.0341  3516
 7.0441  3684
 7.0541  3676
 7.0641  3647
 7.0741  3523
 7.0841  3257
 7.0941  2995
 7.1041  2792
 7.1141  2425
 7.1241  2066
 7.1341  1698
 7.1441  1459
 7.1541  1219
 7.1641   944
 7.1741   747
 7.1841   592
 7.1941   464
 7.2041   403
 7.2141   348
 7.2241   300
 7.2341   254
 7.2441   246
 7.2541   208
 7.2641   228
 7.2741   231
 7.2841   238
 7.2941   225
 7.3041   218
 7.3141   219
 7.3241   242
 7.3341   262
 7.3441   288
 7.3541   251
 7.3641   288
 7.3741   273
 7.3841   335
 7.3941   300
 7.4041   314
 7.4141   314
 7.4241   316
 7.4341   302
 7.4441   323
 7.4541   322
 7.4641   332
 7.4741   293
 7.4841   264
 7.4941   284
 7.5041   258
 7.5141   247
 7.5241   245
 7.5341   253
 7.5441   232
 7.5541   221
 7.5641   222
 7.5741   199
 7.5841   226
 7.5941   191
 7.6041   202
 7.6141   198
 7.6241   195
 7.6341   200
 7.6441   244
 7.6541   239
 7.6641   218
 7.6741   192
 7.6841   225
 7.6941   215
 7.7041   214
 7.7141   228
 7.7241   227
 7.7341   228
 7.7441   223
 7.7541   229
 7.7641   233
 7.7741   243
 7.7841   275
 7.7941   243
 7.8041   254
 7.8141   278
 7.8241   271
 7.8341   274
 7.8441   313
 7.8541   297
 7.8641   282
 7.8741   319
 7.8841   317
 7.8941   330
 7.9041   348
 7.9141   379
 7.9241   375
 7.9341   385
 7.9441   445
 7.9541   468
 7.9641   483
 7.9741   507
 7.9841   555
 7.9941   571
 8.0041   565
 8.0141   663
 8.0241   702
 8.0341   801
 8.0441   849
 8.0541   894
 8.0641   962
 8.0741   994
 8.0841  1078
 8.0941  1159
 8.1041  1180
 8.1141  1211
 8.1241  1242
 8.1341  1346
 8.1441  1367
 8.1541  1402
 8.1641  1398
 8.1741  1364
 8.1841  1402
 8.1941  1536
 8.2041  1454
 8.2141  1460
 8.2241  1526
 8.2341  1485
 8.2441  1543
 8.2541  1646
 8.2641  1678
 8.2741  1800
 8.2841  1875
 8.2941  2100
 8.3041  2179
 8.3141  2423
 8.3241  2536
 8.3341  2764
 8.3441  2848
 8.3541  3054
 8.3641  3149
 8.3741  3332
 8.3841  3367
 8.3941  3276
 8.4041  3196
 8.4141  3012
 8.4241  2894
 8.4341  2714
 8.4441  2438
 8.4541  2256
 8.4641  1952
 8.4741  1712
 8.4841  1452
 8.4941  1271
 8.5041  1079
 8.5141   869
 8.5241   772
 8.5341   700
 8.5441   635
 8.5541   545
 8.5641   484
 8.5741   445
 8.5841   422
 8.5941   434
 8.6041   387
 8.6141   404
 8.6241   417
 8.6341   421
 8.6441   382
 8.6541   392
 8.6641   377
 8.6741   397
 8.6841   407
 8.6941   388
 8.7041   415
 8.7141   390
 8.7241   379
 8.7341   338
 8.7441   345
 8.7541   376
 8.7641   341
 8.7741   335
 8.7841   297
 8.7941   319
 8.8041   331
 8.8141   338
 8.8241   307
 8.8341   322
 8.8441   320
 8.8541   322
 8.8641   338
 8.8741   311
 8.8841   317
 8.8941   318
 8.9041   313
 8.9141   352
 8.9241   344
 8.9341   361
 8.9441   348
 8.9541   353
 8.9641   348
 8.9741   363
 8.9841   338
 8.9941   365
 9.0041   400
 9.0141   397
 9.0241   392
 9.0341   422
 9.0441   416
 9.0541   399
 9.0641   401
 9.0741   416
 9.0841   440
 9.0941   445
 9.1041   489
 9.1141   506
 9.1241   539
 9.1341   537
 9.1441   546
 9.1541   597
 9.1641   604
 9.1741   631
 9.1841   695
 9.1941   717
 9.2041   799
 9.2141   771
 9.2241   816
 9.2341   843
 9.2441   917
 9.2541   899
 9.2641   975
 9.2741  1045
 9.2841  1043
 9.2941  1045
 9.3041  1101
 9.3141  1193
 9.3241  1162
 9.3341  1209
 9.3441  1286
 9.3541  1240
 9.3641  1301
 9.3741  1333
 9.3841  1339
 9.3941  1397
 9.4041  1389
 9.4141  1395
 9.4241  1481
 9.4341  1466
 9.4441  1495
 9.4541  1458
 9.4641  1421
 9.4741  1500
 9.4841  1504
 9.4941  1595
 9.5041  1554
 9.5141  1644
 9.5241  1669
 9.5341  1813
 9.5441  1876
 9.5541  1895
 9.5641  2053
 9.5741  2194
 9.5841  2215
 9.5941  2382
 9.6041  2507
 9.6141  2669
 9.6241  2803
 9.6341  2842
 9.6441  2940
 9.6541  2948
 9.6641  3097
 9.6741  3052
 9.6841  3021
 9.6941  2859
 9.7041  2777
 9.7141  2556
 9.7241  2485
 9.7341  2277
 9.7441  2076
 9.7541  1968
 9.7641  1837
 9.7741  1701
 9.7841  1636
 9.7941  1474
 9.8041  1344
 9.8141  1332
 9.8241  1227
 9.8341  1245
 9.8441  1193
 9.8541  1157
 9.8641  1219
 9.8741  1203
 9.8841  1189
 9.8941  1244
 9.9041  1261
 9.9141  1356
 9.9241  1341
 9.9341  1266
 9.9441  1313
 9.9541  1336
 9.9641  1317
 9.9741  1233
 9.9841  1247
 9.9941  1174
10.0041  1094
10.0141  1029
10.0241   949
10.0341   870
10.0441   801
10.0541   727
10.0641   646
10.0741   571
10.0841   503
10.0941   445
10.1041   409
10.1141   381
10.1241   354
10.1341   345
10.1441   331
10.1541   303
10.1641   279
10.1741   262
10.1841   250
10.1941   251
10.2041   249
10.2141   240
10.2241   230
10.2341   222
10.2441   218
10.2541   215
10.2641   202
10.2741   165
10.2841   169
10.2941   177
10.3041   191
10.3141   200
10.3241   172
10.3341   171
10.3441   181
10.3541   199
10.3641   185
10.3741   170
10.3841   170
10.3941   169
10.4041   172
10.4141   179
10.4241   173
10.4341   170
10.4441   186
10.4541   197
10.4641   188
10.4741   192
10.4841   193
10.4941   207
10.5041   196
10.5141   190
10.5241   192
10.5341   215
10.5441   195
10.5541   221
10.5641   217
10.5741   194
10.5841   203
10.5941   220
10.6041   208
10.6141   206
10.6241   229
10.6341   212
10.6441   200
10.6541   203
10.6641   214
10.6741   223
10.6841   212
10.6941   212
10.7041   217
10.7141   213
10.7241   220
10.7341   237
10.7441   239
10.7541   247
10.7641   254
10.7741   252
10.7841   267
10.7941   244
10.8041   266
10.8141   291
10.8241   281
10.8341   305
10.8441   304
10.8541   296
10.8641   308
10.8741   299
10.8841   309
10.8941   298
10.9041   314
10.9141   320
10.9241   310
10.9341   298
10.9441   297
10.9541   336
10.9641   327
10.9741   313
10.9841   285
10.9941   288
11.0041   301
11.0141   295
11.0241   309
11.0341   272
11.0441   264
11.0541   244
11.0641   269
11.0741   270
11.0841   282
11.0941   257
11.1041   290
11.1141   269
11.1241   267
11.1341   267
11.1441   296
11.1541   333
11.1641   322
11.1741   320
11.1841   340
11.1941   379
11.2041   350
11.2141   367
11.2241   412
11.2341   449
11.2441   408
11.2541   415
11.2641   445
11.2741   432
11.2841   430
11.2941   447
11.3041   443
11.3141   427
11.3241   408
11.3341   400
11.3441   399
11.3541   373
11.3641   345
11.3741   346
11.3841   321
11.3941   320
11.4041   292
11.4141   274
11.4241   253
11.4341   244
11.4441   246
11.4541   211
11.4641   214
11.4741   210
11.4841   208
11.4941   214
11.5041   226
11.5141   212
11.5241   199
11.5341   197
11.5441   215
11.5541   225
11.5641   227
11.5741   240
11.5841   230
11.5941   234
11.6041   236
11.6141   250
11.6241   245
11.6341   247
11.6441   234
11.6541   217
11.6641   231
11.6741   245
11.6841   232
11.6941   224
11.7041   226
11.7141   210
11.7241   188
11.7341   191
11.7441   196
11.7541   187
11.7641   196
11.7741   191
11.7841   183
11.7941   181
11.8041   178
11.8141   159
11.8241   166
11.8341   163
11.8441   154
11.8541   164
11.8641   159
11.8741   164
11.8841   174
11.8941   174
11.9041   165
11.9141   170
11.9241   164
11.9341   180
11.9441   180
11.9541   179
11.9641   179
11.9741   181
11.9841   167
11.9941   176
12.0041   182
12.0141   174
12.0241   161
12.0341   161
12.0441   177
12.0541   183
12.0641   187
12.0741   169
12.0841   169
12.0941   163
12.1041   161
12.1141   177
12.1241   172
12.1341   177
12.1441   178
12.1541   175
12.1641   162
12.1741   164
12.1841   165
12.1941   160
12.2041   170
12.2141   165
12.2241   160
12.2341   161
12.2441   169
12.2541   167
12.2641   160
12.2741   154
12.2841   161
12.2941   164
12.3041   163
12.3141   160
12.3241   164
12.3341   164
12.3441   176
12.3541   173
12.3641   164
12.3741   173
12.3841   180
12.3941   168
12.4041   160
12.4141   169
12.4241   173
12.4341   164
12.4441   155
12.4541   162
12.4641   161
12.4741   169
12.4841   178
12.4941   178
12.5041   176
12.5141   168
12.5241   183
12.5341   203
12.5441   181
12.5541   188
12.5641   194
12.5741   193
12.5841   178
12.5941   179
12.6041   178
12.6141   172
12.6241   184
12.6341   192
12.6441   190
12.6541   190
12.6641   193
12.6741   191
12.6841   181
12.6941   173
12.7041   174
12.7141   179
12.7241   182
12.7341   185
12.7441   189
12.7541   192
12.7641   193
12.7741   193
12.7841   197
12.7941   204
12.8041   201
12.8141   194
12.8241   193
12.8341   194
12.8441   192
12.8541   189
12.8641   188
12.8741   191
12.8841   188
12.8941   183
12.9041   190
12.9141   201
12.9241   200
12.9341   196
12.9441   200
12.9541   205
12.9641   208
12.9741   210
12.9841   208
12.9941   202
13.0041   192
13.0141   200
13.0241   202
13.0341   195
13.0441   201
13.0541   200
13.0641   208
13.0741   215
13.0841   207
13.0941   192
13.1041   208
13.1141   201
13.1241   193
13.1341   205
13.1441   205
13.1541   202
13.1641   208
13.1741   209
13.1841   214
13.1941   235
13.2041   237
13.2141   240
13.2241   236
13.2341   248
13.2441   243
13.2541   240
13.2641   259
13.2741   259
13.2841   263
13.2941   262
13.3041   263
13.3141   272
13.3241   291
13.3341   290
13.3441   287
13.3541   295
13.3641   309
13.3741   330
13.3841   333
13.3941   310
13.4041   300
13.4141   298
13.4241   283
13.4341   281
13.4441   283
13.4541   288
13.4641   285
13.4741   285
13.4841   264
13.4941   245
13.5041   241
13.5141   237
13.5241   245
13.5341   257
13.5441   250
13.5541   252
13.5641   253
13.5741   245
13.5841   251
13.5941   260
13.6041   249
13.6141   243
13.6241   247
13.6341   252
13.6441   256
13.6541   248
13.6641   248
13.6741   240
13.6841   230
13.6941   228
13.7041   229
13.7141   237
13.7241   240
13.7341   231
13.7441   230
13.7541   240
13.7641   249
13.7741   254
13.7841   254
13.7941   249
13.8041   255
13.8141   261
13.8241   255
13.8341   250
13.8441   248
13.8541   259
13.8641   254
13.8741   251
13.8841   276
13.8941   269
13.9041   266
13.9141   289
13.9241   291
13.9341   279
13.9441   278
13.9541   297
13.9641   325
13.9741   334
13.9841   351
13.9941   349
14.0041   359
14.0141   396
14.0241   415
14.0341   460
14.0441   488
14.0541   513
14.0641   532
14.0741   536
14.0841   546
14.0941   568
14.1041   588
14.1141   616
14.1241   655
14.1341   652
14.1441   649
14.1541   670
14.1641   664
14.1741   628
14.1841   596
14.1941   568
14.2041   560
14.2141   561
14.2241   542
14.2341   513
14.2441   503
14.2541   476
14.2641   422
14.2741   395
14.2841   384
14.2941   363
14.3041   344
14.3141   353
14.3241   343
14.3341   311
14.3441   314
14.3541   293
14.3641   273
14.3741   290
14.3841   297
14.3941   311
14.4041   309
14.4141   298
14.4241   301
14.4341   303
14.4441   312
14.4541   312
14.4641   290
14.4741   299
14.4841   312
14.4941   296
14.5041   295
14.5141   290
14.5241   282
14.5341   284
14.5441   281
14.5541   293
14.5641   302
14.5741   292
14.5841   289
14.5941   289
14.6041   285
14.6141   303
14.6241   290
14.6341   276
14.6441   291
14.6541   309
14.6641   299
14.6741   291
14.6841   327
14.6941   343
14.7041   306
14.7141   302
14.7241   322
14.7341   316
14.7441   314
14.7541   318
14.7641   312
14.7741   333
14.7841   344
14.7941   363
14.8041   359
14.8141   337
14.8241   341
14.8341   356
14.8441   370
14.8541   383
14.8641   372
14.8741   353
14.8841   357
14.8941   372
14.9041   364
14.9141   369
14.9241   396
14.9341   383
14.9441   372
14.9541   375
14.9641   371
14.9741   377
14.9841   401
14.9941   403
15.0041   380
15.0141   387
15.0241   392
15.0341   369
15.0441   362
15.0541   363
15.0641   363
15.0741   353
15.0841   340
15.0941   341
15.1041   336
15.1141   337
15.1241   351
15.1341   363
15.1441   356
15.1541   356
15.1641   343
15.1741   329
15.1841   330
15.1941   357
15.2041   362
15.2141   353
15.2241   377
15.2341   372
15.2441   340
15.2541   344
15.2641   372
15.2741   345
15.2841   333
15.2941   340
15.3041   353
15.3141   354
15.3241   355
15.3341   362
15.3441   354
15.3541   342
15.3641   347
15.3741   361
15.3841   370
15.3941   375
15.4041   361
15.4141   369
15.4241   363
15.4341   365
15.4441   353
15.4541   369
15.4641   366
15.4741   368
15.4841   384
15.4941   398
15.5041   396
15.5141   411
15.5241   411
15.5341   392
15.5441   405
15.5541   424
15.5641   438
15.5741   474
15.5841   487
15.5941   480
15.6041   504
15.6141   540
15.6241   550
15.6341   565
15.6441   596
15.6541   651
15.6641   707
15.6741   710
15.6841   678
15.6941   701
15.7041   745
15.7141   782
15.7241   803
15.7341   806
15.7441   782
15.7541   788
15.7641   824
15.7741   802
15.7841   780
15.7941   810
15.8041   776
15.8141   714
15.8241   693
15.8341   704
15.8441   694
15.8541   677
15.8641   643
15.8741   594
15.8841   583
15.8941   562
15.9041   532
15.9141   542
15.9241   517
15.9341   513
15.9441   482
15.9541   461
15.9641   477
15.9741   451
15.9841   428
15.9941   427
16.0041   463
16.0141   435
16.0241   425
16.0341   427
16.0441   433
16.0541   445
16.0641   457
16.0741   447
16.0841   463
16.0941   434
16.1041   411
16.1141   430
16.1241   427
16.1341   426
16.1441   432
16.1541   422
16.1641   411
16.1741   454
16.1841   449
16.1941   446
16.2041   450
16.2141   443
16.2241   416
16.2341   426
16.2441   433
16.2541   435
16.2641   427
16.2741   417
16.2841   428
16.2941   441
16.3041   451
16.3141   438
16.3241   441
16.3341   451
16.3441   450
16.3541   462
16.3641   427
16.3741   421
16.3841   448
16.3941   458
16.4041   450
16.4141   463
16.4241   422
16.4341   430
16.4441   442
16.4541   441
16.4641   460
16.4741   469
16.4841   420
16.4941   430
16.5041   453
16.5141   439
16.5241   457
16.5341   460
16.5441   458
16.5541   448
16.5641   461
16.5741   484
16.5841   481
16.5941   484
16.6041   515
16.6141   494
16.6241   513
16.6341   508
16.6441   464
16.6541   478
16.6641   452
16.6741   453
16.6841   480
16.6941   508
16.7041   484
16.7141   456
16.7241   494
16.7341   474
16.7441   493
16.7541   469
16.7641   492
16.7741   477
16.7841   472
16.7941   470
16.8041   467
16.8141   459
16.8241   485
16.8341   488
16.8441   467
16.8541   458
16.8641   459
16.8741   476
16.8841   482
16.8941   499
16.9041   493
16.9141   512
16.9241   494
16.9341   488
16.9441   467
16.9541   477
16.9641   485
16.9741   491
16.9841   492
16.9941   490
17.0041   485
17.0141   489
17.0241   500
17.0341   456
17.0441   483
17.0541   473
17.0641   489
17.0741   524
17.0841   534
17.0941   514
17.1041   483
17.1141   504
17.1241   507
17.1341   494
17.1441   514
17.1541   504
17.1641   519
17.1741   510
17.1841   498
17.1941   491
17.2041   488
17.2141   471
17.2241   479
17.2341   498
17.2441   504
17.2541   487
17.2641   503
17.2741   513
17.2841   507
17.2941   523
17.3041   521
17.3141   531
17.3241   523
17.3341   504
17.3441   508
17.3541   516
17.3641   483
17.3741   492
17.3841   506
17.3941   523
17.4041   518
17.4141   525
17.4241   549
17.4341   536
17.4441   510
17.4541   522
17.4641   508
17.4741   515
17.4841   527
17.4941   520
17.5041   509
17.5141   537
17.5241   535
17.5341   532
17.5441   554
17.5541   550
17.5641   543
17.5741   545
17.5841   562
17.5941   558
17.6041   568
17.6141   599
17.6241   621
17.6341   581
17.6441   610
17.6541   610
17.6641   598
17.6741   592
17.6841   589
17.6941   591
17.7041   568
17.7141   543
17.7241   561
17.7341   603
17.7441   564
17.7541   553
17.7641   553
17.7741   586
17.7841   592
17.7941   597
17.8041   582
17.8141   561
17.8241   558
17.8341   551
17.8441   545
17.8541   535
17.8641   558
17.8741   566
17.8841   559
17.8941   583
17.9041   559
17.9141   534
17.9241   564
17.9341   554
17.9441   568
17.9541   567
17.9641   585
17.9741   566
17.9841   583
17.9941   545
18.0041   519
18.0141   578
18.0241   561
18.0341   567
18.0441   570
18.0541   556
18.0641   561
18.0741   563
18.0841   568
18.0941   543
18.1041   566
18.1141   578
18.1241   585
18.1341   597
18.1441   583
18.1541   559
18.1641   518
18.1741   556
18.1841   592
18.1941   570
18.2041   544
18.2141   547
18.2241   568
18.2341   594
18.2441   588
18.2541   561
18.2641   571
18.2741   600
18.2841   588
18.2941   592
18.3041   568
18.3141   552
18.3241   567
18.3341   579
18.3441   642
18.3541   569
18.3641   551
18.3741   610
18.3841   611
18.3941   582
18.4041   587
18.4141   593
18.4241   593
18.4341   564
18.4441   590
18.4541   617
18.4641   605
18.4741   616
18.4841   612
18.4941   548
18.5041   583
18.5141   602
18.5241   621
18.5341   586
18.5441   606
18.5541   578
18.5641   581
18.5741   568
18.5841   578
18.5941   573
18.6041   588
18.6141   594
18.6241   563
18.6341   609
18.6441   602
18.6541   584
18.6641   588
18.6741   562
18.6841   600
18.6941   612
18.7041   602
18.7141   582
18.7241   612
18.7341   593
18.7441   582
18.7541   585
18.7641   584
18.7741   623
18.7841   612
18.7941   575
18.8041   582
18.8141   560
18.8241   580
18.8341   612
18.8441   589
18.8541   602
18.8641   605
18.8741   596
18.8841   584
18.8941   617
18.9041   621
18.9141   619
18.9241   621
18.9341   600
18.9441   598
18.9541   578
18.9641   613
18.9741   598
18.9841   593
18.9941   592
19.0041   640
19.0141   589
19.0241   595
19.0341   597
19.0441   593
19.0541   593
19.0641   607
19.0741   588
19.0841   598
19.0941   579
19.1041   595
19.1141   569
19.1241   636
19.1341   594
19.1441   562
19.1541   604
19.1641   634
19.1741   618
19.1841   620
19.1941   590
19.2041   590
19.2141   587
19.2241   607
19.2341   612
19.2441   600
19.2541   604
19.2641   604
19.2741   605
19.2841   619
19.2941   627
19.3041   613
19.3141   598
19.3241   629
19.3341   598
19.3441   601
19.3541   635
19.3641   635
19.3741   621
19.3841   628
19.3941   628
19.4041   620
19.4141   628
19.4241   655
19.4341   642
19.4441   615
19.4541   597
19.4641   595
19.4741   611
19.4841   618
19.4941   627
19.5041   616
19.5141   669
19.5241   610
19.5341   616
19.5441   608
19.5541   598
19.5641   601
19.5741   572
19.5841   605
19.5941   639
19.6041   625
19.6141   632
19.6241   620
19.6341   590
19.6441   604
19.6541   620
19.6641   645
19.6741   639
19.6841   598
19.6941   665
19.7041   629
19.7141   607
19.7241   635
19.7341   614
19.7441   623
19.7541   611
19.7641   592
19.7741   626
19.7841   623
19.7941   595
19.8041   573
19.8141   565
19.8241   620
19.8341   624
19.8441   591
19.8541   602
19.8641   611
19.8741   629
19.8841   625
19.8941   649
19.9041   639
19.9141   623
19.9241   610
19.9341   604
19.9441   619
19.9541   646
19.9641   637
19.9741   638
19.9841   631
19.9941   597
20.0041   632
20.0141   628
20.0241   641
20.0341   621
20.0441   627
20.0541   636
20.0641   647
20.0741   617
20.0841   647
20.0941   598
20.1041   647
20.1141   632
20.1241   625
20.1341   645
20.1441   661
20.1541   666
20.1641   631
20.1741   638
20.1841   653
20.1941   630
20.2041   627
20.2141   659
20.2241   637
20.2341   598
20.2441   608
20.2541   637
20.2641   598
20.2741   658
20.2841   647
20.2941   703
20.3041   640
20.3141   625
20.3241   584
20.3341   655
20.3441   642
20.3541   621
20.3641   633
20.3741   626
20.3841   623
20.3941   637
20.4041   668
20.4141   678
20.4241   657
20.4341   624
20.4441   608
20.4541   648
20.4641   649
20.4741   659
20.4841   619
20.4941   637
20.5041   646
20.5141   687
20.5241   643
20.5341   652
20.5441   643
20.5541   617
20.5641   640
20.5741   615
20.5841   649
20.5941   652
20.6041   654
20.6141   636
20.6241   632
20.6341   641
20.6441   619
20.6541   608
20.6641   574
20.6741   608
20.6841   622
20.6941   615
20.7041   623
20.7141   621
20.7241   618
20.7341   653
20.7441   618
20.7541   621
20.7641   650
20.7741   692
20.7841   673
20.7941   667
20.8041   662
20.8141   663
20.8241   645
20.8341   661
20.8441   666
20.8541   661
20.8641   690
20.8741   684
20.8841   715
20.8941   658
20.9041   695
20.9141   690
20.9241   721
20.9341   778
20.9441   747
20.9541   749
20.9641   800
20.9741   824
20.9841   815
20.9941   791
21.0041   808
21.0141   804
21.0241   799
21.0341   823
21.0441   852
21.0541   894
21.0641   855
21.0741   860
21.0841   862
21.0941   867
21.1041   864
21.1141   905
21.1241   887
21.1341   900
21.1441   840
21.1541   857
21.1641   878
21.1741   879
21.1841   843
21.1941   814
21.2041   882
21.2141   833
21.2241   863
21.2341   845
21.2441   821
21.2541   820
21.2641   753
21.2741   766
21.2841   784
21.2941   768
21.3041   692
21.3141   720
21.3241   697
21.3341   682
21.3441   663
21.3541   644
21.3641   693
21.3741   655
21.3841   663
21.3941   668
21.4041   650
21.4141   644
21.4241   634
21.4341   648
21.4441   629
21.4541   619
21.4641   641
21.4741   608
21.4841   622
21.4941   663
21.5041   646
21.5141   640
21.5241   665
21.5341   621
21.5441   646
21.5541   636
21.5641   594
21.5741   589
21.5841   630
21.5941   627
21.6041   618
21.6141   621
21.6241   618
21.6341   616
21.6441   621
21.6541   603
21.6641   635
21.6741   622
21.6841   625
21.6941   618
21.7041   606
21.7141   611
21.7241   630
21.7341   633
21.7441   621
21.7541   636
21.7641   628
21.7741   626
21.7841   609
21.7941   587
21.8041   586
21.8141   629
21.8241   642
21.8341   624
21.8441   663
21.8541   663
21.8641   617
21.8741   636
21.8841   655
21.8941   622
21.9041   633
21.9141   607
21.9241   667
21.9341   648
21.9441   616
21.9541   608
21.9641   592
21.9741   614
21.9841   605
21.9941   645
22.0041   617
22.0141   641
22.0241   619
22.0341   638
22.0441   605
22.0541   585
22.0641   578
22.0741   589
22.0841   603
22.0941   620
22.1041   627
22.1141   612
22.1241   637
22.1341   604
22.1441   630
22.1541   574
22.1641   631
22.1741   594
22.1841   622
22.1941   650
22.2041   667
22.2141   613
22.2241   595
22.2341   663
22.2441   609
22.2541   605
22.2641   618
22.2741   649
22.2841   624
22.2941   629
22.3041   628
22.3141   631
22.3241   636
22.3341   633
22.3441   609
22.3541   626
22.3641   613
22.3741   606
22.3841   606
22.3941   603
22.4041   591
22.4141   629
22.4241   604
22.4341   604
22.4441   597
22.4541   619
22.4641   616
22.4741   596
22.4841   597
22.4941   603
22.5041   595
22.5141   608
22.5241   609
22.5341   602
22.5441   612
22.5541   597
22.5641   641
22.5741   593
22.5841   554
22.5941   594
22.6041   589
22.6141   551
22.6241   600
22.6341   633
22.6441   620
22.6541   578
22.6641   626
22.6741   580
22.6841   630
22.6941   603
22.7041   561
22.7141   630
22.7241   614
22.7341   544
22.7441   586
22.7541   594
22.7641   613
22.7741   564
22.7841   633
22.7941   573
22.8041   535
22.8141   655
22.8241   657
22.8341   625
22.8441   639
22.8541   562
22.8641   594
22.8741   581
22.8841   623
22.8941   586
22.9041   603
22.9141   594
22.9241   647
22.9341   590
22.9441   592
22.9541   596
22.9641   634
22.9741   599
22.9841   567
22.9941   622
23.0041   612
23.0141   637
23.0241   592
23.0341   575
23.0441   593
23.0541   592
23.0641   598
23.0741   628
23.0841   575
23.0941   600
23.1041   613
23.1141   591
23.1241   614
23.1341   608
23.1441   547
23.1541   562
23.1641   649
23.1741   578
23.1841   597
23.1941   564
23.2041   589
23.2141   577
23.2241   595
23.2341   587
23.2441   603
23.2541   563
23.2641   562
23.2741   600
23.2841   589
23.2941   566
23.3041   594
23.3141   586
23.3241   594
23.3341   589
23.3441   569
23.3541   589
23.3641   610
23.3741   589
23.3841   592
23.3941   586
23.4041   524
23.4141   557
23.4241   559
23.4341   556
23.4441   545
23.4541   563
23.4641   577
23.4741   548
23.4841   556
23.4941   587
23.5041   591
23.5141   554
23.5241   599
23.5341   582
23.5441   562
23.5541   606
23.5641   591
23.5741   585
23.5841   543
23.5941   588
23.6041   542
23.6141   604
23.6241   578
23.6341   542
23.6441   566
23.6541   587
23.6641   572
23.6741   620
23.6841   595
23.6941   573
23.7041   594
23.7141   553
23.7241   595
23.7341   574
23.7441   587
23.7541   585
23.7641   581
23.7741   590
23.7841   643
23.7941   623
23.8041   574
23.8141   565
23.8241   580
23.8341   571
23.8441   582
23.8541   586
23.8641   587
23.8741   580
23.8841   569
23.8941   581
23.9041   585
23.9141   601
23.9241   567
23.9341   571
23.9441   575
23.9541   541
23.9641   532
23.9741   597
23.9841   546
23.9941   543
24.0041   548
24.0141   557
24.0241   548
24.0341   551
24.0441   581
24.0541   539
24.0641   556
24.0741   580
24.0841   541
24.0941   546
24.1041   555
24.1141   560
24.1241   560
24.1341   537
24.1441   553
24.1541   566
24.1641   544
24.1741   515
24.1841   516
24.1941   568
24.2041   550
24.2141   566
24.2241   536
24.2341   560
24.2441   539
24.2541   555
24.2641   583
24.2741   518
24.2841   540
24.2941   576
24.3041   548
24.3141   542
24.3241   528
24.3341   561
24.3441   531
24.3541   544
24.3641   530
24.3741   543
24.3841   560
24.3941   523
24.4041   528
24.4141   518
24.4241   542
24.4341   519
24.4441   557
24.4541   561
24.4641   521
24.4741   505
24.4841   538
24.4941   553
24.5041   574
24.5141   515
24.5241   506
24.5341   514
24.5441   539
24.5541   545
24.5641   537
24.5741   515
24.5841   546
24.5941   517
24.6041   542
24.6141   549
24.6241   526
24.6341   500
24.6441   516
24.6541   538
24.6641   512
24.6741   514
24.6841   503
24.6941   529
24.7041   512
24.7141   517
24.7241   546
24.7341   464
24.7441   544
24.7541   508
24.7641   511
24.7741   526
24.7841   513
24.7941   522
24.8041   502
24.8141   467
24.8241   533
24.8341   475
24.8441   502
24.8541   537
24.8641   510
24.8741   507
24.8841   540
24.8941   491
24.9041   512
24.9141   531
24.9241   530
24.9341   524
24.9441   505
24.9541   501
24.9641   536
24.9741   540
24.9841   525
24.9941   560
25.0041   505
25.0141   533
25.0241   515
25.0341   534
25.0441   503
25.0541   529
25.0641   521
25.0741   502
25.0841   523
25.0941   539
25.1041   468
25.1141   506
25.1241   523
25.1341   487
25.1441   548
25.1541   471
25.1641   508
25.1741   503
25.1841   521
25.1941   538
25.2041   496
25.2141   527
25.2241   522
25.2341   541
25.2441   507
25.2541   504
25.2641   529
25.2741   515
25.2841   491
25.2941   547
25.3041   528
25.3141   521
25.3241   526
25.3341   480
25.3441   491
25.3541   516
25.3641   494
25.3741   462
25.3841   471
25.3941   497
25.4041   493
25.4141   485
25.4241   488
25.4341   474
25.4441   541
25.4541   547
25.4641   466
25.4741   477
25.4841   503
25.4941   486
25.5041   499
25.5141   494
25.5241   488
25.5341   483
25.5441   467
25.5541   472
25.5641   457
25.5741   454
25.5841   446
25.5941   461
25.6041   479
25.6141   458
25.6241   466
25.6341   491
25.6441   491
25.6541   473
25.6641   464
25.6741   482
25.6841   456
25.6941   488
25.7041   448
25.7141   476
25.7241   462
25.7341   457
25.7441   473
25.7541   440
25.7641   484
25.7741   481
25.7841   501
25.7941   455
25.8041   491
25.8141   455
25.8241   470
25.8341   472
25.8441   504
25.8541   484
25.8641   458
25.8741   447
25.8841   477
25.8941   472
25.9041   453
25.9141   445
25.9241   532
25.9341   482
25.9441   448
25.9541   450
25.9641   464
25.9741   458
25.9841   467
25.9941   482
26.0041   440
26.0141   447
26.0241   467
26.0341   472
26.0441   439
26.0541   506
26.0641   441
26.0741   448
26.0841   487
26.0941   477
26.1041   460
26.1141   470
26.1241   471
26.1341   444
26.1441   421
26.1541   436
26.1641   484
26.1741   459
26.1841   438
26.1941   459
26.2041   461
26.2141   471
26.2241   439
26.2341   440
26.2441   463
26.2541   465
26.2641   425
26.2741   467
26.2841   448
26.2941   455
26.3041   462
26.3141   464
26.3241   445
26.3341   435
26.3441   439
26.3541   454
26.3641   432
26.3741   459
26.3841   466
26.3941   432
26.4041   442
26.4141   427
26.4241   455
26.4341   417
26.4441   454
26.4541   439
26.4641   460
26.4741   425
26.4841   403
26.4941   405
26.5041   415
26.5141   425
26.5241   436
26.5341   440
26.5441   443
26.5541   482
26.5641   437
26.5741   420
26.5841   426
26.5941   452
26.6041   419
26.6141   423
26.6241   418
26.6341   458
26.6441   437
26.6541   422
26.6641   393
26.6741   402
26.6841   420
26.6941   409
26.7041   428
26.7141   440
26.7241   424
26.7341   408
26.7441   422
26.7541   435
26.7641   410
26.7741   419
26.7841   421
26.7941   401
26.8041   411
26.8141   453
26.8241   453
26.8341   437
26.8441   407
26.8541   430
26.8641   430
26.8741   381
26.8841   420
26.8941   421
26.9041   416
26.9141   413
26.9241   383
26.9341   422
26.9441   437
26.9541   416
26.9641   430
26.9741   434
26.9841   415
26.9941   397
27.0041   376
27.0141   396
27.0241   421
27.0341   418
27.0441   410
27.0541   399
27.0641   392
27.0741   415
27.0841   424
27.0941   371
27.1041   396
27.1141   353
27.1241   392
27.1341   464
27.1441   416
27.1541   394
27.1641   424
27.1741   414
27.1841   423
27.1941   380
27.2041   389
27.2141   358
27.2241   397
27.2341   431
27.2441   400
27.2541   393
27.2641   378
27.2741   389
27.2841   401
27.2941   403
27.3041   375
27.3141   354
27.3241   380
27.3341   387
27.3441   370
27.3541   390
27.3641   411
27.3741   404
27.3841   372
27.3941   385
27.4041   390
27.4141   368
27.4241   382
27.4341   399
27.4441   416
27.4541   362
27.4641   389
27.4741   368
27.4841   393
27.4941   380
27.5041   384
27.5141   385
27.5241   381
27.5341   367
27.5441   353
27.5541   387
27.5641   377
27.5741   402
27.5841   376
27.5941   376
27.6041   370
27.6141   361
27.6241   387
27.6341   411
27.6441   348
27.6541   383
27.6641   393
27.6741   395
27.6841   397
27.6941   387
27.7041   412
27.7141   397
27.7241   394
27.7341   372
27.7441   359
27.7541   381
27.7641   345
27.7741   373
27.7841   368
27.7941   362
27.8041   376
27.8141   367
27.8241   370
27.8341   346
27.8441   358
27.8541   360
27.8641   356
27.8741   372
27.8841   352
27.8941   384
27.9041   374
27.9141   353
27.9241   369
27.9341   367
27.9441   360
27.9541   352
27.9641   351
27.9741   360
27.9841   344
27.9941   356
28.0041   364
28.0141   397
28.0241   366
28.0341   350
28.0441   365
28.0541   376
28.0641   328
28.0741   378
28.0841   375
28.0941   374
28.1041   339
28.1141   341
28.1241   347
28.1341   365
28.1441   342
28.1541   355
28.1641   350
28.1741   342
28.1841   374
28.1941   377
28.2041   346
28.2141   366
28.2241   323
28.2341   336
28.2441   339
28.2541   363
28.2641   348
28.2741   359
28.2841   328
28.2941   356
28.3041   344
28.3141   333
28.3241   352
28.3341   352
28.3441   359
28.3541   338
28.3641   314
28.3741   343
28.3841   337
28.3941   349
28.4041   337
28.4141   354
28.4241   359
28.4341   359
28.4441   349
28.4541   385
28.4641   346
28.4741   334
28.4841   315
28.4941   374
28.5041   332
28.5141   339
28.5241   329
28.5341   347
28.5441   323
28.5541   321
28.5641   324
28.5741   348
28.5841   349
28.5941   352
28.6041   298
28.6141   310
28.6241   347
28.6341   284
28.6441   312
28.6541   339
28.6641   310
28.6741   335
28.6841   323
28.6941   329
28.7041   343
28.7141   301
28.7241   307
28.7341   306
28.7441   316
28.7541   343
28.7641   317
28.7741   305
28.7841   312
28.7941   346
28.8041   333
28.8141   320
28.8241   325
28.8341   319
28.8441   322
28.8541   325
28.8641   321
28.8741   328
28.8841   324
28.8941   308
28.9041   309
28.9141   299
28.9241   314
28.9341   301
28.9441   315
28.9541   329
28.9641   311
28.9741   334
28.9841   300
28.9941   338
29.0041   305
29.0141   322
29.0241   316
29.0341   306
29.0441   327
29.0541   311
29.0641   300
29.0741   322
29.0841   337
29.0941   316
29.1041   295
29.1141   294
29.1241   329
29.1341   288
29.1441   321
29.1541   328
29.1641   340
29.1741   325
29.1841   328
29.1941   284
29.2041   290
29.2141   263
29.2241   296
29.2341   331
29.2441   309
29.2541   295
29.2641   315
29.2741   315
29.2841   308
29.2941   313
29.3041   311
29.3141   303
29.3241   300
29.3341   310
29.3441   295
29.3541   306
29.3641   299
29.3741   300
29.3841   295
29.3941   325
29.4041   316
29.4141   319
29.4241   268
29.4341   327
29.4441   285
29.4541   303
29.4641   332
29.4741   304
29.4841   286
29.4941   293
29.5041   302
29.5141   314
29.5241   268
29.5341   308
29.5441   293
29.5541   290
29.5641   279
29.5741   299
29.5841   292
29.5941   298
29.6041   310
29.6141   289
29.6241   293
29.6341   295
29.6441   252
29.6541   289
29.6641   263
29.6741   283
29.6841   278
29.6941   273
29.7041   284
29.7141   287
29.7241   289
29.7341   274
29.7441   281
29.7541   289
29.7641   283
29.7741   258
29.7841   274
29.7941   302
29.8041   301
29.8141   283
29.8241   270
29.8341   294
29.8441   292
29.8541   275
29.8641   296
29.8741   279
29.8841   282
29.8941   295
29.9041   260
29.9141   259
29.9241   268
29.9341   261
29.9441   264
29.9541   286
29.9641   281
29.9741   270
29.9841   285
29.9941   255
30.0041   252
30.0141   295
30.0241   273
30.0341   280
30.0441   255
30.0541   264
30.0641   259
30.0741   261
30.0841   253
30.0941   279
30.1041   259
30.1141   272
30.1241   270
30.1341   262
30.1441   274
30.1541   252
30.1641   277
30.1741   261
30.1841   244
30.1941   253
30.2041   269
30.2141   275
30.2241   281
30.2341   246
30.2441   275
30.2541   231
30.2641   260
30.2741   263
30.2841   265
30.2941   269
30.3041   240
30.3141   262
30.3241   246
30.3341   240
30.3441   256
30.3541   259
30.3641   262
30.3741   250
30.3841   251
30.3941   260
30.4041   250
30.4141   278
30.4241   250
30.4341   222
30.4441   237
30.4541   278
30.4641   250
30.4741   222
30.4841   265
30.4941   261
30.5041   246
30.5141   269
30.5241   251
30.5341   255
30.5441   246
30.5541   231
30.5641   251
30.5741   290
30.5841   237
30.5941   218
30.6041   246
30.6141   281
30.6241   251
30.6341   225
30.6441   230
30.6541   237
30.6641   234
30.6741   227
30.6841   267
30.6941   253
30.7041   260
30.7141   222
30.7241   244
30.7341   234
30.7441   259
30.7541   239
30.7641   253
30.7741   254
30.7841   263
30.7941   257
30.8041   211
30.8141   223
30.8241   227
30.8341   238
30.8441   264
30.8541   244
30.8641   234
30.8741   226
30.8841   235
30.8941   249
30.9041   242
30.9141   265
30.9241   230
30.9341   231
30.9441   253
30.9541   243
30.9641   199
30.9741   232
30.9841   265
30.9941   226
31.0041   213
31.0141   221
31.0241   209
31.0341   211
31.0441   256
31.0541   266
31.0641   218
31.0741   238
31.0841   236
31.0941   210
31.1041   216
31.1141   200
31.1241   200
31.1341   234
31.1441   234
31.1541   222
31.1641   231
31.1741   229
31.1841   225
31.1941   211
31.2041   217
31.2141   221
31.2241   233
31.2341   194
31.2441   215
31.2541   194
31.2641   223
31.2741   226
31.2841   220
31.2941   234
31.3041   221
31.3141   203
31.3241   232
31.3341   210
31.3441   209
31.3541   250
31.3641   204
31.3741   196
31.3841   210
31.3941   241
31.4041   214
31.4141   217
31.4241   250
31.4341   211
31.4441   227
31.4541   207
31.4641   219
31.4741   232
31.4841   186
31.4941   203
31.5041   198
31.5141   210
31.5241   234
31.5341   186
31.5441   211
31.5541   214
31.5641   200
31.5741   241
31.5841   209
31.5941   205
31.6041   229
31.6141   223
31.6241   204
31.6341   209
31.6441   203
31.6541   191
31.6641   219
31.6741   206
31.6841   210
31.6941   193
31.7041   203
31.7141   220
31.7241   221
31.7341   196
31.7441   221
31.7541   204
31.7641   218
31.7741   198
31.7841   204
31.7941   182
31.8041   188
31.8141   208
31.8241   204
31.8341   202
31.8441   206
31.8541   199
31.8641   206
31.8741   176
31.8841   167
31.8941   210
31.9041   203
31.9141   195
31.9241   183
31.9341   201
31.9441   203
31.9541   165
31.9641   196
31.9741   202
31.9841   206
31.9941   206
32.0041   197
32.0141   205
32.0241   200
32.0341   207
32.0441   207
32.0541   200
32.0641   222
32.0741   207
32.0841   188
32.0941   179
32.1041   193
32.1141   204
32.1241   211
32.1341   190
32.1441   212
32.1541   211
32.1641   204
32.1741   198
32.1841   216
32.1941   194
32.2041   216
32.2141   207
32.2241   208
32.2341   201
32.2441   200
32.2541   199
32.2641   193
32.2741   187
32.2841   173
32.2941   198
32.3041   192
32.3141   199
32.3241   187
32.3341   197
32.3441   168
32.3541   199
32.3641   198
32.3741   187
32.3841   192
32.3941   190
32.4041   158
32.4141   175
32.4241   185
32.4341   166
32.4441   224
32.4541   200
32.4641   206
32.4741   177
32.4841   199
32.4941   171
32.5041   192
32.5141   173
32.5241   185
32.5341   195
32.5441   170
32.5541   160
32.5641   168
32.5741   162
32.5841   184
32.5941   176
32.6041   189
32.6141   171
32.6241   173
32.6341   165
32.6441   171
32.6541   171
32.6641   190
32.6741   173
32.6841   177
32.6941   162
32.7041   185
32.7141   168
32.7241   188
32.7341   179
32.7441   179
32.7541   185
32.7641   206
32.7741   184
32.7841   176
32.7941   175
32.8041   148
32.8141   154
32.8241   175
32.8341   160
32.8441   179
32.8541   149
32.8641   155
32.8741   167
32.8841   193
32.8941   179
32.9041   157
32.9141   151
32.9241   174
32.9341   151
32.9441   177
32.9541   172
32.9641   158
32.9741   168
32.9841   145
32.9941   158
33.0041   162
33.0141   153
33.0241   160
33.0341   170
33.0441   131
33.0541   153
33.0641   174
33.0741   167
33.0841   158
33.0941   160
33.1041   161
33.1141   174
33.1241   170
33.1341   182
33.1441   177
33.1541   146
33.1641   167
33.1741   178
33.1841   174
33.1941   163
33.2041   154
33.2141   139
33.2241   165
33.2341   164
33.2441   172
33.2541   144
33.2641   153
33.2741   145
33.2841   168
33.2941   168
33.3041   165
33.3141   157
33.3241   163
33.3341   145
33.3441   148
33.3541   157
33.3641   138
33.3741   155
33.3841   165
33.3941   142
33.4041   163
33.4141   158
33.4241   176
33.4341   150
33.4441   159
33.4541   127
33.4641   155
33.4741   159
33.4841   150
33.4941   173
33.5041   145
33.5141   141
33.5241   164
33.5341   151
33.5441   139
33.5541   149
33.5641   139
33.5741   154
33.5841   156
33.5941   131
33.6041   139
33.6141   152
33.6241   130
33.6341   155
33.6441   167
33.6541   148
33.6641   150
33.6741   156
33.6841   151
33.6941   148
33.7041   139
33.7141   152
33.7241   140
33.7341   138
33.7441   146
33.7541   135
33.7641   142
33.7741   159
33.7841   123
33.7941   145
33.8041   136
33.8141   125
33.8241   146
33.8341   150
33.8441   168
33.8541   143
33.8641   139
33.8741   128
33.8841   155
33.8941   158
33.9041   145
33.9141   166
33.9241   154
33.9341   127
33.9441   155
33.9541   132
33.9641   140
33.9741   143
33.9841   122
33.9941   153
34.0041   122
34.0141   138
34.0241   127
34.0341   132
34.0441   138
34.0541   149
34.0641   131
34.0741   129
34.0841   140
34.0941   133
34.1041   130
34.1141   125
34.1241   125
34.1341   138
34.1441   135
34.1541   120
34.1641   135
34.1741   119
34.1841   139
34.1941   138
34.2041   131
34.2141   136
34.2241   132
34.2341   124
34.2441   128
34.2541   127
34.2641   113
34.2741   119
34.2841   134
34.2941   144
34.3041   141
34.3141   142
34.3241   114
34.3341   108
34.3441   120
34.3541   133
34.3641   118
34.3741   119
34.3841   115
34.3941   122
34.4041   130
34.4141   126
34.4241   136
34.4341   112
34.4441   125
34.4541   123
34.4641   113
34.4741   130
34.4841   131
34.4941   128
34.5041   136
34.5141   133
34.5241   136
34.5341   108
34.5441   114
34.5541   113
34.5641   118
34.5741   113
34.5841   118
34.5941   126
34.6041   122
34.6141   119
34.6241   117
34.6341   114
34.6441   121
34.6541   116
34.6641   114
34.6741   123
34.6841   108
34.6941   105
34.7041   130
34.7141   123
34.7241   114
34.7341   100
34.7441   116
34.7541   104
34.7641   113
34.7741   111
34.7841   116
34.7941   112
34.8041   114
34.8141   123
34.8241   116
34.8341   120
34.8441   136
34.8541   142
34.8641   139
34.8741   108
34.8841   106
34.8941   142
34.9041   125
34.9141   133
34.9241   115
34.9341   116
34.9441   112
34.9541   122
34.9641   104
34.9741   132
34.9841    96
34.9941    92
35.0041   105
35.0141   100
35.0241   117
35.0341   122
35.0441   120
35.0541    96
35.0641   110
35.0741   107
35.0841   102
35.0941    97
35.1041   121
35.1141   117
35.1241    92
35.1341   115
35.1441    91
35.1541   105
35.1641   104
35.1741   125
35.1841    97
35.1941   107
35.2041    95
35.2141   123
35.2241   121
35.2341   120
35.2441   116
35.2541    94
35.2641   113
35.2741   108
35.2841   127
35.2941   103
35.3041    98
35.3141    98
35.3241   102
35.3341   100
35.3441   101
35.3541    92
35.3641   112
35.3741   122
35.3841   113
35.3941   106
35.4041    96
35.4141   112
35.4241   112
35.4341    84
35.4441    93
35.4541   113
35.4641    95
35.4741    86
35.4841   105
35.4941   106
35.5041    93
35.5141   125
35.5241   112
35.5341   108
35.5441   101
35.5541   103
35.5641   104
35.5741    99
35.5841    92
35.5941    91
35.6041   106
35.6141    92
35.6241    83
35.6341    95
35.6441    93
35.6541   105
35.6641    99
35.6741    92
35.6841   106
35.6941   101
35.7041   101
35.7141   106
35.7241    97
35.7341    91
35.7441    89
35.7541    91
35.7641    99
35.7741   103
35.7841    88
35.7941    93
35.8041    92
35.8141    93
35.8241    91
35.8341    99
35.8441    97
35.8541    99
35.8641    96
35.8741    85
35.8841   101
35.8941    87
35.9041    96
35.9141    89
35.9241    88
35.9341   100
35.9441    76
35.9541    84
35.9641   104
35.9741    93
35.9841    77
35.9941    93
36.0041    71
36.0141    96
36.0241   111
36.0341   106
36.0441    92
36.0541    96
36.0641    99
36.0741   103
36.0841    99
36.0941    88
36.1041    81
36.1141    96
36.1241    94
36.1341    83
36.1441    91
36.1541    79
36.1641    73
36.1741    83
36.1841    90
36.1941    92
36.2041    84
36.2141    65
36.2241    79
36.2341    89
36.2441    89
36.2541    84
36.2641    82
36.2741    89
36.2841    75
36.2941    91
36.3041    65
36.3141    95
36.3241    94
36.3341    87
36.3441    91
36.3541    98
36.3641    90
36.3741    78
36.3841    82
36.3941    86
36.4041    94
36.4141    76
36.4241    84
36.4341    54
36.4441    79
36.4541    87
36.4641   104
36.4741    85
36.4841    84
36.4941    66
36.5041    64
36.5141    77
36.5241    74
36.5341    68
36.5441    81
36.5541    95
36.5641    76
36.5741    71
36.5841    83
36.5941    78
36.6041    79
36.6141    92
36.6241    70
36.6341    74
36.6441    80
36.6541    71
36.6641    86
36.6741    85
36.6841    66
36.6941    68
36.7041    70
36.7141    70
36.7241    58
36.7341    90
36.7441    91
36.7541    84
36.7641    69
36.7741    81
36.7841    88
36.7941    67
36.8041    94
36.8141    68
36.8241    84
36.8341    82
36.8441    78
36.8541    79
36.8641    70
36.8741    76
36.8841    78
36.8941    80
36.9041    68
36.9141    65
36.9241    78
36.9341    71
36.9441    84
36.9541    78
36.9641    73
36.9741    81
36.9841    78
36.9941    68
37.0041    66
37.0141    65
37.0241    53
37.0341    62
37.0441    71
37.0541    75
37.0641    74
37.0741    68
37.0841    60
37.0941    63
37.1041    71
37.1141    62
37.1241    70
37.1341    83
37.1441    71
37.1541    81
37.1641    73
37.1741    61
37.1841    68
37.1941    76
37.2041    70
37.2141    88
37.2241    56
37.2341    80
37.2441    59
37.2541    64
37.2641    58
37.2741    61
37.2841    61
37.2941    50
37.3041    51
37.3141    70
37.3241    56
37.3341    74
37.3441    61
37.3541    80
37.3641    70
37.3741    70
37.3841    66
37.3941    67
37.4041    59
37.4141    67
37.4241    58
37.4341    57
37.4441    60
37.4541    63
37.4641    59
37.4741    64
37.4841    70
37.4941    61
37.5041    63
37.5141    65
37.5241    53
37.5341    59
37.5441    65
37.5541    72
37.5641    63
37.5741    49
37.5841    58
37.5941    59
37.6041    61
37.6141    69
37.6241    55
37.6341    57
37.6441    79
37.6541    52
37.6641    53
37.6741    58
37.6841    50
37.6941    65
37.7041    55
37.7141    68
37.7241    68
37.7341    59
37.7441    62
37.7541    55
37.7641    61
37.7741    57
37.7841    58
37.7941    51
37.8041    49
37.8141    56
37.8241    50
37.8341    57
37.8441    59
37.8541    58
37.8641    61
37.8741    62
37.8841    54
37.8941    48
37.9041    55
37.9141    75
37.9241    64
37.9341    45
37.9441    53
37.9541    64
37.9641    58
37.9741    39
37.9841    51
37.9941    53
38.0041    56
38.0141    56
38.0241    59
38.0341    54
38.0441    66
38.0541    63
38.0641    51
38.0741    52
38.0841    36
38.0941    58
38.1041    53
38.1141    43
38.1241    43
38.1341    64
38.1441    57
38.1541    35
38.1641    52
38.1741    53
38.1841    41
38.1941    55
38.2041    58
38.2141    48
38.2241    59
38.2341    49
38.2441    34
38.2541    52
38.2641    49
38.2741    43
38.2841    48
38.2941    43
38.3041    53
38.3141    50
38.3241    43
38.3341    42
38.3441    52
38.3541    43
38.3641    46
38.3741    47
38.3841    46
38.3941    45
38.4041    65
38.4141    52
38.4241    40
38.4341    43
38.4441    41
38.4541    40
38.4641    46
38.4741    42
38.4841    47
38.4941    58
38.5041    41
38.5141    34
38.5241    55
38.5341    39
38.5441    47
38.5541    41
38.5641    49
38.5741    46
38.5841    53
38.5941    41
38.6041    50
38.6141    45
38.6241    40
38.6341    56
38.6441    42
38.6541    44
38.6641    55
38.6741    39
38.6841    49
38.6941    52
38.7041    43
38.7141    57
38.7241    40
38.7341    36
38.7441    42
38.7541    47
38.7641    46
38.7741    40
38.7841    45
38.7941    53
38.8041    46
38.8141    48
38.8241    44
38.8341    49
38.8441    33
38.8541    37
38.8641    43
38.8741    44
38.8841    35
38.8941    37
38.9041    53
38.9141    47
38.9241    42
38.9341    43
38.9441    50
38.9541    50
38.9641    38
38.9741    46
38.9841    32
38.9941    32
39.0041    34
39.0141    25
39.0241    37
39.0341    39
39.0441    37
39.0541    34
39.0641    41
39.0741    40
39.0841    47
39.0941    43
39.1041    50
39.1141    36
39.1241    38
39.1341    38
39.1441    47
39.1541    31
39.1641    32
39.1741    36
39.1841    43
39.1941    48
39.2041    52
39.2141    40
39.2241    39
39.2341    41
39.2441    43
39.2541    36
39.2641    40
39.2741    28
39.2841    27
39.2941    40
39.3041    28
39.3141    39
39.3241    28
39.3341    37
39.3441    32
39.3541    46
39.3641    42
39.3741    34
39.3841    39
39.3941    45
39.4041    43
39.4141    32
39.4241    35
39.4341    34
39.4441    43
39.4541    32
39.4641    37
39.4741    32
39.4841    27
39.4941    35
39.5041    42
39.5141    30
39.5241    34
39.5341    35
39.5441    37
39.5541    33
39.5641    39
39.5741    37
39.5841    31
39.5941    36
39.6041    26
39.6141    34
39.6241    25
39.6341    29
39.6441    32
39.6541    28
39.6641    28
39.6741    32
39.6841    32
39.6941    28
39.7041    27
39.7141    30
39.7241    23
39.7341    29
39.7441    21
39.7541    34
39.7641    31
39.7741    26
39.7841    27
39.7941    29
39.8041    29
39.8141    29
39.8241    26
39.8341    29
39.8441    35
39.8541    28
39.8641    32
39.8741    27
39.8841    25
39.8941    30
39.9041    36
39.9141    35
39.9241    32
39.9341    31
39.9441    29
39.9541    35
39.9641    27
39.9741    30
39.9841    23
