Bruker Nano GmbH Berlin, Germany
Esprit 1.9

Date: 4/1/2021 4:11:51 PM
Real time: 15846
Life time: 14620
Pulse density: 116080


Detector type: XFlash 430
Window type: Custom type
Detector thickness: 0.45
Si dead layer:0.029

Calibration, lin.: 10
Calibration, abs.: -955.9
Mn FWHM: 137.05
Fano factor: 0.121
Channels: 4095

Energy Counts
-0.9559     0
-0.9459     0
-0.9359     0
-0.9259     0
-0.9159     0
-0.9059     0
-0.8959     0
-0.8859     0
-0.8759     0
-0.8659     0
-0.8559     0
-0.8459     0
-0.8359     0
-0.8259     0
-0.8159     0
-0.8059     0
-0.7959     0
-0.7859     0
-0.7759     0
-0.7659     0
-0.7559     0
-0.7459     0
-0.7359     0
-0.7259     0
-0.7159     0
-0.7059     0
-0.6959     0
-0.6859     0
-0.6759     0
-0.6659     0
-0.6559     0
-0.6459     0
-0.6359     0
-0.6259     0
-0.6159     0
-0.6059     0
-0.5959     0
-0.5859     0
-0.5759     0
-0.5659     0
-0.5559     0
-0.5459     0
-0.5359     0
-0.5259     0
-0.5159     0
-0.5059     0
-0.4959     0
-0.4859     0
-0.4759     0
-0.4659     0
-0.4559     0
-0.4459     0
-0.4359     0
-0.4259     0
-0.4159     0
-0.4059     0
-0.3959     0
-0.3859     0
-0.3759     0
-0.3659     0
-0.3559     0
-0.3459     0
-0.3359     0
-0.3259     0
-0.3159     0
-0.3059     0
-0.2959     0
-0.2859     0
-0.2759     0
-0.2659     0
-0.2559     0
-0.2459     0
-0.2359     0
-0.2259     0
-0.2159     0
-0.2059     0
-0.1959     0
-0.1859     0
-0.1759     0
-0.1659     0
-0.1559     0
-0.1459     0
-0.1359     1
-0.1259     0
-0.1159     0
-0.1059     5
-0.0959    41
-0.0859   176
-0.0759   555
-0.0659  1678
-0.0559  4404
-0.0459  9241
-0.0359 17481
-0.0259 27804
-0.0159 38242
-0.0059 44588
 0.0041 44972
 0.0141 38901
 0.0241 28737
 0.0341 18189
 0.0441  9748
 0.0541  4500
 0.0641  1823
 0.0741   650
 0.0841   187
 0.0941    54
 0.1041    18
 0.1141     9
 0.1241     4
 0.1341     2
 0.1441     3
 0.1541     1
 0.1641     7
 0.1741    20
 0.1841   133
 0.1941   257
 0.2041   230
 0.2141   242
 0.2241   275
 0.2341   265
 0.2441   245
 0.2541   274
 0.2641   239
 0.2741   289
 0.2841   274
 0.2941   261
 0.3041   254
 0.3141   261
 0.3241   253
 0.3341   230
 0.3441   215
 0.3541   241
 0.3641   223
 0.3741   229
 0.3841   224
 0.3941   215
 0.4041   215
 0.4141   236
 0.4241   214
 0.4341   211
 0.4441   209
 0.4541   202
 0.4641   222
 0.4741   209
 0.4841   198
 0.4941   187
 0.5041   209
 0.5141   206
 0.5241   217
 0.5341   221
 0.5441   212
 0.5541   222
 0.5641   215
 0.5741   217
 0.5841   215
 0.5941   196
 0.6041   195
 0.6141   194
 0.6241   184
 0.6341   194
 0.6441   192
 0.6541   206
 0.6641   203
 0.6741   174
 0.6841   181
 0.6941   195
 0.7041   199
 0.7141   187
 0.7241   180
 0.7341   194
 0.7441   193
 0.7541   181
 0.7641   184
 0.7741   185
 0.7841   177
 0.7941   162
 0.8041   170
 0.8141   194
 0.8241   195
 0.8341   189
 0.8441   200
 0.8541   182
 0.8641   160
 0.8741   163
 0.8841   175
 0.8941   175
 0.9041   160
 0.9141   166
 0.9241   163
 0.9341   169
 0.9441   169
 0.9541   167
 0.9641   144
 0.9741   164
 0.9841   169
 0.9941   163
 1.0041   153
 1.0141   157
 1.0241   165
 1.0341   162
 1.0441   151
 1.0541   160
 1.0641   145
 1.0741   170
 1.0841   168
 1.0941   163
 1.1041   148
 1.1141   160
 1.1241   155
 1.1341   148
 1.1441   137
 1.1541   184
 1.1641   174
 1.1741   172
 1.1841   163
 1.1941   149
 1.2041   155
 1.2141   156
 1.2241   162
 1.2341   147
 1.2441   166
 1.2541   143
 1.2641   152
 1.2741   150
 1.2841   143
 1.2941   154
 1.3041   152
 1.3141   145
 1.3241   145
 1.3341   140
 1.3441   139
 1.3541   153
 1.3641   147
 1.3741   134
 1.3841   146
 1.3941   128
 1.4041   146
 1.4141   147
 1.4241   149
 1.4341   144
 1.4441   144
 1.4541   140
 1.4641   140
 1.4741   151
 1.4841   146
 1.4941   160
 1.5041   154
 1.5141   151
 1.5241   140
 1.5341   132
 1.5441   151
 1.5541   156
 1.5641   130
 1.5741   142
 1.5841   135
 1.5941   138
 1.6041   134
 1.6141   144
 1.6241   157
 1.6341   165
 1.6441   176
 1.6541   187
 1.6641   215
 1.6741   235
 1.6841   325
 1.6941   340
 1.7041   450
 1.7141   546
 1.7241   589
 1.7341   605
 1.7441   583
 1.7541   561
 1.7641   502
 1.7741   457
 1.7841   384
 1.7941   338
 1.8041   262
 1.8141   207
 1.8241   206
 1.8341   192
 1.8441   202
 1.8541   151
 1.8641   177
 1.8741   145
 1.8841   185
 1.8941   145
 1.9041   140
 1.9141   144
 1.9241   149
 1.9341   145
 1.9441   143
 1.9541   163
 1.9641   171
 1.9741   173
 1.9841   192
 1.9941   184
 2.0041   186
 2.0141   169
 2.0241   174
 2.0341   180
 2.0441   170
 2.0541   161
 2.0641   170
 2.0741   165
 2.0841   148
 2.0941   134
 2.1041   127
 2.1141   155
 2.1241   122
 2.1341   112
 2.1441   109
 2.1541   112
 2.1641   111
 2.1741   146
 2.1841   135
 2.1941   132
 2.2041   111
 2.2141   111
 2.2241   130
 2.2341   157
 2.2441   139
 2.2541   158
 2.2641   142
 2.2741   123
 2.2841   142
 2.2941   135
 2.3041   135
 2.3141   128
 2.3241   124
 2.3341   126
 2.3441   127
 2.3541   122
 2.3641   120
 2.3741   102
 2.3841   105
 2.3941   102
 2.4041   121
 2.4141   113
 2.4241   124
 2.4341   109
 2.4441   111
 2.4541   122
 2.4641   120
 2.4741   132
 2.4841   130
 2.4941   123
 2.5041   117
 2.5141   110
 2.5241    97
 2.5341   108
 2.5441   108
 2.5541   114
 2.5641    94
 2.5741   107
 2.5841   111
 2.5941   128
 2.6041   112
 2.6141   110
 2.6241   106
 2.6341   124
 2.6441   100
 2.6541   119
 2.6641   108
 2.6741   105
 2.6841   118
 2.6941   111
 2.7041   126
 2.7141   124
 2.7241   107
 2.7341   105
 2.7441    89
 2.7541   102
 2.7641    97
 2.7741   103
 2.7841   112
 2.7941   112
 2.8041   112
 2.8141   102
 2.8241   111
 2.8341   126
 2.8441   141
 2.8541   109
 2.8641   111
 2.8741    91
 2.8841   104
 2.8941    96
 2.9041   117
 2.9141   105
 2.9241   127
 2.9341   115
 2.9441    99
 2.9541   107
 2.9641   100
 2.9741   116
 2.9841   100
 2.9941    97
 3.0041    98
 3.0141   103
 3.0241   100
 3.0341   103
 3.0441    96
 3.0541    91
 3.0641    98
 3.0741   114
 3.0841    90
 3.0941    89
 3.1041    92
 3.1141    87
 3.1241    97
 3.1341   108
 3.1441    88
 3.1541    92
 3.1641    90
 3.1741   102
 3.1841   111
 3.1941   100
 3.2041   117
 3.2141   107
 3.2241    98
 3.2341   102
 3.2441   147
 3.2541   168
 3.2641   173
 3.2741   171
 3.2841   192
 3.2941   188
 3.3041   203
 3.3141   211
 3.3241   197
 3.3341   188
 3.3441   192
 3.3541   162
 3.3641   155
 3.3741   140
 3.3841   112
 3.3941    95
 3.4041    87
 3.4141   100
 3.4241    97
 3.4341    91
 3.4441    85
 3.4541    82
 3.4641    75
 3.4741    98
 3.4841    99
 3.4941    87
 3.5041    88
 3.5141   102
 3.5241   100
 3.5341   110
 3.5441   144
 3.5541   140
 3.5641   178
 3.5741   200
 3.5841   226
 3.5941   310
 3.6041   390
 3.6141   483
 3.6241   616
 3.6341   811
 3.6441   979
 3.6541  1118
 3.6641  1212
 3.6741  1367
 3.6841  1431
 3.6941  1395
 3.7041  1307
 3.7141  1256
 3.7241  1098
 3.7341   919
 3.7441   786
 3.7541   674
 3.7641   475
 3.7741   362
 3.7841   276
 3.7941   187
 3.8041   144
 3.8141   111
 3.8241    96
 3.8341    92
 3.8441    91
 3.8541    78
 3.8641    79
 3.8741    93
 3.8841   103
 3.8941   107
 3.9041   106
 3.9141   111
 3.9241   131
 3.9341   151
 3.9441   171
 3.9541   198
 3.9641   193
 3.9741   227
 3.9841   264
 3.9941   269
 4.0041   285
 4.0141   278
 4.0241   277
 4.0341   252
 4.0441   238
 4.0541   221
 4.0641   197
 4.0741   170
 4.0841   146
 4.0941   120
 4.1041    99
 4.1141    85
 4.1241    73
 4.1341    60
 4.1441    84
 4.1541    81
 4.1641    67
 4.1741    62
 4.1841    74
 4.1941    63
 4.2041    72
 4.2141    70
 4.2241    76
 4.2341    54
 4.2441    58
 4.2541    60
 4.2641    52
 4.2741    65
 4.2841    60
 4.2941    69
 4.3041    64
 4.3141    73
 4.3241    73
 4.3341    68
 4.3441    77
 4.3541    80
 4.3641    71
 4.3741   107
 4.3841   135
 4.3941   166
 4.4041   201
 4.4141   222
 4.4241   279
 4.4341   331
 4.4441   464
 4.4541   538
 4.4641   616
 4.4741   624
 4.4841   722
 4.4941   752
 4.5041   792
 4.5141   801
 4.5241   746
 4.5341   703
 4.5441   666
 4.5541   526
 4.5641   459
 4.5741   363
 4.5841   315
 4.5941   256
 4.6041   198
 4.6141   176
 4.6241   131
 4.6341   117
 4.6441   115
 4.6541   104
 4.6641   111
 4.6741    73
 4.6841    83
 4.6941    81
 4.7041    72
 4.7141    80
 4.7241   100
 4.7341    94
 4.7441    90
 4.7541    99
 4.7641    79
 4.7741    87
 4.7841    98
 4.7941    88
 4.8041   105
 4.8141   126
 4.8241   128
 4.8341   130
 4.8441   145
 4.8541   144
 4.8641   193
 4.8741   196
 4.8841   190
 4.8941   203
 4.9041   217
 4.9141   247
 4.9241   269
 4.9341   270
 4.9441   238
 4.9541   233
 4.9641   219
 4.9741   187
 4.9841   206
 4.9941   158
 5.0041   155
 5.0141   157
 5.0241   120
 5.0341   104
 5.0441   104
 5.0541    79
 5.0641    78
 5.0741    89
 5.0841    89
 5.0941    92
 5.1041    78
 5.1141    87
 5.1241    72
 5.1341    78
 5.1441    78
 5.1541    86
 5.1641    97
 5.1741    99
 5.1841    66
 5.1941    91
 5.2041    87
 5.2141    83
 5.2241    73
 5.2341    83
 5.2441    76
 5.2541    87
 5.2641    82
 5.2741    89
 5.2841    77
 5.2941    84
 5.3041   100
 5.3141    81
 5.3241    94
 5.3341    91
 5.3441   102
 5.3541   104
 5.3641   123
 5.3741   113
 5.3841   117
 5.3941   130
 5.4041   119
 5.4141   140
 5.4241   144
 5.4341   110
 5.4441   120
 5.4541   115
 5.4641   102
 5.4741   115
 5.4841   108
 5.4941    94
 5.5041   107
 5.5141    93
 5.5241   102
 5.5341    88
 5.5441   107
 5.5541    87
 5.5641    83
 5.5741    94
 5.5841    80
 5.5941   102
 5.6041   116
 5.6141    93
 5.6241    76
 5.6341    80
 5.6441    68
 5.6541    74
 5.6641    85
 5.6741    96
 5.6841    79
 5.6941   101
 5.7041    93
 5.7141    90
 5.7241    78
 5.7341   111
 5.7441   103
 5.7541   123
 5.7641   139
 5.7741   162
 5.7841   193
 5.7941   221
 5.8041   271
 5.8141   309
 5.8241   376
 5.8341   464
 5.8441   542
 5.8541   595
 5.8641   641
 5.8741   655
 5.8841   647
 5.8941   688
 5.9041   673
 5.9141   618
 5.9241   608
 5.9341   578
 5.9441   559
 5.9541   462
 5.9641   401
 5.9741   327
 5.9841   270
 5.9941   244
 6.0041   223
 6.0141   194
 6.0241   176
 6.0341   142
 6.0441   128
 6.0541   130
 6.0641   146
 6.0741   137
 6.0841   129
 6.0941   147
 6.1041   143
 6.1141   142
 6.1241   172
 6.1341   161
 6.1441   183
 6.1541   192
 6.1641   208
 6.1741   240
 6.1841   260
 6.1941   320
 6.2041   445
 6.2141   603
 6.2241   805
 6.2341  1098
 6.2441  1599
 6.2541  2237
 6.2641  3055
 6.2741  4179
 6.2841  5835
 6.2941  7684
 6.3041  9923
 6.3141 12292
 6.3241 15312
 6.3341 18273
 6.3441 21450
 6.3541 24502
 6.3641 27215
 6.3741 29557
 6.3841 31003
 6.3941 31672
 6.4041 31665
 6.4141 30717
 6.4241 28980
 6.4341 26484
 6.4441 23404
 6.4541 20398
 6.4641 17238
 6.4741 14131
 6.4841 11262
 6.4941  8763
 6.5041  6593
 6.5141  4925
 6.5241  3659
 6.5341  2501
 6.5441  1847
 6.5541  1185
 6.5641   847
 6.5741   630
 6.5841   447
 6.5941   344
 6.6041   265
 6.6141   198
 6.6241   201
 6.6341   187
 6.6441   165
 6.6541   157
 6.6641   158
 6.6741   138
 6.6841   148
 6.6941   156
 6.7041   161
 6.7141   145
 6.7241   141
 6.7341   176
 6.7441   154
 6.7541   182
 6.7641   168
 6.7741   215
 6.7841   198
 6.7941   209
 6.8041   216
 6.8141   195
 6.8241   195
 6.8341   222
 6.8441   269
 6.8541   279
 6.8641   345
 6.8741   343
 6.8841   448
 6.8941   522
 6.9041   635
 6.9141   747
 6.9241   933
 6.9341  1161
 6.9441  1484
 6.9541  1860
 6.9641  2213
 6.9741  2702
 6.9841  3204
 6.9941  3561
 7.0041  4169
 7.0141  4506
 7.0241  4918
 7.0341  5126
 7.0441  5265
 7.0541  5306
 7.0641  5390
 7.0741  5099
 7.0841  4968
 7.0941  4443
 7.1041  3902
 7.1141  3430
 7.1241  2851
 7.1341  2481
 7.1441  2032
 7.1541  1530
 7.1641  1309
 7.1741   965
 7.1841   721
 7.1941   556
 7.2041   466
 7.2141   353
 7.2241   314
 7.2341   255
 7.2441   193
 7.2541   180
 7.2641   176
 7.2741   186
 7.2841   211
 7.2941   153
 7.3041   163
 7.3141   195
 7.3241   172
 7.3341   183
 7.3441   176
 7.3541   241
 7.3641   218
 7.3741   218
 7.3841   216
 7.3941   213
 7.4041   286
 7.4141   254
 7.4241   242
 7.4341   245
 7.4441   253
 7.4541   275
 7.4641   232
 7.4741   258
 7.4841   224
 7.4941   234
 7.5041   228
 7.5141   223
 7.5241   215
 7.5341   186
 7.5441   162
 7.5541   176
 7.5641   170
 7.5741   166
 7.5841   145
 7.5941   165
 7.6041   135
 7.6141   155
 7.6241   172
 7.6341   132
 7.6441   129
 7.6541   157
 7.6641   163
 7.6741   152
 7.6841   166
 7.6941   158
 7.7041   175
 7.7141   167
 7.7241   162
 7.7341   189
 7.7441   191
 7.7541   190
 7.7641   171
 7.7741   176
 7.7841   198
 7.7941   186
 7.8041   195
 7.8141   180
 7.8241   173
 7.8341   206
 7.8441   230
 7.8541   203
 7.8641   234
 7.8741   246
 7.8841   242
 7.8941   265
 7.9041   239
 7.9141   270
 7.9241   299
 7.9341   256
 7.9441   278
 7.9541   321
 7.9641   331
 7.9741   344
 7.9841   384
 7.9941   423
 8.0041   487
 8.0141   483
 8.0241   516
 8.0341   594
 8.0441   566
 8.0541   661
 8.0641   621
 8.0741   737
 8.0841   796
 8.0941   777
 8.1041   817
 8.1141   823
 8.1241   886
 8.1341   935
 8.1441   949
 8.1541   950
 8.1641  1032
 8.1741  1035
 8.1841  1036
 8.1941  1090
 8.2041  1061
 8.2141  1044
 8.2241  1058
 8.2341  1094
 8.2441  1181
 8.2541  1177
 8.2641  1204
 8.2741  1281
 8.2841  1412
 8.2941  1493
 8.3041  1547
 8.3141  1734
 8.3241  1771
 8.3341  2008
 8.3441  2157
 8.3541  2241
 8.3641  2350
 8.3741  2398
 8.3841  2513
 8.3941  2425
 8.4041  2320
 8.4141  2236
 8.4241  2076
 8.4341  1936
 8.4441  1871
 8.4541  1669
 8.4641  1480
 8.4741  1243
 8.4841  1069
 8.4941   884
 8.5041   787
 8.5141   656
 8.5241   611
 8.5341   543
 8.5441   504
 8.5541   438
 8.5641   437
 8.5741   422
 8.5841   392
 8.5941   385
 8.6041   432
 8.6141   412
 8.6241   396
 8.6341   447
 8.6441   431
 8.6541   377
 8.6641   395
 8.6741   397
 8.6841   340
 8.6941   362
 8.7041   344
 8.7141   328
 8.7241   319
 8.7341   297
 8.7441   283
 8.7541   278
 8.7641   254
 8.7741   243
 8.7841   258
 8.7941   238
 8.8041   238
 8.8141   232
 8.8241   236
 8.8341   198
 8.8441   203
 8.8541   236
 8.8641   219
 8.8741   222
 8.8841   205
 8.8941   222
 8.9041   243
 8.9141   229
 8.9241   241
 8.9341   245
 8.9441   252
 8.9541   235
 8.9641   228
 8.9741   287
 8.9841   265
 8.9941   284
 9.0041   272
 9.0141   277
 9.0241   283
 9.0341   288
 9.0441   286
 9.0541   300
 9.0641   316
 9.0741   328
 9.0841   359
 9.0941   338
 9.1041   370
 9.1141   350
 9.1241   371
 9.1341   395
 9.1441   411
 9.1541   396
 9.1641   415
 9.1741   451
 9.1841   458
 9.1941   523
 9.2041   503
 9.2141   562
 9.2241   583
 9.2341   576
 9.2441   653
 9.2541   653
 9.2641   696
 9.2741   755
 9.2841   766
 9.2941   796
 9.3041   815
 9.3141   867
 9.3241   857
 9.3341   853
 9.3441   883
 9.3541   922
 9.3641   982
 9.3741   955
 9.3841  1005
 9.3941  1003
 9.4041  1047
 9.4141   991
 9.4241  1082
 9.4341  1042
 9.4441  1040
 9.4541  1042
 9.4641  1106
 9.4741  1162
 9.4841  1143
 9.4941  1090
 9.5041  1143
 9.5141  1216
 9.5241  1218
 9.5341  1244
 9.5441  1369
 9.5541  1396
 9.5641  1529
 9.5741  1577
 9.5841  1702
 9.5941  1758
 9.6041  1886
 9.6141  1989
 9.6241  2011
 9.6341  2086
 9.6441  2141
 9.6541  2253
 9.6641  2195
 9.6741  2175
 9.6841  2104
 9.6941  2058
 9.7041  1980
 9.7141  1904
 9.7241  1780
 9.7341  1712
 9.7441  1572
 9.7541  1426
 9.7641  1324
 9.7741  1235
 9.7841  1148
 9.7941  1085
 9.8041   975
 9.8141   901
 9.8241   958
 9.8341   885
 9.8441   911
 9.8541   860
 9.8641   874
 9.8741   885
 9.8841   905
 9.8941   903
 9.9041   922
 9.9141   958
 9.9241   960
 9.9341   976
 9.9441   993
 9.9541   936
 9.9641   937
 9.9741   943
 9.9841   913
 9.9941   873
10.0041   858
10.0141   769
10.0241   708
10.0341   677
10.0441   590
10.0541   510
10.0641   458
10.0741   407
10.0841   372
10.0941   324
10.1041   316
10.1141   261
10.1241   256
10.1341   243
10.1441   191
10.1541   223
10.1641   199
10.1741   194
10.1841   178
10.1941   186
10.2041   177
10.2141   148
10.2241   162
10.2341   154
10.2441   155
10.2541   158
10.2641   154
10.2741   146
10.2841   140
10.2941   132
10.3041   131
10.3141   148
10.3241   140
10.3341   145
10.3441   141
10.3541   132
10.3641   136
10.3741   133
10.3841   127
10.3941   137
10.4041   134
10.4141   133
10.4241   114
10.4341   122
10.4441   137
10.4541   127
10.4641   110
10.4741   146
10.4841   138
10.4941   145
10.5041   137
10.5141   148
10.5241   143
10.5341   140
10.5441   150
10.5541   147
10.5641   161
10.5741   170
10.5841   154
10.5941   149
10.6041   165
10.6141   152
10.6241   152
10.6341   153
10.6441   136
10.6541   154
10.6641   163
10.6741   157
10.6841   154
10.6941   158
10.7041   149
10.7141   152
10.7241   151
10.7341   166
10.7441   148
10.7541   164
10.7641   153
10.7741   158
10.7841   185
10.7941   194
10.8041   184
10.8141   191
10.8241   212
10.8341   191
10.8441   193
10.8541   217
10.8641   208
10.8741   217
10.8841   222
10.8941   219
10.9041   215
10.9141   220
10.9241   213
10.9341   228
10.9441   232
10.9541   224
10.9641   208
10.9741   215
10.9841   240
10.9941   216
11.0041   213
11.0141   215
11.0241   197
11.0341   198
11.0441   208
11.0541   190
11.0641   186
11.0741   187
11.0841   189
11.0941   184
11.1041   201
11.1141   202
11.1241   175
11.1341   185
11.1441   189
11.1541   196
11.1641   216
11.1741   231
11.1841   230
11.1941   235
11.2041   247
11.2141   265
11.2241   290
11.2341   305
11.2441   290
11.2541   308
11.2641   308
11.2741   302
11.2841   311
11.2941   296
11.3041   292
11.3141   297
11.3241   293
11.3341   282
11.3441   282
11.3541   261
11.3641   274
11.3741   241
11.3841   217
11.3941   215
11.4041   208
11.4141   193
11.4241   174
11.4341   168
11.4441   171
11.4541   177
11.4641   177
11.4741   170
11.4841   166
11.4941   155
11.5041   161
11.5141   152
11.5241   134
11.5341   150
11.5441   158
11.5541   176
11.5641   176
11.5741   171
11.5841   195
11.5941   182
11.6041   158
11.6141   153
11.6241   173
11.6341   185
11.6441   166
11.6541   155
11.6641   165
11.6741   164
11.6841   172
11.6941   164
11.7041   154
11.7141   144
11.7241   144
11.7341   155
11.7441   143
11.7541   138
11.7641   128
11.7741   127
11.7841   135
11.7941   119
11.8041   110
11.8141   110
11.8241   116
11.8341   116
11.8441   116
11.8541   118
11.8641   127
11.8741   113
11.8841   113
11.8941   112
11.9041   114
11.9141   112
11.9241   112
11.9341   122
11.9441   133
11.9541   128
11.9641   113
11.9741   116
11.9841   133
11.9941   133
12.0041   128
12.0141   126
12.0241   112
12.0341   122
12.0441   122
12.0541   138
12.0641   119
12.0741   113
12.0841   104
12.0941   115
12.1041   121
12.1141   121
12.1241   115
12.1341   117
12.1441   122
12.1541   127
12.1641   133
12.1741   125
12.1841   113
12.1941   117
12.2041   122
12.2141   119
12.2241   120
12.2341   127
12.2441   118
12.2541   112
12.2641   115
12.2741   109
12.2841   118
12.2941   114
12.3041   112
12.3141   116
12.3241   105
12.3341   101
12.3441   105
12.3541   108
12.3641   107
12.3741   116
12.3841   116
12.3941    98
12.4041    98
12.4141   111
12.4241   123
12.4341   120
12.4441   118
12.4541   113
12.4641   109
12.4741   118
12.4841   129
12.4941   127
12.5041   121
12.5141   119
12.5241   121
12.5341   132
12.5441   141
12.5541   134
12.5641   121
12.5741   127
12.5841   138
12.5941   143
12.6041   134
12.6141   124
12.6241   124
12.6341   129
12.6441   131
12.6541   131
12.6641   127
12.6741   121
12.6841   123
12.6941   133
12.7041   140
12.7141   141
12.7241   138
12.7341   137
12.7441   133
12.7541   129
12.7641   127
12.7741   126
12.7841   123
12.7941   125
12.8041   130
12.8141   126
12.8241   119
12.8341   123
12.8441   132
12.8541   137
12.8641   137
12.8741   131
12.8841   126
12.8941   130
12.9041   135
12.9141   133
12.9241   128
12.9341   127
12.9441   130
12.9541   131
12.9641   130
12.9741   130
12.9841   127
12.9941   127
13.0041   135
13.0141   130
13.0241   137
13.0341   141
13.0441   124
13.0541   122
13.0641   121
13.0741   138
13.0841   127
13.0941   126
13.1041   133
13.1141   136
13.1241   151
13.1341   141
13.1441   130
13.1541   138
13.1641   139
13.1741   145
13.1841   160
13.1941   155
13.2041   156
13.2141   170
13.2241   172
13.2341   171
13.2441   173
13.2541   169
13.2641   174
13.2741   176
13.2841   185
13.2941   187
13.3041   192
13.3141   201
13.3241   197
13.3341   196
13.3441   207
13.3541   217
13.3641   220
13.3741   222
13.3841   219
13.3941   216
13.4041   220
13.4141   219
13.4241   211
13.4341   207
13.4441   207
13.4541   204
13.4641   197
13.4741   188
13.4841   182
13.4941   184
13.5041   188
13.5141   189
13.5241   189
13.5341   183
13.5441   169
13.5541   161
13.5641   156
13.5741   151
13.5841   147
13.5941   149
13.6041   154
13.6141   158
13.6241   163
13.6341   161
13.6441   148
13.6541   149
13.6641   158
13.6741   161
13.6841   154
13.6941   156
13.7041   165
13.7141   160
13.7241   169
13.7341   168
13.7441   159
13.7541   156
13.7641   155
13.7741   166
13.7841   171
13.7941   168
13.8041   167
13.8141   167
13.8241   167
13.8341   170
13.8441   177
13.8541   181
13.8641   186
13.8741   195
13.8841   199
13.8941   193
13.9041   190
13.9141   193
13.9241   200
13.9341   210
13.9441   219
13.9541   229
13.9641   244
13.9741   260
13.9841   279
13.9941   306
14.0041   327
14.0141   352
14.0241   389
14.0341   410
14.0441   426
14.0541   466
14.0641   515
14.0741   558
14.0841   581
14.0941   587
14.1041   600
14.1141   619
14.1241   628
14.1341   628
14.1441   623
14.1541   619
14.1641   622
14.1741   624
14.1841   609
14.1941   585
14.2041   561
14.2141   534
14.2241   504
14.2341   479
14.2441   448
14.2541   402
14.2641   363
14.2741   340
14.2841   316
14.2941   305
14.3041   279
14.3141   254
14.3241   264
14.3341   249
14.3441   214
14.3541   202
14.3641   214
14.3741   196
14.3841   186
14.3941   190
14.4041   180
14.4141   196
14.4241   201
14.4341   188
14.4441   192
14.4541   193
14.4641   179
14.4741   178
14.4841   191
14.4941   196
14.5041   183
14.5141   177
14.5241   200
14.5341   205
14.5441   189
14.5541   200
14.5641   199
14.5741   187
14.5841   195
14.5941   192
14.6041   194
14.6141   200
14.6241   201
14.6341   185
14.6441   184
14.6541   200
14.6641   192
14.6741   182
14.6841   190
14.6941   192
14.7041   200
14.7141   196
14.7241   197
14.7341   204
14.7441   208
14.7541   212
14.7641   213
14.7741   212
14.7841   213
14.7941   211
14.8041   214
14.8141   211
14.8241   225
14.8341   232
14.8441   224
14.8541   224
14.8641   239
14.8741   250
14.8841   240
14.8941   220
14.9041   230
14.9141   237
14.9241   231
14.9341   239
14.9441   265
14.9541   260
14.9641   245
14.9741   249
14.9841   246
14.9941   234
15.0041   229
15.0141   249
15.0241   242
15.0341   231
15.0441   223
15.0541   231
15.0641   225
15.0741   213
15.0841   218
15.0941   229
15.1041   225
15.1141   217
15.1241   232
15.1341   229
15.1441   226
15.1541   229
15.1641   233
15.1741   212
15.1841   208
15.1941   216
15.2041   215
15.2141   221
15.2241   226
15.2341   237
15.2441   226
15.2541   221
15.2641   215
15.2741   214
15.2841   226
15.2941   248
15.3041   250
15.3141   218
15.3241   221
15.3341   235
15.3441   230
15.3541   236
15.3641   246
15.3741   249
15.3841   234
15.3941   220
15.4041   226
15.4141   241
15.4241   231
15.4341   232
15.4441   237
15.4541   233
15.4641   231
15.4741   235
15.4841   236
15.4941   239
15.5041   225
15.5141   225
15.5241   235
15.5341   262
15.5441   273
15.5541   272
15.5641   286
15.5741   289
15.5841   285
15.5941   275
15.6041   287
15.6141   314
15.6241   314
15.6341   331
15.6441   337
15.6541   346
15.6641   342
15.6741   357
15.6841   378
15.6941   383
15.7041   369
15.7141   377
15.7241   400
15.7341   416
15.7441   416
15.7541   427
15.7641   445
15.7741   463
15.7841   463
15.7941   434
15.8041   451
15.8141   444
15.8241   440
15.8341   430
15.8441   415
15.8541   403
15.8641   382
15.8741   357
15.8841   357
15.8941   362
15.9041   359
15.9141   348
15.9241   334
15.9341   315
15.9441   303
15.9541   303
15.9641   308
15.9741   293
15.9841   306
15.9941   295
16.0041   277
16.0141   268
16.0241   269
16.0341   270
16.0441   262
16.0541   276
16.0641   288
16.0741   270
16.0841   267
16.0941   279
16.1041   287
16.1141   283
16.1241   270
16.1341   267
16.1441   284
16.1541   269
16.1641   258
16.1741   293
16.1841   303
16.1941   267
16.2041   256
16.2141   271
16.2241   285
16.2341   289
16.2441   287
16.2541   271
16.2641   276
16.2741   286
16.2841   291
16.2941   284
16.3041   278
16.3141   294
16.3241   294
16.3341   302
16.3441   298
16.3541   286
16.3641   301
16.3741   301
16.3841   294
16.3941   295
16.4041   284
16.4141   278
16.4241   296
16.4341   294
16.4441   276
16.4541   298
16.4641   321
16.4741   314
16.4841   304
16.4941   292
16.5041   286
16.5141   281
16.5241   309
16.5341   280
16.5441   284
16.5541   305
16.5641   306
16.5741   310
16.5841   296
16.5941   293
16.6041   296
16.6141   300
16.6241   311
16.6341   310
16.6441   304
16.6541   307
16.6641   291
16.6741   293
16.6841   301
16.6941   343
16.7041   322
16.7141   292
16.7241   323
16.7341   338
16.7441   320
16.7541   322
16.7641   304
16.7741   297
16.7841   310
16.7941   314
16.8041   291
16.8141   317
16.8241   327
16.8341   321
16.8441   311
16.8541   304
16.8641   306
16.8741   308
16.8841   310
16.8941   309
16.9041   287
16.9141   296
16.9241   319
16.9341   340
16.9441   322
16.9541   333
16.9641   342
16.9741   341
16.9841   358
16.9941   338
17.0041   322
17.0141   332
17.0241   356
17.0341   320
17.0441   323
17.0541   329
17.0641   349
17.0741   341
17.0841   312
17.0941   322
17.1041   332
17.1141   332
17.1241   336
17.1341   325
17.1441   334
17.1541   318
17.1641   315
17.1741   323
17.1841   323
17.1941   335
17.2041   350
17.2141   341
17.2241   340
17.2341   325
17.2441   338
17.2541   371
17.2641   361
17.2741   339
17.2841   322
17.2941   322
17.3041   331
17.3141   327
17.3241   336
17.3341   352
17.3441   355
17.3541   313
17.3641   338
17.3741   355
17.3841   357
17.3941   354
17.4041   334
17.4141   341
17.4241   373
17.4341   356
17.4441   365
17.4541   373
17.4641   357
17.4741   356
17.4841   362
17.4941   341
17.5041   350
17.5141   376
17.5241   379
17.5341   339
17.5441   345
17.5541   371
17.5641   385
17.5741   367
17.5841   345
17.5941   365
17.6041   384
17.6141   379
17.6241   377
17.6341   358
17.6441   379
17.6541   366
17.6641   387
17.6741   393
17.6841   386
17.6941   342
17.7041   368
17.7141   370
17.7241   358
17.7341   367
17.7441   374
17.7541   375
17.7641   357
17.7741   344
17.7841   368
17.7941   364
17.8041   374
17.8141   379
17.8241   373
17.8341   369
17.8441   361
17.8541   389
17.8641   376
17.8741   403
17.8841   393
17.8941   391
17.9041   350
17.9141   345
17.9241   366
17.9341   387
17.9441   360
17.9541   376
17.9641   370
17.9741   360
17.9841   375
17.9941   383
18.0041   371
18.0141   400
18.0241   386
18.0341   373
18.0441   374
18.0541   378
18.0641   384
18.0741   381
18.0841   386
18.0941   369
18.1041   337
18.1141   361
18.1241   390
18.1341   398
18.1441   403
18.1541   381
18.1641   354
18.1741   375
18.1841   416
18.1941   395
18.2041   385
18.2141   404
18.2241   387
18.2341   391
18.2441   395
18.2541   381
18.2641   376
18.2741   382
18.2841   376
18.2941   409
18.3041   415
18.3141   395
18.3241   380
18.3341   384
18.3441   379
18.3541   367
18.3641   401
18.3741   410
18.3841   407
18.3941   392
18.4041   383
18.4141   375
18.4241   378
18.4341   430
18.4441   410
18.4541   400
18.4641   400
18.4741   400
18.4841   377
18.4941   403
18.5041   401
18.5141   407
18.5241   422
18.5341   403
18.5441   395
18.5541   399
18.5641   434
18.5741   428
18.5841   407
18.5941   410
18.6041   377
18.6141   422
18.6241   428
18.6341   411
18.6441   409
18.6541   395
18.6641   427
18.6741   420
18.6841   381
18.6941   389
18.7041   396
18.7141   421
18.7241   387
18.7341   419
18.7441   423
18.7541   405
18.7641   407
18.7741   410
18.7841   408
18.7941   435
18.8041   412
18.8141   430
18.8241   420
18.8341   408
18.8441   385
18.8541   405
18.8641   403
18.8741   407
18.8841   406
18.8941   404
18.9041   406
18.9141   399
18.9241   360
18.9341   389
18.9441   408
18.9541   401
18.9641   416
18.9741   400
18.9841   442
18.9941   442
19.0041   435
19.0141   413
19.0241   428
19.0341   410
19.0441   424
19.0541   438
19.0641   412
19.0741   429
19.0841   399
19.0941   447
19.1041   449
19.1141   408
19.1241   426
19.1341   427
19.1441   401
19.1541   419
19.1641   445
19.1741   410
19.1841   437
19.1941   431
19.2041   441
19.2141   464
19.2241   434
19.2341   417
19.2441   443
19.2541   374
19.2641   432
19.2741   409
19.2841   434
19.2941   447
19.3041   425
19.3141   446
19.3241   429
19.3341   443
19.3441   440
19.3541   433
19.3641   436
19.3741   433
19.3841   441
19.3941   461
19.4041   440
19.4141   410
19.4241   427
19.4341   441
19.4441   433
19.4541   458
19.4641   394
19.4741   421
19.4841   484
19.4941   443
19.5041   457
19.5141   419
19.5241   437
19.5341   453
19.5441   428
19.5541   425
19.5641   466
19.5741   441
19.5841   432
19.5941   461
19.6041   436
19.6141   430
19.6241   418
19.6341   429
19.6441   449
19.6541   429
19.6641   457
19.6741   471
19.6841   449
19.6941   457
19.7041   441
19.7141   449
19.7241   449
19.7341   429
19.7441   450
19.7541   435
19.7641   431
19.7741   441
19.7841   434
19.7941   444
19.8041   453
19.8141   410
19.8241   436
19.8341   438
19.8441   436
19.8541   449
19.8641   431
19.8741   420
19.8841   480
19.8941   431
19.9041   460
19.9141   460
19.9241   430
19.9341   460
19.9441   443
19.9541   453
19.9641   489
19.9741   475
19.9841   433
19.9941   454
20.0041   436
20.0141   471
20.0241   470
20.0341   477
20.0441   434
20.0541   432
20.0641   469
20.0741   453
20.0841   471
20.0941   437
20.1041   449
20.1141   414
20.1241   462
20.1341   452
20.1441   445
20.1541   451
20.1641   483
20.1741   460
20.1841   468
20.1941   480
20.2041   432
20.2141   433
20.2241   473
20.2341   427
20.2441   440
20.2541   453
20.2641   461
20.2741   447
20.2841   466
20.2941   419
20.3041   444
20.3141   486
20.3241   472
20.3341   457
20.3441   468
20.3541   454
20.3641   468
20.3741   433
20.3841   418
20.3941   446
20.4041   445
20.4141   483
20.4241   474
20.4341   442
20.4441   457
20.4541   434
20.4641   430
20.4741   478
20.4841   450
20.4941   451
20.5041   456
20.5141   463
20.5241   464
20.5341   455
20.5441   479
20.5541   465
20.5641   455
20.5741   473
20.5841   440
20.5941   449
20.6041   480
20.6141   431
20.6241   393
20.6341   437
20.6441   451
20.6541   477
20.6641   470
20.6741   438
20.6841   463
20.6941   471
20.7041   457
20.7141   450
20.7241   430
20.7341   479
20.7441   449
20.7541   450
20.7641   466
20.7741   480
20.7841   479
20.7941   497
20.8041   496
20.8141   491
20.8241   507
20.8341   509
20.8441   478
20.8541   521
20.8641   490
20.8741   557
20.8841   531
20.8941   534
20.9041   511
20.9141   516
20.9241   513
20.9341   614
20.9441   537
20.9541   590
20.9641   594
20.9741   613
20.9841   675
20.9941   650
21.0041   636
21.0141   649
21.0241   659
21.0341   627
21.0441   671
21.0541   692
21.0641   712
21.0741   672
21.0841   684
21.0941   708
21.1041   706
21.1141   663
21.1241   720
21.1341   709
21.1441   740
21.1541   700
21.1641   704
21.1741   680
21.1841   690
21.1941   687
21.2041   666
21.2141   672
21.2241   626
21.2341   677
21.2441   626
21.2541   626
21.2641   616
21.2741   592
21.2841   602
21.2941   570
21.3041   523
21.3141   540
21.3241   528
21.3341   529
21.3441   476
21.3541   489
21.3641   479
21.3741   485
21.3841   503
21.3941   532
21.4041   485
21.4141   522
21.4241   491
21.4341   471
21.4441   467
21.4541   485
21.4641   466
21.4741   474
21.4841   445
21.4941   458
21.5041   452
21.5141   508
21.5241   467
21.5341   462
21.5441   470
21.5541   490
21.5641   466
21.5741   456
21.5841   476
21.5941   493
21.6041   462
21.6141   492
21.6241   461
21.6341   434
21.6441   471
21.6541   503
21.6641   457
21.6741   473
21.6841   500
21.6941   463
21.7041   454
21.7141   453
21.7241   496
21.7341   480
21.7441   463
21.7541   450
21.7641   498
21.7741   455
21.7841   476
21.7941   480
21.8041   463
21.8141   495
21.8241   455
21.8341   462
21.8441   461
21.8541   469
21.8641   436
21.8741   448
21.8841   484
21.8941   482
21.9041   458
21.9141   469
21.9241   488
21.9341   486
21.9441   474
21.9541   472
21.9641   471
21.9741   421
21.9841   457
21.9941   462
22.0041   490
22.0141   428
22.0241   457
22.0341   459
22.0441   487
22.0541   480
22.0641   495
22.0741   456
22.0841   490
22.0941   465
22.1041   463
22.1141   474
22.1241   507
22.1341   464
22.1441   509
22.1541   461
22.1641   454
22.1741   500
22.1841   466
22.1941   464
22.2041   487
22.2141   497
22.2241   532
22.2341   493
22.2441   442
22.2541   430
22.2641   489
22.2741   480
22.2841   435
22.2941   463
22.3041   453
22.3141   467
22.3241   450
22.3341   446
22.3441   455
22.3541   461
22.3641   475
22.3741   478
22.3841   479
22.3941   473
22.4041   468
22.4141   439
22.4241   505
22.4341   521
22.4441   453
22.4541   502
22.4641   472
22.4741   457
22.4841   478
22.4941   462
22.5041   450
22.5141   433
22.5241   490
22.5341   483
22.5441   457
22.5541   457
22.5641   482
22.5741   476
22.5841   456
22.5941   460
22.6041   483
22.6141   430
22.6241   441
22.6341   486
22.6441   459
22.6541   477
22.6641   484
22.6741   515
22.6841   474
22.6941   467
22.7041   461
22.7141   504
22.7241   466
22.7341   437
22.7441   477
22.7541   424
22.7641   500
22.7741   464
22.7841   433
22.7941   456
22.8041   478
22.8141   461
22.8241   485
22.8341   434
22.8441   475
22.8541   478
22.8641   470
22.8741   434
22.8841   450
22.8941   473
22.9041   493
22.9141   466
22.9241   436
22.9341   449
22.9441   439
22.9541   462
22.9641   484
22.9741   505
22.9841   452
22.9941   440
23.0041   496
23.0141   435
23.0241   468
23.0341   448
23.0441   465
23.0541   478
23.0641   452
23.0741   453
23.0841   481
23.0941   456
23.1041   455
23.1141   470
23.1241   451
23.1341   450
23.1441   460
23.1541   421
23.1641   428
23.1741   422
23.1841   464
23.1941   451
23.2041   448
23.2141   450
23.2241   439
23.2341   485
23.2441   450
23.2541   440
23.2641   446
23.2741   450
23.2841   436
23.2941   472
23.3041   455
23.3141   457
23.3241   430
23.3341   444
23.3441   467
23.3541   456
23.3641   466
23.3741   451
23.3841   435
23.3941   419
23.4041   453
23.4141   459
23.4241   425
23.4341   451
23.4441   470
23.4541   429
23.4641   468
23.4741   426
23.4841   433
23.4941   431
23.5041   445
23.5141   452
23.5241   428
23.5341   482
23.5441   407
23.5541   450
23.5641   466
23.5741   417
23.5841   467
23.5941   460
23.6041   424
23.6141   467
23.6241   440
23.6341   485
23.6441   511
23.6541   472
23.6641   467
23.6741   482
23.6841   457
23.6941   499
23.7041   489
23.7141   443
23.7241   491
23.7341   474
23.7441   506
23.7541   509
23.7641   453
23.7741   488
23.7841   478
23.7941   512
23.8041   500
23.8141   482
23.8241   496
23.8341   503
23.8441   451
23.8541   492
23.8641   476
23.8741   459
23.8841   504
23.8941   482
23.9041   438
23.9141   486
23.9241   448
23.9341   475
23.9441   453
23.9541   441
23.9641   454
23.9741   455
23.9841   465
23.9941   427
24.0041   443
24.0141   448
24.0241   448
24.0341   427
24.0441   454
24.0541   422
24.0641   445
24.0741   442
24.0841   477
24.0941   425
24.1041   407
24.1141   427
24.1241   452
24.1341   441
24.1441   457
24.1541   441
24.1641   431
24.1741   449
24.1841   446
24.1941   452
24.2041   456
24.2141   453
24.2241   439
24.2341   424
24.2441   430
24.2541   438
24.2641   412
24.2741   398
24.2841   416
24.2941   400
24.3041   455
24.3141   461
24.3241   429
24.3341   445
24.3441   438
24.3541   400
24.3641   426
24.3741   449
24.3841   471
24.3941   464
24.4041   456
24.4141   409
24.4241   423
24.4341   455
24.4441   438
24.4541   426
24.4641   422
24.4741   427
24.4841   406
24.4941   394
24.5041   433
24.5141   460
24.5241   422
24.5341   420
24.5441   405
24.5541   438
24.5641   398
24.5741   440
24.5841   447
24.5941   433
24.6041   429
24.6141   428
24.6241   439
24.6341   398
24.6441   395
24.6541   407
24.6641   407
24.6741   411
24.6841   386
24.6941   393
24.7041   390
24.7141   417
24.7241   437
24.7341   398
24.7441   410
24.7541   440
24.7641   462
24.7741   430
24.7841   423
24.7941   401
24.8041   386
24.8141   379
24.8241   401
24.8341   459
24.8441   432
24.8541   392
24.8641   417
24.8741   423
24.8841   410
24.8941   396
24.9041   410
24.9141   395
24.9241   421
24.9341   382
24.9441   403
24.9541   425
24.9641   426
24.9741   400
24.9841   411
24.9941   425
25.0041   406
25.0141   438
25.0241   439
25.0341   421
25.0441   458
25.0541   393
25.0641   400
25.0741   409
25.0841   430
25.0941   430
25.1041   414
25.1141   420
25.1241   421
25.1341   422
25.1441   435
25.1541   425
25.1641   416
25.1741   453
25.1841   401
25.1941   414
25.2041   442
25.2141   410
25.2241   430
25.2341   397
25.2441   428
25.2541   418
25.2641   407
25.2741   442
25.2841   426
25.2941   409
25.3041   437
25.3141   421
25.3241   396
25.3341   418
25.3441   420
25.3541   428
25.3641   396
25.3741   401
25.3841   425
25.3941   383
25.4041   421
25.4141   376
25.4241   434
25.4341   411
25.4441   421
25.4541   398
25.4641   424
25.4741   397
25.4841   382
25.4941   396
25.5041   401
25.5141   374
25.5241   356
25.5341   401
25.5441   417
25.5541   448
25.5641   400
25.5741   393
25.5841   415
25.5941   396
25.6041   376
25.6141   387
25.6241   405
25.6341   417
25.6441   391
25.6541   356
25.6641   388
25.6741   382
25.6841   387
25.6941   411
25.7041   377
25.7141   381
25.7241   417
25.7341   397
25.7441   401
25.7541   387
25.7641   434
25.7741   361
25.7841   381
25.7941   392
25.8041   394
25.8141   377
25.8241   387
25.8341   395
25.8441   381
25.8541   374
25.8641   386
25.8741   402
25.8841   382
25.8941   378
25.9041   366
25.9141   392
25.9241   395
25.9341   375
25.9441   375
25.9541   384
25.9641   369
25.9741   405
25.9841   372
25.9941   399
26.0041   378
26.0141   369
26.0241   382
26.0341   378
26.0441   391
26.0541   396
26.0641   377
26.0741   362
26.0841   349
26.0941   379
26.1041   375
26.1141   391
26.1241   381
26.1341   393
26.1441   410
26.1541   405
26.1641   362
26.1741   371
26.1841   340
26.1941   357
26.2041   351
26.2141   372
26.2241   395
26.2341   382
26.2441   351
26.2541   388
26.2641   350
26.2741   384
26.2841   381
26.2941   375
26.3041   386
26.3141   361
26.3241   343
26.3341   373
26.3441   388
26.3541   373
26.3641   375
26.3741   419
26.3841   379
26.3941   349
26.4041   399
26.4141   379
26.4241   357
26.4341   366
26.4441   360
26.4541   361
26.4641   344
26.4741   356
26.4841   356
26.4941   368
26.5041   384
26.5141   398
26.5241   347
26.5341   364
26.5441   346
26.5541   356
26.5641   379
26.5741   394
26.5841   361
26.5941   352
26.6041   378
26.6141   369
26.6241   329
26.6341   362
26.6441   346
26.6541   351
26.6641   350
26.6741   355
26.6841   354
26.6941   351
26.7041   333
26.7141   342
26.7241   346
26.7341   333
26.7441   356
26.7541   377
26.7641   356
26.7741   374
26.7841   348
26.7941   364
26.8041   335
26.8141   349
26.8241   386
26.8341   344
26.8441   341
26.8541   327
26.8641   341
26.8741   325
26.8841   324
26.8941   335
26.9041   360
26.9141   396
26.9241   350
26.9341   337
26.9441   338
26.9541   370
26.9641   367
26.9741   328
26.9841   351
26.9941   376
27.0041   336
27.0141   340
27.0241   372
27.0341   369
27.0441   340
27.0541   352
27.0641   372
27.0741   357
27.0841   336
27.0941   331
27.1041   342
27.1141   325
27.1241   351
27.1341   352
27.1441   330
27.1541   361
27.1641   303
27.1741   351
27.1841   328
27.1941   333
27.2041   372
27.2141   336
27.2241   315
27.2341   355
27.2441   329
27.2541   331
27.2641   346
27.2741   340
27.2841   313
27.2941   332
27.3041   313
27.3141   339
27.3241   326
27.3341   319
27.3441   349
27.3541   377
27.3641   332
27.3741   334
27.3841   343
27.3941   330
27.4041   334
27.4141   315
27.4241   326
27.4341   315
27.4441   341
27.4541   339
27.4641   344
27.4741   345
27.4841   312
27.4941   348
27.5041   329
27.5141   337
27.5241   331
27.5341   343
27.5441   306
27.5541   330
27.5641   324
27.5741   333
27.5841   332
27.5941   340
27.6041   336
27.6141   311
27.6241   297
27.6341   312
27.6441   337
27.6541   334
27.6641   297
27.6741   330
27.6841   278
27.6941   285
27.7041   326
27.7141   332
27.7241   316
27.7341   308
27.7441   305
27.7541   330
27.7641   331
27.7741   292
27.7841   289
27.7941   302
27.8041   308
27.8141   315
27.8241   298
27.8341   320
27.8441   345
27.8541   313
27.8641   304
27.8741   304
27.8841   307
27.8941   335
27.9041   308
27.9141   330
27.9241   321
27.9341   320
27.9441   279
27.9541   310
27.9641   295
27.9741   284
27.9841   288
27.9941   308
28.0041   302
28.0141   326
28.0241   308
28.0341   326
28.0441   304
28.0541   295
28.0641   341
28.0741   320
28.0841   293
28.0941   325
28.1041   308
28.1141   292
28.1241   310
28.1341   299
28.1441   299
28.1541   286
28.1641   295
28.1741   276
28.1841   295
28.1941   331
28.2041   311
28.2141   277
28.2241   275
28.2341   320
28.2441   304
28.2541   261
28.2641   283
28.2741   278
28.2841   276
28.2941   326
28.3041   295
28.3141   284
28.3241   291
28.3341   284
28.3441   320
28.3541   284
28.3641   281
28.3741   300
28.3841   287
28.3941   328
28.4041   289
28.4141   254
28.4241   305
28.4341   290
28.4441   281
28.4541   296
28.4641   293
28.4741   284
28.4841   318
28.4941   322
28.5041   299
28.5141   304
28.5241   315
28.5341   299
28.5441   296
28.5541   275
28.5641   287
28.5741   270
28.5841   312
28.5941   294
28.6041   300
28.6141   282
28.6241   317
28.6341   258
28.6441   304
28.6541   277
28.6641   300
28.6741   276
28.6841   269
28.6941   276
28.7041   321
28.7141   308
28.7241   297
28.7341   285
28.7441   277
28.7541   306
28.7641   316
28.7741   282
28.7841   294
28.7941   254
28.8041   271
28.8141   252
28.8241   255
28.8341   249
28.8441   268
28.8541   267
28.8641   253
28.8741   257
28.8841   303
28.8941   282
28.9041   289
28.9141   280
28.9241   278
28.9341   268
28.9441   279
28.9541   290
28.9641   280
28.9741   266
28.9841   295
28.9941   277
29.0041   276
29.0141   289
29.0241   303
29.0341   289
29.0441   245
29.0541   235
29.0641   277
29.0741   292
29.0841   258
29.0941   263
29.1041   290
29.1141   271
29.1241   274
29.1341   277
29.1441   285
29.1541   288
29.1641   280
29.1741   288
29.1841   277
29.1941   275
29.2041   294
29.2141   272
29.2241   245
29.2341   257
29.2441   281
29.2541   253
29.2641   256
29.2741   264
29.2841   254
29.2941   271
29.3041   280
29.3141   261
29.3241   238
29.3341   263
29.3441   263
29.3541   262
29.3641   264
29.3741   258
29.3841   256
29.3941   248
29.4041   270
29.4141   276
29.4241   252
29.4341   280
29.4441   235
29.4541   246
29.4641   248
29.4741   249
29.4841   256
29.4941   235
29.5041   240
29.5141   260
29.5241   258
29.5341   262
29.5441   233
29.5541   224
29.5641   233
29.5741   240
29.5841   264
29.5941   260
29.6041   253
29.6141   284
29.6241   228
29.6341   248
29.6441   233
29.6541   251
29.6641   271
29.6741   225
29.6841   246
29.6941   261
29.7041   257
29.7141   243
29.7241   214
29.7341   261
29.7441   266
29.7541   254
29.7641   261
29.7741   297
29.7841   258
29.7941   241
29.8041   248
29.8141   251
29.8241   243
29.8341   220
29.8441   217
29.8541   244
29.8641   251
29.8741   277
29.8841   270
29.8941   260
29.9041   244
29.9141   255
29.9241   224
29.9341   221
29.9441   234
29.9541   266
29.9641   239
29.9741   240
29.9841   217
29.9941   236
30.0041   238
30.0141   251
30.0241   205
30.0341   219
30.0441   238
30.0541   239
30.0641   249
30.0741   238
30.0841   211
30.0941   237
30.1041   212
30.1141   255
30.1241   220
30.1341   238
30.1441   218
30.1541   236
30.1641   226
30.1741   236
30.1841   225
30.1941   204
30.2041   223
30.2141   220
30.2241   220
30.2341   228
30.2441   226
30.2541   236
30.2641   214
30.2741   210
30.2841   229
30.2941   232
30.3041   240
30.3141   229
30.3241   221
30.3341   248
30.3441   253
30.3541   224
30.3641   228
30.3741   211
30.3841   199
30.3941   220
30.4041   231
30.4141   210
30.4241   256
30.4341   219
30.4441   229
30.4541   217
30.4641   230
30.4741   212
30.4841   236
30.4941   204
30.5041   235
30.5141   224
30.5241   235
30.5341   245
30.5441   235
30.5541   233
30.5641   219
30.5741   224
30.5841   227
30.5941   201
30.6041   243
30.6141   226
30.6241   233
30.6341   203
30.6441   222
30.6541   213
30.6641   210
30.6741   209
30.6841   234
30.6941   214
30.7041   249
30.7141   233
30.7241   203
30.7341   226
30.7441   211
30.7541   220
30.7641   202
30.7741   211
30.7841   213
30.7941   210
30.8041   240
30.8141   193
30.8241   217
30.8341   200
30.8441   215
30.8541   212
30.8641   222
30.8741   210
30.8841   187
30.8941   220
30.9041   205
30.9141   193
30.9241   206
30.9341   215
30.9441   230
30.9541   210
30.9641   227
30.9741   219
30.9841   214
30.9941   223
31.0041   192
31.0141   192
31.0241   228
31.0341   221
31.0441   221
31.0541   228
31.0641   233
31.0741   212
31.0841   219
31.0941   198
31.1041   180
31.1141   206
31.1241   212
31.1341   187
31.1441   190
31.1541   199
31.1641   190
31.1741   226
31.1841   193
31.1941   194
31.2041   205
31.2141   222
31.2241   183
31.2341   199
31.2441   209
31.2541   220
31.2641   187
31.2741   205
31.2841   192
31.2941   205
31.3041   198
31.3141   189
31.3241   188
31.3341   205
31.3441   208
31.3541   207
31.3641   206
31.3741   187
31.3841   209
31.3941   187
31.4041   191
31.4141   192
31.4241   187
31.4341   179
31.4441   191
31.4541   165
31.4641   188
31.4741   183
31.4841   174
31.4941   182
31.5041   177
31.5141   181
31.5241   203
31.5341   199
31.5441   189
31.5541   188
31.5641   162
31.5741   177
31.5841   169
31.5941   201
31.6041   174
31.6141   182
31.6241   188
31.6341   195
31.6441   196
31.6541   196
31.6641   180
31.6741   184
31.6841   185
31.6941   181
31.7041   180
31.7141   191
31.7241   209
31.7341   213
31.7441   179
31.7541   178
31.7641   199
31.7741   177
31.7841   213
31.7941   186
31.8041   216
31.8141   188
31.8241   208
31.8341   207
31.8441   189
31.8541   171
31.8641   175
31.8741   199
31.8841   187
31.8941   200
31.9041   173
31.9141   206
31.9241   182
31.9341   214
31.9441   182
31.9541   206
31.9641   199
31.9741   165
31.9841   181
31.9941   174
32.0041   172
32.0141   190
32.0241   176
32.0341   167
32.0441   174
32.0541   172
32.0641   183
32.0741   169
32.0841   191
32.0941   165
32.1041   198
32.1141   176
32.1241   178
32.1341   182
32.1441   212
32.1541   170
32.1641   163
32.1741   200
32.1841   209
32.1941   156
32.2041   194
32.2141   182
32.2241   205
32.2341   188
32.2441   198
32.2541   202
32.2641   185
32.2741   175
32.2841   180
32.2941   165
32.3041   177
32.3141   206
32.3241   170
32.3341   176
32.3441   158
32.3541   171
32.3641   169
32.3741   183
32.3841   148
32.3941   159
32.4041   178
32.4141   172
32.4241   164
32.4341   180
32.4441   180
32.4541   152
32.4641   169
32.4741   168
32.4841   186
32.4941   149
32.5041   163
32.5141   169
32.5241   157
32.5341   174
32.5441   172
32.5541   157
32.5641   161
32.5741   158
32.5841   144
32.5941   148
32.6041   162
32.6141   141
32.6241   157
32.6341   146
32.6441   163
32.6541   147
32.6641   160
32.6741   139
32.6841   139
32.6941   161
32.7041   141
32.7141   161
32.7241   132
32.7341   154
32.7441   170
32.7541   144
32.7641   173
32.7741   150
32.7841   169
32.7941   182
32.8041   181
32.8141   173
32.8241   150
32.8341   167
32.8441   149
32.8541   156
32.8641   159
32.8741   174
32.8841   149
32.8941   154
32.9041   142
32.9141   153
32.9241   144
32.9341   145
32.9441   129
32.9541   163
32.9641   148
32.9741   145
32.9841   133
32.9941   140
33.0041   146
33.0141   149
33.0241   154
33.0341   142
33.0441   136
33.0541   138
33.0641   130
33.0741   159
33.0841   149
33.0941   135
33.1041   157
33.1141   134
33.1241   131
33.1341   131
33.1441   132
33.1541   143
33.1641   153
33.1741   148
33.1841   141
33.1941   133
33.2041   124
33.2141   157
33.2241   136
33.2341   160
33.2441   145
33.2541   142
33.2641   125
33.2741   137
33.2841   155
33.2941   142
33.3041   152
33.3141   114
33.3241   140
33.3341   134
33.3441   142
33.3541   146
33.3641   153
33.3741   146
33.3841   143
33.3941   141
33.4041   138
33.4141   142
33.4241   133
33.4341   152
33.4441   122
33.4541   135
33.4641   126
33.4741   133
33.4841   139
33.4941   139
33.5041   149
33.5141   123
33.5241   120
33.5341   135
33.5441   146
33.5541   125
33.5641   130
33.5741   123
33.5841   137
33.5941   136
33.6041   138
33.6141   142
33.6241   142
33.6341   121
33.6441   141
33.6541   126
33.6641   136
33.6741   126
33.6841   119
33.6941   119
33.7041   150
33.7141   116
33.7241   123
33.7341   137
33.7441   129
33.7541   120
33.7641   139
33.7741   140
33.7841   112
33.7941   138
33.8041   116
33.8141   140
33.8241   129
33.8341   135
33.8441   124
33.8541   121
33.8641   115
33.8741   121
33.8841   132
33.8941   127
33.9041   128
33.9141   141
33.9241   122
33.9341   136
33.9441   115
33.9541   124
33.9641   128
33.9741   121
33.9841   115
33.9941   107
34.0041   103
34.0141   109
34.0241   129
34.0341   109
34.0441   124
34.0541   136
34.0641   129
34.0741   119
34.0841   132
34.0941   134
34.1041   118
34.1141   132
34.1241   130
34.1341   136
34.1441   119
34.1541   126
34.1641   105
34.1741   113
34.1841   119
34.1941   117
34.2041   114
34.2141   113
34.2241   107
34.2341   114
34.2441   108
34.2541   139
34.2641   125
34.2741   107
34.2841   127
34.2941   108
34.3041   115
34.3141   124
34.3241   127
34.3341   117
34.3441   132
34.3541   116
34.3641   124
34.3741   132
34.3841   129
34.3941   112
34.4041   112
34.4141   120
34.4241   113
34.4341    99
34.4441   106
34.4541   120
34.4641   100
34.4741   107
34.4841   130
34.4941   103
34.5041   104
34.5141   100
34.5241   114
34.5341   114
34.5441   111
34.5541   131
34.5641   112
34.5741   120
34.5841   101
34.5941   125
34.6041   107
34.6141   105
34.6241    94
34.6341    95
34.6441   110
34.6541   120
34.6641   113
34.6741   118
34.6841    99
34.6941   103
34.7041   117
34.7141   117
34.7241   103
34.7341    92
34.7441   105
34.7541   117
34.7641   105
34.7741   114
34.7841    98
34.7941   117
34.8041    95
34.8141   130
34.8241   125
34.8341   109
34.8441    95
34.8541   110
34.8641   111
34.8741   112
34.8841   108
34.8941   111
34.9041   117
34.9141    93
34.9241    99
34.9341   109
34.9441    88
34.9541    96
34.9641    91
34.9741   112
34.9841   112
34.9941    91
35.0041   109
35.0141   100
35.0241   104
35.0341   100
35.0441   110
35.0541    67
35.0641   100
35.0741   101
35.0841   102
35.0941    96
35.1041    91
35.1141    98
35.1241    95
35.1341    95
35.1441    90
35.1541   101
35.1641    84
35.1741    89
35.1841   105
35.1941    99
35.2041    84
35.2141   101
35.2241    82
35.2341   112
35.2441    95
35.2541    87
35.2641   101
35.2741    77
35.2841    99
35.2941    89
35.3041   104
35.3141    98
35.3241    93
35.3341    87
35.3441    93
35.3541    97
35.3641    87
35.3741   105
35.3841    85
35.3941    86
35.4041   101
35.4141    86
35.4241    83
35.4341    78
35.4441    92
35.4541    82
35.4641    79
35.4741   101
35.4841    90
35.4941    89
35.5041   108
35.5141    91
35.5241   102
35.5341    81
35.5441    76
35.5541    83
35.5641    95
35.5741   103
35.5841   101
35.5941    96
35.6041    90
35.6141    81
35.6241    79
35.6341    98
35.6441    87
35.6541    90
35.6641    76
35.6741    81
35.6841    84
35.6941    89
35.7041    99
35.7141    85
35.7241    76
35.7341    81
35.7441    88
35.7541    95
35.7641    71
35.7741    81
35.7841    81
35.7941    90
35.8041    85
35.8141    88
35.8241    76
35.8341    83
35.8441    69
35.8541    81
35.8641    86
35.8741    77
35.8841    75
35.8941    90
35.9041    85
35.9141    78
35.9241    92
35.9341    95
35.9441    96
35.9541    72
35.9641    69
35.9741    71
35.9841    83
35.9941    65
36.0041    80
36.0141    93
36.0241    92
36.0341    92
36.0441    71
36.0541    80
36.0641    80
36.0741    78
36.0841    87
36.0941    95
36.1041    91
36.1141    76
36.1241   105
36.1341    76
36.1441    93
36.1541    63
36.1641    74
36.1741    81
36.1841    81
36.1941    95
36.2041    73
36.2141    71
36.2241    83
36.2341    85
36.2441    80
36.2541    76
36.2641    99
36.2741    77
36.2841    74
36.2941    86
36.3041    78
36.3141    86
36.3241    84
36.3341    75
36.3441    79
36.3541    66
36.3641    66
36.3741    63
36.3841    75
36.3941    72
36.4041    80
36.4141    79
36.4241    88
36.4341    76
36.4441    88
36.4541    86
36.4641    70
36.4741    70
36.4841    84
36.4941    85
36.5041    73
36.5141    88
36.5241    69
36.5341    82
36.5441    71
36.5541    76
36.5641    67
36.5741    66
36.5841    78
36.5941    65
36.6041    72
36.6141    63
36.6241    71
36.6341    69
36.6441    66
36.6541    63
36.6641    70
36.6741    83
36.6841    71
36.6941    62
36.7041    73
36.7141    81
36.7241    66
36.7341    73
36.7441    63
36.7541    65
36.7641    61
36.7741    62
36.7841    69
36.7941    69
36.8041    60
36.8141    66
36.8241    79
36.8341    60
36.8441    57
36.8541    67
36.8641    66
36.8741    72
36.8841    69
36.8941    67
36.9041    71
36.9141    72
36.9241    55
36.9341    70
36.9441    70
36.9541    65
36.9641    76
36.9741    69
36.9841    73
36.9941    50
37.0041    77
37.0141    76
37.0241    55
37.0341    58
37.0441    53
37.0541    72
37.0641    78
37.0741    67
37.0841    61
37.0941    59
37.1041    56
37.1141    66
37.1241    65
37.1341    64
37.1441    59
37.1541    50
37.1641    56
37.1741    74
37.1841    72
37.1941    61
37.2041    64
37.2141    58
37.2241    54
37.2341    50
37.2441    62
37.2541    59
37.2641    49
37.2741    66
37.2841    65
37.2941    66
37.3041    65
37.3141    64
37.3241    62
37.3341    59
37.3441    56
37.3541    64
37.3641    57
37.3741    57
37.3841    58
37.3941    76
37.4041    77
37.4141    59
37.4241    57
37.4341    56
37.4441    53
37.4541    59
37.4641    45
37.4741    50
37.4841    69
37.4941    52
37.5041    51
37.5141    57
37.5241    52
37.5341    61
37.5441    51
37.5541    62
37.5641    56
37.5741    33
37.5841    49
37.5941    55
37.6041    48
37.6141    53
37.6241    66
37.6341    47
37.6441    58
37.6541    58
37.6641    46
37.6741    53
37.6841    40
37.6941    51
37.7041    61
37.7141    48
37.7241    54
37.7341    54
37.7441    66
37.7541    67
37.7641    47
37.7741    71
37.7841    46
37.7941    40
37.8041    60
37.8141    44
37.8241    64
37.8341    49
37.8441    48
37.8541    56
37.8641    49
37.8741    32
37.8841    46
37.8941    44
37.9041    57
37.9141    55
37.9241    58
37.9341    52
37.9441    44
37.9541    52
37.9641    43
37.9741    51
37.9841    51
37.9941    47
38.0041    45
38.0141    45
38.0241    45
38.0341    44
38.0441    55
38.0541    49
38.0641    53
38.0741    54
38.0841    55
38.0941    54
38.1041    60
38.1141    51
38.1241    59
38.1341    44
38.1441    62
38.1541    52
38.1641    36
38.1741    50
38.1841    47
38.1941    45
38.2041    44
38.2141    56
38.2241    38
38.2341    43
38.2441    45
38.2541    45
38.2641    29
38.2741    47
38.2841    36
38.2941    37
38.3041    46
38.3141    53
38.3241    59
38.3341    47
38.3441    48
38.3541    40
38.3641    49
38.3741    43
38.3841    58
38.3941    44
38.4041    46
38.4141    48
38.4241    41
38.4341    47
38.4441    38
38.4541    48
38.4641    45
38.4741    34
38.4841    42
38.4941    39
38.5041    33
38.5141    34
38.5241    36
38.5341    42
38.5441    29
38.5541    45
38.5641    38
38.5741    50
38.5841    36
38.5941    40
38.6041    34
38.6141    31
38.6241    33
38.6341    45
38.6441    44
38.6541    39
38.6641    30
38.6741    41
38.6841    48
38.6941    31
38.7041    37
38.7141    37
38.7241    39
38.7341    38
38.7441    41
38.7541    47
38.7641    45
38.7741    47
38.7841    37
38.7941    42
38.8041    43
38.8141    47
38.8241    29
38.8341    43
38.8441    40
38.8541    55
38.8641    44
38.8741    39
38.8841    37
38.8941    42
38.9041    45
38.9141    49
38.9241    40
38.9341    47
38.9441    42
38.9541    38
38.9641    37
38.9741    38
38.9841    45
38.9941    49
39.0041    31
39.0141    44
39.0241    40
39.0341    36
39.0441    26
39.0541    45
39.0641    35
39.0741    43
39.0841    32
39.0941    30
39.1041    44
39.1141    37
39.1241    26
39.1341    38
39.1441    39
39.1541    23
39.1641    40
39.1741    44
39.1841    37
39.1941    34
39.2041    30
39.2141    33
39.2241    34
39.2341    38
39.2441    31
39.2541    41
39.2641    40
39.2741    36
39.2841    38
39.2941    36
39.3041    37
39.3141    40
39.3241    35
39.3341    43
39.3441    34
39.3541    35
39.3641    26
39.3741    34
39.3841    30
39.3941    32
39.4041    35
39.4141    35
39.4241    35
39.4341    34
39.4441    21
39.4541    36
39.4641    41
39.4741    30
39.4841    39
39.4941    33
39.5041    38
39.5141    26
39.5241    29
39.5341    33
39.5441    36
39.5541    34
39.5641    30
39.5741    33
39.5841    31
39.5941    28
39.6041    26
39.6141    25
39.6241    21
39.6341    26
39.6441    31
39.6541    32
39.6641    33
39.6741    26
39.6841    31
39.6941    21
39.7041    26
39.7141    26
39.7241    30
39.7341    24
39.7441    27
39.7541    22
39.7641    23
39.7741    24
39.7841    31
39.7941    22
39.8041    23
39.8141    30
39.8241    28
39.8341    28
39.8441    34
39.8541    24
39.8641    30
39.8741    25
39.8841    28
39.8941    20
39.9041    27
39.9141    25
39.9241    19
39.9341    23
39.9441    27
39.9541    23
39.9641    28
39.9741    30
39.9841    20
