Bruker Nano GmbH Berlin, Germany
Esprit 1.9

Date: 4/21/2021 2:33:55 PM
Real time: 28108
Life time: 26416
Pulse density: 86346


Detector type: XFlash 430
Window type: Custom type
Detector thickness: 0.45
Si dead layer:0.029

Calibration, lin.: 10
Calibration, abs.: -955.9
Mn FWHM: 137.05
Fano factor: 0.121
Channels: 4096

Energy Counts
-0.9559     0
-0.9459     0
-0.9359     0
-0.9259     0
-0.9159     0
-0.9059     0
-0.8959     0
-0.8859     0
-0.8759     0
-0.8659     0
-0.8559     0
-0.8459     0
-0.8359     0
-0.8259     0
-0.8159     0
-0.8059     0
-0.7959     0
-0.7859     0
-0.7759     0
-0.7659     0
-0.7559     0
-0.7459     0
-0.7359     0
-0.7259     0
-0.7159     0
-0.7059     0
-0.6959     0
-0.6859     0
-0.6759     0
-0.6659     0
-0.6559     0
-0.6459     0
-0.6359     0
-0.6259     0
-0.6159     0
-0.6059     0
-0.5959     0
-0.5859     0
-0.5759     0
-0.5659     0
-0.5559     0
-0.5459     0
-0.5359     0
-0.5259     0
-0.5159     0
-0.5059     0
-0.4959     0
-0.4859     0
-0.4759     0
-0.4659     0
-0.4559     0
-0.4459     0
-0.4359     0
-0.4259     0
-0.4159     0
-0.4059     0
-0.3959     0
-0.3859     0
-0.3759     0
-0.3659     0
-0.3559     0
-0.3459     0
-0.3359     0
-0.3259     0
-0.3159     0
-0.3059     0
-0.2959     0
-0.2859     0
-0.2759     0
-0.2659     0
-0.2559     0
-0.2459     0
-0.2359     0
-0.2259     0
-0.2159     0
-0.2059     0
-0.1959     0
-0.1859     0
-0.1759     0
-0.1659     0
-0.1559     0
-0.1459     2
-0.1359     0
-0.1259     1
-0.1159     1
-0.1059    21
-0.0959    88
-0.0859   299
-0.0759  1039
-0.0659  3016
-0.0559  7702
-0.0459 16826
-0.0359 31388
-0.0259 50498
-0.0159 69181
-0.0059 80855
 0.0041 81231
 0.0141 70258
 0.0241 51338
 0.0341 32782
 0.0441 17805
 0.0541  8303
 0.0641  3384
 0.0741  1211
 0.0841   316
 0.0941    83
 0.1041    32
 0.1141    15
 0.1241     7
 0.1341    12
 0.1441     7
 0.1541    10
 0.1641     8
 0.1741     6
 0.1841   254
 0.1941   501
 0.2041   432
 0.2141   408
 0.2241   412
 0.2341   443
 0.2441   459
 0.2541   464
 0.2641   447
 0.2741   439
 0.2841   412
 0.2941   397
 0.3041   409
 0.3141   383
 0.3241   413
 0.3341   429
 0.3441   397
 0.3541   401
 0.3641   393
 0.3741   380
 0.3841   407
 0.3941   414
 0.4041   373
 0.4141   390
 0.4241   403
 0.4341   398
 0.4441   378
 0.4541   362
 0.4641   373
 0.4741   373
 0.4841   374
 0.4941   356
 0.5041   372
 0.5141   385
 0.5241   380
 0.5341   378
 0.5441   356
 0.5541   360
 0.5641   365
 0.5741   359
 0.5841   383
 0.5941   373
 0.6041   361
 0.6141   346
 0.6241   317
 0.6341   327
 0.6441   345
 0.6541   333
 0.6641   340
 0.6741   336
 0.6841   322
 0.6941   316
 0.7041   349
 0.7141   329
 0.7241   291
 0.7341   278
 0.7441   304
 0.7541   327
 0.7641   307
 0.7741   312
 0.7841   338
 0.7941   337
 0.8041   299
 0.8141   285
 0.8241   310
 0.8341   312
 0.8441   306
 0.8541   323
 0.8641   330
 0.8741   305
 0.8841   300
 0.8941   286
 0.9041   297
 0.9141   304
 0.9241   303
 0.9341   298
 0.9441   287
 0.9541   276
 0.9641   288
 0.9741   273
 0.9841   273
 0.9941   279
 1.0041   287
 1.0141   274
 1.0241   291
 1.0341   283
 1.0441   291
 1.0541   255
 1.0641   294
 1.0741   274
 1.0841   275
 1.0941   275
 1.1041   290
 1.1141   291
 1.1241   253
 1.1341   270
 1.1441   275
 1.1541   258
 1.1641   267
 1.1741   265
 1.1841   287
 1.1941   272
 1.2041   270
 1.2141   259
 1.2241   261
 1.2341   265
 1.2441   249
 1.2541   278
 1.2641   254
 1.2741   263
 1.2841   242
 1.2941   266
 1.3041   285
 1.3141   258
 1.3241   264
 1.3341   264
 1.3441   256
 1.3541   270
 1.3641   244
 1.3741   262
 1.3841   242
 1.3941   254
 1.4041   264
 1.4141   248
 1.4241   236
 1.4341   251
 1.4441   249
 1.4541   264
 1.4641   252
 1.4741   242
 1.4841   243
 1.4941   259
 1.5041   234
 1.5141   239
 1.5241   251
 1.5341   285
 1.5441   257
 1.5541   245
 1.5641   240
 1.5741   242
 1.5841   210
 1.5941   247
 1.6041   242
 1.6141   247
 1.6241   266
 1.6341   266
 1.6441   263
 1.6541   302
 1.6641   324
 1.6741   447
 1.6841   527
 1.6941   664
 1.7041   796
 1.7141   866
 1.7241   985
 1.7341  1002
 1.7441  1043
 1.7541  1014
 1.7641   842
 1.7741   802
 1.7841   655
 1.7941   559
 1.8041   446
 1.8141   373
 1.8241   348
 1.8341   303
 1.8441   272
 1.8541   274
 1.8641   285
 1.8741   286
 1.8841   262
 1.8941   240
 1.9041   248
 1.9141   256
 1.9241   243
 1.9341   228
 1.9441   257
 1.9541   292
 1.9641   268
 1.9741   255
 1.9841   257
 1.9941   308
 2.0041   292
 2.0141   320
 2.0241   300
 2.0341   261
 2.0441   289
 2.0541   272
 2.0641   290
 2.0741   246
 2.0841   246
 2.0941   229
 2.1041   219
 2.1141   243
 2.1241   221
 2.1341   239
 2.1441   225
 2.1541   237
 2.1641   201
 2.1741   229
 2.1841   209
 2.1941   205
 2.2041   219
 2.2141   190
 2.2241   230
 2.2341   228
 2.2441   212
 2.2541   209
 2.2641   213
 2.2741   201
 2.2841   202
 2.2941   190
 2.3041   182
 2.3141   191
 2.3241   238
 2.3341   181
 2.3441   202
 2.3541   228
 2.3641   191
 2.3741   196
 2.3841   205
 2.3941   191
 2.4041   198
 2.4141   202
 2.4241   206
 2.4341   164
 2.4441   175
 2.4541   178
 2.4641   199
 2.4741   197
 2.4841   212
 2.4941   215
 2.5041   193
 2.5141   210
 2.5241   206
 2.5341   175
 2.5441   196
 2.5541   201
 2.5641   214
 2.5741   190
 2.5841   180
 2.5941   176
 2.6041   187
 2.6141   175
 2.6241   173
 2.6341   211
 2.6441   202
 2.6541   201
 2.6641   192
 2.6741   182
 2.6841   143
 2.6941   174
 2.7041   174
 2.7141   168
 2.7241   161
 2.7341   179
 2.7441   171
 2.7541   175
 2.7641   164
 2.7741   183
 2.7841   182
 2.7941   182
 2.8041   189
 2.8141   167
 2.8241   186
 2.8341   164
 2.8441   177
 2.8541   189
 2.8641   188
 2.8741   187
 2.8841   176
 2.8941   157
 2.9041   193
 2.9141   148
 2.9241   173
 2.9341   158
 2.9441   170
 2.9541   167
 2.9641   167
 2.9741   186
 2.9841   161
 2.9941   187
 3.0041   155
 3.0141   159
 3.0241   178
 3.0341   167
 3.0441   149
 3.0541   156
 3.0641   145
 3.0741   129
 3.0841   149
 3.0941   157
 3.1041   146
 3.1141   140
 3.1241   153
 3.1341   143
 3.1441   131
 3.1541   157
 3.1641   148
 3.1741   151
 3.1841   151
 3.1941   146
 3.2041   171
 3.2141   152
 3.2241   177
 3.2341   181
 3.2441   180
 3.2541   175
 3.2641   168
 3.2741   191
 3.2841   220
 3.2941   243
 3.3041   225
 3.3141   246
 3.3241   234
 3.3341   241
 3.3441   217
 3.3541   203
 3.3641   195
 3.3741   186
 3.3841   166
 3.3941   162
 3.4041   131
 3.4141   140
 3.4241   132
 3.4341   136
 3.4441   130
 3.4541   138
 3.4641   124
 3.4741   142
 3.4841   146
 3.4941   141
 3.5041   129
 3.5141   150
 3.5241   138
 3.5341   162
 3.5441   155
 3.5541   200
 3.5641   195
 3.5741   233
 3.5841   281
 3.5941   328
 3.6041   448
 3.6141   508
 3.6241   617
 3.6341   790
 3.6441   942
 3.6541  1140
 3.6641  1307
 3.6741  1408
 3.6841  1449
 3.6941  1415
 3.7041  1387
 3.7141  1236
 3.7241  1089
 3.7341   962
 3.7441   807
 3.7541   615
 3.7641   519
 3.7741   392
 3.7841   307
 3.7941   260
 3.8041   188
 3.8141   164
 3.8241   142
 3.8341   116
 3.8441   109
 3.8541   144
 3.8641   135
 3.8741   111
 3.8841   128
 3.8941   141
 3.9041   157
 3.9141   135
 3.9241   151
 3.9341   162
 3.9441   194
 3.9541   173
 3.9641   219
 3.9741   234
 3.9841   240
 3.9941   249
 4.0041   251
 4.0141   272
 4.0241   267
 4.0341   261
 4.0441   246
 4.0541   220
 4.0641   207
 4.0741   179
 4.0841   175
 4.0941   145
 4.1041   144
 4.1141   140
 4.1241   119
 4.1341   112
 4.1441   121
 4.1541   107
 4.1641   113
 4.1741   107
 4.1841   113
 4.1941   109
 4.2041   112
 4.2141   109
 4.2241   118
 4.2341    99
 4.2441   103
 4.2541   103
 4.2641    90
 4.2741    95
 4.2841   106
 4.2941   100
 4.3041   109
 4.3141   122
 4.3241   114
 4.3341   126
 4.3441   122
 4.3541   124
 4.3641   128
 4.3741   160
 4.3841   163
 4.3941   179
 4.4041   187
 4.4141   263
 4.4241   273
 4.4341   309
 4.4441   404
 4.4541   463
 4.4641   536
 4.4741   621
 4.4841   680
 4.4941   742
 4.5041   753
 4.5141   706
 4.5241   711
 4.5341   604
 4.5441   586
 4.5541   539
 4.5641   451
 4.5741   416
 4.5841   329
 4.5941   281
 4.6041   250
 4.6141   184
 4.6241   157
 4.6341   158
 4.6441   165
 4.6541   142
 4.6641   138
 4.6741   122
 4.6841   123
 4.6941    99
 4.7041   111
 4.7141   116
 4.7241   118
 4.7341   115
 4.7441   113
 4.7541   107
 4.7641   143
 4.7741    98
 4.7841   131
 4.7941   142
 4.8041   135
 4.8141   133
 4.8241   133
 4.8341   155
 4.8441   165
 4.8541   156
 4.8641   179
 4.8741   192
 4.8841   204
 4.8941   232
 4.9041   206
 4.9141   215
 4.9241   219
 4.9341   252
 4.9441   232
 4.9541   232
 4.9641   228
 4.9741   205
 4.9841   210
 4.9941   198
 5.0041   170
 5.0141   128
 5.0241   148
 5.0341   145
 5.0441   137
 5.0541   139
 5.0641   121
 5.0741   116
 5.0841   118
 5.0941   114
 5.1041   126
 5.1141   110
 5.1241   119
 5.1341   112
 5.1441   108
 5.1541   126
 5.1641   147
 5.1741   119
 5.1841   104
 5.1941   109
 5.2041   119
 5.2141   139
 5.2241   118
 5.2341   113
 5.2441   132
 5.2541   128
 5.2641   122
 5.2741   136
 5.2841   111
 5.2941   120
 5.3041   118
 5.3141   134
 5.3241   127
 5.3341   113
 5.3441   130
 5.3541   136
 5.3641   133
 5.3741   139
 5.3841   147
 5.3941   143
 5.4041   152
 5.4141   156
 5.4241   133
 5.4341   147
 5.4441   155
 5.4541   154
 5.4641   149
 5.4741   139
 5.4841   127
 5.4941   153
 5.5041   134
 5.5141   130
 5.5241   125
 5.5341   117
 5.5441   115
 5.5541   127
 5.5641   131
 5.5741   103
 5.5841   143
 5.5941   128
 5.6041   115
 5.6141   119
 5.6241   120
 5.6341   122
 5.6441   124
 5.6541   134
 5.6641   111
 5.6741   120
 5.6841   142
 5.6941   126
 5.7041   144
 5.7141   137
 5.7241   153
 5.7341   127
 5.7441   152
 5.7541   138
 5.7641   152
 5.7741   173
 5.7841   171
 5.7941   185
 5.8041   193
 5.8141   185
 5.8241   206
 5.8341   247
 5.8441   256
 5.8541   236
 5.8641   296
 5.8741   296
 5.8841   273
 5.8941   302
 5.9041   284
 5.9141   282
 5.9241   271
 5.9341   266
 5.9441   244
 5.9541   234
 5.9641   242
 5.9741   188
 5.9841   193
 5.9941   185
 6.0041   184
 6.0141   177
 6.0241   153
 6.0341   162
 6.0441   156
 6.0541   168
 6.0641   160
 6.0741   168
 6.0841   145
 6.0941   164
 6.1041   184
 6.1141   150
 6.1241   174
 6.1341   162
 6.1441   189
 6.1541   199
 6.1641   172
 6.1741   208
 6.1841   232
 6.1941   197
 6.2041   311
 6.2141   358
 6.2241   413
 6.2341   558
 6.2441   694
 6.2541   922
 6.2641  1292
 6.2741  1725
 6.2841  2418
 6.2941  3106
 6.3041  4028
 6.3141  5115
 6.3241  6171
 6.3341  7631
 6.3441  8771
 6.3541 10227
 6.3641 11273
 6.3741 12102
 6.3841 12733
 6.3941 13077
 6.4041 13195
 6.4141 12650
 6.4241 12219
 6.4341 11179
 6.4441  9881
 6.4541  8640
 6.4641  7425
 6.4741  5996
 6.4841  4823
 6.4941  3790
 6.5041  2929
 6.5141  2214
 6.5241  1668
 6.5341  1205
 6.5441   863
 6.5541   664
 6.5641   467
 6.5741   377
 6.5841   304
 6.5941   243
 6.6041   232
 6.6141   208
 6.6241   213
 6.6341   183
 6.6441   215
 6.6541   211
 6.6641   209
 6.6741   199
 6.6841   183
 6.6941   183
 6.7041   175
 6.7141   208
 6.7241   200
 6.7341   206
 6.7441   190
 6.7541   198
 6.7641   212
 6.7741   211
 6.7841   201
 6.7941   210
 6.8041   257
 6.8141   240
 6.8241   224
 6.8341   249
 6.8441   282
 6.8541   266
 6.8641   253
 6.8741   298
 6.8841   334
 6.8941   366
 6.9041   409
 6.9141   437
 6.9241   596
 6.9341   636
 6.9441   779
 6.9541   883
 6.9641  1012
 6.9741  1184
 6.9841  1409
 6.9941  1564
 7.0041  1780
 7.0141  2024
 7.0241  2098
 7.0341  2215
 7.0441  2368
 7.0541  2351
 7.0641  2359
 7.0741  2292
 7.0841  2137
 7.0941  2037
 7.1041  1771
 7.1141  1597
 7.1241  1393
 7.1341  1238
 7.1441   987
 7.1541   845
 7.1641   710
 7.1741   608
 7.1841   516
 7.1941   442
 7.2041   394
 7.2141   337
 7.2241   310
 7.2341   305
 7.2441   354
 7.2541   295
 7.2641   275
 7.2741   312
 7.2841   252
 7.2941   292
 7.3041   302
 7.3141   326
 7.3241   343
 7.3341   344
 7.3441   386
 7.3541   392
 7.3641   390
 7.3741   419
 7.3841   400
 7.3941   406
 7.4041   369
 7.4141   428
 7.4241   392
 7.4341   356
 7.4441   347
 7.4541   386
 7.4641   338
 7.4741   337
 7.4841   325
 7.4941   305
 7.5041   304
 7.5141   271
 7.5241   305
 7.5341   313
 7.5441   295
 7.5541   299
 7.5641   274
 7.5741   301
 7.5841   282
 7.5941   274
 7.6041   287
 7.6141   291
 7.6241   301
 7.6341   302
 7.6441   284
 7.6541   302
 7.6641   290
 7.6741   300
 7.6841   286
 7.6941   327
 7.7041   307
 7.7141   305
 7.7241   339
 7.7341   350
 7.7441   324
 7.7541   339
 7.7641   352
 7.7741   354
 7.7841   356
 7.7941   381
 7.8041   385
 7.8141   414
 7.8241   376
 7.8341   422
 7.8441   390
 7.8541   405
 7.8641   409
 7.8741   442
 7.8841   462
 7.8941   485
 7.9041   500
 7.9141   518
 7.9241   549
 7.9341   547
 7.9441   588
 7.9541   613
 7.9641   689
 7.9741   724
 7.9841   748
 7.9941   844
 8.0041   929
 8.0141   881
 8.0241   977
 8.0341  1010
 8.0441  1169
 8.0541  1244
 8.0641  1308
 8.0741  1419
 8.0841  1498
 8.0941  1525
 8.1041  1648
 8.1141  1679
 8.1241  1729
 8.1341  1842
 8.1441  1880
 8.1541  1927
 8.1641  1934
 8.1741  2029
 8.1841  2038
 8.1941  2064
 8.2041  2070
 8.2141  2096
 8.2241  2187
 8.2341  2232
 8.2441  2255
 8.2541  2366
 8.2641  2472
 8.2741  2545
 8.2841  2749
 8.2941  2890
 8.3041  3007
 8.3141  3196
 8.3241  3497
 8.3341  3624
 8.3441  3926
 8.3541  3996
 8.3641  4261
 8.3741  4288
 8.3841  4432
 8.3941  4417
 8.4041  4242
 8.4141  4140
 8.4241  3936
 8.4341  3596
 8.4441  3306
 8.4541  3075
 8.4641  2614
 8.4741  2215
 8.4841  2006
 8.4941  1709
 8.5041  1514
 8.5141  1197
 8.5241  1082
 8.5341   926
 8.5441   773
 8.5541   723
 8.5641   596
 8.5741   562
 8.5841   577
 8.5941   529
 8.6041   546
 8.6141   535
 8.6241   483
 8.6341   510
 8.6441   519
 8.6541   544
 8.6641   520
 8.6741   522
 8.6841   518
 8.6941   544
 8.7041   531
 8.7141   548
 8.7241   558
 8.7341   519
 8.7441   495
 8.7541   504
 8.7641   496
 8.7741   477
 8.7841   467
 8.7941   513
 8.8041   522
 8.8141   477
 8.8241   485
 8.8341   504
 8.8441   510
 8.8541   547
 8.8641   510
 8.8741   525
 8.8841   536
 8.8941   520
 8.9041   527
 8.9141   540
 8.9241   504
 8.9341   541
 8.9441   533
 8.9541   545
 8.9641   535
 8.9741   572
 8.9841   564
 8.9941   582
 9.0041   553
 9.0141   563
 9.0241   591
 9.0341   613
 9.0441   641
 9.0541   651
 9.0641   634
 9.0741   668
 9.0841   691
 9.0941   719
 9.1041   722
 9.1141   725
 9.1241   784
 9.1341   841
 9.1441   824
 9.1541   854
 9.1641   924
 9.1741   944
 9.1841   959
 9.1941  1001
 9.2041  1068
 9.2141  1126
 9.2241  1186
 9.2341  1291
 9.2441  1321
 9.2541  1393
 9.2641  1427
 9.2741  1450
 9.2841  1519
 9.2941  1597
 9.3041  1634
 9.3141  1694
 9.3241  1744
 9.3341  1849
 9.3441  1859
 9.3541  1949
 9.3641  1980
 9.3741  2010
 9.3841  2075
 9.3941  2058
 9.4041  2150
 9.4141  2186
 9.4241  2246
 9.4341  2261
 9.4441  2243
 9.4541  2273
 9.4641  2268
 9.4741  2346
 9.4841  2347
 9.4941  2474
 9.5041  2456
 9.5141  2548
 9.5241  2633
 9.5341  2676
 9.5441  2787
 9.5541  2914
 9.5641  3049
 9.5741  3264
 9.5841  3485
 9.5941  3560
 9.6041  3805
 9.6141  4034
 9.6241  4096
 9.6341  4294
 9.6441  4385
 9.6541  4573
 9.6641  4621
 9.6741  4606
 9.6841  4410
 9.6941  4387
 9.7041  4332
 9.7141  4017
 9.7241  3910
 9.7341  3582
 9.7441  3316
 9.7541  3179
 9.7641  2919
 9.7741  2750
 9.7841  2564
 9.7941  2370
 9.8041  2224
 9.8141  2124
 9.8241  2161
 9.8341  2057
 9.8441  2000
 9.8541  2022
 9.8641  2078
 9.8741  2090
 9.8841  2062
 9.8941  2125
 9.9041  2244
 9.9141  2273
 9.9241  2282
 9.9341  2215
 9.9441  2327
 9.9541  2285
 9.9641  2232
 9.9741  2228
 9.9841  2101
 9.9941  1991
10.0041  1831
10.0141  1778
10.0241  1638
10.0341  1466
10.0441  1360
10.0541  1255
10.0641  1064
10.0741   969
10.0841   890
10.0941   792
10.1041   701
10.1141   614
10.1241   585
10.1341   541
10.1441   495
10.1541   473
10.1641   443
10.1741   434
10.1841   418
10.1941   408
10.2041   391
10.2141   361
10.2241   365
10.2341   370
10.2441   346
10.2541   347
10.2641   313
10.2741   322
10.2841   316
10.2941   323
10.3041   278
10.3141   275
10.3241   280
10.3341   294
10.3441   270
10.3541   282
10.3641   305
10.3741   281
10.3841   291
10.3941   304
10.4041   279
10.4141   290
10.4241   295
10.4341   253
10.4441   265
10.4541   277
10.4641   296
10.4741   312
10.4841   298
10.4941   306
10.5041   303
10.5141   282
10.5241   307
10.5341   328
10.5441   288
10.5541   286
10.5641   308
10.5741   307
10.5841   326
10.5941   291
10.6041   303
10.6141   313
10.6241   331
10.6341   307
10.6441   312
10.6541   332
10.6641   352
10.6741   336
10.6841   337
10.6941   343
10.7041   360
10.7141   372
10.7241   356
10.7341   339
10.7441   361
10.7541   369
10.7641   365
10.7741   363
10.7841   388
10.7941   409
10.8041   397
10.8141   416
10.8241   440
10.8341   447
10.8441   460
10.8541   486
10.8641   489
10.8741   465
10.8841   474
10.8941   495
10.9041   524
10.9141   500
10.9241   539
10.9341   519
10.9441   515
10.9541   504
10.9641   474
10.9741   487
10.9841   497
10.9941   493
11.0041   477
11.0141   445
11.0241   470
11.0341   458
11.0441   434
11.0541   438
11.0641   438
11.0741   418
11.0841   428
11.0941   459
11.1041   440
11.1141   434
11.1241   455
11.1341   468
11.1441   472
11.1541   488
11.1641   491
11.1741   526
11.1841   535
11.1941   523
11.2041   541
11.2141   598
11.2241   628
11.2341   650
11.2441   653
11.2541   694
11.2641   682
11.2741   661
11.2841   656
11.2941   666
11.3041   673
11.3141   675
11.3241   620
11.3341   598
11.3441   578
11.3541   549
11.3641   547
11.3741   507
11.3841   484
11.3941   450
11.4041   442
11.4141   439
11.4241   391
11.4341   381
11.4441   372
11.4541   364
11.4641   350
11.4741   341
11.4841   337
11.4941   339
11.5041   339
11.5141   344
11.5241   338
11.5341   335
11.5441   347
11.5541   343
11.5641   344
11.5741   358
11.5841   363
11.5941   350
11.6041   352
11.6141   368
11.6241   339
11.6341   357
11.6441   373
11.6541   378
11.6641   365
11.6741   346
11.6841   346
11.6941   353
11.7041   350
11.7141   329
11.7241   322
11.7341   308
11.7441   295
11.7541   308
11.7641   301
11.7741   278
11.7841   270
11.7941   272
11.8041   266
11.8141   251
11.8241   246
11.8341   264
11.8441   256
11.8541   248
11.8641   236
11.8741   227
11.8841   243
11.8941   242
11.9041   233
11.9141   233
11.9241   261
11.9341   247
11.9441   250
11.9541   268
11.9641   269
11.9741   265
11.9841   276
11.9941   279
12.0041   268
12.0141   251
12.0241   249
12.0341   271
12.0441   265
12.0541   257
12.0641   269
12.0741   272
12.0841   277
12.0941   269
12.1041   254
12.1141   250
12.1241   272
12.1341   262
12.1441   246
12.1541   265
12.1641   264
12.1741   232
12.1841   238
12.1941   250
12.2041   245
12.2141   233
12.2241   235
12.2341   257
12.2441   250
12.2541   247
12.2641   265
12.2741   247
12.2841   239
12.2941   235
12.3041   241
12.3141   265
12.3241   253
12.3341   258
12.3441   265
12.3541   253
12.3641   227
12.3741   232
12.3841   239
12.3941   236
12.4041   244
12.4141   265
12.4241   259
12.4341   246
12.4441   251
12.4541   268
12.4641   269
12.4741   253
12.4841   249
12.4941   258
12.5041   265
12.5141   275
12.5241   269
12.5341   255
12.5441   258
12.5541   274
12.5641   268
12.5741   257
12.5841   266
12.5941   264
12.6041   272
12.6141   276
12.6241   274
12.6341   270
12.6441   263
12.6541   274
12.6641   271
12.6741   266
12.6841   264
12.6941   269
12.7041   282
12.7141   284
12.7241   287
12.7341   298
12.7441   281
12.7541   273
12.7641   287
12.7741   297
12.7841   282
12.7941   280
12.8041   274
12.8141   268
12.8241   273
12.8341   296
12.8441   277
12.8541   277
12.8641   279
12.8741   289
12.8841   299
12.8941   281
12.9041   297
12.9141   315
12.9241   321
12.9341   312
12.9441   285
12.9541   273
12.9641   286
12.9741   284
12.9841   282
12.9941   298
13.0041   298
13.0141   299
13.0241   306
13.0341   304
13.0441   296
13.0541   303
13.0641   285
13.0741   273
13.0841   283
13.0941   281
13.1041   300
13.1141   318
13.1241   309
13.1341   309
13.1441   299
13.1541   294
13.1641   315
13.1741   311
13.1841   297
13.1941   303
13.2041   314
13.2141   311
13.2241   319
13.2341   329
13.2441   323
13.2541   333
13.2641   376
13.2741   371
13.2841   358
13.2941   382
13.3041   377
13.3141   379
13.3241   376
13.3341   398
13.3441   417
13.3541   393
13.3641   382
13.3741   389
13.3841   387
13.3941   383
13.4041   399
13.4141   392
13.4241   399
13.4341   394
13.4441   388
13.4541   396
13.4641   386
13.4741   372
13.4841   348
13.4941   346
13.5041   356
13.5141   380
13.5241   371
13.5341   365
13.5441   376
13.5541   379
13.5641   346
13.5741   325
13.5841   341
13.5941   344
13.6041   351
13.6141   360
13.6241   358
13.6341   340
13.6441   324
13.6541   336
13.6641   355
13.6741   350
13.6841   350
13.6941   341
13.7041   331
13.7141   344
13.7241   337
13.7341   342
13.7441   350
13.7541   335
13.7641   325
13.7741   352
13.7841   357
13.7941   344
13.8041   352
13.8141   361
13.8241   370
13.8341   361
13.8441   369
13.8541   374
13.8641   360
13.8741   369
13.8841   375
13.8941   374
13.9041   376
13.9141   362
13.9241   361
13.9341   373
13.9441   383
13.9541   398
13.9641   396
13.9741   398
13.9841   424
13.9941   433
14.0041   430
14.0141   431
14.0241   412
14.0341   417
14.0441   453
14.0541   450
14.0641   439
14.0741   479
14.0841   506
14.0941   501
14.1041   503
14.1141   517
14.1241   507
14.1341   489
14.1441   512
14.1541   512
14.1641   502
14.1741   498
14.1841   517
14.1941   518
14.2041   471
14.2141   455
14.2241   443
14.2341   443
14.2441   451
14.2541   448
14.2641   437
14.2741   437
14.2841   427
14.2941   426
14.3041   440
14.3141   422
14.3241   433
14.3341   435
14.3441   412
14.3541   408
14.3641   389
14.3741   373
14.3841   403
14.3941   405
14.4041   398
14.4141   430
14.4241   429
14.4341   420
14.4441   425
14.4541   429
14.4641   412
14.4741   398
14.4841   403
14.4941   409
14.5041   427
14.5141   425
14.5241   418
14.5341   426
14.5441   427
14.5541   421
14.5641   372
14.5741   370
14.5841   415
14.5941   413
14.6041   421
14.6141   445
14.6241   441
14.6341   428
14.6441   407
14.6541   401
14.6641   421
14.6741   440
14.6841   430
14.6941   425
14.7041   425
14.7141   451
14.7241   456
14.7341   448
14.7441   431
14.7541   432
14.7641   426
14.7741   429
14.7841   459
14.7941   454
14.8041   456
14.8141   475
14.8241   469
14.8341   479
14.8441   506
14.8541   503
14.8641   496
14.8741   503
14.8841   524
14.8941   530
14.9041   511
14.9141   506
14.9241   489
14.9341   489
14.9441   515
14.9541   520
14.9641   509
14.9741   495
14.9841   496
14.9941   491
15.0041   507
15.0141   526
15.0241   520
15.0341   500
15.0441   495
15.0541   504
15.0641   488
15.0741   485
15.0841   506
15.0941   502
15.1041   504
15.1141   503
15.1241   483
15.1341   455
15.1441   494
15.1541   471
15.1641   446
15.1741   467
15.1841   461
15.1941   477
15.2041   488
15.2141   479
15.2241   472
15.2341   479
15.2441   498
15.2541   502
15.2641   469
15.2741   448
15.2841   478
15.2941   476
15.3041   496
15.3141   529
15.3241   518
15.3341   487
15.3441   464
15.3541   518
15.3641   525
15.3741   511
15.3841   523
15.3941   504
15.4041   487
15.4141   492
15.4241   502
15.4341   479
15.4441   518
15.4541   549
15.4641   546
15.4741   549
15.4841   545
15.4941   541
15.5041   583
15.5141   614
15.5241   665
15.5341   705
15.5441   729
15.5541   793
15.5641   871
15.5741   931
15.5841   970
15.5941  1098
15.6041  1180
15.6141  1257
15.6241  1354
15.6341  1430
15.6441  1564
15.6541  1664
15.6641  1766
15.6741  1873
15.6841  1938
15.6941  2018
15.7041  2194
15.7141  2304
15.7241  2333
15.7341  2315
15.7441  2349
15.7541  2381
15.7641  2436
15.7741  2354
15.7841  2294
15.7941  2201
15.8041  2143
15.8141  2084
15.8241  1965
15.8341  1841
15.8441  1720
15.8541  1612
15.8641  1470
15.8741  1389
15.8841  1317
15.8941  1221
15.9041  1090
15.9141  1025
15.9241   958
15.9341   867
15.9441   830
15.9541   790
15.9641   718
15.9741   653
15.9841   637
15.9941   634
16.0041   616
16.0141   586
16.0241   555
16.0341   554
16.0441   580
16.0541   557
16.0641   569
16.0741   543
16.0841   525
16.0941   565
16.1041   543
16.1141   532
16.1241   559
16.1341   571
16.1441   553
16.1541   565
16.1641   600
16.1741   604
16.1841   579
16.1941   570
16.2041   561
16.2141   534
16.2241   545
16.2341   547
16.2441   559
16.2541   548
16.2641   561
16.2741   590
16.2841   571
16.2941   596
16.3041   551
16.3141   587
16.3241   588
16.3341   553
16.3441   554
16.3541   564
16.3641   551
16.3741   574
16.3841   598
16.3941   621
16.4041   606
16.4141   601
16.4241   580
16.4341   610
16.4441   628
16.4541   587
16.4641   604
16.4741   611
16.4841   608
16.4941   619
16.5041   601
16.5141   584
16.5241   598
16.5341   605
16.5441   636
16.5541   623
16.5641   608
16.5741   613
16.5841   620
16.5941   617
16.6041   615
16.6141   657
16.6241   677
16.6341   630
16.6441   625
16.6541   620
16.6641   630
16.6741   659
16.6841   628
16.6941   607
16.7041   610
16.7141   606
16.7241   635
16.7341   632
16.7441   604
16.7541   611
16.7641   638
16.7741   634
16.7841   628
16.7941   614
16.8041   627
16.8141   646
16.8241   645
16.8341   629
16.8441   617
16.8541   603
16.8641   622
16.8741   635
16.8841   628
16.8941   614
16.9041   585
16.9141   601
16.9241   575
16.9341   614
16.9441   656
16.9541   614
16.9641   633
16.9741   650
16.9841   642
16.9941   629
17.0041   683
17.0141   654
17.0241   641
17.0341   663
17.0441   672
17.0541   643
17.0641   626
17.0741   639
17.0841   639
17.0941   619
17.1041   658
17.1141   615
17.1241   635
17.1341   670
17.1441   677
17.1541   656
17.1641   638
17.1741   669
17.1841   695
17.1941   655
17.2041   662
17.2141   652
17.2241   664
17.2341   649
17.2441   617
17.2541   645
17.2641   661
17.2741   661
17.2841   691
17.2941   677
17.3041   665
17.3141   652
17.3241   685
17.3341   679
17.3441   709
17.3541   680
17.3641   702
17.3741   706
17.3841   679
17.3941   656
17.4041   687
17.4141   683
17.4241   694
17.4341   706
17.4441   700
17.4541   736
17.4641   751
17.4741   704
17.4841   734
17.4941   715
17.5041   782
17.5141   815
17.5241   778
17.5341   777
17.5441   804
17.5541   881
17.5641   880
17.5741   918
17.5841   936
17.5941   951
17.6041   982
17.6141   971
17.6241  1006
17.6341   995
17.6441   948
17.6541  1021
17.6641   994
17.6741  1033
17.6841  1043
17.6941  1053
17.7041  1042
17.7141  1002
17.7241   935
17.7341   942
17.7441   916
17.7541   893
17.7641   890
17.7741   856
17.7841   865
17.7941   822
17.8041   791
17.8141   831
17.8241   792
17.8341   778
17.8441   826
17.8541   781
17.8641   787
17.8741   762
17.8841   726
17.8941   768
17.9041   773
17.9141   775
17.9241   760
17.9341   773
17.9441   756
17.9541   784
17.9641   806
17.9741   792
17.9841   772
17.9941   810
18.0041   805
18.0141   806
18.0241   780
18.0341   738
18.0441   766
18.0541   755
18.0641   730
18.0741   730
18.0841   764
18.0941   772
18.1041   790
18.1141   752
18.1241   752
18.1341   748
18.1441   748
18.1541   767
18.1641   724
18.1741   746
18.1841   756
18.1941   759
18.2041   747
18.2141   706
18.2241   717
18.2341   746
18.2441   730
18.2541   717
18.2641   774
18.2741   746
18.2841   735
18.2941   739
18.3041   746
18.3141   761
18.3241   752
18.3341   731
18.3441   764
18.3541   745
18.3641   773
18.3741   760
18.3841   731
18.3941   700
18.4041   756
18.4141   744
18.4241   778
18.4341   756
18.4441   717
18.4541   780
18.4641   776
18.4741   727
18.4841   712
18.4941   774
18.5041   773
18.5141   777
18.5241   784
18.5341   749
18.5441   757
18.5541   748
18.5641   770
18.5741   753
18.5841   730
18.5941   781
18.6041   792
18.6141   776
18.6241   812
18.6341   777
18.6441   779
18.6541   760
18.6641   767
18.6741   754
18.6841   757
18.6941   726
18.7041   744
18.7141   759
18.7241   753
18.7341   765
18.7441   779
18.7541   766
18.7641   763
18.7741   761
18.7841   767
18.7941   801
18.8041   804
18.8141   797
18.8241   816
18.8341   751
18.8441   777
18.8541   784
18.8641   779
18.8741   783
18.8841   815
18.8941   782
18.9041   770
18.9141   757
18.9241   804
18.9341   796
18.9441   812
18.9541   804
18.9641   785
18.9741   774
18.9841   805
18.9941   783
19.0041   778
19.0141   793
19.0241   768
19.0341   789
19.0441   754
19.0541   825
19.0641   772
19.0741   797
19.0841   789
19.0941   777
19.1041   774
19.1141   777
19.1241   817
19.1341   784
19.1441   811
19.1541   793
19.1641   801
19.1741   791
19.1841   816
19.1941   821
19.2041   818
19.2141   835
19.2241   825
19.2341   821
19.2441   796
19.2541   807
19.2641   870
19.2741   808
19.2841   826
19.2941   847
19.3041   830
19.3141   825
19.3241   826
19.3341   854
19.3441   818
19.3541   825
19.3641   810
19.3741   756
19.3841   834
19.3941   817
19.4041   801
19.4141   841
19.4241   792
19.4341   804
19.4441   809
19.4541   782
19.4641   824
19.4741   778
19.4841   778
19.4941   836
19.5041   814
19.5141   825
19.5241   817
19.5341   793
19.5441   785
19.5541   862
19.5641   797
19.5741   792
19.5841   807
19.5941   831
19.6041   824
19.6141   814
19.6241   823
19.6341   794
19.6441   769
19.6541   804
19.6641   844
19.6741   869
19.6841   818
19.6941   827
19.7041   831
19.7141   810
19.7241   845
19.7341   814
19.7441   803
19.7541   790
19.7641   839
19.7741   811
19.7841   837
19.7941   831
19.8041   847
19.8141   822
19.8241   854
19.8341   800
19.8441   834
19.8541   826
19.8641   820
19.8741   793
19.8841   818
19.8941   812
19.9041   831
19.9141   819
19.9241   821
19.9341   831
19.9441   826
19.9541   822
19.9641   809
19.9741   845
19.9841   820
19.9941   831
20.0041   797
20.0141   772
20.0241   853
20.0341   820
20.0441   837
20.0541   778
20.0641   865
20.0741   869
20.0841   836
20.0941   813
20.1041   829
20.1141   840
20.1241   854
20.1341   828
20.1441   815
20.1541   835
20.1641   824
20.1741   827
20.1841   792
20.1941   860
20.2041   805
20.2141   816
20.2241   841
20.2341   823
20.2441   856
20.2541   816
20.2641   824
20.2741   820
20.2841   841
20.2941   862
20.3041   840
20.3141   826
20.3241   872
20.3341   823
20.3441   844
20.3541   860
20.3641   798
20.3741   825
20.3841   838
20.3941   816
20.4041   858
20.4141   861
20.4241   880
20.4341   863
20.4441   835
20.4541   826
20.4641   853
20.4741   853
20.4841   830
20.4941   851
20.5041   868
20.5141   775
20.5241   827
20.5341   852
20.5441   808
20.5541   819
20.5641   849
20.5741   892
20.5841   865
20.5941   851
20.6041   891
20.6141   857
20.6241   827
20.6341   810
20.6441   819
20.6541   869
20.6641   832
20.6741   846
20.6841   896
20.6941   856
20.7041   840
20.7141   818
20.7241   887
20.7341   846
20.7441   871
20.7541   862
20.7641   861
20.7741   803
20.7841   859
20.7941   926
20.8041   915
20.8141   885
20.8241   887
20.8341   874
20.8441   856
20.8541   880
20.8641   910
20.8741   931
20.8841   933
20.8941   967
20.9041   949
20.9141   973
20.9241   961
20.9341   980
20.9441   981
20.9541  1059
20.9641  1045
20.9741  1015
20.9841  1052
20.9941  1097
21.0041  1107
21.0141  1161
21.0241  1179
21.0341  1152
21.0441  1178
21.0541  1150
21.0641  1210
21.0741  1210
21.0841  1273
21.0941  1239
21.1041  1263
21.1141  1209
21.1241  1204
21.1341  1199
21.1441  1205
21.1541  1278
21.1641  1230
21.1741  1271
21.1841  1188
21.1941  1178
21.2041  1145
21.2141  1193
21.2241  1188
21.2341  1102
21.2441  1130
21.2541  1149
21.2641  1033
21.2741  1066
21.2841  1075
21.2941  1017
21.3041  1016
21.3141   965
21.3241   990
21.3341   955
21.3441   920
21.3541   887
21.3641   950
21.3741   915
21.3841   917
21.3941   881
21.4041   879
21.4141   843
21.4241   873
21.4341   850
21.4441   864
21.4541   860
21.4641   855
21.4741   842
21.4841   860
21.4941   846
21.5041   847
21.5141   796
21.5241   832
21.5341   826
21.5441   837
21.5541   778
21.5641   798
21.5741   897
21.5841   830
21.5941   863
21.6041   884
21.6141   838
21.6241   834
21.6341   837
21.6441   811
21.6541   821
21.6641   837
21.6741   806
21.6841   839
21.6941   802
21.7041   888
21.7141   827
21.7241   888
21.7341   864
21.7441   821
21.7541   788
21.7641   837
21.7741   863
21.7841   811
21.7941   804
21.8041   851
21.8141   821
21.8241   828
21.8341   834
21.8441   869
21.8541   838
21.8641   833
21.8741   804
21.8841   870
21.8941   844
21.9041   841
21.9141   874
21.9241   822
21.9341   844
21.9441   815
21.9541   849
21.9641   854
21.9741   810
21.9841   798
21.9941   828
22.0041   840
22.0141   829
22.0241   811
22.0341   824
22.0441   842
22.0541   801
22.0641   842
22.0741   830
22.0841   830
22.0941   818
22.1041   867
22.1141   838
22.1241   847
22.1341   840
22.1441   867
22.1541   837
22.1641   837
22.1741   802
22.1841   829
22.1941   879
22.2041   823
22.2141   836
22.2241   876
22.2341   815
22.2441   829
22.2541   831
22.2641   828
22.2741   851
22.2841   849
22.2941   789
22.3041   852
22.3141   872
22.3241   822
22.3341   816
22.3441   843
22.3541   857
22.3641   827
22.3741   764
22.3841   888
22.3941   802
22.4041   798
22.4141   836
22.4241   824
22.4341   866
22.4441   863
22.4541   807
22.4641   812
22.4741   841
22.4841   833
22.4941   864
22.5041   789
22.5141   810
22.5241   806
22.5341   838
22.5441   830
22.5541   841
22.5641   803
22.5741   796
22.5841   818
22.5941   781
22.6041   837
22.6141   820
22.6241   779
22.6341   884
22.6441   777
22.6541   767
22.6641   845
22.6741   872
22.6841   881
22.6941   825
22.7041   820
22.7141   835
22.7241   802
22.7341   795
22.7441   830
22.7541   815
22.7641   849
22.7741   885
22.7841   818
22.7941   822
22.8041   807
22.8141   809
22.8241   821
22.8341   860
22.8441   837
22.8541   843
22.8641   866
22.8741   823
22.8841   822
22.8941   811
22.9041   827
22.9141   839
22.9241   810
22.9341   802
22.9441   809
22.9541   811
22.9641   806
22.9741   832
22.9841   821
22.9941   823
23.0041   774
23.0141   834
23.0241   833
23.0341   853
23.0441   820
23.0541   804
23.0641   832
23.0741   862
23.0841   766
23.0941   838
23.1041   822
23.1141   812
23.1241   828
23.1341   812
23.1441   799
23.1541   813
23.1641   798
23.1741   826
23.1841   803
23.1941   808
23.2041   839
23.2141   774
23.2241   750
23.2341   767
23.2441   819
23.2541   774
23.2641   809
23.2741   848
23.2841   834
23.2941   779
23.3041   849
23.3141   776
23.3241   787
23.3341   837
23.3441   759
23.3541   780
23.3641   777
23.3741   802
23.3841   813
23.3941   734
23.4041   780
23.4141   804
23.4241   869
23.4341   749
23.4441   771
23.4541   818
23.4641   770
23.4741   830
23.4841   795
23.4941   817
23.5041   771
23.5141   798
23.5241   815
23.5341   843
23.5441   787
23.5541   765
23.5641   780
23.5741   771
23.5841   778
23.5941   799
23.6041   788
23.6141   815
23.6241   776
23.6341   818
23.6441   799
23.6541   823
23.6641   833
23.6741   850
23.6841   828
23.6941   756
23.7041   810
23.7141   828
23.7241   855
23.7341   832
23.7441   855
23.7541   829
23.7641   828
23.7741   821
23.7841   861
23.7941   819
23.8041   855
23.8141   880
23.8241   842
23.8341   817
23.8441   919
23.8541   894
23.8641   828
23.8741   825
23.8841   850
23.8941   849
23.9041   813
23.9141   824
23.9241   788
23.9341   827
23.9441   770
23.9541   833
23.9641   785
23.9741   728
23.9841   778
23.9941   793
24.0041   798
24.0141   781
24.0241   793
24.0341   790
24.0441   750
24.0541   792
24.0641   725
24.0741   783
24.0841   763
24.0941   727
24.1041   754
24.1141   788
24.1241   764
24.1341   737
24.1441   817
24.1541   777
24.1641   777
24.1741   751
24.1841   796
24.1941   736
24.2041   795
24.2141   732
24.2241   810
24.2341   798
24.2441   766
24.2541   772
24.2641   758
24.2741   755
24.2841   770
24.2941   774
24.3041   818
24.3141   776
24.3241   760
24.3341   760
24.3441   725
24.3541   705
24.3641   725
24.3741   748
24.3841   754
24.3941   738
24.4041   753
24.4141   775
24.4241   726
24.4341   789
24.4441   686
24.4541   736
24.4641   690
24.4741   756
24.4841   734
24.4941   729
24.5041   701
24.5141   733
24.5241   732
24.5341   739
24.5441   725
24.5541   728
24.5641   785
24.5741   713
24.5841   757
24.5941   770
24.6041   741
24.6141   727
24.6241   717
24.6341   732
24.6441   738
24.6541   733
24.6641   717
24.6741   733
24.6841   688
24.6941   744
24.7041   693
24.7141   693
24.7241   710
24.7341   754
24.7441   762
24.7541   713
24.7641   728
24.7741   741
24.7841   737
24.7941   715
24.8041   733
24.8141   719
24.8241   680
24.8341   735
24.8441   702
24.8541   725
24.8641   732
24.8741   697
24.8841   752
24.8941   723
24.9041   754
24.9141   786
24.9241   765
24.9341   734
24.9441   726
24.9541   756
24.9641   723
24.9741   735
24.9841   702
24.9941   730
25.0041   727
25.0141   677
25.0241   741
25.0341   699
25.0441   707
25.0541   716
25.0641   695
25.0741   737
25.0841   702
25.0941   725
25.1041   714
25.1141   756
25.1241   712
25.1341   712
25.1441   755
25.1541   712
25.1641   746
25.1741   747
25.1841   708
25.1941   741
25.2041   747
25.2141   716
25.2241   721
25.2341   709
25.2441   707
25.2541   767
25.2641   749
25.2741   711
25.2841   720
25.2941   712
25.3041   734
25.3141   706
25.3241   705
25.3341   695
25.3441   745
25.3541   744
25.3641   691
25.3741   675
25.3841   681
25.3941   742
25.4041   683
25.4141   671
25.4241   679
25.4341   728
25.4441   728
25.4541   697
25.4641   685
25.4741   678
25.4841   718
25.4941   728
25.5041   730
25.5141   680
25.5241   686
25.5341   657
25.5441   706
25.5541   689
25.5641   670
25.5741   672
25.5841   682
25.5941   691
25.6041   671
25.6141   683
25.6241   648
25.6341   645
25.6441   656
25.6541   672
25.6641   663
25.6741   681
25.6841   698
25.6941   594
25.7041   629
25.7141   658
25.7241   639
25.7341   671
25.7441   617
25.7541   603
25.7641   672
25.7741   701
25.7841   663
25.7941   683
25.8041   676
25.8141   648
25.8241   670
25.8341   638
25.8441   628
25.8541   643
25.8641   610
25.8741   683
25.8841   675
25.8941   642
25.9041   616
25.9141   659
25.9241   669
25.9341   655
25.9441   647
25.9541   638
25.9641   664
25.9741   600
25.9841   607
25.9941   670
26.0041   610
26.0141   675
26.0241   654
26.0341   642
26.0441   666
26.0541   641
26.0641   654
26.0741   634
26.0841   642
26.0941   609
26.1041   647
26.1141   665
26.1241   679
26.1341   662
26.1441   667
26.1541   626
26.1641   644
26.1741   637
26.1841   638
26.1941   640
26.2041   665
26.2141   680
26.2241   606
26.2341   647
26.2441   647
26.2541   691
26.2641   620
26.2741   648
26.2841   614
26.2941   615
26.3041   623
26.3141   629
26.3241   611
26.3341   636
26.3441   651
26.3541   610
26.3641   640
26.3741   613
26.3841   633
26.3941   623
26.4041   628
26.4141   642
26.4241   631
26.4341   671
26.4441   617
26.4541   658
26.4641   647
26.4741   653
26.4841   630
26.4941   632
26.5041   575
26.5141   590
26.5241   656
26.5341   597
26.5441   611
26.5541   610
26.5641   602
26.5741   622
26.5841   561
26.5941   662
26.6041   613
26.6141   599
26.6241   617
26.6341   590
26.6441   639
26.6541   607
26.6641   599
26.6741   584
26.6841   592
26.6941   619
26.7041   618
26.7141   640
26.7241   604
26.7341   610
26.7441   567
26.7541   547
26.7641   608
26.7741   588
26.7841   621
26.7941   591
26.8041   602
26.8141   603
26.8241   583
26.8341   591
26.8441   615
26.8541   607
26.8641   622
26.8741   614
26.8841   577
26.8941   609
26.9041   592
26.9141   586
26.9241   612
26.9341   638
26.9441   595
26.9541   558
26.9641   624
26.9741   553
26.9841   548
26.9941   571
27.0041   560
27.0141   621
27.0241   588
27.0341   587
27.0441   544
27.0541   563
27.0641   607
27.0741   572
27.0841   602
27.0941   580
27.1041   612
27.1141   598
27.1241   556
27.1341   606
27.1441   622
27.1541   616
27.1641   552
27.1741   576
27.1841   593
27.1941   569
27.2041   583
27.2141   570
27.2241   573
27.2341   602
27.2441   566
27.2541   558
27.2641   586
27.2741   582
27.2841   590
27.2941   609
27.3041   556
27.3141   538
27.3241   573
27.3341   598
27.3441   545
27.3541   550
27.3641   573
27.3741   591
27.3841   565
27.3941   629
27.4041   578
27.4141   528
27.4241   576
27.4341   536
27.4441   538
27.4541   558
27.4641   631
27.4741   529
27.4841   522
27.4941   541
27.5041   622
27.5141   604
27.5241   551
27.5341   564
27.5441   596
27.5541   533
27.5641   552
27.5741   538
27.5841   549
27.5941   555
27.6041   548
27.6141   559
27.6241   552
27.6341   546
27.6441   585
27.6541   544
27.6641   546
27.6741   513
27.6841   537
27.6941   571
27.7041   527
27.7141   511
27.7241   547
27.7341   556
27.7441   524
27.7541   540
27.7641   489
27.7741   560
27.7841   517
27.7941   537
27.8041   506
27.8141   552
27.8241   537
27.8341   518
27.8441   531
27.8541   541
27.8641   533
27.8741   486
27.8841   512
27.8941   522
27.9041   557
27.9141   572
27.9241   516
27.9341   545
27.9441   502
27.9541   530
27.9641   540
27.9741   564
27.9841   545
27.9941   535
28.0041   532
28.0141   520
28.0241   512
28.0341   487
28.0441   528
28.0541   508
28.0641   476
28.0741   513
28.0841   503
28.0941   499
28.1041   544
28.1141   492
28.1241   521
28.1341   519
28.1441   498
28.1541   492
28.1641   484
28.1741   520
28.1841   501
28.1941   498
28.2041   513
28.2141   564
28.2241   505
28.2341   507
28.2441   493
28.2541   517
28.2641   500
28.2741   505
28.2841   511
28.2941   508
28.3041   495
28.3141   502
28.3241   506
28.3341   542
28.3441   513
28.3541   479
28.3641   508
28.3741   536
28.3841   528
28.3941   487
28.4041   501
28.4141   543
28.4241   513
28.4341   479
28.4441   493
28.4541   469
28.4641   494
28.4741   513
28.4841   506
28.4941   523
28.5041   499
28.5141   472
28.5241   514
28.5341   496
28.5441   458
28.5541   465
28.5641   473
28.5741   495
28.5841   494
28.5941   488
28.6041   546
28.6141   480
28.6241   506
28.6341   456
28.6441   491
28.6541   438
28.6641   466
28.6741   470
28.6841   456
28.6941   458
28.7041   476
28.7141   505
28.7241   492
28.7341   491
28.7441   470
28.7541   474
28.7641   481
28.7741   483
28.7841   495
28.7941   475
28.8041   509
28.8141   510
28.8241   480
28.8341   466
28.8441   476
28.8541   469
28.8641   455
28.8741   485
28.8841   463
28.8941   480
28.9041   485
28.9141   456
28.9241   496
28.9341   486
28.9441   480
28.9541   431
28.9641   428
28.9741   444
28.9841   486
28.9941   448
29.0041   460
29.0141   424
29.0241   476
29.0341   434
29.0441   486
29.0541   480
29.0641   422
29.0741   502
29.0841   461
29.0941   465
29.1041   463
29.1141   432
29.1241   471
29.1341   435
29.1441   454
29.1541   463
29.1641   485
29.1741   460
29.1841   417
29.1941   414
29.2041   432
29.2141   432
29.2241   450
29.2341   463
29.2441   470
29.2541   468
29.2641   470
29.2741   432
29.2841   403
29.2941   458
29.3041   442
29.3141   476
29.3241   403
29.3341   473
29.3441   422
29.3541   380
29.3641   457
29.3741   449
29.3841   461
29.3941   452
29.4041   436
29.4141   443
29.4241   413
29.4341   407
29.4441   468
29.4541   419
29.4641   416
29.4741   442
29.4841   402
29.4941   451
29.5041   410
29.5141   437
29.5241   416
29.5341   428
29.5441   421
29.5541   419
29.5641   423
29.5741   428
29.5841   428
29.5941   424
29.6041   409
29.6141   416
29.6241   392
29.6341   419
29.6441   412
29.6541   411
29.6641   428
29.6741   403
29.6841   429
29.6941   416
29.7041   403
29.7141   429
29.7241   405
29.7341   407
29.7441   386
29.7541   427
29.7641   437
29.7741   399
29.7841   434
29.7941   402
29.8041   411
29.8141   415
29.8241   436
29.8341   414
29.8441   423
29.8541   426
29.8641   395
29.8741   391
29.8841   384
29.8941   400
29.9041   399
29.9141   398
29.9241   400
29.9341   439
29.9441   417
29.9541   381
29.9641   383
29.9741   412
29.9841   398
29.9941   399
30.0041   391
30.0141   388
30.0241   412
30.0341   385
30.0441   412
30.0541   389
30.0641   403
30.0741   370
30.0841   393
30.0941   402
30.1041   409
30.1141   423
30.1241   398
30.1341   407
30.1441   429
30.1541   389
30.1641   371
30.1741   412
30.1841   403
30.1941   398
30.2041   390
30.2141   381
30.2241   382
30.2341   403
30.2441   407
30.2541   403
30.2641   391
30.2741   409
30.2841   383
30.2941   403
30.3041   354
30.3141   406
30.3241   409
30.3341   360
30.3441   399
30.3541   372
30.3641   391
30.3741   379
30.3841   362
30.3941   358
30.4041   396
30.4141   372
30.4241   377
30.4341   405
30.4441   388
30.4541   382
30.4641   353
30.4741   357
30.4841   367
30.4941   352
30.5041   358
30.5141   376
30.5241   393
30.5341   378
30.5441   399
30.5541   359
30.5641   361
30.5741   368
30.5841   386
30.5941   372
30.6041   362
30.6141   324
30.6241   371
30.6341   383
30.6441   332
30.6541   369
30.6641   391
30.6741   392
30.6841   358
30.6941   326
30.7041   343
30.7141   397
30.7241   350
30.7341   368
30.7441   366
30.7541   369
30.7641   385
30.7741   348
30.7841   372
30.7941   358
30.8041   355
30.8141   378
30.8241   342
30.8341   345
30.8441   355
30.8541   397
30.8641   351
30.8741   326
30.8841   354
30.8941   340
30.9041   356
30.9141   320
30.9241   347
30.9341   350
30.9441   327
30.9541   308
30.9641   340
30.9741   324
30.9841   339
30.9941   372
31.0041   352
31.0141   326
31.0241   332
31.0341   354
31.0441   350
31.0541   364
31.0641   329
31.0741   344
31.0841   351
31.0941   329
31.1041   342
31.1141   362
31.1241   347
31.1341   373
31.1441   334
31.1541   341
31.1641   325
31.1741   344
31.1841   336
31.1941   319
31.2041   307
31.2141   333
31.2241   347
31.2341   349
31.2441   348
31.2541   328
31.2641   346
31.2741   309
31.2841   293
31.2941   312
31.3041   312
31.3141   329
31.3241   327
31.3341   351
31.3441   313
31.3541   329
31.3641   334
31.3741   306
31.3841   342
31.3941   331
31.4041   291
31.4141   286
31.4241   318
31.4341   291
31.4441   312
31.4541   336
31.4641   308
31.4741   329
31.4841   300
31.4941   321
31.5041   323
31.5141   329
31.5241   322
31.5341   301
31.5441   308
31.5541   337
31.5641   328
31.5741   321
31.5841   310
31.5941   290
31.6041   330
31.6141   328
31.6241   317
31.6341   293
31.6441   294
31.6541   328
31.6641   298
31.6741   288
31.6841   306
31.6941   300
31.7041   339
31.7141   290
31.7241   303
31.7341   291
31.7441   302
31.7541   311
31.7641   305
31.7741   285
31.7841   280
31.7941   330
31.8041   315
31.8141   348
31.8241   345
31.8341   307
31.8441   331
31.8541   308
31.8641   294
31.8741   319
31.8841   340
31.8941   316
31.9041   278
31.9141   280
31.9241   314
31.9341   288
31.9441   276
31.9541   325
31.9641   289
31.9741   311
31.9841   316
31.9941   302
32.0041   341
32.0141   303
32.0241   291
32.0341   299
32.0441   282
32.0541   306
32.0641   315
32.0741   316
32.0841   314
32.0941   284
32.1041   309
32.1141   297
32.1241   304
32.1341   302
32.1441   287
32.1541   297
32.1641   284
32.1741   313
32.1841   268
32.1941   311
32.2041   257
32.2141   269
32.2241   311
32.2341   299
32.2441   288
32.2541   312
32.2641   298
32.2741   266
32.2841   276
32.2941   259
32.3041   294
32.3141   305
32.3241   300
32.3341   318
32.3441   267
32.3541   304
32.3641   292
32.3741   305
32.3841   271
32.3941   289
32.4041   281
32.4141   302
32.4241   272
32.4341   257
32.4441   290
32.4541   255
32.4641   274
32.4741   271
32.4841   269
32.4941   283
32.5041   270
32.5141   232
32.5241   244
32.5341   293
32.5441   268
32.5541   272
32.5641   257
32.5741   256
32.5841   260
32.5941   277
32.6041   297
32.6141   281
32.6241   272
32.6341   274
32.6441   239
32.6541   262
32.6641   240
32.6741   261
32.6841   271
32.6941   250
32.7041   273
32.7141   269
32.7241   250
32.7341   241
32.7441   234
32.7541   224
32.7641   252
32.7741   266
32.7841   251
32.7941   270
32.8041   239
32.8141   263
32.8241   269
32.8341   223
32.8441   274
32.8541   261
32.8641   247
32.8741   277
32.8841   228
32.8941   260
32.9041   266
32.9141   242
32.9241   250
32.9341   242
32.9441   242
32.9541   257
32.9641   272
32.9741   265
32.9841   296
32.9941   261
33.0041   258
33.0141   261
33.0241   247
33.0341   263
33.0441   230
33.0541   218
33.0641   240
33.0741   243
33.0841   203
33.0941   204
33.1041   246
33.1141   230
33.1241   243
33.1341   235
33.1441   249
33.1541   231
33.1641   276
33.1741   240
33.1841   228
33.1941   250
33.2041   230
33.2141   250
33.2241   230
33.2341   226
33.2441   235
33.2541   246
33.2641   250
33.2741   237
33.2841   260
33.2941   242
33.3041   237
33.3141   245
33.3241   251
33.3341   232
33.3441   248
33.3541   227
33.3641   223
33.3741   213
33.3841   222
33.3941   211
33.4041   229
33.4141   245
33.4241   221
33.4341   214
33.4441   202
33.4541   260
33.4641   234
33.4741   237
33.4841   253
33.4941   216
33.5041   244
33.5141   201
33.5241   218
33.5341   198
33.5441   202
33.5541   214
33.5641   187
33.5741   209
33.5841   210
33.5941   204
33.6041   246
33.6141   221
33.6241   246
33.6341   254
33.6441   226
33.6541   202
33.6641   232
33.6741   244
33.6841   227
33.6941   189
33.7041   222
33.7141   247
33.7241   225
33.7341   237
33.7441   220
33.7541   195
33.7641   232
33.7741   207
33.7841   196
33.7941   211
33.8041   214
33.8141   223
33.8241   215
33.8341   216
33.8441   211
33.8541   190
33.8641   191
33.8741   229
33.8841   206
33.8941   173
33.9041   208
33.9141   211
33.9241   240
33.9341   215
33.9441   190
33.9541   195
33.9641   203
33.9741   230
33.9841   219
33.9941   216
34.0041   212
34.0141   211
34.0241   195
34.0341   192
34.0441   198
34.0541   205
34.0641   205
34.0741   231
34.0841   198
34.0941   198
34.1041   192
34.1141   202
34.1241   230
34.1341   209
34.1441   205
34.1541   201
34.1641   184
34.1741   210
34.1841   207
34.1941   193
34.2041   203
34.2141   235
34.2241   193
34.2341   218
34.2441   193
34.2541   177
34.2641   184
34.2741   201
34.2841   198
34.2941   208
34.3041   193
34.3141   171
34.3241   193
34.3341   194
34.3441   174
34.3541   187
34.3641   209
34.3741   201
34.3841   204
34.3941   205
34.4041   179
34.4141   177
34.4241   187
34.4341   198
34.4441   198
34.4541   169
34.4641   183
34.4741   213
34.4841   179
34.4941   193
34.5041   176
34.5141   185
34.5241   174
34.5341   181
34.5441   197
34.5541   166
34.5641   185
34.5741   190
34.5841   176
34.5941   189
34.6041   169
34.6141   166
34.6241   199
34.6341   199
34.6441   191
34.6541   182
34.6641   175
34.6741   168
34.6841   188
34.6941   189
34.7041   161
34.7141   178
34.7241   175
34.7341   200
34.7441   201
34.7541   153
34.7641   189
34.7741   177
34.7841   163
34.7941   179
34.8041   194
34.8141   183
34.8241   190
34.8341   189
34.8441   188
34.8541   172
34.8641   160
34.8741   183
34.8841   186
34.8941   165
34.9041   174
34.9141   176
34.9241   196
34.9341   162
34.9441   179
34.9541   158
34.9641   165
34.9741   162
34.9841   213
34.9941   165
35.0041   179
35.0141   150
35.0241   194
35.0341   168
35.0441   148
35.0541   162
35.0641   164
35.0741   153
35.0841   173
35.0941   164
35.1041   166
35.1141   174
35.1241   165
35.1341   148
35.1441   188
35.1541   173
35.1641   181
35.1741   161
35.1841   152
35.1941   171
35.2041   173
35.2141   191
35.2241   149
35.2341   152
35.2441   156
35.2541   165
35.2641   163
35.2741   160
35.2841   173
35.2941   167
35.3041   152
35.3141   154
35.3241   153
35.3341   172
35.3441   149
35.3541   153
35.3641   152
35.3741   155
35.3841   159
35.3941   175
35.4041   155
35.4141   134
35.4241   145
35.4341   177
35.4441   160
35.4541   158
35.4641   161
35.4741   134
35.4841   157
35.4941   159
35.5041   136
35.5141   158
35.5241   168
35.5341   164
35.5441   148
35.5541   153
35.5641   137
35.5741   147
35.5841   166
35.5941   151
35.6041   163
35.6141   130
35.6241   138
35.6341   159
35.6441   151
35.6541   145
35.6641   123
35.6741   153
35.6841   148
35.6941   126
35.7041   123
35.7141   145
35.7241   148
35.7341   151
35.7441   141
35.7541   141
35.7641   143
35.7741   142
35.7841   140
35.7941   161
35.8041   158
35.8141   149
35.8241   156
35.8341   136
35.8441   155
35.8541   124
35.8641   168
35.8741   116
35.8841   130
35.8941   135
35.9041   139
35.9141   140
35.9241   116
35.9341   143
35.9441   134
35.9541   138
35.9641   142
35.9741   147
35.9841   151
35.9941   131
36.0041   114
36.0141   138
36.0241   147
36.0341   140
36.0441   134
36.0541   127
36.0641   121
36.0741   134
36.0841   145
36.0941   125
36.1041   130
36.1141   142
36.1241   132
36.1341   128
36.1441   133
36.1541   111
36.1641   136
36.1741   130
36.1841   109
36.1941   130
36.2041   137
36.2141   115
36.2241   113
36.2341   120
36.2441   127
36.2541   127
36.2641   123
36.2741   138
36.2841   113
36.2941   122
36.3041   136
36.3141   145
36.3241   144
36.3341   131
36.3441   136
36.3541   141
36.3641   121
36.3741   133
36.3841   130
36.3941   135
36.4041   123
36.4141   131
36.4241   111
36.4341   123
36.4441   129
36.4541   112
36.4641   126
36.4741   115
36.4841   140
36.4941   127
36.5041   106
36.5141   128
36.5241   123
36.5341   126
36.5441   124
36.5541   123
36.5641   109
36.5741   110
36.5841   137
36.5941    96
36.6041   117
36.6141   146
36.6241   115
36.6341   108
36.6441   116
36.6541   124
36.6641   122
36.6741   123
36.6841   121
36.6941   113
36.7041   117
36.7141   113
36.7241   106
36.7341    98
36.7441   104
36.7541   113
36.7641   105
36.7741   101
36.7841   116
36.7941   117
36.8041   138
36.8141   110
36.8241    96
36.8341   111
36.8441   133
36.8541   127
36.8641   108
36.8741   109
36.8841   111
36.8941   111
36.9041   105
36.9141   119
36.9241   117
36.9341   119
36.9441   123
36.9541   109
36.9641   118
36.9741   119
36.9841   121
36.9941   104
37.0041   128
37.0141   122
37.0241   105
37.0341   107
37.0441   120
37.0541   103
37.0641    97
37.0741   107
37.0841   112
37.0941   106
37.1041   100
37.1141   106
37.1241   109
37.1341   118
37.1441   119
37.1541    99
37.1641    85
37.1741   109
37.1841   111
37.1941   105
37.2041   107
37.2141   107
37.2241    92
37.2341   120
37.2441    77
37.2541   101
37.2641   108
37.2741   108
37.2841    95
37.2941    93
37.3041    95
37.3141   103
37.3241   104
37.3341    87
37.3441    90
37.3541    86
37.3641    93
37.3741   104
37.3841   109
37.3941   102
37.4041    97
37.4141   102
37.4241    91
37.4341    92
37.4441    98
37.4541    91
37.4641    99
37.4741    84
37.4841   119
37.4941    98
37.5041    79
37.5141    96
37.5241   114
37.5341   109
37.5441   110
37.5541    92
37.5641    92
37.5741   103
37.5841   110
37.5941   102
37.6041    85
37.6141    87
37.6241    98
37.6341    94
37.6441    88
37.6541    92
37.6641   101
37.6741    80
37.6841    89
37.6941    81
37.7041   100
37.7141    93
37.7241   103
37.7341    84
37.7441    82
37.7541    96
37.7641    96
37.7741    97
37.7841    74
37.7941    88
37.8041    79
37.8141    92
37.8241   102
37.8341    63
37.8441    90
37.8541    80
37.8641    86
37.8741    92
37.8841    91
37.8941    86
37.9041    85
37.9141    86
37.9241    95
37.9341   106
37.9441    89
37.9541    71
37.9641    86
37.9741    85
37.9841    93
37.9941    90
38.0041    80
38.0141    95
38.0241    72
38.0341    82
38.0441    74
38.0541    84
38.0641    83
38.0741    79
38.0841    79
38.0941    72
38.1041    99
38.1141    84
38.1241    83
38.1341    88
38.1441    87
38.1541    77
38.1641    80
38.1741    88
38.1841    89
38.1941    96
38.2041    81
38.2141    79
38.2241    86
38.2341    75
38.2441    70
38.2541    75
38.2641    66
38.2741    79
38.2841    86
38.2941    64
38.3041    75
38.3141    99
38.3241    92
38.3341    79
38.3441    87
38.3541    85
38.3641    82
38.3741    74
38.3841    65
38.3941    89
38.4041    77
38.4141    76
38.4241    68
38.4341    87
38.4441    84
38.4541    86
38.4641    80
38.4741    76
38.4841    83
38.4941    62
38.5041    79
38.5141    71
38.5241    70
38.5341    77
38.5441    74
38.5541    79
38.5641    85
38.5741    74
38.5841    65
38.5941    78
38.6041    56
38.6141    75
38.6241    54
38.6341    77
38.6441    69
38.6541    62
38.6641    67
38.6741    63
38.6841    61
38.6941    82
38.7041    66
38.7141    68
38.7241    75
38.7341    60
38.7441    73
38.7541    65
38.7641    60
38.7741    76
38.7841    63
38.7941    76
38.8041    73
38.8141    64
38.8241    61
38.8341    74
38.8441    76
38.8541    72
38.8641    77
38.8741    78
38.8841    59
38.8941    83
38.9041    57
38.9141    68
38.9241    66
38.9341    72
38.9441    69
38.9541    53
38.9641    61
38.9741    62
38.9841    58
38.9941    66
39.0041    85
39.0141    61
39.0241    53
39.0341    68
39.0441    67
39.0541    58
39.0641    58
39.0741    59
39.0841    50
39.0941    60
39.1041    62
39.1141    64
39.1241    49
39.1341    76
39.1441    64
39.1541    62
39.1641    64
39.1741    75
39.1841    73
39.1941    62
39.2041    58
39.2141    54
39.2241    74
39.2341    66
39.2441    66
39.2541    67
39.2641    59
39.2741    58
39.2841    53
39.2941    57
39.3041    58
39.3141    45
39.3241    53
39.3341    56
39.3441    44
39.3541    40
39.3641    53
39.3741    59
39.3841    54
39.3941    49
39.4041    55
39.4141    58
39.4241    62
39.4341    65
39.4441    53
39.4541    45
39.4641    55
39.4741    68
39.4841    55
39.4941    35
39.5041    38
39.5141    63
39.5241    52
39.5341    54
39.5441    55
39.5541    49
39.5641    55
39.5741    48
39.5841    44
39.5941    55
39.6041    56
39.6141    58
39.6241    63
39.6341    60
39.6441    51
39.6541    53
39.6641    49
39.6741    57
39.6841    47
39.6941    44
39.7041    55
39.7141    44
39.7241    50
39.7341    45
39.7441    46
39.7541    42
39.7641    46
39.7741    53
39.7841    58
39.7941    55
39.8041    45
39.8141    42
39.8241    37
39.8341    47
39.8441    42
39.8541    48
39.8641    44
39.8741    40
39.8841    51
39.8941    47
39.9041    39
39.9141    47
39.9241    47
39.9341    36
39.9441    43
39.9541    64
39.9641    58
39.9741    52
39.9841    50
39.9941    54
