Bruker Nano GmbH Berlin, Germany
Esprit 1.9

Date: 4/21/2021 1:38:17 PM
Real time: 19381
Life time: 17985
Pulse density: 105882


Detector type: XFlash 430
Window type: Custom type
Detector thickness: 0.45
Si dead layer:0.029

Calibration, lin.: 10
Calibration, abs.: -955.9
Mn FWHM: 137.05
Fano factor: 0.121
Channels: 4095

Energy Counts
-0.9559     0
-0.9459     0
-0.9359     0
-0.9259     0
-0.9159     0
-0.9059     0
-0.8959     0
-0.8859     0
-0.8759     0
-0.8659     0
-0.8559     0
-0.8459     0
-0.8359     0
-0.8259     0
-0.8159     0
-0.8059     0
-0.7959     0
-0.7859     0
-0.7759     0
-0.7659     0
-0.7559     0
-0.7459     0
-0.7359     0
-0.7259     0
-0.7159     0
-0.7059     0
-0.6959     0
-0.6859     0
-0.6759     0
-0.6659     0
-0.6559     0
-0.6459     0
-0.6359     0
-0.6259     0
-0.6159     0
-0.6059     0
-0.5959     0
-0.5859     0
-0.5759     0
-0.5659     0
-0.5559     0
-0.5459     0
-0.5359     0
-0.5259     0
-0.5159     0
-0.5059     0
-0.4959     0
-0.4859     0
-0.4759     0
-0.4659     0
-0.4559     0
-0.4459     0
-0.4359     0
-0.4259     0
-0.4159     0
-0.4059     0
-0.3959     0
-0.3859     0
-0.3759     0
-0.3659     0
-0.3559     0
-0.3459     0
-0.3359     0
-0.3259     0
-0.3159     0
-0.3059     0
-0.2959     0
-0.2859     0
-0.2759     0
-0.2659     0
-0.2559     0
-0.2459     0
-0.2359     0
-0.2259     0
-0.2159     0
-0.2059     0
-0.1959     0
-0.1859     0
-0.1759     0
-0.1659     0
-0.1559     0
-0.1459     0
-0.1359     0
-0.1259     0
-0.1159     2
-0.1059     7
-0.0959    50
-0.0859   200
-0.0759   695
-0.0659  1997
-0.0559  5191
-0.0459 11666
-0.0359 21446
-0.0259 34317
-0.0159 46777
-0.0059 55260
 0.0041 55398
 0.0141 47946
 0.0241 35082
 0.0341 22133
 0.0441 12057
 0.0541  5612
 0.0641  2277
 0.0741   833
 0.0841   254
 0.0941    52
 0.1041    21
 0.1141    16
 0.1241    10
 0.1341    11
 0.1441     7
 0.1541     9
 0.1641     7
 0.1741     3
 0.1841   184
 0.1941   357
 0.2041   306
 0.2141   315
 0.2241   360
 0.2341   307
 0.2441   296
 0.2541   320
 0.2641   307
 0.2741   334
 0.2841   318
 0.2941   293
 0.3041   308
 0.3141   302
 0.3241   286
 0.3341   294
 0.3441   285
 0.3541   265
 0.3641   296
 0.3741   288
 0.3841   248
 0.3941   275
 0.4041   284
 0.4141   263
 0.4241   282
 0.4341   287
 0.4441   263
 0.4541   267
 0.4641   273
 0.4741   257
 0.4841   253
 0.4941   265
 0.5041   276
 0.5141   271
 0.5241   255
 0.5341   256
 0.5441   284
 0.5541   273
 0.5641   248
 0.5741   228
 0.5841   228
 0.5941   266
 0.6041   256
 0.6141   223
 0.6241   239
 0.6341   244
 0.6441   249
 0.6541   233
 0.6641   242
 0.6741   237
 0.6841   215
 0.6941   224
 0.7041   230
 0.7141   233
 0.7241   227
 0.7341   224
 0.7441   234
 0.7541   223
 0.7641   202
 0.7741   222
 0.7841   229
 0.7941   216
 0.8041   212
 0.8141   221
 0.8241   215
 0.8341   220
 0.8441   234
 0.8541   231
 0.8641   224
 0.8741   218
 0.8841   213
 0.8941   223
 0.9041   206
 0.9141   206
 0.9241   229
 0.9341   229
 0.9441   217
 0.9541   207
 0.9641   219
 0.9741   216
 0.9841   220
 0.9941   216
 1.0041   207
 1.0141   226
 1.0241   211
 1.0341   205
 1.0441   211
 1.0541   196
 1.0641   197
 1.0741   212
 1.0841   188
 1.0941   209
 1.1041   189
 1.1141   179
 1.1241   177
 1.1341   196
 1.1441   187
 1.1541   208
 1.1641   192
 1.1741   184
 1.1841   195
 1.1941   181
 1.2041   197
 1.2141   197
 1.2241   184
 1.2341   185
 1.2441   213
 1.2541   196
 1.2641   207
 1.2741   196
 1.2841   193
 1.2941   194
 1.3041   196
 1.3141   200
 1.3241   187
 1.3341   198
 1.3441   189
 1.3541   184
 1.3641   170
 1.3741   184
 1.3841   178
 1.3941   182
 1.4041   176
 1.4141   171
 1.4241   183
 1.4341   178
 1.4441   182
 1.4541   200
 1.4641   193
 1.4741   169
 1.4841   187
 1.4941   197
 1.5041   185
 1.5141   203
 1.5241   179
 1.5341   180
 1.5441   213
 1.5541   156
 1.5641   173
 1.5741   177
 1.5841   162
 1.5941   169
 1.6041   176
 1.6141   172
 1.6241   166
 1.6341   159
 1.6441   193
 1.6541   209
 1.6641   239
 1.6741   315
 1.6841   365
 1.6941   436
 1.7041   507
 1.7141   598
 1.7241   686
 1.7341   665
 1.7441   653
 1.7541   629
 1.7641   611
 1.7741   521
 1.7841   438
 1.7941   359
 1.8041   306
 1.8141   271
 1.8241   248
 1.8341   198
 1.8441   171
 1.8541   211
 1.8641   180
 1.8741   173
 1.8841   188
 1.8941   176
 1.9041   147
 1.9141   164
 1.9241   177
 1.9341   177
 1.9441   200
 1.9541   182
 1.9641   212
 1.9741   212
 1.9841   224
 1.9941   217
 2.0041   219
 2.0141   230
 2.0241   215
 2.0341   196
 2.0441   195
 2.0541   193
 2.0641   174
 2.0741   179
 2.0841   177
 2.0941   169
 2.1041   165
 2.1141   162
 2.1241   166
 2.1341   176
 2.1441   155
 2.1541   168
 2.1641   168
 2.1741   157
 2.1841   166
 2.1941   175
 2.2041   147
 2.2141   159
 2.2241   175
 2.2341   154
 2.2441   157
 2.2541   164
 2.2641   144
 2.2741   157
 2.2841   141
 2.2941   146
 2.3041   146
 2.3141   140
 2.3241   170
 2.3341   152
 2.3441   159
 2.3541   144
 2.3641   162
 2.3741   155
 2.3841   165
 2.3941   170
 2.4041   153
 2.4141   168
 2.4241   145
 2.4341   133
 2.4441   134
 2.4541   148
 2.4641   135
 2.4741   144
 2.4841   132
 2.4941   133
 2.5041   150
 2.5141   126
 2.5241   139
 2.5341   139
 2.5441   146
 2.5541   136
 2.5641   125
 2.5741   155
 2.5841   137
 2.5941   143
 2.6041   140
 2.6141   135
 2.6241   146
 2.6341   108
 2.6441   145
 2.6541   132
 2.6641   122
 2.6741   137
 2.6841   134
 2.6941   130
 2.7041   129
 2.7141   134
 2.7241   140
 2.7341   110
 2.7441   118
 2.7541   129
 2.7641   133
 2.7741   135
 2.7841   135
 2.7941   156
 2.8041   143
 2.8141   151
 2.8241   133
 2.8341   136
 2.8441   142
 2.8541   164
 2.8641   140
 2.8741   142
 2.8841   116
 2.8941   142
 2.9041   134
 2.9141   112
 2.9241   139
 2.9341   123
 2.9441   139
 2.9541   149
 2.9641   122
 2.9741   132
 2.9841   145
 2.9941   115
 3.0041   134
 3.0141   115
 3.0241   127
 3.0341   123
 3.0441   121
 3.0541   105
 3.0641   103
 3.0741   117
 3.0841   102
 3.0941    89
 3.1041   127
 3.1141   122
 3.1241   119
 3.1341   126
 3.1441   100
 3.1541   115
 3.1641   111
 3.1741    92
 3.1841   102
 3.1941   119
 3.2041   102
 3.2141    99
 3.2241   137
 3.2341   108
 3.2441   111
 3.2541   103
 3.2641   110
 3.2741   132
 3.2841   134
 3.2941   156
 3.3041   151
 3.3141   151
 3.3241   137
 3.3341   163
 3.3441   136
 3.3541   124
 3.3641   121
 3.3741   129
 3.3841   126
 3.3941   114
 3.4041    92
 3.4141   105
 3.4241   102
 3.4341    88
 3.4441    97
 3.4541   105
 3.4641    90
 3.4741   100
 3.4841   116
 3.4941   113
 3.5041   110
 3.5141    95
 3.5241   112
 3.5341   115
 3.5441   104
 3.5541   124
 3.5641   147
 3.5741   180
 3.5841   191
 3.5941   212
 3.6041   276
 3.6141   357
 3.6241   438
 3.6341   563
 3.6441   608
 3.6541   726
 3.6641   840
 3.6741   963
 3.6841   926
 3.6941   931
 3.7041   864
 3.7141   822
 3.7241   805
 3.7341   642
 3.7441   552
 3.7541   423
 3.7641   351
 3.7741   277
 3.7841   217
 3.7941   189
 3.8041   135
 3.8141   108
 3.8241    97
 3.8341    89
 3.8441   103
 3.8541   102
 3.8641    92
 3.8741    86
 3.8841    87
 3.8941    95
 3.9041    91
 3.9141   111
 3.9241    89
 3.9341   104
 3.9441   138
 3.9541   134
 3.9641   154
 3.9741   178
 3.9841   158
 3.9941   195
 4.0041   204
 4.0141   168
 4.0241   189
 4.0341   191
 4.0441   167
 4.0541   163
 4.0641   131
 4.0741   120
 4.0841   132
 4.0941   103
 4.1041   104
 4.1141    93
 4.1241    83
 4.1341    82
 4.1441    94
 4.1541    90
 4.1641    72
 4.1741    79
 4.1841    67
 4.1941    62
 4.2041    89
 4.2141    74
 4.2241    82
 4.2341    73
 4.2441    63
 4.2541    68
 4.2641    79
 4.2741    75
 4.2841    65
 4.2941    86
 4.3041    65
 4.3141    50
 4.3241    77
 4.3341    82
 4.3441    82
 4.3541    71
 4.3641    70
 4.3741    97
 4.3841    97
 4.3941   104
 4.4041   111
 4.4141   125
 4.4241   151
 4.4341   193
 4.4441   195
 4.4541   264
 4.4641   300
 4.4741   301
 4.4841   334
 4.4941   338
 4.5041   329
 4.5141   314
 4.5241   323
 4.5341   309
 4.5441   284
 4.5541   271
 4.5641   224
 4.5741   210
 4.5841   193
 4.5941   158
 4.6041   132
 4.6141   112
 4.6241    98
 4.6341   118
 4.6441    96
 4.6541    87
 4.6641    72
 4.6741    99
 4.6841    98
 4.6941    65
 4.7041    85
 4.7141    79
 4.7241    81
 4.7341    54
 4.7441    86
 4.7541    83
 4.7641    82
 4.7741    96
 4.7841    95
 4.7941    80
 4.8041    84
 4.8141    99
 4.8241   128
 4.8341   110
 4.8441    98
 4.8541   125
 4.8641   111
 4.8741   132
 4.8841   126
 4.8941   140
 4.9041   134
 4.9141   155
 4.9241   135
 4.9341   154
 4.9441   150
 4.9541   156
 4.9641   159
 4.9741   156
 4.9841   138
 4.9941   144
 5.0041   115
 5.0141   101
 5.0241    94
 5.0341   100
 5.0441   100
 5.0541   109
 5.0641    97
 5.0741    92
 5.0841    90
 5.0941   101
 5.1041   102
 5.1141    90
 5.1241   101
 5.1341    85
 5.1441    87
 5.1541    96
 5.1641    96
 5.1741    96
 5.1841    88
 5.1941    90
 5.2041    92
 5.2141   112
 5.2241    86
 5.2341    72
 5.2441    87
 5.2541    91
 5.2641   110
 5.2741    89
 5.2841   103
 5.2941   123
 5.3041   129
 5.3141   145
 5.3241   182
 5.3341   189
 5.3441   216
 5.3541   245
 5.3641   269
 5.3741   276
 5.3841   282
 5.3941   268
 5.4041   347
 5.4141   349
 5.4241   318
 5.4341   295
 5.4441   299
 5.4541   283
 5.4641   233
 5.4741   201
 5.4841   194
 5.4941   172
 5.5041   144
 5.5141   143
 5.5241   113
 5.5341   127
 5.5441    94
 5.5541   109
 5.5641   107
 5.5741    96
 5.5841   105
 5.5941   111
 5.6041    97
 5.6141    96
 5.6241   105
 5.6341   110
 5.6441   103
 5.6541   103
 5.6641   108
 5.6741   113
 5.6841   103
 5.6941    96
 5.7041   105
 5.7141   117
 5.7241   136
 5.7341   155
 5.7441   161
 5.7541   177
 5.7641   228
 5.7741   268
 5.7841   295
 5.7941   381
 5.8041   448
 5.8141   553
 5.8241   661
 5.8341   729
 5.8441   893
 5.8541   987
 5.8641  1098
 5.8741  1213
 5.8841  1271
 5.8941  1317
 5.9041  1251
 5.9141  1205
 5.9241  1131
 5.9341  1036
 5.9441   891
 5.9541   787
 5.9641   661
 5.9741   567
 5.9841   474
 5.9941   397
 6.0041   325
 6.0141   258
 6.0241   226
 6.0341   195
 6.0441   161
 6.0541   163
 6.0641   164
 6.0741   151
 6.0841   118
 6.0941   161
 6.1041   136
 6.1141   156
 6.1241   172
 6.1341   183
 6.1441   165
 6.1541   187
 6.1641   187
 6.1741   231
 6.1841   259
 6.1941   322
 6.2041   397
 6.2141   464
 6.2241   656
 6.2341   903
 6.2441  1218
 6.2541  1796
 6.2641  2428
 6.2741  3208
 6.2841  4368
 6.2941  6024
 6.3041  7587
 6.3141  9659
 6.3241 11682
 6.3341 14288
 6.3441 16823
 6.3541 19300
 6.3641 21254
 6.3741 22876
 6.3841 24085
 6.3941 25062
 6.4041 24873
 6.4141 24404
 6.4241 22897
 6.4341 21071
 6.4441 18815
 6.4541 16305
 6.4641 13742
 6.4741 11579
 6.4841  9090
 6.4941  7272
 6.5041  5377
 6.5141  4194
 6.5241  2916
 6.5341  2256
 6.5441  1550
 6.5541  1144
 6.5641   777
 6.5741   577
 6.5841   410
 6.5941   329
 6.6041   294
 6.6141   212
 6.6241   195
 6.6341   181
 6.6441   175
 6.6541   188
 6.6641   175
 6.6741   180
 6.6841   155
 6.6941   140
 6.7041   176
 6.7141   180
 6.7241   168
 6.7341   171
 6.7441   201
 6.7541   185
 6.7641   187
 6.7741   191
 6.7841   225
 6.7941   203
 6.8041   194
 6.8141   216
 6.8241   233
 6.8341   249
 6.8441   271
 6.8541   290
 6.8641   320
 6.8741   359
 6.8841   408
 6.8941   450
 6.9041   565
 6.9141   671
 6.9241   789
 6.9341   966
 6.9441  1312
 6.9541  1500
 6.9641  1852
 6.9741  2107
 6.9841  2543
 6.9941  2863
 7.0041  3331
 7.0141  3670
 7.0241  4019
 7.0341  4232
 7.0441  4287
 7.0541  4391
 7.0641  4240
 7.0741  4225
 7.0841  3873
 7.0941  3638
 7.1041  3188
 7.1141  2830
 7.1241  2564
 7.1341  2013
 7.1441  1739
 7.1541  1319
 7.1641  1099
 7.1741   886
 7.1841   683
 7.1941   565
 7.2041   428
 7.2141   381
 7.2241   325
 7.2341   275
 7.2441   236
 7.2541   250
 7.2641   207
 7.2741   210
 7.2841   240
 7.2941   215
 7.3041   255
 7.3141   240
 7.3241   281
 7.3341   295
 7.3441   302
 7.3541   341
 7.3641   383
 7.3741   407
 7.3841   468
 7.3941   466
 7.4041   539
 7.4141   548
 7.4241   579
 7.4341   672
 7.4441   662
 7.4541   705
 7.4641   698
 7.4741   695
 7.4841   656
 7.4941   642
 7.5041   648
 7.5141   614
 7.5241   550
 7.5341   502
 7.5441   435
 7.5541   433
 7.5641   396
 7.5741   326
 7.5841   273
 7.5941   261
 7.6041   244
 7.6141   222
 7.6241   213
 7.6341   228
 7.6441   224
 7.6541   218
 7.6641   229
 7.6741   220
 7.6841   231
 7.6941   226
 7.7041   209
 7.7141   197
 7.7241   220
 7.7341   235
 7.7441   230
 7.7541   242
 7.7641   260
 7.7741   237
 7.7841   250
 7.7941   263
 7.8041   281
 7.8141   286
 7.8241   246
 7.8341   255
 7.8441   300
 7.8541   281
 7.8641   327
 7.8741   326
 7.8841   325
 7.8941   316
 7.9041   313
 7.9141   359
 7.9241   381
 7.9341   402
 7.9441   417
 7.9541   428
 7.9641   457
 7.9741   524
 7.9841   533
 7.9941   541
 8.0041   648
 8.0141   661
 8.0241   714
 8.0341   770
 8.0441   777
 8.0541   817
 8.0641   895
 8.0741   951
 8.0841  1038
 8.0941  1111
 8.1041  1153
 8.1141  1103
 8.1241  1209
 8.1341  1275
 8.1441  1341
 8.1541  1334
 8.1641  1373
 8.1741  1423
 8.1841  1402
 8.1941  1417
 8.2041  1474
 8.2141  1475
 8.2241  1549
 8.2341  1575
 8.2441  1574
 8.2541  1641
 8.2641  1700
 8.2741  1797
 8.2841  1965
 8.2941  2068
 8.3041  2236
 8.3141  2393
 8.3241  2603
 8.3341  2769
 8.3441  2994
 8.3541  3029
 8.3641  3213
 8.3741  3364
 8.3841  3381
 8.3941  3416
 8.4041  3362
 8.4141  3272
 8.4241  3018
 8.4341  2809
 8.4441  2649
 8.4541  2381
 8.4641  2061
 8.4741  1808
 8.4841  1556
 8.4941  1295
 8.5041  1135
 8.5141   950
 8.5241   841
 8.5341   742
 8.5441   675
 8.5541   571
 8.5641   528
 8.5741   533
 8.5841   537
 8.5941   450
 8.6041   470
 8.6141   477
 8.6241   467
 8.6341   462
 8.6441   497
 8.6541   482
 8.6641   466
 8.6741   434
 8.6841   435
 8.6941   383
 8.7041   416
 8.7141   391
 8.7241   399
 8.7341   375
 8.7441   400
 8.7541   393
 8.7641   376
 8.7741   373
 8.7841   366
 8.7941   328
 8.8041   323
 8.8141   306
 8.8241   342
 8.8341   336
 8.8441   318
 8.8541   306
 8.8641   320
 8.8741   317
 8.8841   349
 8.8941   328
 8.9041   353
 8.9141   334
 8.9241   314
 8.9341   317
 8.9441   360
 8.9541   352
 8.9641   346
 8.9741   375
 8.9841   357
 8.9941   339
 9.0041   356
 9.0141   383
 9.0241   394
 9.0341   418
 9.0441   412
 9.0541   437
 9.0641   428
 9.0741   464
 9.0841   449
 9.0941   440
 9.1041   476
 9.1141   505
 9.1241   491
 9.1341   552
 9.1441   589
 9.1541   566
 9.1641   586
 9.1741   625
 9.1841   614
 9.1941   687
 9.2041   765
 9.2141   748
 9.2241   818
 9.2341   899
 9.2441   874
 9.2541   903
 9.2641   984
 9.2741  1019
 9.2841  1025
 9.2941  1104
 9.3041  1136
 9.3141  1167
 9.3241  1196
 9.3341  1195
 9.3441  1261
 9.3541  1285
 9.3641  1313
 9.3741  1394
 9.3841  1324
 9.3941  1309
 9.4041  1346
 9.4141  1322
 9.4241  1473
 9.4341  1533
 9.4441  1439
 9.4541  1445
 9.4641  1484
 9.4741  1511
 9.4841  1569
 9.4941  1583
 9.5041  1569
 9.5141  1679
 9.5241  1685
 9.5341  1781
 9.5441  1786
 9.5541  1892
 9.5641  2019
 9.5741  2163
 9.5841  2261
 9.5941  2388
 9.6041  2555
 9.6141  2683
 9.6241  2772
 9.6341  2893
 9.6441  2981
 9.6541  3114
 9.6641  3052
 9.6741  3064
 9.6841  3082
 9.6941  2963
 9.7041  2891
 9.7141  2714
 9.7241  2621
 9.7341  2461
 9.7441  2267
 9.7541  2013
 9.7641  1957
 9.7741  1755
 9.7841  1648
 9.7941  1536
 9.8041  1472
 9.8141  1407
 9.8241  1348
 9.8341  1285
 9.8441  1222
 9.8541  1247
 9.8641  1240
 9.8741  1300
 9.8841  1236
 9.8941  1315
 9.9041  1324
 9.9141  1280
 9.9241  1396
 9.9341  1338
 9.9441  1364
 9.9541  1414
 9.9641  1321
 9.9741  1331
 9.9841  1300
 9.9941  1240
10.0041  1132
10.0141  1064
10.0241   968
10.0341   904
10.0441   818
10.0541   764
10.0641   671
10.0741   566
10.0841   528
10.0941   489
10.1041   429
10.1141   399
10.1241   355
10.1341   326
10.1441   305
10.1541   292
10.1641   283
10.1741   277
10.1841   250
10.1941   232
10.2041   242
10.2141   231
10.2241   228
10.2341   211
10.2441   193
10.2541   198
10.2641   197
10.2741   213
10.2841   194
10.2941   184
10.3041   174
10.3141   167
10.3241   178
10.3341   197
10.3441   175
10.3541   151
10.3641   167
10.3741   173
10.3841   169
10.3941   168
10.4041   178
10.4141   176
10.4241   180
10.4341   166
10.4441   174
10.4541   196
10.4641   177
10.4741   196
10.4841   187
10.4941   200
10.5041   207
10.5141   197
10.5241   199
10.5341   180
10.5441   175
10.5541   199
10.5641   210
10.5741   199
10.5841   192
10.5941   191
10.6041   189
10.6141   233
10.6241   202
10.6341   211
10.6441   209
10.6541   203
10.6641   217
10.6741   185
10.6841   209
10.6941   211
10.7041   228
10.7141   226
10.7241   236
10.7341   251
10.7441   248
10.7541   242
10.7641   241
10.7741   274
10.7841   285
10.7941   251
10.8041   267
10.8141   260
10.8241   284
10.8341   302
10.8441   285
10.8541   278
10.8641   293
10.8741   304
10.8841   304
10.8941   288
10.9041   311
10.9141   291
10.9241   295
10.9341   308
10.9441   296
10.9541   307
10.9641   285
10.9741   273
10.9841   272
10.9941   299
11.0041   274
11.0141   289
11.0241   278
11.0341   276
11.0441   266
11.0541   269
11.0641   248
11.0741   247
11.0841   268
11.0941   257
11.1041   256
11.1141   282
11.1241   273
11.1341   269
11.1441   288
11.1541   295
11.1641   305
11.1741   316
11.1841   309
11.1941   328
11.2041   371
11.2141   366
11.2241   380
11.2341   404
11.2441   401
11.2541   409
11.2641   380
11.2741   386
11.2841   410
11.2941   421
11.3041   424
11.3141   409
11.3241   388
11.3341   382
11.3441   353
11.3541   338
11.3641   323
11.3741   318
11.3841   286
11.3941   300
11.4041   287
11.4141   235
11.4241   224
11.4341   242
11.4441   246
11.4541   230
11.4641   221
11.4741   207
11.4841   219
11.4941   227
11.5041   193
11.5141   211
11.5241   211
11.5341   220
11.5441   211
11.5541   219
11.5641   224
11.5741   206
11.5841   207
11.5941   226
11.6041   219
11.6141   223
11.6241   212
11.6341   203
11.6441   238
11.6541   247
11.6641   230
11.6741   224
11.6841   215
11.6941   216
11.7041   208
11.7141   211
11.7241   198
11.7341   187
11.7441   181
11.7541   181
11.7641   181
11.7741   168
11.7841   166
11.7941   169
11.8041   180
11.8141   166
11.8241   176
11.8341   170
11.8441   163
11.8541   163
11.8641   155
11.8741   163
11.8841   174
11.8941   152
11.9041   153
11.9141   156
11.9241   155
11.9341   152
11.9441   163
11.9541   152
11.9641   142
11.9741   147
11.9841   154
11.9941   166
12.0041   157
12.0141   155
12.0241   167
12.0341   159
12.0441   173
12.0541   184
12.0641   165
12.0741   168
12.0841   182
12.0941   174
12.1041   170
12.1141   156
12.1241   161
12.1341   173
12.1441   151
12.1541   164
12.1641   159
12.1741   156
12.1841   156
12.1941   160
12.2041   151
12.2141   142
12.2241   147
12.2341   157
12.2441   165
12.2541   166
12.2641   156
12.2741   157
12.2841   152
12.2941   146
12.3041   141
12.3141   150
12.3241   163
12.3341   165
12.3441   154
12.3541   151
12.3641   150
12.3741   146
12.3841   161
12.3941   173
12.4041   170
12.4141   164
12.4241   160
12.4341   151
12.4441   140
12.4541   142
12.4641   161
12.4741   169
12.4841   168
12.4941   167
12.5041   169
12.5141   175
12.5241   172
12.5341   169
12.5441   162
12.5541   161
12.5641   170
12.5741   160
12.5841   163
12.5941   165
12.6041   162
12.6141   169
12.6241   154
12.6341   152
12.6441   164
12.6541   172
12.6641   173
12.6741   168
12.6841   169
12.6941   173
12.7041   172
12.7141   177
12.7241   186
12.7341   188
12.7441   184
12.7541   178
12.7641   175
12.7741   177
12.7841   181
12.7941   181
12.8041   178
12.8141   177
12.8241   181
12.8341   180
12.8441   176
12.8541   184
12.8641   191
12.8741   190
12.8841   187
12.8941   185
12.9041   187
12.9141   193
12.9241   194
12.9341   186
12.9441   177
12.9541   176
12.9641   184
12.9741   191
12.9841   186
12.9941   161
13.0041   169
13.0141   183
13.0241   187
13.0341   200
13.0441   202
13.0541   192
13.0641   180
13.0741   185
13.0841   201
13.0941   190
13.1041   178
13.1141   193
13.1241   202
13.1341   203
13.1441   211
13.1541   188
13.1641   187
13.1741   203
13.1841   209
13.1941   209
13.2041   210
13.2141   208
13.2241   217
13.2341   218
13.2441   215
13.2541   228
13.2641   225
13.2741   215
13.2841   212
13.2941   236
13.3041   245
13.3141   238
13.3241   236
13.3341   241
13.3441   245
13.3541   247
13.3641   260
13.3741   267
13.3841   255
13.3941   243
13.4041   244
13.4141   253
13.4241   262
13.4341   262
13.4441   256
13.4541   251
13.4641   243
13.4741   234
13.4841   235
13.4941   242
13.5041   248
13.5141   253
13.5241   253
13.5341   247
13.5441   236
13.5541   232
13.5641   232
13.5741   234
13.5841   237
13.5941   235
13.6041   233
13.6141   241
13.6241   244
13.6341   235
13.6441   229
13.6541   230
13.6641   232
13.6741   229
13.6841   225
13.6941   234
13.7041   240
13.7141   226
13.7241   231
13.7341   252
13.7441   253
13.7541   248
13.7641   240
13.7741   236
13.7841   248
13.7941   257
13.8041   255
13.8141   240
13.8241   241
13.8341   244
13.8441   228
13.8541   246
13.8641   255
13.8741   255
13.8841   262
13.8941   238
13.9041   231
13.9141   260
13.9241   259
13.9341   252
13.9441   255
13.9541   253
13.9641   276
13.9741   272
13.9841   262
13.9941   281
14.0041   298
14.0141   295
14.0241   288
14.0341   294
14.0441   303
14.0541   301
14.0641   298
14.0741   305
14.0841   312
14.0941   309
14.1041   303
14.1141   295
14.1241   290
14.1341   299
14.1441   305
14.1541   309
14.1641   305
14.1741   294
14.1841   300
14.1941   332
14.2041   331
14.2141   312
14.2241   290
14.2341   282
14.2441   300
14.2541   290
14.2641   281
14.2741   290
14.2841   288
14.2941   267
14.3041   278
14.3141   294
14.3241   282
14.3341   275
14.3441   280
14.3541   280
14.3641   283
14.3741   288
14.3841   270
14.3941   257
14.4041   257
14.4141   265
14.4241   271
14.4341   283
14.4441   280
14.4541   278
14.4641   296
14.4741   277
14.4841   254
14.4941   269
14.5041   277
14.5141   266
14.5241   265
14.5341   284
14.5441   290
14.5541   276
14.5641   290
14.5741   304
14.5841   293
14.5941   288
14.6041   281
14.6141   287
14.6241   294
14.6341   278
14.6441   285
14.6541   294
14.6641   295
14.6741   301
14.6841   294
14.6941   283
14.7041   289
14.7141   291
14.7241   294
14.7341   298
14.7441   308
14.7541   310
14.7641   291
14.7741   290
14.7841   297
14.7941   292
14.8041   313
14.8141   313
14.8241   304
14.8341   318
14.8441   350
14.8541   329
14.8641   297
14.8741   334
14.8841   346
14.8941   341
14.9041   346
14.9141   340
14.9241   350
14.9341   334
14.9441   321
14.9541   330
14.9641   329
14.9741   347
14.9841   356
14.9941   341
15.0041   345
15.0141   333
15.0241   329
15.0341   342
15.0441   355
15.0541   359
15.0641   341
15.0741   319
15.0841   312
15.0941   331
15.1041   328
15.1141   317
15.1241   333
15.1341   336
15.1441   330
15.1541   343
15.1641   331
15.1741   334
15.1841   320
15.1941   308
15.2041   322
15.2141   310
15.2241   305
15.2341   315
15.2441   343
15.2541   342
15.2641   324
15.2741   331
15.2841   325
15.2941   319
15.3041   331
15.3141   337
15.3241   334
15.3341   333
15.3441   336
15.3541   348
15.3641   355
15.3741   354
15.3841   338
15.3941   341
15.4041   348
15.4141   361
15.4241   365
15.4341   345
15.4441   360
15.4541   368
15.4641   360
15.4741   342
15.4841   338
15.4941   365
15.5041   373
15.5141   356
15.5241   371
15.5341   389
15.5441   374
15.5541   362
15.5641   368
15.5741   352
15.5841   373
15.5941   409
15.6041   399
15.6141   404
15.6241   426
15.6341   414
15.6441   410
15.6541   426
15.6641   425
15.6741   452
15.6841   464
15.6941   481
15.7041   469
15.7141   479
15.7241   475
15.7341   477
15.7441   496
15.7541   485
15.7641   499
15.7741   520
15.7841   485
15.7941   475
15.8041   495
15.8141   492
15.8241   494
15.8341   468
15.8441   445
15.8541   455
15.8641   448
15.8741   424
15.8841   411
15.8941   411
15.9041   412
15.9141   413
15.9241   402
15.9341   399
15.9441   424
15.9541   410
15.9641   390
15.9741   400
15.9841   404
15.9941   396
16.0041   356
16.0141   377
16.0241   408
16.0341   392
16.0441   399
16.0541   380
16.0641   390
16.0741   384
16.0841   397
16.0941   407
16.1041   400
16.1141   384
16.1241   414
16.1341   395
16.1441   392
16.1541   402
16.1641   397
16.1741   385
16.1841   380
16.1941   389
16.2041   394
16.2141   389
16.2241   399
16.2341   411
16.2441   404
16.2541   399
16.2641   441
16.2741   445
16.2841   424
16.2941   437
16.3041   438
16.3141   407
16.3241   412
16.3341   432
16.3441   393
16.3541   406
16.3641   410
16.3741   422
16.3841   411
16.3941   406
16.4041   439
16.4141   453
16.4241   437
16.4341   435
16.4441   474
16.4541   440
16.4641   424
16.4741   416
16.4841   410
16.4941   445
16.5041   432
16.5141   420
16.5241   433
16.5341   455
16.5441   424
16.5541   410
16.5641   433
16.5741   455
16.5841   458
16.5941   446
16.6041   434
16.6141   422
16.6241   449
16.6341   464
16.6441   449
16.6541   450
16.6641   424
16.6741   432
16.6841   434
16.6941   469
16.7041   440
16.7141   458
16.7241   460
16.7341   430
16.7441   456
16.7541   463
16.7641   437
16.7741   438
16.7841   479
16.7941   468
16.8041   469
16.8141   482
16.8241   448
16.8341   447
16.8441   448
16.8541   456
16.8641   443
16.8741   432
16.8841   439
16.8941   470
16.9041   460
16.9141   461
16.9241   442
16.9341   453
16.9441   461
16.9541   460
16.9641   467
16.9741   458
16.9841   465
16.9941   476
17.0041   480
17.0141   465
17.0241   445
17.0341   461
17.0441   464
17.0541   451
17.0641   466
17.0741   493
17.0841   472
17.0941   477
17.1041   481
17.1141   466
17.1241   451
17.1341   432
17.1441   462
17.1541   486
17.1641   474
17.1741   494
17.1841   460
17.1941   450
17.2041   449
17.2141   480
17.2241   481
17.2341   449
17.2441   462
17.2541   473
17.2641   489
17.2741   508
17.2841   507
17.2941   519
17.3041   516
17.3141   522
17.3241   510
17.3341   503
17.3441   536
17.3541   526
17.3641   514
17.3741   524
17.3841   510
17.3941   533
17.4041   515
17.4141   507
17.4241   548
17.4341   559
17.4441   534
17.4541   533
17.4641   543
17.4741   531
17.4841   516
17.4941   513
17.5041   533
17.5141   530
17.5241   522
17.5341   529
17.5441   538
17.5541   549
17.5641   522
17.5741   520
17.5841   530
17.5941   524
17.6041   556
17.6141   529
17.6241   508
17.6341   534
17.6441   527
17.6541   511
17.6641   548
17.6741   569
17.6841   542
17.6941   539
17.7041   527
17.7141   550
17.7241   562
17.7341   554
17.7441   544
17.7541   562
17.7641   550
17.7741   509
17.7841   532
17.7941   553
17.8041   528
17.8141   514
17.8241   508
17.8341   535
17.8441   540
17.8541   507
17.8641   517
17.8741   520
17.8841   523
17.8941   509
17.9041   514
17.9141   540
17.9241   569
17.9341   552
17.9441   554
17.9541   539
17.9641   539
17.9741   525
17.9841   556
17.9941   562
18.0041   539
18.0141   554
18.0241   528
18.0341   539
18.0441   522
18.0541   507
18.0641   525
18.0741   526
18.0841   521
18.0941   534
18.1041   532
18.1141   508
18.1241   530
18.1341   519
18.1441   507
18.1541   533
18.1641   532
18.1741   557
18.1841   554
18.1941   535
18.2041   555
18.2141   565
18.2241   539
18.2341   516
18.2441   553
18.2541   540
18.2641   545
18.2741   545
18.2841   585
18.2941   548
18.3041   535
18.3141   541
18.3241   537
18.3341   565
18.3441   547
18.3541   553
18.3641   537
18.3741   529
18.3841   557
18.3941   559
18.4041   589
18.4141   599
18.4241   558
18.4341   534
18.4441   532
18.4541   553
18.4641   579
18.4741   565
18.4841   560
18.4941   546
18.5041   547
18.5141   553
18.5241   574
18.5341   606
18.5441   521
18.5541   544
18.5641   577
18.5741   587
18.5841   581
18.5941   589
18.6041   561
18.6141   564
18.6241   579
18.6341   576
18.6441   583
18.6541   576
18.6641   606
18.6741   600
18.6841   596
18.6941   567
18.7041   568
18.7141   544
18.7241   547
18.7341   567
18.7441   565
18.7541   558
18.7641   589
18.7741   563
18.7841   584
18.7941   563
18.8041   563
18.8141   589
18.8241   636
18.8341   600
18.8441   570
18.8541   557
18.8641   558
18.8741   595
18.8841   588
18.8941   592
18.9041   544
18.9141   588
18.9241   604
18.9341   608
18.9441   572
18.9541   598
18.9641   576
18.9741   605
18.9841   573
18.9941   597
19.0041   579
19.0141   570
19.0241   585
19.0341   581
19.0441   581
19.0541   602
19.0641   601
19.0741   582
19.0841   583
19.0941   584
19.1041   595
19.1141   581
19.1241   549
19.1341   600
19.1441   568
19.1541   584
19.1641   595
19.1741   603
19.1841   591
19.1941   589
19.2041   583
19.2141   589
19.2241   568
19.2341   556
19.2441   569
19.2541   535
19.2641   566
19.2741   617
19.2841   608
19.2941   615
19.3041   582
19.3141   607
19.3241   579
19.3341   594
19.3441   568
19.3541   562
19.3641   621
19.3741   607
19.3841   604
19.3941   586
19.4041   576
19.4141   558
19.4241   589
19.4341   608
19.4441   622
19.4541   617
19.4641   607
19.4741   598
19.4841   601
19.4941   602
19.5041   580
19.5141   581
19.5241   573
19.5341   588
19.5441   555
19.5541   569
19.5641   629
19.5741   633
19.5841   582
19.5941   622
19.6041   656
19.6141   597
19.6241   571
19.6341   595
19.6441   601
19.6541   571
19.6641   594
19.6741   642
19.6841   620
19.6941   640
19.7041   630
19.7141   615
19.7241   616
19.7341   583
19.7441   606
19.7541   647
19.7641   621
19.7741   664
19.7841   572
19.7941   627
19.8041   604
19.8141   611
19.8241   611
19.8341   589
19.8441   618
19.8541   633
19.8641   632
19.8741   613
19.8841   614
19.8941   635
19.9041   613
19.9141   620
19.9241   618
19.9341   587
19.9441   627
19.9541   602
19.9641   624
19.9741   579
19.9841   606
19.9941   678
20.0041   654
20.0141   610
20.0241   629
20.0341   623
20.0441   580
20.0541   611
20.0641   620
20.0741   584
20.0841   626
20.0941   639
20.1041   589
20.1141   633
20.1241   625
20.1341   603
20.1441   579
20.1541   597
20.1641   636
20.1741   652
20.1841   647
20.1941   623
20.2041   589
20.2141   620
20.2241   614
20.2341   676
20.2441   615
20.2541   620
20.2641   614
20.2741   585
20.2841   605
20.2941   632
20.3041   652
20.3141   662
20.3241   603
20.3341   629
20.3441   608
20.3541   590
20.3641   589
20.3741   643
20.3841   643
20.3941   606
20.4041   609
20.4141   650
20.4241   649
20.4341   639
20.4441   636
20.4541   639
20.4641   600
20.4741   600
20.4841   621
20.4941   610
20.5041   619
20.5141   647
20.5241   617
20.5341   626
20.5441   615
20.5541   650
20.5641   616
20.5741   629
20.5841   625
20.5941   634
20.6041   669
20.6141   669
20.6241   621
20.6341   607
20.6441   640
20.6541   652
20.6641   636
20.6741   644
20.6841   595
20.6941   648
20.7041   644
20.7141   641
20.7241   609
20.7341   610
20.7441   662
20.7541   664
20.7641   663
20.7741   650
20.7841   685
20.7941   617
20.8041   667
20.8141   633
20.8241   627
20.8341   659
20.8441   676
20.8541   651
20.8641   640
20.8741   690
20.8841   671
20.8941   673
20.9041   731
20.9141   728
20.9241   741
20.9341   720
20.9441   784
20.9541   734
20.9641   750
20.9741   747
20.9841   818
20.9941   777
21.0041   829
21.0141   814
21.0241   827
21.0341   850
21.0441   885
21.0541   900
21.0641   888
21.0741   917
21.0841   880
21.0941   898
21.1041   912
21.1141   922
21.1241   907
21.1341   909
21.1441   926
21.1541   963
21.1641   905
21.1741   855
21.1841   843
21.1941   913
21.2041   910
21.2141   866
21.2241   857
21.2341   838
21.2441   798
21.2541   814
21.2641   789
21.2741   799
21.2841   811
21.2941   761
21.3041   759
21.3141   720
21.3241   744
21.3341   700
21.3441   677
21.3541   730
21.3641   680
21.3741   704
21.3841   666
21.3941   687
21.4041   673
21.4141   651
21.4241   610
21.4341   605
21.4441   611
21.4541   590
21.4641   634
21.4741   635
21.4841   611
21.4941   600
21.5041   607
21.5141   580
21.5241   631
21.5341   621
21.5441   614
21.5541   607
21.5641   624
21.5741   636
21.5841   638
21.5941   626
21.6041   644
21.6141   607
21.6241   616
21.6341   628
21.6441   617
21.6541   563
21.6641   584
21.6741   606
21.6841   654
21.6941   637
21.7041   597
21.7141   602
21.7241   611
21.7341   650
21.7441   618
21.7541   607
21.7641   629
21.7741   595
21.7841   586
21.7941   582
21.8041   623
21.8141   595
21.8241   636
21.8341   633
21.8441   588
21.8541   623
21.8641   655
21.8741   623
21.8841   637
21.8941   604
21.9041   641
21.9141   646
21.9241   661
21.9341   599
21.9441   638
21.9541   634
21.9641   643
21.9741   619
21.9841   582
21.9941   547
22.0041   646
22.0141   613
22.0241   577
22.0341   617
22.0441   602
22.0541   561
22.0641   609
22.0741   617
22.0841   629
22.0941   669
22.1041   592
22.1141   638
22.1241   643
22.1341   630
22.1441   596
22.1541   621
22.1641   576
22.1741   655
22.1841   630
22.1941   569
22.2041   614
22.2141   572
22.2241   656
22.2341   629
22.2441   595
22.2541   587
22.2641   617
22.2741   634
22.2841   569
22.2941   585
22.3041   584
22.3141   615
22.3241   615
22.3341   584
22.3441   637
22.3541   589
22.3641   601
22.3741   612
22.3841   590
22.3941   654
22.4041   624
22.4141   625
22.4241   646
22.4341   612
22.4441   627
22.4541   607
22.4641   611
22.4741   639
22.4841   661
22.4941   613
22.5041   591
22.5141   588
22.5241   604
22.5341   615
22.5441   636
22.5541   625
22.5641   644
22.5741   597
22.5841   547
22.5941   579
22.6041   547
22.6141   625
22.6241   578
22.6341   600
22.6441   590
22.6541   607
22.6641   579
22.6741   617
22.6841   574
22.6941   627
22.7041   605
22.7141   634
22.7241   601
22.7341   608
22.7441   634
22.7541   609
22.7641   625
22.7741   605
22.7841   562
22.7941   575
22.8041   605
22.8141   632
22.8241   608
22.8341   587
22.8441   527
22.8541   578
22.8641   583
22.8741   623
22.8841   600
22.8941   621
22.9041   596
22.9141   587
22.9241   632
22.9341   586
22.9441   608
22.9541   582
22.9641   600
22.9741   633
22.9841   577
22.9941   601
23.0041   618
23.0141   583
23.0241   627
23.0341   576
23.0441   588
23.0541   607
23.0641   590
23.0741   588
23.0841   600
23.0941   600
23.1041   609
23.1141   571
23.1241   553
23.1341   602
23.1441   587
23.1541   619
23.1641   561
23.1741   597
23.1841   617
23.1941   564
23.2041   563
23.2141   624
23.2241   566
23.2341   631
23.2441   611
23.2541   565
23.2641   610
23.2741   560
23.2841   593
23.2941   594
23.3041   605
23.3141   552
23.3241   593
23.3341   561
23.3441   618
23.3541   572
23.3641   578
23.3741   564
23.3841   589
23.3941   593
23.4041   576
23.4141   576
23.4241   572
23.4341   565
23.4441   565
23.4541   544
23.4641   542
23.4741   584
23.4841   605
23.4941   601
23.5041   587
23.5141   565
23.5241   580
23.5341   549
23.5441   638
23.5541   526
23.5641   530
23.5741   599
23.5841   585
23.5941   606
23.6041   593
23.6141   602
23.6241   610
23.6341   585
23.6441   588
23.6541   630
23.6641   580
23.6741   611
23.6841   633
23.6941   624
23.7041   605
23.7141   567
23.7241   612
23.7341   601
23.7441   626
23.7541   597
23.7641   669
23.7741   619
23.7841   630
23.7941   642
23.8041   636
23.8141   608
23.8241   613
23.8341   623
23.8441   634
23.8541   650
23.8641   632
23.8741   610
23.8841   665
23.8941   635
23.9041   582
23.9141   588
23.9241   626
23.9341   615
23.9441   618
23.9541   578
23.9641   619
23.9741   562
23.9841   605
23.9941   595
24.0041   573
24.0141   557
24.0241   586
24.0341   580
24.0441   600
24.0541   577
24.0641   579
24.0741   556
24.0841   540
24.0941   544
24.1041   531
24.1141   556
24.1241   620
24.1341   534
24.1441   568
24.1541   563
24.1641   562
24.1741   583
24.1841   556
24.1941   569
24.2041   582
24.2141   519
24.2241   526
24.2341   568
24.2441   578
24.2541   574
24.2641   581
24.2741   555
24.2841   576
24.2941   560
24.3041   555
24.3141   570
24.3241   544
24.3341   544
24.3441   537
24.3541   548
24.3641   544
24.3741   522
24.3841   578
24.3941   548
24.4041   575
24.4141   558
24.4241   576
24.4341   515
24.4441   579
24.4541   555
24.4641   533
24.4741   565
24.4841   526
24.4941   534
24.5041   548
24.5141   557
24.5241   544
24.5341   588
24.5441   567
24.5541   527
24.5641   559
24.5741   519
24.5841   559
24.5941   549
24.6041   574
24.6141   574
24.6241   558
24.6341   520
24.6441   504
24.6541   540
24.6641   545
24.6741   530
24.6841   526
24.6941   514
24.7041   555
24.7141   521
24.7241   545
24.7341   532
24.7441   562
24.7541   503
24.7641   495
24.7741   531
24.7841   499
24.7941   554
24.8041   515
24.8141   525
24.8241   534
24.8341   543
24.8441   513
24.8541   530
24.8641   572
24.8741   564
24.8841   484
24.8941   557
24.9041   521
24.9141   551
24.9241   520
24.9341   545
24.9441   540
24.9541   534
24.9641   541
24.9741   556
24.9841   522
24.9941   551
25.0041   522
25.0141   531
25.0241   523
25.0341   496
25.0441   535
25.0541   557
25.0641   539
25.0741   524
25.0841   526
25.0941   557
25.1041   555
25.1141   522
25.1241   516
25.1341   515
25.1441   538
25.1541   557
25.1641   543
25.1741   537
25.1841   533
25.1941   558
25.2041   531
25.2141   536
25.2241   554
25.2341   526
25.2441   508
25.2541   532
25.2641   588
25.2741   513
25.2841   531
25.2941   537
25.3041   524
25.3141   533
25.3241   508
25.3341   488
25.3441   526
25.3541   514
25.3641   524
25.3741   530
25.3841   539
25.3941   496
25.4041   504
25.4141   490
25.4241   528
25.4341   502
25.4441   499
25.4541   520
25.4641   494
25.4741   489
25.4841   531
25.4941   523
25.5041   511
25.5141   471
25.5241   487
25.5341   530
25.5441   476
25.5541   477
25.5641   512
25.5741   478
25.5841   498
25.5941   461
25.6041   468
25.6141   511
25.6241   495
25.6341   463
25.6441   499
25.6541   483
25.6641   496
25.6741   518
25.6841   521
25.6941   517
25.7041   461
25.7141   496
25.7241   473
25.7341   488
25.7441   490
25.7541   478
25.7641   498
25.7741   471
25.7841   514
25.7941   488
25.8041   486
25.8141   462
25.8241   488
25.8341   466
25.8441   489
25.8541   456
25.8641   497
25.8741   485
25.8841   450
25.8941   474
25.9041   461
25.9141   499
25.9241   480
25.9341   504
25.9441   487
25.9541   482
25.9641   514
25.9741   512
25.9841   433
25.9941   510
26.0041   521
26.0141   474
26.0241   472
26.0341   472
26.0441   502
26.0541   488
26.0641   489
26.0741   476
26.0841   462
26.0941   455
26.1041   462
26.1141   452
26.1241   470
26.1341   486
26.1441   466
26.1541   457
26.1641   475
26.1741   474
26.1841   466
26.1941   476
26.2041   505
26.2141   468
26.2241   464
26.2341   427
26.2441   473
26.2541   508
26.2641   498
26.2741   466
26.2841   438
26.2941   481
26.3041   472
26.3141   462
26.3241   445
26.3341   534
26.3441   465
26.3541   451
26.3641   462
26.3741   427
26.3841   445
26.3941   477
26.4041   481
26.4141   458
26.4241   448
26.4341   430
26.4441   445
26.4541   450
26.4641   453
26.4741   455
26.4841   452
26.4941   438
26.5041   435
26.5141   413
26.5241   479
26.5341   468
26.5441   407
26.5541   431
26.5641   428
26.5741   462
26.5841   428
26.5941   451
26.6041   424
26.6141   449
26.6241   452
26.6341   425
26.6441   468
26.6541   449
26.6641   441
26.6741   442
26.6841   429
26.6941   473
26.7041   451
26.7141   444
26.7241   453
26.7341   464
26.7441   474
26.7541   446
26.7641   420
26.7741   435
26.7841   453
26.7941   443
26.8041   444
26.8141   430
26.8241   420
26.8341   448
26.8441   402
26.8541   455
26.8641   459
26.8741   452
26.8841   434
26.8941   428
26.9041   445
26.9141   446
26.9241   391
26.9341   424
26.9441   469
26.9541   402
26.9641   432
26.9741   436
26.9841   441
26.9941   417
27.0041   394
27.0141   437
27.0241   431
27.0341   429
27.0441   436
27.0541   417
27.0641   425
27.0741   424
27.0841   425
27.0941   395
27.1041   414
27.1141   413
27.1241   430
27.1341   404
27.1441   392
27.1541   431
27.1641   438
27.1741   403
27.1841   410
27.1941   393
27.2041   422
27.2141   405
27.2241   415
27.2341   430
27.2441   383
27.2541   376
27.2641   431
27.2741   419
27.2841   409
27.2941   408
27.3041   455
27.3141   451
27.3241   418
27.3341   413
27.3441   409
27.3541   415
27.3641   413
27.3741   401
27.3841   406
27.3941   386
27.4041   401
27.4141   407
27.4241   417
27.4341   400
27.4441   405
27.4541   389
27.4641   410
27.4741   418
27.4841   385
27.4941   412
27.5041   431
27.5141   385
27.5241   421
27.5341   407
27.5441   422
27.5541   386
27.5641   430
27.5741   431
27.5841   411
27.5941   444
27.6041   412
27.6141   410
27.6241   405
27.6341   401
27.6441   413
27.6541   392
27.6641   411
27.6741   361
27.6841   378
27.6941   402
27.7041   422
27.7141   388
27.7241   387
27.7341   369
27.7441   369
27.7541   405
27.7641   402
27.7741   402
27.7841   402
27.7941   381
27.8041   390
27.8141   340
27.8241   391
27.8341   357
27.8441   370
27.8541   382
27.8641   387
27.8741   369
27.8841   412
27.8941   412
27.9041   402
27.9141   356
27.9241   378
27.9341   361
27.9441   394
27.9541   405
27.9641   395
27.9741   375
27.9841   347
27.9941   338
28.0041   357
28.0141   368
28.0241   382
28.0341   389
28.0441   363
28.0541   374
28.0641   372
28.0741   398
28.0841   385
28.0941   374
28.1041   386
28.1141   368
28.1241   382
28.1341   359
28.1441   375
28.1541   398
28.1641   414
28.1741   382
28.1841   397
28.1941   403
28.2041   374
28.2141   371
28.2241   342
28.2341   372
28.2441   339
28.2541   381
28.2641   351
28.2741   383
28.2841   368
28.2941   340
28.3041   383
28.3141   355
28.3241   387
28.3341   354
28.3441   381
28.3541   353
28.3641   367
28.3741   389
28.3841   344
28.3941   348
28.4041   388
28.4141   381
28.4241   353
28.4341   363
28.4441   371
28.4541   357
28.4641   351
28.4741   328
28.4841   350
28.4941   390
28.5041   351
28.5141   362
28.5241   372
28.5341   362
28.5441   382
28.5541   341
28.5641   347
28.5741   351
28.5841   334
28.5941   354
28.6041   384
28.6141   379
28.6241   364
28.6341   365
28.6441   363
28.6541   366
28.6641   345
28.6741   335
28.6841   360
28.6941   365
28.7041   366
28.7141   365
28.7241   330
28.7341   337
28.7441   343
28.7541   369
28.7641   370
28.7741   363
28.7841   360
28.7941   334
28.8041   360
28.8141   302
28.8241   362
28.8341   335
28.8441   304
28.8541   333
28.8641   353
28.8741   376
28.8841   365
28.8941   328
28.9041   339
28.9141   321
28.9241   356
28.9341   322
28.9441   318
28.9541   338
28.9641   310
28.9741   339
28.9841   337
28.9941   323
29.0041   341
29.0141   324
29.0241   330
29.0341   318
29.0441   320
29.0541   349
29.0641   302
29.0741   312
29.0841   318
29.0941   316
29.1041   309
29.1141   286
29.1241   316
29.1341   314
29.1441   326
29.1541   316
29.1641   328
29.1741   345
29.1841   354
29.1941   335
29.2041   326
29.2141   318
29.2241   336
29.2341   346
29.2441   312
29.2541   357
29.2641   313
29.2741   300
29.2841   295
29.2941   316
29.3041   310
29.3141   347
29.3241   313
29.3341   319
29.3441   317
29.3541   322
29.3641   298
29.3741   322
29.3841   320
29.3941   332
29.4041   330
29.4141   314
29.4241   338
29.4341   317
29.4441   318
29.4541   333
29.4641   346
29.4741   341
29.4841   301
29.4941   320
29.5041   301
29.5141   305
29.5241   316
29.5341   320
29.5441   323
29.5541   314
29.5641   318
29.5741   323
29.5841   317
29.5941   315
29.6041   322
29.6141   307
29.6241   306
29.6341   326
29.6441   288
29.6541   288
29.6641   322
29.6741   301
29.6841   303
29.6941   290
29.7041   303
29.7141   292
29.7241   315
29.7341   298
29.7441   292
29.7541   299
29.7641   327
29.7741   287
29.7841   280
29.7941   298
29.8041   287
29.8141   286
29.8241   309
29.8341   291
29.8441   313
29.8541   314
29.8641   305
29.8741   276
29.8841   278
29.8941   307
29.9041   265
29.9141   278
29.9241   303
29.9341   304
29.9441   321
29.9541   296
29.9641   283
29.9741   314
29.9841   280
29.9941   266
30.0041   286
30.0141   293
30.0241   284
30.0341   289
30.0441   272
30.0541   279
30.0641   327
30.0741   285
30.0841   292
30.0941   265
30.1041   280
30.1141   274
30.1241   277
30.1341   277
30.1441   311
30.1541   288
30.1641   283
30.1741   291
30.1841   253
30.1941   294
30.2041   296
30.2141   283
30.2241   280
30.2341   291
30.2441   311
30.2541   292
30.2641   275
30.2741   281
30.2841   274
30.2941   277
30.3041   275
30.3141   282
30.3241   296
30.3341   280
30.3441   278
30.3541   279
30.3641   256
30.3741   288
30.3841   282
30.3941   299
30.4041   277
30.4141   266
30.4241   299
30.4341   287
30.4441   274
30.4541   251
30.4641   298
30.4741   239
30.4841   292
30.4941   293
30.5041   301
30.5141   254
30.5241   262
30.5341   268
30.5441   281
30.5541   275
30.5641   287
30.5741   281
30.5841   280
30.5941   268
30.6041   231
30.6141   283
30.6241   267
30.6341   259
30.6441   260
30.6541   253
30.6641   236
30.6741   256
30.6841   276
30.6941   261
30.7041   278
30.7141   254
30.7241   238
30.7341   270
30.7441   259
30.7541   256
30.7641   283
30.7741   253
30.7841   262
30.7941   249
30.8041   278
30.8141   273
30.8241   248
30.8341   257
30.8441   292
30.8541   279
30.8641   260
30.8741   267
30.8841   286
30.8941   256
30.9041   258
30.9141   278
30.9241   262
30.9341   245
30.9441   260
30.9541   206
30.9641   239
30.9741   258
30.9841   251
30.9941   239
31.0041   239
31.0141   222
31.0241   248
31.0341   248
31.0441   239
31.0541   234
31.0641   230
31.0741   251
31.0841   229
31.0941   258
31.1041   245
31.1141   244
31.1241   239
31.1341   227
31.1441   240
31.1541   259
31.1641   238
31.1741   253
31.1841   241
31.1941   255
31.2041   279
31.2141   246
31.2241   234
31.2341   234
31.2441   256
31.2541   225
31.2641   225
31.2741   229
31.2841   231
31.2941   250
31.3041   223
31.3141   232
31.3241   248
31.3341   259
31.3441   236
31.3541   212
31.3641   233
31.3741   242
31.3841   240
31.3941   222
31.4041   233
31.4141   222
31.4241   256
31.4341   219
31.4441   261
31.4541   268
31.4641   241
31.4741   227
31.4841   244
31.4941   212
31.5041   230
31.5141   231
31.5241   219
31.5341   242
31.5441   208
31.5541   233
31.5641   243
31.5741   214
31.5841   224
31.5941   209
31.6041   240
31.6141   248
31.6241   223
31.6341   244
31.6441   236
31.6541   231
31.6641   216
31.6741   220
31.6841   210
31.6941   236
31.7041   233
31.7141   226
31.7241   230
31.7341   241
31.7441   240
31.7541   218
31.7641   204
31.7741   234
31.7841   221
31.7941   207
31.8041   221
31.8141   230
31.8241   228
31.8341   226
31.8441   215
31.8541   232
31.8641   217
31.8741   210
31.8841   191
31.8941   250
31.9041   193
31.9141   195
31.9241   236
31.9341   232
31.9441   225
31.9541   228
31.9641   233
31.9741   226
31.9841   216
31.9941   201
32.0041   210
32.0141   225
32.0241   202
32.0341   190
32.0441   205
32.0541   208
32.0641   197
32.0741   237
32.0841   218
32.0941   214
32.1041   203
32.1141   193
32.1241   232
32.1341   224
32.1441   200
32.1541   175
32.1641   212
32.1741   208
32.1841   206
32.1941   200
32.2041   222
32.2141   207
32.2241   193
32.2341   196
32.2441   221
32.2541   228
32.2641   207
32.2741   211
32.2841   196
32.2941   212
32.3041   234
32.3141   202
32.3241   199
32.3341   223
32.3441   206
32.3541   185
32.3641   199
32.3741   203
32.3841   213
32.3941   230
32.4041   190
32.4141   199
32.4241   215
32.4341   177
32.4441   200
32.4541   193
32.4641   208
32.4741   231
32.4841   199
32.4941   213
32.5041   185
32.5141   185
32.5241   176
32.5341   180
32.5441   180
32.5541   193
32.5641   212
32.5741   211
32.5841   188
32.5941   175
32.6041   186
32.6141   192
32.6241   205
32.6341   194
32.6441   180
32.6541   188
32.6641   206
32.6741   218
32.6841   194
32.6941   198
32.7041   191
32.7141   196
32.7241   184
32.7341   202
32.7441   189
32.7541   175
32.7641   188
32.7741   179
32.7841   168
32.7941   176
32.8041   198
32.8141   169
32.8241   165
32.8341   182
32.8441   169
32.8541   184
32.8641   207
32.8741   179
32.8841   166
32.8941   190
32.9041   173
32.9141   195
32.9241   201
32.9341   175
32.9441   171
32.9541   178
32.9641   167
32.9741   178
32.9841   176
32.9941   174
33.0041   182
33.0141   191
33.0241   178
33.0341   174
33.0441   175
33.0541   174
33.0641   166
33.0741   182
33.0841   173
33.0941   167
33.1041   176
33.1141   184
33.1241   183
33.1341   186
33.1441   145
33.1541   155
33.1641   186
33.1741   185
33.1841   177
33.1941   160
33.2041   185
33.2141   169
33.2241   178
33.2341   168
33.2441   172
33.2541   167
33.2641   170
33.2741   164
33.2841   169
33.2941   183
33.3041   168
33.3141   163
33.3241   181
33.3341   167
33.3441   176
33.3541   178
33.3641   185
33.3741   152
33.3841   157
33.3941   166
33.4041   146
33.4141   158
33.4241   181
33.4341   143
33.4441   158
33.4541   169
33.4641   169
33.4741   150
33.4841   189
33.4941   157
33.5041   171
33.5141   150
33.5241   157
33.5341   154
33.5441   158
33.5541   158
33.5641   151
33.5741   148
33.5841   152
33.5941   168
33.6041   178
33.6141   166
33.6241   163
33.6341   157
33.6441   164
33.6541   153
33.6641   147
33.6741   163
33.6841   152
33.6941   160
33.7041   152
33.7141   178
33.7241   134
33.7341   161
33.7441   143
33.7541   154
33.7641   145
33.7741   155
33.7841   140
33.7941   160
33.8041   165
33.8141   161
33.8241   151
33.8341   159
33.8441   160
33.8541   143
33.8641   132
33.8741   147
33.8841   146
33.8941   133
33.9041   153
33.9141   164
33.9241   150
33.9341   160
33.9441   149
33.9541   154
33.9641   177
33.9741   166
33.9841   129
33.9941   137
34.0041   162
34.0141   156
34.0241   148
34.0341   150
34.0441   166
34.0541   138
34.0641   139
34.0741   145
34.0841   147
34.0941   153
34.1041   149
34.1141   134
34.1241   152
34.1341   149
34.1441   160
34.1541   151
34.1641   146
34.1741   152
34.1841   142
34.1941   126
34.2041   167
34.2141   164
34.2241   147
34.2341   156
34.2441   140
34.2541   132
34.2641   165
34.2741   141
34.2841   152
34.2941   138
34.3041   128
34.3141   116
34.3241   141
34.3341   138
34.3441   149
34.3541   130
34.3641   137
34.3741   160
34.3841   154
34.3941   145
34.4041   140
34.4141   128
34.4241   152
34.4341   129
34.4441   133
34.4541   141
34.4641   151
34.4741   126
34.4841   149
34.4941   131
34.5041   148
34.5141   138
34.5241   121
34.5341   126
34.5441   142
34.5541   155
34.5641   139
34.5741   125
34.5841   131
34.5941   130
34.6041   122
34.6141   112
34.6241   133
34.6341   128
34.6441   121
34.6541   121
34.6641   131
34.6741   124
34.6841   146
34.6941   137
34.7041   140
34.7141   135
34.7241   149
34.7341   149
34.7441   152
34.7541   117
34.7641   153
34.7741   131
34.7841   141
34.7941   118
34.8041   139
34.8141   120
34.8241   126
34.8341   129
34.8441   133
34.8541   137
34.8641   132
34.8741   124
34.8841   144
34.8941   123
34.9041   114
34.9141   131
34.9241   115
34.9341   117
34.9441   120
34.9541   111
34.9641   118
34.9741   111
34.9841   118
34.9941   116
35.0041   128
35.0141   100
35.0241   121
35.0341   119
35.0441   112
35.0541   110
35.0641   142
35.0741   123
35.0841   127
35.0941   122
35.1041   117
35.1141   116
35.1241   123
35.1341   126
35.1441   118
35.1541   131
35.1641   130
35.1741   110
35.1841   126
35.1941   129
35.2041   119
35.2141   106
35.2241   121
35.2341   109
35.2441   124
35.2541   102
35.2641   112
35.2741   106
35.2841   119
35.2941   123
35.3041   109
35.3141   102
35.3241   116
35.3341   116
35.3441   114
35.3541   105
35.3641   117
35.3741   117
35.3841    94
35.3941    98
35.4041   133
35.4141    96
35.4241   102
35.4341   104
35.4441    93
35.4541    95
35.4641   125
35.4741   113
35.4841   127
35.4941   106
35.5041    99
35.5141   109
35.5241    97
35.5341    92
35.5441   112
35.5541   102
35.5641   110
35.5741   137
35.5841   112
35.5941   112
35.6041   101
35.6141   119
35.6241    97
35.6341   121
35.6441   123
35.6541   118
35.6641   121
35.6741   106
35.6841    98
35.6941    93
35.7041    92
35.7141    98
35.7241   101
35.7341   136
35.7441   111
35.7541   109
35.7641   102
35.7741   111
35.7841   100
35.7941   112
35.8041   101
35.8141   105
35.8241   118
35.8341   107
35.8441   126
35.8541   107
35.8641   104
35.8741   111
35.8841   104
35.8941    83
35.9041    88
35.9141   100
35.9241    94
35.9341    98
35.9441    95
35.9541    92
35.9641   110
35.9741   123
35.9841   109
35.9941   102
36.0041    93
36.0141    95
36.0241    89
36.0341    86
36.0441   103
36.0541    89
36.0641   104
36.0741    90
36.0841    86
36.0941    91
36.1041    84
36.1141    94
36.1241    97
36.1341   108
36.1441    85
36.1541    83
36.1641    94
36.1741   107
36.1841   100
36.1941   108
36.2041    93
36.2141   114
36.2241   108
36.2341    95
36.2441   103
36.2541   104
36.2641    97
36.2741    90
36.2841   103
36.2941    85
36.3041    90
36.3141    96
36.3241   104
36.3341    88
36.3441    95
36.3541    83
36.3641   111
36.3741    87
36.3841    91
36.3941   102
36.4041   112
36.4141   111
36.4241    92
36.4341    87
36.4441    89
36.4541    88
36.4641    73
36.4741    76
36.4841    78
36.4941    96
36.5041   102
36.5141    81
36.5241    86
36.5341    93
36.5441    75
36.5541    74
36.5641    73
36.5741    92
36.5841    86
36.5941    82
36.6041    83
36.6141    92
36.6241    86
36.6341    73
36.6441    96
36.6541    81
36.6641    82
36.6741    80
36.6841    76
36.6941    72
36.7041    81
36.7141    84
36.7241    77
36.7341    76
36.7441    91
36.7541    64
36.7641    73
36.7741    78
36.7841    70
36.7941    84
36.8041    72
36.8141    69
36.8241    87
36.8341    81
36.8441    88
36.8541    79
36.8641    83
36.8741    75
36.8841    79
36.8941    81
36.9041    76
36.9141    61
36.9241    87
36.9341    65
36.9441    87
36.9541    77
36.9641    67
36.9741    75
36.9841    99
36.9941    79
37.0041    70
37.0141    79
37.0241    69
37.0341    87
37.0441    65
37.0541    78
37.0641    67
37.0741    73
37.0841    69
37.0941    78
37.1041    83
37.1141    74
37.1241    78
37.1341    81
37.1441    76
37.1541    80
37.1641    65
37.1741    70
37.1841    69
37.1941    77
37.2041    89
37.2141    72
37.2241    76
37.2341    72
37.2441    62
37.2541    62
37.2641    69
37.2741    67
37.2841    80
37.2941    68
37.3041    79
37.3141    83
37.3241    60
37.3341    78
37.3441    60
37.3541    73
37.3641    75
37.3741    62
37.3841    65
37.3941    74
37.4041    71
37.4141    67
37.4241    78
37.4341    71
37.4441    81
37.4541    62
37.4641    67
37.4741    64
37.4841    60
37.4941    75
37.5041    66
37.5141    57
37.5241    79
37.5341    63
37.5441    47
37.5541    68
37.5641    54
37.5741    66
37.5841    66
37.5941    57
37.6041    67
37.6141    64
37.6241    61
37.6341    57
37.6441    72
37.6541    73
37.6641    62
37.6741    67
37.6841    68
37.6941    66
37.7041    67
37.7141    70
37.7241    67
37.7341    80
37.7441    63
37.7541    61
37.7641    71
37.7741    50
37.7841    64
37.7941    74
37.8041    68
37.8141    68
37.8241    69
37.8341    63
37.8441    68
37.8541    43
37.8641    75
37.8741    63
37.8841    71
37.8941    79
37.9041    69
37.9141    53
37.9241    57
37.9341    61
37.9441    61
37.9541    49
37.9641    61
37.9741    53
37.9841    62
37.9941    65
38.0041    59
38.0141    51
38.0241    56
38.0341    47
38.0441    49
38.0541    55
38.0641    52
38.0741    58
38.0841    71
38.0941    55
38.1041    53
38.1141    63
38.1241    57
38.1341    56
38.1441    60
38.1541    58
38.1641    56
38.1741    62
38.1841    57
38.1941    57
38.2041    73
38.2141    54
38.2241    58
38.2341    41
38.2441    53
38.2541    51
38.2641    41
38.2741    45
38.2841    70
38.2941    65
38.3041    57
38.3141    38
38.3241    58
38.3341    60
38.3441    56
38.3541    46
38.3641    61
38.3741    55
38.3841    46
38.3941    52
38.4041    46
38.4141    55
38.4241    47
38.4341    52
38.4441    41
38.4541    51
38.4641    56
38.4741    54
38.4841    62
38.4941    50
38.5041    50
38.5141    60
38.5241    57
38.5341    54
38.5441    48
38.5541    54
38.5641    43
38.5741    53
38.5841    52
38.5941    54
38.6041    59
38.6141    46
38.6241    50
38.6341    46
38.6441    47
38.6541    53
38.6641    31
38.6741    53
38.6841    35
38.6941    40
38.7041    41
38.7141    38
38.7241    41
38.7341    42
38.7441    50
38.7541    49
38.7641    44
38.7741    52
38.7841    50
38.7941    44
38.8041    47
38.8141    52
38.8241    39
38.8341    43
38.8441    49
38.8541    42
38.8641    37
38.8741    37
38.8841    49
38.8941    53
38.9041    45
38.9141    46
38.9241    43
38.9341    50
38.9441    50
38.9541    45
38.9641    42
38.9741    29
38.9841    48
38.9941    50
39.0041    46
39.0141    44
39.0241    51
39.0341    46
39.0441    50
39.0541    41
39.0641    45
39.0741    41
39.0841    48
39.0941    43
39.1041    39
39.1141    49
39.1241    42
39.1341    49
39.1441    46
39.1541    35
39.1641    47
39.1741    37
39.1841    46
39.1941    39
39.2041    34
39.2141    33
39.2241    41
39.2341    44
39.2441    45
39.2541    36
39.2641    36
39.2741    36
39.2841    35
39.2941    46
39.3041    24
39.3141    44
39.3241    39
39.3341    34
39.3441    36
39.3541    38
39.3641    32
39.3741    39
39.3841    30
39.3941    34
39.4041    25
39.4141    37
39.4241    28
39.4341    36
39.4441    36
39.4541    43
39.4641    35
39.4741    33
39.4841    37
39.4941    36
39.5041    38
39.5141    33
39.5241    34
39.5341    38
39.5441    27
39.5541    35
39.5641    46
39.5741    24
39.5841    23
39.5941    34
39.6041    29
39.6141    41
39.6241    37
39.6341    37
39.6441    41
39.6541    27
39.6641    36
39.6741    36
39.6841    36
39.6941    30
39.7041    34
39.7141    41
39.7241    37
39.7341    39
39.7441    29
39.7541    33
39.7641    47
39.7741    49
39.7841    37
39.7941    22
39.8041    33
39.8141    21
39.8241    37
39.8341    27
39.8441    29
39.8541    36
39.8641    35
39.8741    32
39.8841    30
39.8941    37
39.9041    22
39.9141    28
39.9241    38
39.9341    22
39.9441    26
39.9541    30
39.9641    28
39.9741    28
39.9841    36
