Bruker Nano GmbH Berlin, Germany
Esprit 1.9

Date: 4/21/2021 1:33:34 PM
Real time: 17446
Life time: 16179
Pulse density: 108761


Detector type: XFlash 430
Window type: Custom type
Detector thickness: 0.45
Si dead layer:0.029

Calibration, lin.: 10
Calibration, abs.: -955.9
Mn FWHM: 137.05
Fano factor: 0.121
Channels: 4095

Energy Counts
-0.9559     0
-0.9459     0
-0.9359     0
-0.9259     0
-0.9159     0
-0.9059     0
-0.8959     0
-0.8859     0
-0.8759     0
-0.8659     0
-0.8559     0
-0.8459     0
-0.8359     0
-0.8259     0
-0.8159     0
-0.8059     0
-0.7959     0
-0.7859     0
-0.7759     0
-0.7659     0
-0.7559     0
-0.7459     0
-0.7359     0
-0.7259     0
-0.7159     0
-0.7059     0
-0.6959     0
-0.6859     0
-0.6759     0
-0.6659     0
-0.6559     0
-0.6459     0
-0.6359     0
-0.6259     0
-0.6159     0
-0.6059     0
-0.5959     0
-0.5859     0
-0.5759     0
-0.5659     0
-0.5559     0
-0.5459     0
-0.5359     0
-0.5259     0
-0.5159     0
-0.5059     0
-0.4959     0
-0.4859     0
-0.4759     0
-0.4659     0
-0.4559     0
-0.4459     0
-0.4359     0
-0.4259     0
-0.4159     0
-0.4059     0
-0.3959     0
-0.3859     0
-0.3759     0
-0.3659     0
-0.3559     0
-0.3459     0
-0.3359     0
-0.3259     0
-0.3159     0
-0.3059     0
-0.2959     0
-0.2859     0
-0.2759     0
-0.2659     0
-0.2559     0
-0.2459     0
-0.2359     0
-0.2259     0
-0.2159     0
-0.2059     0
-0.1959     0
-0.1859     0
-0.1759     0
-0.1659     0
-0.1559     0
-0.1459     0
-0.1359     0
-0.1259     2
-0.1159     2
-0.1059    10
-0.0959    43
-0.0859   178
-0.0759   692
-0.0659  1840
-0.0559  4815
-0.0459 10272
-0.0359 19240
-0.0259 31128
-0.0159 41907
-0.0059 49640
 0.0041 49710
 0.0141 42980
 0.0241 31664
 0.0341 20122
 0.0441 10752
 0.0541  5095
 0.0641  1978
 0.0741   694
 0.0841   212
 0.0941    75
 0.1041    16
 0.1141     8
 0.1241     8
 0.1341     4
 0.1441     1
 0.1541     2
 0.1641     0
 0.1741    19
 0.1841   143
 0.1941   301
 0.2041   267
 0.2141   268
 0.2241   286
 0.2341   271
 0.2441   275
 0.2541   272
 0.2641   281
 0.2741   266
 0.2841   284
 0.2941   283
 0.3041   251
 0.3141   235
 0.3241   238
 0.3341   252
 0.3441   250
 0.3541   260
 0.3641   242
 0.3741   246
 0.3841   241
 0.3941   240
 0.4041   218
 0.4141   241
 0.4241   238
 0.4341   242
 0.4441   247
 0.4541   237
 0.4641   234
 0.4741   225
 0.4841   233
 0.4941   245
 0.5041   232
 0.5141   215
 0.5241   186
 0.5341   197
 0.5441   199
 0.5541   207
 0.5641   203
 0.5741   226
 0.5841   228
 0.5941   207
 0.6041   210
 0.6141   205
 0.6241   215
 0.6341   210
 0.6441   205
 0.6541   201
 0.6641   200
 0.6741   211
 0.6841   207
 0.6941   198
 0.7041   194
 0.7141   196
 0.7241   187
 0.7341   196
 0.7441   209
 0.7541   195
 0.7641   193
 0.7741   195
 0.7841   198
 0.7941   196
 0.8041   199
 0.8141   203
 0.8241   202
 0.8341   208
 0.8441   200
 0.8541   173
 0.8641   185
 0.8741   197
 0.8841   187
 0.8941   181
 0.9041   182
 0.9141   182
 0.9241   187
 0.9341   184
 0.9441   182
 0.9541   177
 0.9641   185
 0.9741   188
 0.9841   191
 0.9941   189
 1.0041   198
 1.0141   196
 1.0241   194
 1.0341   167
 1.0441   156
 1.0541   176
 1.0641   168
 1.0741   166
 1.0841   185
 1.0941   170
 1.1041   163
 1.1141   175
 1.1241   169
 1.1341   152
 1.1441   166
 1.1541   181
 1.1641   157
 1.1741   152
 1.1841   159
 1.1941   153
 1.2041   176
 1.2141   187
 1.2241   158
 1.2341   155
 1.2441   164
 1.2541   164
 1.2641   170
 1.2741   192
 1.2841   177
 1.2941   147
 1.3041   166
 1.3141   162
 1.3241   158
 1.3341   161
 1.3441   172
 1.3541   151
 1.3641   169
 1.3741   167
 1.3841   164
 1.3941   147
 1.4041   171
 1.4141   158
 1.4241   145
 1.4341   161
 1.4441   148
 1.4541   161
 1.4641   160
 1.4741   158
 1.4841   174
 1.4941   170
 1.5041   174
 1.5141   168
 1.5241   171
 1.5341   158
 1.5441   145
 1.5541   146
 1.5641   141
 1.5741   141
 1.5841   142
 1.5941   132
 1.6041   136
 1.6141   139
 1.6241   150
 1.6341   174
 1.6441   184
 1.6541   195
 1.6641   226
 1.6741   280
 1.6841   319
 1.6941   388
 1.7041   493
 1.7141   582
 1.7241   614
 1.7341   635
 1.7441   598
 1.7541   621
 1.7641   585
 1.7741   479
 1.7841   398
 1.7941   321
 1.8041   287
 1.8141   222
 1.8241   209
 1.8341   206
 1.8441   208
 1.8541   181
 1.8641   204
 1.8741   174
 1.8841   166
 1.8941   176
 1.9041   153
 1.9141   177
 1.9241   176
 1.9341   179
 1.9441   176
 1.9541   160
 1.9641   169
 1.9741   174
 1.9841   181
 1.9941   181
 2.0041   193
 2.0141   200
 2.0241   184
 2.0341   148
 2.0441   184
 2.0541   173
 2.0641   167
 2.0741   153
 2.0841   162
 2.0941   129
 2.1041   127
 2.1141   132
 2.1241   152
 2.1341   139
 2.1441   145
 2.1541   138
 2.1641   135
 2.1741   122
 2.1841   144
 2.1941   149
 2.2041   150
 2.2141   138
 2.2241   139
 2.2341   141
 2.2441   143
 2.2541   157
 2.2641   147
 2.2741   128
 2.2841   119
 2.2941   123
 2.3041   125
 2.3141   142
 2.3241   133
 2.3341   143
 2.3441   151
 2.3541   113
 2.3641   131
 2.3741   131
 2.3841   116
 2.3941   124
 2.4041   121
 2.4141   122
 2.4241   121
 2.4341   122
 2.4441   127
 2.4541   130
 2.4641   133
 2.4741   129
 2.4841   122
 2.4941   125
 2.5041   126
 2.5141   119
 2.5241   131
 2.5341   118
 2.5441   115
 2.5541   103
 2.5641   129
 2.5741   120
 2.5841   134
 2.5941   142
 2.6041   122
 2.6141   113
 2.6241   117
 2.6341   126
 2.6441   102
 2.6541   117
 2.6641   133
 2.6741   115
 2.6841   115
 2.6941   111
 2.7041   117
 2.7141   118
 2.7241   109
 2.7341    92
 2.7441   110
 2.7541   128
 2.7641   135
 2.7741   121
 2.7841   124
 2.7941   126
 2.8041   127
 2.8141   115
 2.8241   129
 2.8341   142
 2.8441   112
 2.8541   143
 2.8641   130
 2.8741   117
 2.8841   130
 2.8941   123
 2.9041   114
 2.9141   103
 2.9241   106
 2.9341   133
 2.9441   110
 2.9541    97
 2.9641    99
 2.9741   121
 2.9841   137
 2.9941   109
 3.0041   111
 3.0141   122
 3.0241   112
 3.0341   115
 3.0441    93
 3.0541    93
 3.0641   108
 3.0741    91
 3.0841   108
 3.0941   104
 3.1041   104
 3.1141    96
 3.1241   106
 3.1341   100
 3.1441    85
 3.1541   111
 3.1641    90
 3.1741   106
 3.1841    92
 3.1941   111
 3.2041   121
 3.2141   106
 3.2241   128
 3.2341   154
 3.2441   148
 3.2541   172
 3.2641   185
 3.2741   216
 3.2841   238
 3.2941   272
 3.3041   257
 3.3141   259
 3.3241   262
 3.3341   236
 3.3441   235
 3.3541   201
 3.3641   208
 3.3741   179
 3.3841   146
 3.3941   151
 3.4041   130
 3.4141    85
 3.4241    84
 3.4341   100
 3.4441    99
 3.4541    99
 3.4641    82
 3.4741    85
 3.4841    87
 3.4941   102
 3.5041    90
 3.5141   113
 3.5241   110
 3.5341   120
 3.5441   137
 3.5541   148
 3.5641   183
 3.5741   171
 3.5841   199
 3.5941   295
 3.6041   331
 3.6141   426
 3.6241   561
 3.6341   671
 3.6441   777
 3.6541   912
 3.6641  1037
 3.6741  1121
 3.6841  1139
 3.6941  1142
 3.7041  1153
 3.7141  1006
 3.7241   923
 3.7341   804
 3.7441   659
 3.7541   522
 3.7641   388
 3.7741   317
 3.7841   269
 3.7941   187
 3.8041   141
 3.8141   119
 3.8241   106
 3.8341    93
 3.8441    85
 3.8541    70
 3.8641    96
 3.8741    76
 3.8841    98
 3.8941    76
 3.9041    95
 3.9141   102
 3.9241   127
 3.9341   132
 3.9441   150
 3.9541   158
 3.9641   182
 3.9741   206
 3.9841   208
 3.9941   245
 4.0041   247
 4.0141   231
 4.0241   241
 4.0341   212
 4.0441   208
 4.0541   176
 4.0641   170
 4.0741   158
 4.0841   131
 4.0941   121
 4.1041   103
 4.1141   105
 4.1241    82
 4.1341    83
 4.1441    79
 4.1541    66
 4.1641    74
 4.1741    60
 4.1841    81
 4.1941    75
 4.2041    73
 4.2141    63
 4.2241    70
 4.2341    71
 4.2441    61
 4.2541    76
 4.2641    69
 4.2741    90
 4.2841    70
 4.2941    51
 4.3041    68
 4.3141    69
 4.3241    64
 4.3341    69
 4.3441    76
 4.3541    87
 4.3641    80
 4.3741   106
 4.3841   115
 4.3941   166
 4.4041   191
 4.4141   267
 4.4241   319
 4.4341   407
 4.4441   503
 4.4541   548
 4.4641   681
 4.4741   717
 4.4841   862
 4.4941   966
 4.5041   952
 4.5141   935
 4.5241   912
 4.5341   814
 4.5441   717
 4.5541   653
 4.5641   593
 4.5741   436
 4.5841   362
 4.5941   283
 4.6041   233
 4.6141   171
 4.6241   123
 4.6341   109
 4.6441   141
 4.6541   136
 4.6641   104
 4.6741    93
 4.6841    69
 4.6941    90
 4.7041    86
 4.7141    74
 4.7241    83
 4.7341    91
 4.7441    86
 4.7541   100
 4.7641    99
 4.7741    89
 4.7841   117
 4.7941   102
 4.8041   125
 4.8141   126
 4.8241   141
 4.8341   162
 4.8441   174
 4.8541   168
 4.8641   217
 4.8741   238
 4.8841   224
 4.8941   256
 4.9041   222
 4.9141   277
 4.9241   226
 4.9341   250
 4.9441   269
 4.9541   251
 4.9641   232
 4.9741   211
 4.9841   187
 4.9941   162
 5.0041   177
 5.0141   145
 5.0241   141
 5.0341   112
 5.0441   112
 5.0541   105
 5.0641   102
 5.0741    98
 5.0841    92
 5.0941    80
 5.1041    90
 5.1141    84
 5.1241    87
 5.1341    88
 5.1441    99
 5.1541    98
 5.1641    86
 5.1741    96
 5.1841    90
 5.1941    71
 5.2041    97
 5.2141    86
 5.2241    73
 5.2341    88
 5.2441    81
 5.2541    94
 5.2641    71
 5.2741    91
 5.2841    82
 5.2941    94
 5.3041   105
 5.3141   105
 5.3241   101
 5.3341    95
 5.3441   119
 5.3541   112
 5.3641   133
 5.3741   120
 5.3841   139
 5.3941   147
 5.4041   154
 5.4141   136
 5.4241   131
 5.4341   145
 5.4441   152
 5.4541   125
 5.4641   114
 5.4741   101
 5.4841   107
 5.4941   124
 5.5041   116
 5.5141    98
 5.5241    91
 5.5341    83
 5.5441   109
 5.5541    90
 5.5641    95
 5.5741    91
 5.5841    94
 5.5941    88
 5.6041    88
 5.6141    85
 5.6241   128
 5.6341    81
 5.6441    94
 5.6541   105
 5.6641    85
 5.6741    92
 5.6841    89
 5.6941   102
 5.7041   104
 5.7141   106
 5.7241   100
 5.7341   117
 5.7441   109
 5.7541   117
 5.7641   141
 5.7741   174
 5.7841   176
 5.7941   226
 5.8041   255
 5.8141   270
 5.8241   336
 5.8341   378
 5.8441   382
 5.8541   468
 5.8641   494
 5.8741   483
 5.8841   563
 5.8941   575
 5.9041   575
 5.9141   507
 5.9241   521
 5.9341   458
 5.9441   438
 5.9541   408
 5.9641   350
 5.9741   302
 5.9841   246
 5.9941   232
 6.0041   195
 6.0141   168
 6.0241   144
 6.0341   152
 6.0441   145
 6.0541   137
 6.0641   127
 6.0741   152
 6.0841   156
 6.0941   146
 6.1041   153
 6.1141   152
 6.1241   150
 6.1341   158
 6.1441   182
 6.1541   181
 6.1641   186
 6.1741   235
 6.1841   259
 6.1941   306
 6.2041   374
 6.2141   520
 6.2241   748
 6.2341  1052
 6.2441  1483
 6.2541  1998
 6.2641  2840
 6.2741  3893
 6.2841  5231
 6.2941  6844
 6.3041  8982
 6.3141 11449
 6.3241 14116
 6.3341 16697
 6.3441 19588
 6.3541 22719
 6.3641 24910
 6.3741 27377
 6.3841 28633
 6.3941 29363
 6.4041 29664
 6.4141 28670
 6.4241 27248
 6.4341 24838
 6.4441 22095
 6.4541 19352
 6.4641 16609
 6.4741 13320
 6.4841 10630
 6.4941  8389
 6.5041  6525
 6.5141  4742
 6.5241  3486
 6.5341  2450
 6.5441  1800
 6.5541  1289
 6.5641   785
 6.5741   633
 6.5841   432
 6.5941   318
 6.6041   248
 6.6141   199
 6.6241   207
 6.6341   172
 6.6441   164
 6.6541   154
 6.6641   168
 6.6741   176
 6.6841   167
 6.6941   177
 6.7041   165
 6.7141   158
 6.7241   161
 6.7341   176
 6.7441   165
 6.7541   183
 6.7641   196
 6.7741   189
 6.7841   200
 6.7941   193
 6.8041   211
 6.8141   214
 6.8241   235
 6.8341   232
 6.8441   257
 6.8541   277
 6.8641   322
 6.8741   367
 6.8841   409
 6.8941   539
 6.9041   589
 6.9141   715
 6.9241   938
 6.9341  1129
 6.9441  1397
 6.9541  1717
 6.9641  1987
 6.9741  2392
 6.9841  3045
 6.9941  3305
 7.0041  3768
 7.0141  4104
 7.0241  4509
 7.0341  4862
 7.0441  5007
 7.0541  5133
 7.0641  4972
 7.0741  4854
 7.0841  4522
 7.0941  4104
 7.1041  3692
 7.1141  3247
 7.1241  2866
 7.1341  2250
 7.1441  1966
 7.1541  1536
 7.1641  1277
 7.1741   940
 7.1841   740
 7.1941   569
 7.2041   461
 7.2141   349
 7.2241   307
 7.2341   270
 7.2441   232
 7.2541   192
 7.2641   196
 7.2741   193
 7.2841   151
 7.2941   160
 7.3041   209
 7.3141   196
 7.3241   190
 7.3341   205
 7.3441   201
 7.3541   206
 7.3641   223
 7.3741   247
 7.3841   250
 7.3941   233
 7.4041   262
 7.4141   234
 7.4241   264
 7.4341   292
 7.4441   283
 7.4541   269
 7.4641   261
 7.4741   249
 7.4841   254
 7.4941   274
 7.5041   251
 7.5141   227
 7.5241   238
 7.5341   200
 7.5441   197
 7.5541   208
 7.5641   192
 7.5741   183
 7.5841   162
 7.5941   167
 7.6041   161
 7.6141   167
 7.6241   152
 7.6341   168
 7.6441   145
 7.6541   192
 7.6641   177
 7.6741   183
 7.6841   187
 7.6941   182
 7.7041   182
 7.7141   182
 7.7241   185
 7.7341   184
 7.7441   193
 7.7541   189
 7.7641   195
 7.7741   205
 7.7841   190
 7.7941   225
 7.8041   236
 7.8141   232
 7.8241   220
 7.8341   231
 7.8441   264
 7.8541   260
 7.8641   255
 7.8741   240
 7.8841   275
 7.8941   286
 7.9041   301
 7.9141   277
 7.9241   332
 7.9341   335
 7.9441   359
 7.9541   399
 7.9641   405
 7.9741   466
 7.9841   468
 7.9941   498
 8.0041   570
 8.0141   581
 8.0241   578
 8.0341   705
 8.0441   703
 8.0541   710
 8.0641   760
 8.0741   844
 8.0841   926
 8.0941   919
 8.1041   970
 8.1141  1064
 8.1241  1066
 8.1341  1050
 8.1441  1096
 8.1541  1063
 8.1641  1168
 8.1741  1167
 8.1841  1213
 8.1941  1178
 8.2041  1201
 8.2141  1193
 8.2241  1229
 8.2341  1295
 8.2441  1301
 8.2541  1377
 8.2641  1341
 8.2741  1445
 8.2841  1526
 8.2941  1643
 8.3041  1742
 8.3141  1917
 8.3241  2113
 8.3341  2179
 8.3441  2395
 8.3541  2492
 8.3641  2548
 8.3741  2702
 8.3841  2706
 8.3941  2658
 8.4041  2605
 8.4141  2516
 8.4241  2414
 8.4341  2296
 8.4441  1994
 8.4541  1804
 8.4641  1595
 8.4741  1470
 8.4841  1262
 8.4941  1061
 8.5041   895
 8.5141   797
 8.5241   620
 8.5341   610
 8.5441   532
 8.5541   490
 8.5641   434
 8.5741   416
 8.5841   411
 8.5941   395
 8.6041   412
 8.6141   416
 8.6241   426
 8.6341   417
 8.6441   440
 8.6541   416
 8.6641   369
 8.6741   388
 8.6841   343
 8.6941   346
 8.7041   337
 8.7141   317
 8.7241   337
 8.7341   312
 8.7441   299
 8.7541   300
 8.7641   310
 8.7741   283
 8.7841   284
 8.7941   259
 8.8041   293
 8.8141   286
 8.8241   259
 8.8341   257
 8.8441   276
 8.8541   255
 8.8641   252
 8.8741   271
 8.8841   266
 8.8941   258
 8.9041   312
 8.9141   285
 8.9241   273
 8.9341   276
 8.9441   297
 8.9541   269
 8.9641   283
 8.9741   297
 8.9841   301
 8.9941   323
 9.0041   333
 9.0141   325
 9.0241   308
 9.0341   320
 9.0441   353
 9.0541   365
 9.0641   378
 9.0741   408
 9.0841   343
 9.0941   392
 9.1041   390
 9.1141   435
 9.1241   448
 9.1341   433
 9.1441   440
 9.1541   478
 9.1641   488
 9.1741   585
 9.1841   537
 9.1941   567
 9.2041   617
 9.2141   668
 9.2241   693
 9.2341   701
 9.2441   764
 9.2541   801
 9.2641   827
 9.2741   831
 9.2841   875
 9.2941   980
 9.3041   963
 9.3141   954
 9.3241   991
 9.3341  1008
 9.3441  1083
 9.3541  1084
 9.3641  1100
 9.3741  1148
 9.3841  1122
 9.3941  1166
 9.4041  1157
 9.4141  1209
 9.4241  1208
 9.4341  1243
 9.4441  1208
 9.4541  1297
 9.4641  1323
 9.4741  1287
 9.4841  1318
 9.4941  1390
 9.5041  1436
 9.5141  1417
 9.5241  1432
 9.5341  1498
 9.5441  1583
 9.5541  1648
 9.5641  1708
 9.5741  1778
 9.5841  1860
 9.5941  1961
 9.6041  2073
 9.6141  2247
 9.6241  2255
 9.6341  2338
 9.6441  2420
 9.6541  2453
 9.6641  2486
 9.6741  2563
 9.6841  2471
 9.6941  2368
 9.7041  2206
 9.7141  2203
 9.7241  2073
 9.7341  1899
 9.7441  1725
 9.7541  1595
 9.7641  1444
 9.7741  1366
 9.7841  1296
 9.7941  1162
 9.8041  1149
 9.8141  1098
 9.8241  1003
 9.8341  1052
 9.8441  1020
 9.8541   960
 9.8641   974
 9.8741   975
 9.8841   995
 9.8941  1062
 9.9041  1120
 9.9141  1101
 9.9241  1085
 9.9341  1066
 9.9441  1094
 9.9541  1121
 9.9641  1083
 9.9741  1064
 9.9841  1062
 9.9941  1041
10.0041   909
10.0141   880
10.0241   784
10.0341   704
10.0441   649
10.0541   622
10.0641   548
10.0741   465
10.0841   437
10.0941   400
10.1041   334
10.1141   325
10.1241   306
10.1341   285
10.1441   258
10.1541   230
10.1641   233
10.1741   242
10.1841   216
10.1941   212
10.2041   200
10.2141   171
10.2241   193
10.2341   183
10.2441   171
10.2541   168
10.2641   164
10.2741   169
10.2841   154
10.2941   139
10.3041   165
10.3141   142
10.3241   141
10.3341   134
10.3441   143
10.3541   156
10.3641   142
10.3741   136
10.3841   138
10.3941   133
10.4041   125
10.4141   137
10.4241   154
10.4341   160
10.4441   173
10.4541   154
10.4641   144
10.4741   165
10.4841   163
10.4941   163
10.5041   153
10.5141   180
10.5241   171
10.5341   153
10.5441   176
10.5541   179
10.5641   175
10.5741   155
10.5841   184
10.5941   198
10.6041   173
10.6141   171
10.6241   176
10.6341   184
10.6441   188
10.6541   168
10.6641   188
10.6741   188
10.6841   178
10.6941   184
10.7041   174
10.7141   187
10.7241   197
10.7341   188
10.7441   212
10.7541   194
10.7641   213
10.7741   199
10.7841   211
10.7941   239
10.8041   231
10.8141   225
10.8241   232
10.8341   249
10.8441   236
10.8541   215
10.8641   239
10.8741   241
10.8841   260
10.8941   241
10.9041   241
10.9141   253
10.9241   243
10.9341   253
10.9441   275
10.9541   275
10.9641   256
10.9741   249
10.9841   253
10.9941   232
11.0041   236
11.0141   242
11.0241   215
11.0341   235
11.0441   239
11.0541   231
11.0641   237
11.0741   224
11.0841   209
11.0941   215
11.1041   221
11.1141   228
11.1241   214
11.1341   224
11.1441   252
11.1541   259
11.1641   248
11.1741   269
11.1841   282
11.1941   275
11.2041   279
11.2141   291
11.2241   315
11.2341   335
11.2441   342
11.2541   356
11.2641   341
11.2741   358
11.2841   376
11.2941   360
11.3041   325
11.3141   321
11.3241   339
11.3341   330
11.3441   314
11.3541   298
11.3641   293
11.3741   282
11.3841   267
11.3941   250
11.4041   234
11.4141   220
11.4241   202
11.4341   200
11.4441   187
11.4541   178
11.4641   183
11.4741   180
11.4841   184
11.4941   189
11.5041   175
11.5141   183
11.5241   191
11.5341   193
11.5441   174
11.5541   166
11.5641   205
11.5741   206
11.5841   193
11.5941   191
11.6041   194
11.6141   181
11.6241   177
11.6341   176
11.6441   201
11.6541   201
11.6641   197
11.6741   171
11.6841   170
11.6941   178
11.7041   177
11.7141   170
11.7241   175
11.7341   154
11.7441   155
11.7541   157
11.7641   162
11.7741   147
11.7841   138
11.7941   145
11.8041   144
11.8141   138
11.8241   133
11.8341   140
11.8441   139
11.8541   119
11.8641   111
11.8741   132
11.8841   135
11.8941   127
11.9041   132
11.9141   145
11.9241   140
11.9341   129
11.9441   138
11.9541   134
11.9641   133
11.9741   133
11.9841   134
11.9941   133
12.0041   128
12.0141   136
12.0241   138
12.0341   146
12.0441   158
12.0541   149
12.0641   159
12.0741   152
12.0841   142
12.0941   139
12.1041   124
12.1141   129
12.1241   137
12.1341   135
12.1441   137
12.1541   140
12.1641   141
12.1741   140
12.1841   137
12.1941   125
12.2041   117
12.2141   127
12.2241   143
12.2341   140
12.2441   123
12.2541   128
12.2641   128
12.2741   118
12.2841   115
12.2941   116
12.3041   131
12.3141   125
12.3241   110
12.3341   124
12.3441   123
12.3541   109
12.3641   132
12.3741   138
12.3841   114
12.3941   113
12.4041   121
12.4141   128
12.4241   132
12.4341   131
12.4441   136
12.4541   141
12.4641   137
12.4741   126
12.4841   130
12.4941   148
12.5041   144
12.5141   134
12.5241   139
12.5341   138
12.5441   130
12.5541   144
12.5641   164
12.5741   150
12.5841   132
12.5941   139
12.6041   144
12.6141   149
12.6241   150
12.6341   146
12.6441   137
12.6541   142
12.6641   149
12.6741   146
12.6841   147
12.6941   150
12.7041   148
12.7141   145
12.7241   145
12.7341   142
12.7441   138
12.7541   141
12.7641   146
12.7741   146
12.7841   142
12.7941   140
12.8041   144
12.8141   152
12.8241   152
12.8341   148
12.8441   150
12.8541   155
12.8641   151
12.8741   141
12.8841   133
12.8941   130
12.9041   132
12.9141   140
12.9241   149
12.9341   151
12.9441   150
12.9541   153
12.9641   151
12.9741   142
12.9841   143
12.9941   148
13.0041   151
13.0141   151
13.0241   149
13.0341   154
13.0441   151
13.0541   143
13.0641   153
13.0741   153
13.0841   155
13.0941   164
13.1041   156
13.1141   155
13.1241   154
13.1341   150
13.1441   160
13.1541   162
13.1641   154
13.1741   164
13.1841   171
13.1941   181
13.2041   184
13.2141   185
13.2241   196
13.2341   204
13.2441   196
13.2541   186
13.2641   203
13.2741   220
13.2841   219
13.2941   214
13.3041   208
13.3141   237
13.3241   256
13.3341   246
13.3441   247
13.3541   261
13.3641   270
13.3741   254
13.3841   240
13.3941   245
13.4041   252
13.4141   251
13.4241   250
13.4341   250
13.4441   242
13.4541   229
13.4641   219
13.4741   212
13.4841   211
13.4941   217
13.5041   217
13.5141   212
13.5241   210
13.5341   206
13.5441   199
13.5541   194
13.5641   192
13.5741   192
13.5841   188
13.5941   186
13.6041   189
13.6141   188
13.6241   186
13.6341   191
13.6441   178
13.6541   167
13.6641   171
13.6741   185
13.6841   191
13.6941   193
13.7041   181
13.7141   171
13.7241   182
13.7341   185
13.7441   176
13.7541   179
13.7641   183
13.7741   190
13.7841   197
13.7941   186
13.8041   181
13.8141   190
13.8241   193
13.8341   191
13.8441   194
13.8541   186
13.8641   194
13.8741   198
13.8841   194
13.8941   195
13.9041   196
13.9141   206
13.9241   220
13.9341   226
13.9441   231
13.9541   236
13.9641   235
13.9741   243
13.9841   256
13.9941   267
14.0041   275
14.0141   287
14.0241   312
14.0341   344
14.0441   369
14.0541   380
14.0641   394
14.0741   419
14.0841   445
14.0941   463
14.1041   472
14.1141   471
14.1241   469
14.1341   467
14.1441   462
14.1541   464
14.1641   475
14.1741   475
14.1841   454
14.1941   425
14.2041   423
14.2141   417
14.2241   391
14.2341   384
14.2441   361
14.2541   354
14.2641   344
14.2741   315
14.2841   300
14.2941   272
14.3041   267
14.3141   266
14.3241   260
14.3341   271
14.3441   261
14.3541   236
14.3641   231
14.3741   230
14.3841   231
14.3941   224
14.4041   203
14.4141   212
14.4241   227
14.4341   236
14.4441   236
14.4541   227
14.4641   217
14.4741   210
14.4841   203
14.4941   190
14.5041   207
14.5141   225
14.5241   214
14.5341   186
14.5441   199
14.5541   217
14.5641   223
14.5741   213
14.5841   219
14.5941   240
14.6041   222
14.6141   230
14.6241   242
14.6341   240
14.6441   251
14.6541   247
14.6641   223
14.6741   207
14.6841   220
14.6941   228
14.7041   243
14.7141   232
14.7241   228
14.7341   236
14.7441   235
14.7541   236
14.7641   240
14.7741   255
14.7841   251
14.7941   252
14.8041   266
14.8141   273
14.8241   268
14.8341   261
14.8441   286
14.8541   297
14.8641   290
14.8741   284
14.8841   284
14.8941   290
14.9041   317
14.9141   309
14.9241   292
14.9341   304
14.9441   324
14.9541   325
14.9641   298
14.9741   286
14.9841   310
14.9941   303
15.0041   282
15.0141   268
15.0241   279
15.0341   293
15.0441   287
15.0541   264
15.0641   281
15.0741   284
15.0841   247
15.0941   255
15.1041   258
15.1141   249
15.1241   268
15.1341   278
15.1441   277
15.1541   277
15.1641   258
15.1741   240
15.1841   245
15.1941   252
15.2041   261
15.2141   269
15.2241   264
15.2341   262
15.2441   253
15.2541   264
15.2641   260
15.2741   257
15.2841   250
15.2941   256
15.3041   247
15.3141   265
15.3241   261
15.3341   257
15.3441   251
15.3541   253
15.3641   280
15.3741   273
15.3841   281
15.3941   260
15.4041   253
15.4141   266
15.4241   266
15.4341   280
15.4441   279
15.4541   278
15.4641   271
15.4741   275
15.4841   294
15.4941   301
15.5041   296
15.5141   297
15.5241   310
15.5341   318
15.5441   329
15.5541   374
15.5641   386
15.5741   411
15.5841   444
15.5941   451
15.6041   484
15.6141   511
15.6241   548
15.6341   624
15.6441   664
15.6541   663
15.6641   697
15.6741   722
15.6841   807
15.6941   863
15.7041   834
15.7141   829
15.7241   872
15.7341   851
15.7441   875
15.7541   905
15.7641   910
15.7741   954
15.7841   878
15.7941   846
15.8041   835
15.8141   796
15.8241   765
15.8341   718
15.8441   710
15.8541   663
15.8641   636
15.8741   603
15.8841   581
15.8941   531
15.9041   482
15.9141   458
15.9241   430
15.9341   407
15.9441   414
15.9541   376
15.9641   360
15.9741   341
15.9841   342
15.9941   335
16.0041   315
16.0141   300
16.0241   321
16.0341   306
16.0441   293
16.0541   308
16.0641   303
16.0741   300
16.0841   319
16.0941   315
16.1041   327
16.1141   315
16.1241   319
16.1341   308
16.1441   306
16.1541   305
16.1641   315
16.1741   317
16.1841   325
16.1941   310
16.2041   314
16.2141   318
16.2241   301
16.2341   297
16.2441   289
16.2541   311
16.2641   324
16.2741   330
16.2841   330
16.2941   314
16.3041   305
16.3141   313
16.3241   314
16.3341   327
16.3441   319
16.3541   322
16.3641   308
16.3741   324
16.3841   328
16.3941   300
16.4041   316
16.4141   333
16.4241   312
16.4341   318
16.4441   333
16.4541   327
16.4641   331
16.4741   338
16.4841   327
16.4941   340
16.5041   330
16.5141   326
16.5241   341
16.5341   352
16.5441   346
16.5541   356
16.5641   323
16.5741   355
16.5841   359
16.5941   359
16.6041   370
16.6141   365
16.6241   365
16.6341   353
16.6441   355
16.6541   382
16.6641   374
16.6741   341
16.6841   332
16.6941   360
16.7041   339
16.7141   325
16.7241   346
16.7341   355
16.7441   359
16.7541   353
16.7641   348
16.7741   338
16.7841   349
16.7941   362
16.8041   332
16.8141   349
16.8241   357
16.8341   305
16.8441   308
16.8541   333
16.8641   340
16.8741   356
16.8841   358
16.8941   370
16.9041   351
16.9141   347
16.9241   343
16.9341   318
16.9441   354
16.9541   355
16.9641   339
16.9741   311
16.9841   314
16.9941   365
17.0041   356
17.0141   358
17.0241   360
17.0341   362
17.0441   379
17.0541   332
17.0641   340
17.0741   336
17.0841   348
17.0941   362
17.1041   359
17.1141   364
17.1241   357
17.1341   378
17.1441   368
17.1541   358
17.1641   363
17.1741   347
17.1841   381
17.1941   384
17.2041   393
17.2141   384
17.2241   378
17.2341   366
17.2441   366
17.2541   375
17.2641   371
17.2741   391
17.2841   364
17.2941   361
17.3041   357
17.3141   359
17.3241   370
17.3341   364
17.3441   371
17.3541   351
17.3641   363
17.3741   390
17.3841   400
17.3941   386
17.4041   370
17.4141   365
17.4241   375
17.4341   390
17.4441   403
17.4541   403
17.4641   401
17.4741   399
17.4841   388
17.4941   396
17.5041   399
17.5141   405
17.5241   404
17.5341   410
17.5441   437
17.5541   457
17.5641   440
17.5741   449
17.5841   453
17.5941   450
17.6041   453
17.6141   451
17.6241   470
17.6341   483
17.6441   441
17.6541   457
17.6641   463
17.6741   506
17.6841   511
17.6941   476
17.7041   463
17.7141   465
17.7241   460
17.7341   461
17.7441   447
17.7541   444
17.7641   471
17.7741   433
17.7841   423
17.7941   402
17.8041   448
17.8141   431
17.8241   423
17.8341   435
17.8441   425
17.8541   409
17.8641   419
17.8741   418
17.8841   423
17.8941   414
17.9041   408
17.9141   399
17.9241   409
17.9341   419
17.9441   376
17.9541   377
17.9641   409
17.9741   415
17.9841   401
17.9941   432
18.0041   432
18.0141   413
18.0241   418
18.0341   404
18.0441   391
18.0541   385
18.0641   398
18.0741   392
18.0841   400
18.0941   411
18.1041   418
18.1141   393
18.1241   413
18.1341   419
18.1441   401
18.1541   407
18.1641   389
18.1741   422
18.1841   466
18.1941   415
18.2041   419
18.2141   436
18.2241   419
18.2341   397
18.2441   385
18.2541   403
18.2641   403
18.2741   421
18.2841   440
18.2941   440
18.3041   406
18.3141   388
18.3241   394
18.3341   425
18.3441   425
18.3541   409
18.3641   433
18.3741   435
18.3841   438
18.3941   419
18.4041   386
18.4141   412
18.4241   432
18.4341   432
18.4441   438
18.4541   457
18.4641   431
18.4741   405
18.4841   428
18.4941   432
18.5041   418
18.5141   433
18.5241   454
18.5341   452
18.5441   440
18.5541   422
18.5641   443
18.5741   437
18.5841   423
18.5941   423
18.6041   425
18.6141   412
18.6241   412
18.6341   411
18.6441   418
18.6541   447
18.6641   408
18.6741   436
18.6841   419
18.6941   405
18.7041   421
18.7141   452
18.7241   441
18.7341   408
18.7441   436
18.7541   443
18.7641   421
18.7741   444
18.7841   465
18.7941   441
18.8041   437
18.8141   453
18.8241   457
18.8341   438
18.8441   447
18.8541   442
18.8641   447
18.8741   444
18.8841   433
18.8941   454
18.9041   457
18.9141   431
18.9241   427
18.9341   453
18.9441   416
18.9541   434
18.9641   434
18.9741   449
18.9841   445
18.9941   426
19.0041   421
19.0141   463
19.0241   448
19.0341   430
19.0441   425
19.0541   442
19.0641   450
19.0741   468
19.0841   471
19.0941   493
19.1041   461
19.1141   435
19.1241   453
19.1341   451
19.1441   429
19.1541   436
19.1641   480
19.1741   459
19.1841   467
19.1941   464
19.2041   424
19.2141   456
19.2241   460
19.2341   439
19.2441   466
19.2541   449
19.2641   453
19.2741   467
19.2841   490
19.2941   439
19.3041   447
19.3141   466
19.3241   459
19.3341   460
19.3441   486
19.3541   465
19.3641   478
19.3741   464
19.3841   449
19.3941   451
19.4041   454
19.4141   449
19.4241   462
19.4341   467
19.4441   480
19.4541   471
19.4641   466
19.4741   453
19.4841   487
19.4941   451
19.5041   454
19.5141   477
19.5241   474
19.5341   476
19.5441   452
19.5541   476
19.5641   469
19.5741   473
19.5841   458
19.5941   427
19.6041   438
19.6141   461
19.6241   485
19.6341   472
19.6441   469
19.6541   464
19.6641   451
19.6741   462
19.6841   468
19.6941   492
19.7041   486
19.7141   472
19.7241   470
19.7341   479
19.7441   479
19.7541   478
19.7641   461
19.7741   439
19.7841   491
19.7941   472
19.8041   488
19.8141   463
19.8241   479
19.8341   527
19.8441   481
19.8541   474
19.8641   475
19.8741   453
19.8841   496
19.8941   517
19.9041   482
19.9141   494
19.9241   482
19.9341   506
19.9441   473
19.9541   504
19.9641   472
19.9741   456
19.9841   463
19.9941   476
20.0041   490
20.0141   483
20.0241   491
20.0341   512
20.0441   484
20.0541   501
20.0641   477
20.0741   488
20.0841   468
20.0941   493
20.1041   501
20.1141   523
20.1241   528
20.1341   452
20.1441   473
20.1541   469
20.1641   494
20.1741   499
20.1841   511
20.1941   517
20.2041   498
20.2141   485
20.2241   474
20.2341   450
20.2441   489
20.2541   488
20.2641   506
20.2741   471
20.2841   494
20.2941   501
20.3041   483
20.3141   477
20.3241   460
20.3341   456
20.3441   502
20.3541   486
20.3641   465
20.3741   509
20.3841   462
20.3941   493
20.4041   505
20.4141   519
20.4241   478
20.4341   490
20.4441   498
20.4541   491
20.4641   503
20.4741   503
20.4841   500
20.4941   503
20.5041   507
20.5141   481
20.5241   499
20.5341   484
20.5441   466
20.5541   500
20.5641   495
20.5741   481
20.5841   526
20.5941   488
20.6041   494
20.6141   488
20.6241   522
20.6341   498
20.6441   477
20.6541   484
20.6641   470
20.6741   455
20.6841   484
20.6941   480
20.7041   511
20.7141   476
20.7241   479
20.7341   498
20.7441   493
20.7541   467
20.7641   494
20.7741   485
20.7841   502
20.7941   499
20.8041   521
20.8141   510
20.8241   548
20.8341   498
20.8441   484
20.8541   511
20.8641   523
20.8741   554
20.8841   553
20.8941   575
20.9041   590
20.9141   624
20.9241   615
20.9341   625
20.9441   612
20.9541   650
20.9641   589
20.9741   622
20.9841   627
20.9941   639
21.0041   670
21.0141   637
21.0241   683
21.0341   740
21.0441   673
21.0541   707
21.0641   722
21.0741   767
21.0841   749
21.0941   715
21.1041   781
21.1141   769
21.1241   753
21.1341   734
21.1441   749
21.1541   754
21.1641   730
21.1741   705
21.1841   726
21.1941   708
21.2041   743
21.2141   728
21.2241   703
21.2341   707
21.2441   679
21.2541   691
21.2641   652
21.2741   631
21.2841   619
21.2941   575
21.3041   583
21.3141   586
21.3241   570
21.3341   543
21.3441   566
21.3541   533
21.3641   552
21.3741   527
21.3841   527
21.3941   526
21.4041   532
21.4141   504
21.4241   520
21.4341   494
21.4441   534
21.4541   508
21.4641   472
21.4741   526
21.4841   535
21.4941   518
21.5041   499
21.5141   521
21.5241   516
21.5341   464
21.5441   499
21.5541   527
21.5641   478
21.5741   484
21.5841   495
21.5941   523
21.6041   485
21.6141   518
21.6241   500
21.6341   525
21.6441   538
21.6541   532
21.6641   483
21.6741   479
21.6841   459
21.6941   484
21.7041   527
21.7141   497
21.7241   501
21.7341   549
21.7441   522
21.7541   525
21.7641   496
21.7741   499
21.7841   511
21.7941   526
21.8041   504
21.8141   523
21.8241   532
21.8341   525
21.8441   504
21.8541   496
21.8641   525
21.8741   500
21.8841   511
21.8941   521
21.9041   504
21.9141   525
21.9241   507
21.9341   496
21.9441   523
21.9541   489
21.9641   484
21.9741   482
21.9841   496
21.9941   506
22.0041   492
22.0141   509
22.0241   536
22.0341   509
22.0441   500
22.0541   470
22.0641   518
22.0741   510
22.0841   479
22.0941   515
22.1041   507
22.1141   497
22.1241   526
22.1341   544
22.1441   490
22.1541   501
22.1641   464
22.1741   515
22.1841   483
22.1941   505
22.2041   527
22.2141   490
22.2241   487
22.2341   503
22.2441   515
22.2541   476
22.2641   532
22.2741   474
22.2841   483
22.2941   482
22.3041   487
22.3141   474
22.3241   486
22.3341   485
22.3441   528
22.3541   512
22.3641   533
22.3741   508
22.3841   469
22.3941   519
22.4041   527
22.4141   512
22.4241   480
22.4341   509
22.4441   470
22.4541   499
22.4641   473
22.4741   482
22.4841   494
22.4941   497
22.5041   444
22.5141   453
22.5241   477
22.5341   488
22.5441   501
22.5541   493
22.5641   493
22.5741   487
22.5841   476
22.5941   533
22.6041   479
22.6141   487
22.6241   454
22.6341   481
22.6441   524
22.6541   528
22.6641   491
22.6741   512
22.6841   451
22.6941   462
22.7041   495
22.7141   487
22.7241   519
22.7341   505
22.7441   510
22.7541   522
22.7641   532
22.7741   501
22.7841   485
22.7941   498
22.8041   487
22.8141   479
22.8241   495
22.8341   501
22.8441   497
22.8541   520
22.8641   510
22.8741   479
22.8841   503
22.8941   536
22.9041   494
22.9141   484
22.9241   472
22.9341   519
22.9441   498
22.9541   491
22.9641   482
22.9741   514
22.9841   450
22.9941   503
23.0041   424
23.0141   449
23.0241   515
23.0341   486
23.0441   468
23.0541   499
23.0641   499
23.0741   483
23.0841   536
23.0941   490
23.1041   545
23.1141   483
23.1241   512
23.1341   505
23.1441   485
23.1541   487
23.1641   465
23.1741   506
23.1841   477
23.1941   463
23.2041   475
23.2141   498
23.2241   483
23.2341   505
23.2441   494
23.2541   452
23.2641   492
23.2741   486
23.2841   524
23.2941   470
23.3041   460
23.3141   523
23.3241   495
23.3341   462
23.3441   456
23.3541   499
23.3641   496
23.3741   491
23.3841   512
23.3941   473
23.4041   519
23.4141   477
23.4241   501
23.4341   526
23.4441   495
23.4541   494
23.4641   493
23.4741   466
23.4841   507
23.4941   472
23.5041   472
23.5141   483
23.5241   502
23.5341   510
23.5441   513
23.5541   471
23.5641   482
23.5741   460
23.5841   458
23.5941   489
23.6041   486
23.6141   468
23.6241   499
23.6341   492
23.6441   525
23.6541   505
23.6641   474
23.6741   491
23.6841   500
23.6941   518
23.7041   492
23.7141   500
23.7241   508
23.7341   528
23.7441   500
23.7541   489
23.7641   507
23.7741   513
23.7841   511
23.7941   526
23.8041   511
23.8141   490
23.8241   540
23.8341   523
23.8441   556
23.8541   489
23.8641   499
23.8741   526
23.8841   502
23.8941   484
23.9041   540
23.9141   528
23.9241   522
23.9341   463
23.9441   492
23.9541   511
23.9641   435
23.9741   506
23.9841   499
23.9941   502
24.0041   478
24.0141   451
24.0241   466
24.0341   502
24.0441   502
24.0541   496
24.0641   495
24.0741   464
24.0841   488
24.0941   468
24.1041   448
24.1141   463
24.1241   482
24.1341   495
24.1441   478
24.1541   468
24.1641   465
24.1741   450
24.1841   444
24.1941   439
24.2041   470
24.2141   487
24.2241   474
24.2341   466
24.2441   497
24.2541   471
24.2641   494
24.2741   498
24.2841   459
24.2941   452
24.3041   470
24.3141   460
24.3241   477
24.3341   522
24.3441   449
24.3541   421
24.3641   463
24.3741   440
24.3841   430
24.3941   498
24.4041   446
24.4141   472
24.4241   445
24.4341   455
24.4441   476
24.4541   432
24.4641   484
24.4741   463
24.4841   451
24.4941   454
24.5041   444
24.5141   441
24.5241   446
24.5341   433
24.5441   465
24.5541   454
24.5641   454
24.5741   449
24.5841   440
24.5941   441
24.6041   472
24.6141   454
24.6241   441
24.6341   473
24.6441   440
24.6541   421
24.6641   449
24.6741   447
24.6841   454
24.6941   477
24.7041   456
24.7141   472
24.7241   416
24.7341   439
24.7441   428
24.7541   439
24.7641   462
24.7741   469
24.7841   485
24.7941   412
24.8041   438
24.8141   436
24.8241   467
24.8341   449
24.8441   451
24.8541   442
24.8641   461
24.8741   456
24.8841   434
24.8941   451
24.9041   445
24.9141   443
24.9241   452
24.9341   452
24.9441   466
24.9541   439
24.9641   483
24.9741   458
24.9841   477
24.9941   445
25.0041   416
25.0141   448
25.0241   419
25.0341   444
25.0441   445
25.0541   464
25.0641   483
25.0741   439
25.0841   446
25.0941   414
25.1041   446
25.1141   454
25.1241   429
25.1341   506
25.1441   458
25.1541   451
25.1641   469
25.1741   440
25.1841   445
25.1941   433
25.2041   430
25.2141   421
25.2241   471
25.2341   492
25.2441   466
25.2541   435
25.2641   457
25.2741   434
25.2841   444
25.2941   445
25.3041   448
25.3141   446
25.3241   441
25.3341   419
25.3441   430
25.3541   436
25.3641   445
25.3741   482
25.3841   447
25.3941   463
25.4041   432
25.4141   432
25.4241   435
25.4341   412
25.4441   414
25.4541   440
25.4641   403
25.4741   427
25.4841   404
25.4941   431
25.5041   426
25.5141   430
25.5241   433
25.5341   422
25.5441   424
25.5541   430
25.5641   435
25.5741   407
25.5841   407
25.5941   433
25.6041   428
25.6141   439
25.6241   416
25.6341   424
25.6441   451
25.6541   438
25.6641   412
25.6741   422
25.6841   418
25.6941   435
25.7041   406
25.7141   407
25.7241   408
25.7341   429
25.7441   389
25.7541   387
25.7641   402
25.7741   400
25.7841   405
25.7941   393
25.8041   439
25.8141   383
25.8241   386
25.8341   367
25.8441   404
25.8541   431
25.8641   409
25.8741   402
25.8841   410
25.8941   395
25.9041   374
25.9141   397
25.9241   420
25.9341   424
25.9441   409
25.9541   377
25.9641   403
25.9741   390
25.9841   416
25.9941   403
26.0041   391
26.0141   376
26.0241   410
26.0341   405
26.0441   417
26.0541   387
26.0641   395
26.0741   396
26.0841   372
26.0941   376
26.1041   384
26.1141   428
26.1241   422
26.1341   414
26.1441   388
26.1541   389
26.1641   409
26.1741   397
26.1841   407
26.1941   389
26.2041   403
26.2141   405
26.2241   394
26.2341   397
26.2441   378
26.2541   414
26.2641   420
26.2741   406
26.2841   366
26.2941   365
26.3041   405
26.3141   393
26.3241   362
26.3341   402
26.3441   390
26.3541   408
26.3641   449
26.3741   390
26.3841   433
26.3941   386
26.4041   398
26.4141   417
26.4241   412
26.4341   380
26.4441   415
26.4541   386
26.4641   357
26.4741   402
26.4841   400
26.4941   374
26.5041   387
26.5141   386
26.5241   376
26.5341   399
26.5441   383
26.5541   403
26.5641   396
26.5741   382
26.5841   376
26.5941   371
26.6041   375
26.6141   391
26.6241   384
26.6341   352
26.6441   381
26.6541   372
26.6641   375
26.6741   354
26.6841   368
26.6941   402
26.7041   357
26.7141   404
26.7241   381
26.7341   401
26.7441   352
26.7541   366
26.7641   391
26.7741   361
26.7841   375
26.7941   371
26.8041   342
26.8141   356
26.8241   394
26.8341   361
26.8441   380
26.8541   367
26.8641   362
26.8741   357
26.8841   392
26.8941   324
26.9041   381
26.9141   370
26.9241   365
26.9341   376
26.9441   389
26.9541   384
26.9641   339
26.9741   433
26.9841   357
26.9941   378
27.0041   405
27.0141   377
27.0241   364
27.0341   358
27.0441   338
27.0541   367
27.0641   326
27.0741   393
27.0841   341
27.0941   398
27.1041   359
27.1141   359
27.1241   339
27.1341   361
27.1441   356
27.1541   356
27.1641   376
27.1741   380
27.1841   374
27.1941   413
27.2041   358
27.2141   362
27.2241   363
27.2341   349
27.2441   333
27.2541   351
27.2641   355
27.2741   343
27.2841   346
27.2941   380
27.3041   358
27.3141   342
27.3241   361
27.3341   359
27.3441   349
27.3541   344
27.3641   359
27.3741   359
27.3841   350
27.3941   355
27.4041   354
27.4141   345
27.4241   337
27.4341   376
27.4441   351
27.4541   348
27.4641   361
27.4741   380
27.4841   357
27.4941   311
27.5041   364
27.5141   354
27.5241   358
27.5341   386
27.5441   320
27.5541   375
27.5641   340
27.5741   346
27.5841   331
27.5941   323
27.6041   313
27.6141   328
27.6241   337
27.6341   348
27.6441   336
27.6541   376
27.6641   344
27.6741   345
27.6841   325
27.6941   350
27.7041   344
27.7141   316
27.7241   352
27.7341   308
27.7441   337
27.7541   333
27.7641   324
27.7741   316
27.7841   325
27.7941   348
27.8041   348
27.8141   336
27.8241   347
27.8341   332
27.8441   340
27.8541   345
27.8641   351
27.8741   338
27.8841   349
27.8941   350
27.9041   333
27.9141   336
27.9241   312
27.9341   318
27.9441   351
27.9541   308
27.9641   327
27.9741   324
27.9841   331
27.9941   327
28.0041   348
28.0141   327
28.0241   313
28.0341   299
28.0441   322
28.0541   348
28.0641   345
28.0741   340
28.0841   320
28.0941   314
28.1041   329
28.1141   300
28.1241   317
28.1341   305
28.1441   309
28.1541   330
28.1641   324
28.1741   325
28.1841   317
28.1941   321
28.2041   340
28.2141   327
28.2241   318
28.2341   321
28.2441   299
28.2541   325
28.2641   314
28.2741   308
28.2841   320
28.2941   333
28.3041   321
28.3141   309
28.3241   308
28.3341   318
28.3441   270
28.3541   291
28.3641   298
28.3741   311
28.3841   321
28.3941   313
28.4041   304
28.4141   333
28.4241   326
28.4341   300
28.4441   361
28.4541   316
28.4641   313
28.4741   315
28.4841   335
28.4941   311
28.5041   289
28.5141   304
28.5241   330
28.5341   305
28.5441   316
28.5541   331
28.5641   319
28.5741   299
28.5841   299
28.5941   308
28.6041   331
28.6141   303
28.6241   322
28.6341   304
28.6441   270
28.6541   306
28.6641   325
28.6741   319
28.6841   332
28.6941   307
28.7041   302
28.7141   313
28.7241   316
28.7341   296
28.7441   307
28.7541   296
28.7641   314
28.7741   300
28.7841   323
28.7941   307
28.8041   296
28.8141   312
28.8241   295
28.8341   288
28.8441   288
28.8541   280
28.8641   285
28.8741   297
28.8841   291
28.8941   285
28.9041   311
28.9141   290
28.9241   283
28.9341   276
28.9441   284
28.9541   287
28.9641   310
28.9741   282
28.9841   296
28.9941   308
29.0041   310
29.0141   280
29.0241   295
29.0341   264
29.0441   319
29.0541   278
29.0641   268
29.0741   285
29.0841   308
29.0941   283
29.1041   305
29.1141   286
29.1241   284
29.1341   252
29.1441   263
29.1541   273
29.1641   276
29.1741   290
29.1841   271
29.1941   287
29.2041   275
29.2141   278
29.2241   274
29.2341   287
29.2441   297
29.2541   258
29.2641   276
29.2741   275
29.2841   313
29.2941   263
29.3041   301
29.3141   268
29.3241   280
29.3341   257
29.3441   267
29.3541   262
29.3641   285
29.3741   270
29.3841   274
29.3941   285
29.4041   285
29.4141   265
29.4241   253
29.4341   284
29.4441   285
29.4541   275
29.4641   291
29.4741   290
29.4841   295
29.4941   275
29.5041   288
29.5141   280
29.5241   245
29.5341   262
29.5441   266
29.5541   270
29.5641   306
29.5741   272
29.5841   285
29.5941   307
29.6041   287
29.6141   308
29.6241   298
29.6341   242
29.6441   273
29.6541   286
29.6641   260
29.6741   248
29.6841   248
29.6941   284
29.7041   255
29.7141   270
29.7241   259
29.7341   250
29.7441   280
29.7541   272
29.7641   289
29.7741   247
29.7841   257
29.7941   272
29.8041   265
29.8141   268
29.8241   259
29.8341   261
29.8441   262
29.8541   264
29.8641   277
29.8741   232
29.8841   275
29.8941   267
29.9041   252
29.9141   254
29.9241   264
29.9341   272
29.9441   259
29.9541   229
29.9641   260
29.9741   234
29.9841   261
29.9941   257
30.0041   258
30.0141   272
30.0241   236
30.0341   247
30.0441   239
30.0541   266
30.0641   258
30.0741   240
30.0841   257
30.0941   239
30.1041   237
30.1141   256
30.1241   258
30.1341   256
30.1441   263
30.1541   254
30.1641   215
30.1741   252
30.1841   245
30.1941   253
30.2041   238
30.2141   264
30.2241   269
30.2341   230
30.2441   244
30.2541   259
30.2641   256
30.2741   250
30.2841   238
30.2941   220
30.3041   236
30.3141   235
30.3241   226
30.3341   221
30.3441   248
30.3541   220
30.3641   242
30.3741   225
30.3841   254
30.3941   234
30.4041   240
30.4141   230
30.4241   229
30.4341   238
30.4441   251
30.4541   254
30.4641   209
30.4741   225
30.4841   248
30.4941   256
30.5041   211
30.5141   222
30.5241   233
30.5341   235
30.5441   221
30.5541   252
30.5641   226
30.5741   232
30.5841   250
30.5941   244
30.6041   222
30.6141   220
30.6241   218
30.6341   225
30.6441   209
30.6541   234
30.6641   245
30.6741   224
30.6841   223
30.6941   238
30.7041   231
30.7141   228
30.7241   242
30.7341   237
30.7441   234
30.7541   257
30.7641   222
30.7741   221
30.7841   227
30.7941   237
30.8041   219
30.8141   245
30.8241   202
30.8341   205
30.8441   223
30.8541   226
30.8641   201
30.8741   230
30.8841   216
30.8941   200
30.9041   231
30.9141   221
30.9241   231
30.9341   211
30.9441   208
30.9541   214
30.9641   211
30.9741   220
30.9841   204
30.9941   192
31.0041   229
31.0141   208
31.0241   219
31.0341   237
31.0441   213
31.0541   226
31.0641   222
31.0741   223
31.0841   201
31.0941   207
31.1041   232
31.1141   211
31.1241   211
31.1341   238
31.1441   206
31.1541   201
31.1641   203
31.1741   232
31.1841   206
31.1941   206
31.2041   203
31.2141   231
31.2241   226
31.2341   231
31.2441   228
31.2541   206
31.2641   228
31.2741   216
31.2841   200
31.2941   229
31.3041   223
31.3141   217
31.3241   209
31.3341   194
31.3441   208
31.3541   192
31.3641   207
31.3741   202
31.3841   230
31.3941   214
31.4041   189
31.4141   200
31.4241   225
31.4341   192
31.4441   228
31.4541   218
31.4641   195
31.4741   203
31.4841   211
31.4941   214
31.5041   200
31.5141   202
31.5241   218
31.5341   199
31.5441   188
31.5541   198
31.5641   200
31.5741   203
31.5841   209
31.5941   203
31.6041   205
31.6141   221
31.6241   199
31.6341   189
31.6441   200
31.6541   212
31.6641   195
31.6741   201
31.6841   199
31.6941   173
31.7041   206
31.7141   210
31.7241   207
31.7341   213
31.7441   205
31.7541   227
31.7641   223
31.7741   201
31.7841   191
31.7941   194
31.8041   189
31.8141   210
31.8241   199
31.8341   226
31.8441   203
31.8541   215
31.8641   214
31.8741   196
31.8841   185
31.8941   213
31.9041   207
31.9141   197
31.9241   194
31.9341   206
31.9441   179
31.9541   186
31.9641   214
31.9741   200
31.9841   177
31.9941   192
32.0041   189
32.0141   206
32.0241   174
32.0341   212
32.0441   207
32.0541   198
32.0641   215
32.0741   184
32.0841   195
32.0941   221
32.1041   217
32.1141   198
32.1241   185
32.1341   204
32.1441   218
32.1541   205
32.1641   187
32.1741   213
32.1841   188
32.1941   176
32.2041   189
32.2141   211
32.2241   179
32.2341   188
32.2441   204
32.2541   206
32.2641   201
32.2741   213
32.2841   207
32.2941   182
32.3041   185
32.3141   178
32.3241   182
32.3341   179
32.3441   202
32.3541   176
32.3641   176
32.3741   174
32.3841   172
32.3941   207
32.4041   179
32.4141   162
32.4241   147
32.4341   167
32.4441   176
32.4541   188
32.4641   187
32.4741   164
32.4841   203
32.4941   180
32.5041   177
32.5141   168
32.5241   182
32.5341   186
32.5441   175
32.5541   156
32.5641   161
32.5741   141
32.5841   184
32.5941   165
32.6041   196
32.6141   170
32.6241   187
32.6341   162
32.6441   176
32.6541   182
32.6641   180
32.6741   174
32.6841   148
32.6941   168
32.7041   179
32.7141   159
32.7241   142
32.7341   164
32.7441   176
32.7541   162
32.7641   157
32.7741   176
32.7841   154
32.7941   161
32.8041   147
32.8141   146
32.8241   175
32.8341   173
32.8441   169
32.8541   172
32.8641   154
32.8741   160
32.8841   167
32.8941   163
32.9041   188
32.9141   159
32.9241   159
32.9341   158
32.9441   187
32.9541   166
32.9641   138
32.9741   156
32.9841   157
32.9941   166
33.0041   165
33.0141   172
33.0241   142
33.0341   160
33.0441   163
33.0541   171
33.0641   140
33.0741   147
33.0841   163
33.0941   149
33.1041   156
33.1141   163
33.1241   151
33.1341   176
33.1441   170
33.1541   126
33.1641   147
33.1741   141
33.1841   150
33.1941   143
33.2041   160
33.2141   148
33.2241   164
33.2341   139
33.2441   171
33.2541   134
33.2641   145
33.2741   158
33.2841   137
33.2941   153
33.3041   144
33.3141   150
33.3241   158
33.3341   136
33.3441   138
33.3541   168
33.3641   149
33.3741   154
33.3841   149
33.3941   152
33.4041   155
33.4141   163
33.4241   139
33.4341   157
33.4441   163
33.4541   158
33.4641   140
33.4741   157
33.4841   119
33.4941   131
33.5041   130
33.5141   144
33.5241   134
33.5341   120
33.5441   125
33.5541   126
33.5641   141
33.5741   129
33.5841   141
33.5941   146
33.6041   165
33.6141   145
33.6241   142
33.6341   128
33.6441   159
33.6541   148
33.6641   137
33.6741   142
33.6841   165
33.6941   121
33.7041   155
33.7141   139
33.7241   126
33.7341   155
33.7441   157
33.7541   147
33.7641   140
33.7741   138
33.7841   126
33.7941   133
33.8041   126
33.8141   142
33.8241   145
33.8341   128
33.8441   137
33.8541   123
33.8641   147
33.8741   127
33.8841   123
33.8941   129
33.9041   136
33.9141   122
33.9241   134
33.9341   140
33.9441   128
33.9541   134
33.9641   136
33.9741   130
33.9841   121
33.9941   121
34.0041   131
34.0141   120
34.0241   115
34.0341   132
34.0441   135
34.0541   142
34.0641   115
34.0741   119
34.0841   137
34.0941   123
34.1041   123
34.1141   123
34.1241   103
34.1341   125
34.1441   122
34.1541   132
34.1641   131
34.1741   125
34.1841   109
34.1941   125
34.2041   127
34.2141   121
34.2241   134
34.2341   124
34.2441   104
34.2541   135
34.2641   121
34.2741   133
34.2841   129
34.2941   122
34.3041   148
34.3141   127
34.3241   121
34.3341   122
34.3441   139
34.3541   134
34.3641   116
34.3741   122
34.3841   118
34.3941   133
34.4041   113
34.4141   120
34.4241   126
34.4341   126
34.4441   104
34.4541   125
34.4641   120
34.4741   137
34.4841   134
34.4941   115
34.5041   122
34.5141   106
34.5241   125
34.5341   109
34.5441   147
34.5541   113
34.5641   122
34.5741   100
34.5841   113
34.5941   125
34.6041   114
34.6141   108
34.6241   127
34.6341    98
34.6441   121
34.6541   114
34.6641   123
34.6741   117
34.6841   119
34.6941   117
34.7041   122
34.7141   118
34.7241   124
34.7341   114
34.7441   123
34.7541   120
34.7641   110
34.7741   112
34.7841   116
34.7941   120
34.8041   130
34.8141   109
34.8241   114
34.8341   104
34.8441   105
34.8541   109
34.8641   117
34.8741   109
34.8841    95
34.8941   112
34.9041   100
34.9141   109
34.9241   109
34.9341   117
34.9441   115
34.9541   124
34.9641   112
34.9741   124
34.9841   104
34.9941   101
35.0041    86
35.0141   106
35.0241   115
35.0341   114
35.0441   113
35.0541   100
35.0641   110
35.0741   124
35.0841    95
35.0941   119
35.1041   115
35.1141   105
35.1241   110
35.1341    90
35.1441    92
35.1541   115
35.1641    94
35.1741    85
35.1841    86
35.1941   109
35.2041   107
35.2141    95
35.2241   103
35.2341    99
35.2441   111
35.2541   107
35.2641    94
35.2741    97
35.2841   100
35.2941   125
35.3041   121
35.3141   100
35.3241    95
35.3341   102
35.3441   114
35.3541    96
35.3641   107
35.3741    91
35.3841    99
35.3941    99
35.4041   116
35.4141   108
35.4241    93
35.4341   118
35.4441    84
35.4541    84
35.4641    95
35.4741    96
35.4841    99
35.4941   111
35.5041    91
35.5141   101
35.5241    95
35.5341   104
35.5441    81
35.5541    87
35.5641    98
35.5741    90
35.5841   107
35.5941    91
35.6041    87
35.6141   103
35.6241    93
35.6341    77
35.6441    93
35.6541    80
35.6641    80
35.6741    96
35.6841   103
35.6941    88
35.7041   103
35.7141    74
35.7241    92
35.7341    87
35.7441   115
35.7541    93
35.7641    82
35.7741    77
35.7841    67
35.7941    79
35.8041    93
35.8141    93
35.8241    96
35.8341    87
35.8441    96
35.8541    98
35.8641    77
35.8741    93
35.8841    92
35.8941    91
35.9041    91
35.9141   100
35.9241   101
35.9341   103
35.9441    81
35.9541    83
35.9641    83
35.9741    73
35.9841    83
35.9941    87
36.0041    84
36.0141    77
36.0241    99
36.0341    93
36.0441    99
36.0541    96
36.0641    90
36.0741    90
36.0841    79
36.0941    76
36.1041    81
36.1141   104
36.1241    88
36.1341    79
36.1441    80
36.1541    87
36.1641    71
36.1741    80
36.1841    85
36.1941    64
36.2041    83
36.2141    93
36.2241   102
36.2341    99
36.2441    75
36.2541    70
36.2641    79
36.2741    81
36.2841    92
36.2941    92
36.3041    76
36.3141    80
36.3241    85
36.3341    72
36.3441    94
36.3541    83
36.3641    78
36.3741    86
36.3841    84
36.3941    87
36.4041    81
36.4141    77
36.4241    82
36.4341    75
36.4441    91
36.4541    82
36.4641    68
36.4741    84
36.4841    65
36.4941    73
36.5041    77
36.5141    75
36.5241    80
36.5341    75
36.5441    82
36.5541    80
36.5641    90
36.5741    76
36.5841    73
36.5941    72
36.6041    73
36.6141    77
36.6241    62
36.6341    81
36.6441    75
36.6541    80
36.6641    96
36.6741    88
36.6841    78
36.6941    82
36.7041    82
36.7141    66
36.7241    87
36.7341    76
36.7441    69
36.7541    71
36.7641    68
36.7741    66
36.7841    71
36.7941    78
36.8041    75
36.8141    88
36.8241    71
36.8341    81
36.8441    63
36.8541    78
36.8641    76
36.8741    71
36.8841    65
36.8941    85
36.9041    60
36.9141    74
36.9241    80
36.9341    74
36.9441    70
36.9541    68
36.9641    79
36.9741    60
36.9841    70
36.9941    61
37.0041    71
37.0141    79
37.0241    76
37.0341    64
37.0441    67
37.0541    61
37.0641    58
37.0741    69
37.0841    67
37.0941    66
37.1041    62
37.1141    83
37.1241    67
37.1341    69
37.1441    78
37.1541    70
37.1641    77
37.1741    77
37.1841    63
37.1941    75
37.2041    61
37.2141    47
37.2241    58
37.2341    64
37.2441    66
37.2541    76
37.2641    59
37.2741    73
37.2841    63
37.2941    66
37.3041    80
37.3141    78
37.3241    69
37.3341    70
37.3441    57
37.3541    63
37.3641    63
37.3741    77
37.3841    56
37.3941    69
37.4041    52
37.4141    64
37.4241    62
37.4341    56
37.4441    66
37.4541    63
37.4641    64
37.4741    58
37.4841    55
37.4941    58
37.5041    57
37.5141    68
37.5241    63
37.5341    62
37.5441    60
37.5541    48
37.5641    65
37.5741    62
37.5841    63
37.5941    60
37.6041    56
37.6141    50
37.6241    64
37.6341    67
37.6441    56
37.6541    54
37.6641    50
37.6741    63
37.6841    59
37.6941    62
37.7041    53
37.7141    60
37.7241    61
37.7341    58
37.7441    58
37.7541    57
37.7641    61
37.7741    54
37.7841    38
37.7941    59
37.8041    46
37.8141    50
37.8241    57
37.8341    42
37.8441    62
37.8541    41
37.8641    58
37.8741    54
37.8841    56
37.8941    57
37.9041    52
37.9141    52
37.9241    48
37.9341    46
37.9441    61
37.9541    62
37.9641    73
37.9741    51
37.9841    56
37.9941    49
38.0041    60
38.0141    58
38.0241    51
38.0341    44
38.0441    54
38.0541    39
38.0641    57
38.0741    54
38.0841    63
38.0941    52
38.1041    51
38.1141    43
38.1241    58
38.1341    48
38.1441    49
38.1541    53
38.1641    47
38.1741    51
38.1841    54
38.1941    34
38.2041    46
38.2141    41
38.2241    43
38.2341    52
38.2441    56
38.2541    45
38.2641    61
38.2741    43
38.2841    44
38.2941    49
38.3041    50
38.3141    50
38.3241    45
38.3341    57
38.3441    50
38.3541    44
38.3641    45
38.3741    57
38.3841    38
38.3941    55
38.4041    48
38.4141    36
38.4241    51
38.4341    54
38.4441    50
38.4541    50
38.4641    45
38.4741    37
38.4841    43
38.4941    31
38.5041    38
38.5141    41
38.5241    48
38.5341    48
38.5441    40
38.5541    43
38.5641    35
38.5741    36
38.5841    47
38.5941    42
38.6041    37
38.6141    45
38.6241    37
38.6341    50
38.6441    44
38.6541    44
38.6641    45
38.6741    41
38.6841    33
38.6941    49
38.7041    43
38.7141    46
38.7241    44
38.7341    44
38.7441    38
38.7541    41
38.7641    46
38.7741    37
38.7841    45
38.7941    41
38.8041    37
38.8141    47
38.8241    36
38.8341    46
38.8441    51
38.8541    43
38.8641    37
38.8741    47
38.8841    49
38.8941    40
38.9041    27
38.9141    41
38.9241    39
38.9341    33
38.9441    35
38.9541    45
38.9641    49
38.9741    34
38.9841    32
38.9941    32
39.0041    36
39.0141    32
39.0241    40
39.0341    33
39.0441    36
39.0541    46
39.0641    30
39.0741    40
39.0841    32
39.0941    28
39.1041    33
39.1141    30
39.1241    37
39.1341    37
39.1441    30
39.1541    42
39.1641    36
39.1741    32
39.1841    35
39.1941    33
39.2041    40
39.2141    35
39.2241    46
39.2341    36
39.2441    33
39.2541    33
39.2641    31
39.2741    36
39.2841    46
39.2941    38
39.3041    27
39.3141    30
39.3241    35
39.3341    38
39.3441    38
39.3541    42
39.3641    45
39.3741    34
39.3841    32
39.3941    36
39.4041    28
39.4141    32
39.4241    38
39.4341    35
39.4441    33
39.4541    41
39.4641    42
39.4741    41
39.4841    34
39.4941    32
39.5041    36
39.5141    36
39.5241    27
39.5341    33
39.5441    23
39.5541    32
39.5641    26
39.5741    36
39.5841    32
39.5941    38
39.6041    31
39.6141    26
39.6241    30
39.6341    29
39.6441    33
39.6541    31
39.6641    22
39.6741    17
39.6841    23
39.6941    33
39.7041    28
39.7141    30
39.7241    30
39.7341    39
39.7441    31
39.7541    23
39.7641    26
39.7741    33
39.7841    34
39.7941    39
39.8041    20
39.8141    30
39.8241    27
39.8341    33
39.8441    22
39.8541    28
39.8641    27
39.8741    35
39.8841    31
39.8941    41
39.9041    30
39.9141    32
39.9241    28
39.9341    36
39.9441    33
39.9541    36
39.9641    23
39.9741    22
39.9841    25
