Bruker Nano GmbH Berlin, Germany
Esprit 1.9

Date: 5/14/2021 3:58:49 PM
Real time: 19117
Life time: 17937
Pulse density: 89192


Detector type: XFlash 430
Window type: Custom type
Detector thickness: 0.45
Si dead layer:0.029

Calibration, lin.: 10
Calibration, abs.: -955.9
Mn FWHM: 137.05
Fano factor: 0.121
Channels: 4096

Energy Counts
-0.9559     0
-0.9459     0
-0.9359     0
-0.9259     0
-0.9159     0
-0.9059     0
-0.8959     0
-0.8859     0
-0.8759     0
-0.8659     0
-0.8559     0
-0.8459     0
-0.8359     0
-0.8259     0
-0.8159     0
-0.8059     0
-0.7959     0
-0.7859     0
-0.7759     0
-0.7659     0
-0.7559     0
-0.7459     0
-0.7359     0
-0.7259     0
-0.7159     0
-0.7059     0
-0.6959     0
-0.6859     0
-0.6759     0
-0.6659     0
-0.6559     0
-0.6459     0
-0.6359     0
-0.6259     0
-0.6159     0
-0.6059     0
-0.5959     0
-0.5859     0
-0.5759     0
-0.5659     0
-0.5559     0
-0.5459     0
-0.5359     0
-0.5259     0
-0.5159     0
-0.5059     0
-0.4959     0
-0.4859     0
-0.4759     0
-0.4659     0
-0.4559     0
-0.4459     0
-0.4359     0
-0.4259     0
-0.4159     0
-0.4059     0
-0.3959     0
-0.3859     0
-0.3759     0
-0.3659     0
-0.3559     0
-0.3459     0
-0.3359     0
-0.3259     0
-0.3159     0
-0.3059     0
-0.2959     0
-0.2859     0
-0.2759     0
-0.2659     0
-0.2559     0
-0.2459     0
-0.2359     0
-0.2259     0
-0.2159     0
-0.2059     0
-0.1959     0
-0.1859     0
-0.1759     0
-0.1659     0
-0.1559     0
-0.1459     0
-0.1359     0
-0.1259     0
-0.1159     2
-0.1059    14
-0.0959    65
-0.0859   220
-0.0759   720
-0.0659  2107
-0.0559  5217
-0.0459 11359
-0.0359 21385
-0.0259 34218
-0.0159 46707
-0.0059 55331
 0.0041 54978
 0.0141 47631
 0.0241 35004
 0.0341 22212
 0.0441 12154
 0.0541  5564
 0.0641  2237
 0.0741   806
 0.0841   235
 0.0941    59
 0.1041    22
 0.1141     9
 0.1241     8
 0.1341     3
 0.1441     2
 0.1541     6
 0.1641     5
 0.1741     2
 0.1841   170
 0.1941   327
 0.2041   261
 0.2141   285
 0.2241   271
 0.2341   271
 0.2441   280
 0.2541   294
 0.2641   294
 0.2741   296
 0.2841   278
 0.2941   285
 0.3041   280
 0.3141   259
 0.3241   276
 0.3341   270
 0.3441   271
 0.3541   267
 0.3641   294
 0.3741   262
 0.3841   279
 0.3941   276
 0.4041   243
 0.4141   260
 0.4241   250
 0.4341   247
 0.4441   259
 0.4541   261
 0.4641   250
 0.4741   271
 0.4841   272
 0.4941   235
 0.5041   246
 0.5141   236
 0.5241   234
 0.5341   247
 0.5441   248
 0.5541   241
 0.5641   246
 0.5741   234
 0.5841   232
 0.5941   238
 0.6041   226
 0.6141   234
 0.6241   232
 0.6341   221
 0.6441   224
 0.6541   220
 0.6641   216
 0.6741   207
 0.6841   202
 0.6941   210
 0.7041   213
 0.7141   211
 0.7241   211
 0.7341   215
 0.7441   223
 0.7541   209
 0.7641   209
 0.7741   216
 0.7841   211
 0.7941   214
 0.8041   221
 0.8141   218
 0.8241   205
 0.8341   203
 0.8441   207
 0.8541   203
 0.8641   198
 0.8741   205
 0.8841   199
 0.8941   204
 0.9041   190
 0.9141   201
 0.9241   200
 0.9341   196
 0.9441   195
 0.9541   198
 0.9641   174
 0.9741   184
 0.9841   168
 0.9941   198
 1.0041   202
 1.0141   173
 1.0241   185
 1.0341   201
 1.0441   193
 1.0541   194
 1.0641   191
 1.0741   186
 1.0841   188
 1.0941   175
 1.1041   184
 1.1141   176
 1.1241   167
 1.1341   166
 1.1441   177
 1.1541   156
 1.1641   169
 1.1741   177
 1.1841   164
 1.1941   181
 1.2041   177
 1.2141   176
 1.2241   183
 1.2341   197
 1.2441   193
 1.2541   175
 1.2641   169
 1.2741   191
 1.2841   187
 1.2941   181
 1.3041   184
 1.3141   169
 1.3241   153
 1.3341   167
 1.3441   170
 1.3541   179
 1.3641   171
 1.3741   161
 1.3841   176
 1.3941   175
 1.4041   186
 1.4141   157
 1.4241   165
 1.4341   171
 1.4441   157
 1.4541   170
 1.4641   168
 1.4741   163
 1.4841   167
 1.4941   150
 1.5041   138
 1.5141   167
 1.5241   184
 1.5341   179
 1.5441   163
 1.5541   169
 1.5641   179
 1.5741   178
 1.5841   146
 1.5941   171
 1.6041   175
 1.6141   161
 1.6241   154
 1.6341   172
 1.6441   178
 1.6541   208
 1.6641   237
 1.6741   288
 1.6841   344
 1.6941   420
 1.7041   506
 1.7141   578
 1.7241   694
 1.7341   738
 1.7441   725
 1.7541   688
 1.7641   605
 1.7741   488
 1.7841   434
 1.7941   370
 1.8041   314
 1.8141   281
 1.8241   246
 1.8341   219
 1.8441   192
 1.8541   196
 1.8641   190
 1.8741   190
 1.8841   189
 1.8941   194
 1.9041   173
 1.9141   162
 1.9241   153
 1.9341   178
 1.9441   189
 1.9541   176
 1.9641   198
 1.9741   172
 1.9841   184
 1.9941   185
 2.0041   203
 2.0141   199
 2.0241   212
 2.0341   193
 2.0441   181
 2.0541   162
 2.0641   160
 2.0741   141
 2.0841   146
 2.0941   138
 2.1041   134
 2.1141   155
 2.1241   152
 2.1341   158
 2.1441   146
 2.1541   161
 2.1641   153
 2.1741   143
 2.1841   162
 2.1941   147
 2.2041   143
 2.2141   140
 2.2241   134
 2.2341   173
 2.2441   139
 2.2541   139
 2.2641   138
 2.2741   137
 2.2841   141
 2.2941   155
 2.3041   144
 2.3141   126
 2.3241   134
 2.3341   134
 2.3441   145
 2.3541   149
 2.3641   145
 2.3741   142
 2.3841   152
 2.3941   141
 2.4041   156
 2.4141   141
 2.4241   139
 2.4341   129
 2.4441   131
 2.4541   149
 2.4641   143
 2.4741   127
 2.4841   118
 2.4941   112
 2.5041   122
 2.5141   137
 2.5241   106
 2.5341   128
 2.5441   124
 2.5541   128
 2.5641   119
 2.5741   128
 2.5841   128
 2.5941   120
 2.6041   131
 2.6141   145
 2.6241   139
 2.6341   123
 2.6441   134
 2.6541   150
 2.6641   118
 2.6741   125
 2.6841   135
 2.6941   115
 2.7041   118
 2.7141   129
 2.7241   120
 2.7341   138
 2.7441   103
 2.7541   129
 2.7641   131
 2.7741   124
 2.7841   120
 2.7941   133
 2.8041   117
 2.8141   136
 2.8241   125
 2.8341   134
 2.8441   132
 2.8541   126
 2.8641   110
 2.8741   114
 2.8841   137
 2.8941   125
 2.9041   118
 2.9141   113
 2.9241   120
 2.9341   128
 2.9441   118
 2.9541   113
 2.9641   114
 2.9741   120
 2.9841   115
 2.9941   111
 3.0041   117
 3.0141   112
 3.0241   109
 3.0341    91
 3.0441   109
 3.0541   107
 3.0641   113
 3.0741   119
 3.0841   106
 3.0941    99
 3.1041   105
 3.1141   102
 3.1241   106
 3.1341    94
 3.1441   114
 3.1541    97
 3.1641   109
 3.1741   100
 3.1841    92
 3.1941   107
 3.2041   116
 3.2141    93
 3.2241   112
 3.2341   114
 3.2441   116
 3.2541   133
 3.2641   135
 3.2741   146
 3.2841   158
 3.2941   169
 3.3041   164
 3.3141   170
 3.3241   190
 3.3341   197
 3.3441   179
 3.3541   166
 3.3641   143
 3.3741   142
 3.3841   137
 3.3941   113
 3.4041    93
 3.4141    92
 3.4241   109
 3.4341   109
 3.4441    87
 3.4541   101
 3.4641   100
 3.4741    97
 3.4841    93
 3.4941    91
 3.5041   106
 3.5141    93
 3.5241   110
 3.5341    97
 3.5441   107
 3.5541   121
 3.5641   133
 3.5741   159
 3.5841   176
 3.5941   246
 3.6041   280
 3.6141   370
 3.6241   438
 3.6341   548
 3.6441   613
 3.6541   746
 3.6641   857
 3.6741   923
 3.6841   931
 3.6941   929
 3.7041   899
 3.7141   860
 3.7241   765
 3.7341   653
 3.7441   514
 3.7541   407
 3.7641   321
 3.7741   249
 3.7841   206
 3.7941   171
 3.8041   137
 3.8141   125
 3.8241   101
 3.8341    95
 3.8441    93
 3.8541    87
 3.8641    81
 3.8741    78
 3.8841    71
 3.8941    92
 3.9041    80
 3.9141   112
 3.9241   123
 3.9341   133
 3.9441   132
 3.9541   138
 3.9641   145
 3.9741   143
 3.9841   181
 3.9941   169
 4.0041   189
 4.0141   185
 4.0241   188
 4.0341   179
 4.0441   167
 4.0541   154
 4.0641   160
 4.0741   107
 4.0841   104
 4.0941    95
 4.1041    97
 4.1141   101
 4.1241    77
 4.1341    76
 4.1441    73
 4.1541    69
 4.1641    75
 4.1741    84
 4.1841    76
 4.1941    71
 4.2041    67
 4.2141    72
 4.2241    77
 4.2341    75
 4.2441    69
 4.2541    78
 4.2641    86
 4.2741    83
 4.2841    81
 4.2941    63
 4.3041    67
 4.3141    86
 4.3241    82
 4.3341    76
 4.3441    81
 4.3541    70
 4.3641    82
 4.3741    86
 4.3841    84
 4.3941    90
 4.4041   137
 4.4141   144
 4.4241   158
 4.4341   191
 4.4441   214
 4.4541   242
 4.4641   272
 4.4741   302
 4.4841   309
 4.4941   369
 4.5041   352
 4.5141   379
 4.5241   351
 4.5341   325
 4.5441   299
 4.5541   300
 4.5641   246
 4.5741   216
 4.5841   179
 4.5941   148
 4.6041   138
 4.6141   131
 4.6241    96
 4.6341    94
 4.6441    89
 4.6541    92
 4.6641    75
 4.6741    87
 4.6841    78
 4.6941    70
 4.7041    83
 4.7141    79
 4.7241    71
 4.7341    65
 4.7441    74
 4.7541    71
 4.7641    68
 4.7741    65
 4.7841    88
 4.7941    77
 4.8041   100
 4.8141    88
 4.8241    84
 4.8341    99
 4.8441    85
 4.8541   103
 4.8641   100
 4.8741   115
 4.8841   113
 4.8941   128
 4.9041   118
 4.9141   126
 4.9241   140
 4.9341   148
 4.9441   132
 4.9541   112
 4.9641   119
 4.9741   126
 4.9841   133
 4.9941   111
 5.0041   113
 5.0141    96
 5.0241   109
 5.0341    87
 5.0441    80
 5.0541    68
 5.0641    79
 5.0741    77
 5.0841    86
 5.0941    75
 5.1041    72
 5.1141    95
 5.1241    83
 5.1341    76
 5.1441    76
 5.1541   103
 5.1641   102
 5.1741    87
 5.1841    97
 5.1941    79
 5.2041    60
 5.2141    72
 5.2241    74
 5.2341    84
 5.2441    91
 5.2541    83
 5.2641    79
 5.2741    88
 5.2841   104
 5.2941    96
 5.3041   100
 5.3141    90
 5.3241    91
 5.3341    98
 5.3441    82
 5.3541   109
 5.3641    95
 5.3741    83
 5.3841   108
 5.3941   108
 5.4041    99
 5.4141    83
 5.4241   106
 5.4341   112
 5.4441    96
 5.4541   106
 5.4641    99
 5.4741    93
 5.4841    93
 5.4941    86
 5.5041   106
 5.5141    89
 5.5241    93
 5.5341    91
 5.5441   102
 5.5541    93
 5.5641    85
 5.5741    91
 5.5841    97
 5.5941   109
 5.6041   100
 5.6141    85
 5.6241    91
 5.6341   105
 5.6441    90
 5.6541    86
 5.6641    94
 5.6741    91
 5.6841    89
 5.6941   100
 5.7041    95
 5.7141   124
 5.7241   104
 5.7341    80
 5.7441   132
 5.7541   108
 5.7641   102
 5.7741   137
 5.7841   145
 5.7941   122
 5.8041   136
 5.8141   190
 5.8241   181
 5.8341   218
 5.8441   275
 5.8541   257
 5.8641   261
 5.8741   307
 5.8841   327
 5.8941   315
 5.9041   301
 5.9141   312
 5.9241   271
 5.9341   241
 5.9441   247
 5.9541   236
 5.9641   212
 5.9741   200
 5.9841   189
 5.9941   179
 6.0041   166
 6.0141   139
 6.0241   108
 6.0341   124
 6.0441   125
 6.0541   118
 6.0641    99
 6.0741   132
 6.0841   115
 6.0941   107
 6.1041   116
 6.1141   128
 6.1241   133
 6.1341   114
 6.1441   135
 6.1541   140
 6.1641   130
 6.1741   135
 6.1841   187
 6.1941   197
 6.2041   221
 6.2141   304
 6.2241   369
 6.2341   466
 6.2441   659
 6.2541   823
 6.2641  1165
 6.2741  1568
 6.2841  2175
 6.2941  2814
 6.3041  3449
 6.3141  4614
 6.3241  5614
 6.3341  6769
 6.3441  7712
 6.3541  8943
 6.3641 10013
 6.3741 10649
 6.3841 11319
 6.3941 11681
 6.4041 11453
 6.4141 11290
 6.4241 10748
 6.4341  9782
 6.4441  8676
 6.4541  7516
 6.4641  6353
 6.4741  5403
 6.4841  4210
 6.4941  3326
 6.5041  2513
 6.5141  1896
 6.5241  1460
 6.5341  1039
 6.5441   738
 6.5541   580
 6.5641   397
 6.5741   323
 6.5841   250
 6.5941   194
 6.6041   174
 6.6141   151
 6.6241   144
 6.6341   146
 6.6441   119
 6.6541   139
 6.6641   149
 6.6741   138
 6.6841   136
 6.6941   140
 6.7041   144
 6.7141   161
 6.7241   138
 6.7341   116
 6.7441   135
 6.7541   139
 6.7641   144
 6.7741   135
 6.7841   152
 6.7941   151
 6.8041   178
 6.8141   149
 6.8241   166
 6.8341   167
 6.8441   196
 6.8541   198
 6.8641   211
 6.8741   248
 6.8841   244
 6.8941   285
 6.9041   317
 6.9141   388
 6.9241   427
 6.9341   517
 6.9441   598
 6.9541   795
 6.9641   873
 6.9741  1023
 6.9841  1219
 6.9941  1376
 7.0041  1560
 7.0141  1661
 7.0241  1781
 7.0341  1999
 7.0441  1902
 7.0541  2016
 7.0641  1993
 7.0741  1908
 7.0841  1834
 7.0941  1653
 7.1041  1469
 7.1141  1377
 7.1241  1176
 7.1341   962
 7.1441   767
 7.1541   719
 7.1641   586
 7.1741   439
 7.1841   416
 7.1941   303
 7.2041   312
 7.2141   281
 7.2241   211
 7.2341   214
 7.2441   195
 7.2541   224
 7.2641   200
 7.2741   217
 7.2841   198
 7.2941   200
 7.3041   215
 7.3141   207
 7.3241   243
 7.3341   225
 7.3441   255
 7.3541   243
 7.3641   285
 7.3741   257
 7.3841   277
 7.3941   264
 7.4041   256
 7.4141   262
 7.4241   287
 7.4341   262
 7.4441   262
 7.4541   254
 7.4641   240
 7.4741   266
 7.4841   257
 7.4941   236
 7.5041   226
 7.5141   208
 7.5241   229
 7.5341   223
 7.5441   178
 7.5541   223
 7.5641   193
 7.5741   206
 7.5841   193
 7.5941   219
 7.6041   230
 7.6141   196
 7.6241   209
 7.6341   193
 7.6441   197
 7.6541   209
 7.6641   212
 7.6741   215
 7.6841   192
 7.6941   223
 7.7041   201
 7.7141   225
 7.7241   219
 7.7341   260
 7.7441   232
 7.7541   243
 7.7641   257
 7.7741   255
 7.7841   269
 7.7941   278
 7.8041   272
 7.8141   263
 7.8241   265
 7.8341   291
 7.8441   307
 7.8541   284
 7.8641   309
 7.8741   317
 7.8841   309
 7.8941   347
 7.9041   341
 7.9141   384
 7.9241   361
 7.9341   401
 7.9441   423
 7.9541   465
 7.9641   473
 7.9741   509
 7.9841   546
 7.9941   545
 8.0041   647
 8.0141   691
 8.0241   703
 8.0341   857
 8.0441   821
 8.0541   812
 8.0641   909
 8.0741   988
 8.0841  1065
 8.0941  1098
 8.1041  1138
 8.1141  1209
 8.1241  1287
 8.1341  1301
 8.1441  1307
 8.1541  1381
 8.1641  1362
 8.1741  1380
 8.1841  1438
 8.1941  1373
 8.2041  1429
 8.2141  1507
 8.2241  1502
 8.2341  1556
 8.2441  1566
 8.2541  1575
 8.2641  1685
 8.2741  1818
 8.2841  1878
 8.2941  2082
 8.3041  2248
 8.3141  2310
 8.3241  2615
 8.3341  2759
 8.3441  2975
 8.3541  3034
 8.3641  3302
 8.3741  3328
 8.3841  3444
 8.3941  3439
 8.4041  3291
 8.4141  3167
 8.4241  3079
 8.4341  2837
 8.4441  2536
 8.4541  2299
 8.4641  2075
 8.4741  1777
 8.4841  1532
 8.4941  1326
 8.5041  1107
 8.5141   958
 8.5241   774
 8.5341   701
 8.5441   617
 8.5541   525
 8.5641   492
 8.5741   401
 8.5841   424
 8.5941   376
 8.6041   427
 8.6141   387
 8.6241   360
 8.6341   341
 8.6441   370
 8.6541   385
 8.6641   388
 8.6741   359
 8.6841   387
 8.6941   361
 8.7041   402
 8.7141   350
 8.7241   331
 8.7341   349
 8.7441   356
 8.7541   340
 8.7641   346
 8.7741   361
 8.7841   307
 8.7941   341
 8.8041   342
 8.8141   351
 8.8241   341
 8.8341   352
 8.8441   332
 8.8541   338
 8.8641   353
 8.8741   352
 8.8841   338
 8.8941   353
 8.9041   344
 8.9141   357
 8.9241   385
 8.9341   374
 8.9441   364
 8.9541   373
 8.9641   354
 8.9741   379
 8.9841   404
 8.9941   433
 9.0041   387
 9.0141   388
 9.0241   395
 9.0341   439
 9.0441   454
 9.0541   463
 9.0641   470
 9.0741   473
 9.0841   495
 9.0941   505
 9.1041   541
 9.1141   550
 9.1241   559
 9.1341   600
 9.1441   618
 9.1541   600
 9.1641   603
 9.1741   681
 9.1841   696
 9.1941   817
 9.2041   791
 9.2141   823
 9.2241   870
 9.2341   923
 9.2441   950
 9.2541   980
 9.2641  1036
 9.2741  1077
 9.2841  1124
 9.2941  1147
 9.3041  1230
 9.3141  1242
 9.3241  1347
 9.3341  1315
 9.3441  1358
 9.3541  1426
 9.3641  1453
 9.3741  1442
 9.3841  1504
 9.3941  1453
 9.4041  1465
 9.4141  1523
 9.4241  1497
 9.4341  1531
 9.4441  1565
 9.4541  1547
 9.4641  1616
 9.4741  1596
 9.4841  1627
 9.4941  1724
 9.5041  1762
 9.5141  1733
 9.5241  1754
 9.5341  1847
 9.5441  1957
 9.5541  2033
 9.5641  2085
 9.5741  2209
 9.5841  2293
 9.5941  2504
 9.6041  2601
 9.6141  2751
 9.6241  2809
 9.6341  2918
 9.6441  3074
 9.6541  3124
 9.6641  3141
 9.6741  3142
 9.6841  3033
 9.6941  3078
 9.7041  2886
 9.7141  2804
 9.7241  2558
 9.7341  2466
 9.7441  2280
 9.7541  2137
 9.7641  1978
 9.7741  1804
 9.7841  1654
 9.7941  1564
 9.8041  1478
 9.8141  1343
 9.8241  1333
 9.8341  1284
 9.8441  1333
 9.8541  1257
 9.8641  1273
 9.8741  1303
 9.8841  1347
 9.8941  1396
 9.9041  1441
 9.9141  1438
 9.9241  1470
 9.9341  1467
 9.9441  1426
 9.9541  1462
 9.9641  1480
 9.9741  1407
 9.9841  1347
 9.9941  1317
10.0041  1265
10.0141  1189
10.0241  1051
10.0341   995
10.0441   876
10.0541   774
10.0641   680
10.0741   622
10.0841   579
10.0941   505
10.1041   477
10.1141   437
10.1241   393
10.1341   361
10.1441   330
10.1541   291
10.1641   291
10.1741   275
10.1841   283
10.1941   262
10.2041   242
10.2141   257
10.2241   248
10.2341   228
10.2441   199
10.2541   229
10.2641   206
10.2741   204
10.2841   184
10.2941   208
10.3041   199
10.3141   206
10.3241   198
10.3341   190
10.3441   184
10.3541   180
10.3641   184
10.3741   186
10.3841   198
10.3941   183
10.4041   184
10.4141   187
10.4241   190
10.4341   206
10.4441   186
10.4541   196
10.4641   199
10.4741   187
10.4841   193
10.4941   228
10.5041   214
10.5141   207
10.5241   220
10.5341   218
10.5441   199
10.5541   213
10.5641   218
10.5741   243
10.5841   211
10.5941   202
10.6041   215
10.6141   211
10.6241   216
10.6341   231
10.6441   239
10.6541   230
10.6641   247
10.6741   267
10.6841   240
10.6941   240
10.7041   223
10.7141   245
10.7241   251
10.7341   282
10.7441   281
10.7541   260
10.7641   270
10.7741   262
10.7841   284
10.7941   294
10.8041   301
10.8141   293
10.8241   303
10.8341   302
10.8441   292
10.8541   314
10.8641   336
10.8741   355
10.8841   353
10.8941   347
10.9041   336
10.9141   328
10.9241   333
10.9341   352
10.9441   333
10.9541   327
10.9641   330
10.9741   328
10.9841   329
10.9941   334
11.0041   334
11.0141   307
11.0241   305
11.0341   299
11.0441   322
11.0541   309
11.0641   290
11.0741   299
11.0841   284
11.0941   290
11.1041   292
11.1141   315
11.1241   317
11.1341   285
11.1441   305
11.1541   317
11.1641   331
11.1741   329
11.1841   341
11.1941   372
11.2041   400
11.2141   388
11.2241   399
11.2341   415
11.2441   435
11.2541   444
11.2641   457
11.2741   457
11.2841   467
11.2941   444
11.3041   457
11.3141   419
11.3241   417
11.3341   404
11.3441   408
11.3541   375
11.3641   365
11.3741   339
11.3841   309
11.3941   305
11.4041   309
11.4141   280
11.4241   246
11.4341   257
11.4441   242
11.4541   235
11.4641   227
11.4741   230
11.4841   228
11.4941   236
11.5041   232
11.5141   242
11.5241   233
11.5341   225
11.5441   213
11.5541   237
11.5641   263
11.5741   255
11.5841   248
11.5941   242
11.6041   239
11.6141   233
11.6241   239
11.6341   236
11.6441   245
11.6541   242
11.6641   231
11.6741   227
11.6841   231
11.6941   225
11.7041   224
11.7141   212
11.7241   204
11.7341   197
11.7441   200
11.7541   200
11.7641   203
11.7741   193
11.7841   195
11.7941   194
11.8041   182
11.8141   188
11.8241   188
11.8341   165
11.8441   155
11.8541   163
11.8641   179
11.8741   180
11.8841   159
11.8941   161
11.9041   171
11.9141   171
11.9241   165
11.9341   156
11.9441   174
11.9541   174
11.9641   166
11.9741   166
11.9841   180
11.9941   187
12.0041   200
12.0141   181
12.0241   188
12.0341   186
12.0441   175
12.0541   181
12.0641   179
12.0741   193
12.0841   194
12.0941   189
12.1041   188
12.1141   191
12.1241   181
12.1341   183
12.1441   157
12.1541   147
12.1641   166
12.1741   170
12.1841   183
12.1941   183
12.2041   194
12.2141   172
12.2241   168
12.2341   176
12.2441   169
12.2541   187
12.2641   169
12.2741   154
12.2841   172
12.2941   169
12.3041   182
12.3141   181
12.3241   162
12.3341   162
12.3441   164
12.3541   172
12.3641   188
12.3741   186
12.3841   181
12.3941   182
12.4041   191
12.4141   176
12.4241   177
12.4341   170
12.4441   188
12.4541   182
12.4641   164
12.4741   164
12.4841   172
12.4941   189
12.5041   186
12.5141   175
12.5241   196
12.5341   181
12.5441   175
12.5541   183
12.5641   178
12.5741   187
12.5841   185
12.5941   182
12.6041   187
12.6141   174
12.6241   170
12.6341   170
12.6441   177
12.6541   190
12.6641   187
12.6741   193
12.6841   188
12.6941   192
12.7041   196
12.7141   195
12.7241   206
12.7341   210
12.7441   209
12.7541   200
12.7641   188
12.7741   182
12.7841   184
12.7941   188
12.8041   186
12.8141   206
12.8241   220
12.8341   213
12.8441   205
12.8541   203
12.8641   188
12.8741   196
12.8841   215
12.8941   203
12.9041   187
12.9141   184
12.9241   198
12.9341   197
12.9441   192
12.9541   190
12.9641   198
12.9741   207
12.9841   199
12.9941   202
13.0041   198
13.0141   202
13.0241   209
13.0341   195
13.0441   197
13.0541   215
13.0641   209
13.0741   200
13.0841   202
13.0941   201
13.1041   213
13.1141   209
13.1241   195
13.1341   216
13.1441   226
13.1541   229
13.1641   213
13.1741   208
13.1841   221
13.1941   218
13.2041   215
13.2141   221
13.2241   231
13.2341   219
13.2441   219
13.2541   243
13.2641   236
13.2741   246
13.2841   257
13.2941   252
13.3041   272
13.3141   278
13.3241   285
13.3341   275
13.3441   269
13.3541   282
13.3641   282
13.3741   279
13.3841   284
13.3941   303
13.4041   298
13.4141   268
13.4241   260
13.4341   272
13.4441   281
13.4541   279
13.4641   260
13.4741   262
13.4841   265
13.4941   258
13.5041   255
13.5141   237
13.5241   239
13.5341   248
13.5441   250
13.5541   249
13.5641   241
13.5741   235
13.5841   224
13.5941   227
13.6041   241
13.6141   250
13.6241   251
13.6341   248
13.6441   243
13.6541   245
13.6641   253
13.6741   253
13.6841   254
13.6941   249
13.7041   249
13.7141   246
13.7241   227
13.7341   242
13.7441   253
13.7541   240
13.7641   238
13.7741   233
13.7841   238
13.7941   249
13.8041   245
13.8141   240
13.8241   235
13.8341   261
13.8441   273
13.8541   245
13.8641   232
13.8741   243
13.8841   263
13.8941   263
13.9041   261
13.9141   260
13.9241   259
13.9341   259
13.9441   258
13.9541   250
13.9641   264
13.9741   278
13.9841   274
13.9941   273
14.0041   279
14.0141   301
14.0241   297
14.0341   284
14.0441   273
14.0541   281
14.0641   296
14.0741   298
14.0841   300
14.0941   300
14.1041   328
14.1141   340
14.1241   339
14.1341   340
14.1441   332
14.1541   343
14.1641   354
14.1741   333
14.1841   313
14.1941   326
14.2041   310
14.2141   302
14.2241   322
14.2341   313
14.2441   299
14.2541   319
14.2641   315
14.2741   296
14.2841   312
14.2941   317
14.3041   302
14.3141   296
14.3241   295
14.3341   294
14.3441   275
14.3541   257
14.3641   284
14.3741   290
14.3841   271
14.3941   280
14.4041   289
14.4141   276
14.4241   279
14.4341   299
14.4441   281
14.4541   277
14.4641   292
14.4741   278
14.4841   275
14.4941   286
14.5041   292
14.5141   295
14.5241   294
14.5341   292
14.5441   301
14.5541   305
14.5641   291
14.5741   287
14.5841   294
14.5941   284
14.6041   285
14.6141   303
14.6241   313
14.6341   305
14.6441   293
14.6541   318
14.6641   326
14.6741   299
14.6841   323
14.6941   309
14.7041   288
14.7141   318
14.7241   324
14.7341   311
14.7441   296
14.7541   303
14.7641   306
14.7741   308
14.7841   322
14.7941   334
14.8041   334
14.8141   335
14.8241   348
14.8341   337
14.8441   325
14.8541   320
14.8641   341
14.8741   357
14.8841   366
14.8941   375
14.9041   366
14.9141   364
14.9241   381
14.9341   394
14.9441   387
14.9541   367
14.9641   366
14.9741   386
14.9841   401
14.9941   392
15.0041   367
15.0141   349
15.0241   372
15.0341   374
15.0441   349
15.0541   330
15.0641   345
15.0741   356
15.0841   340
15.0941   329
15.1041   330
15.1141   337
15.1241   343
15.1341   360
15.1441   338
15.1541   320
15.1641   326
15.1741   339
15.1841   350
15.1941   348
15.2041   331
15.2141   326
15.2241   327
15.2341   333
15.2441   332
15.2541   328
15.2641   311
15.2741   334
15.2841   342
15.2941   341
15.3041   361
15.3141   347
15.3241   342
15.3341   343
15.3441   336
15.3541   351
15.3641   360
15.3741   343
15.3841   360
15.3941   380
15.4041   352
15.4141   322
15.4241   337
15.4341   348
15.4441   335
15.4541   356
15.4641   375
15.4741   372
15.4841   377
15.4941   401
15.5041   389
15.5141   397
15.5241   438
15.5341   477
15.5441   487
15.5541   489
15.5641   509
15.5741   552
15.5841   577
15.5941   579
15.6041   641
15.6141   735
15.6241   797
15.6341   810
15.6441   838
15.6541   895
15.6641   940
15.6741  1035
15.6841  1082
15.6941  1127
15.7041  1124
15.7141  1143
15.7241  1211
15.7341  1192
15.7441  1178
15.7541  1211
15.7641  1188
15.7741  1175
15.7841  1191
15.7941  1185
15.8041  1134
15.8141  1064
15.8241  1047
15.8341  1007
15.8441   930
15.8541   890
15.8641   824
15.8741   746
15.8841   698
15.8941   683
15.9041   631
15.9141   604
15.9241   528
15.9341   512
15.9441   511
15.9541   475
15.9641   466
15.9741   431
15.9841   407
15.9941   409
16.0041   433
16.0141   406
16.0241   403
16.0341   424
16.0441   417
16.0541   383
16.0641   395
16.0741   403
16.0841   395
16.0941   380
16.1041   418
16.1141   404
16.1241   403
16.1341   398
16.1441   403
16.1541   403
16.1641   412
16.1741   416
16.1841   397
16.1941   400
16.2041   399
16.2141   372
16.2241   383
16.2341   405
16.2441   419
16.2541   407
16.2641   418
16.2741   406
16.2841   403
16.2941   396
16.3041   380
16.3141   427
16.3241   444
16.3341   437
16.3441   427
16.3541   385
16.3641   399
16.3741   407
16.3841   408
16.3941   427
16.4041   419
16.4141   399
16.4241   393
16.4341   419
16.4441   399
16.4541   420
16.4641   404
16.4741   408
16.4841   448
16.4941   451
16.5041   434
16.5141   442
16.5241   434
16.5341   432
16.5441   432
16.5541   426
16.5641   442
16.5741   446
16.5841   419
16.5941   429
16.6041   432
16.6141   436
16.6241   426
16.6341   442
16.6441   456
16.6541   443
16.6641   451
16.6741   451
16.6841   452
16.6941   442
16.7041   426
16.7141   433
16.7241   423
16.7341   443
16.7441   451
16.7541   424
16.7641   414
16.7741   416
16.7841   413
16.7941   430
16.8041   435
16.8141   449
16.8241   468
16.8341   444
16.8441   453
16.8541   454
16.8641   430
16.8741   439
16.8841   444
16.8941   448
16.9041   457
16.9141   436
16.9241   449
16.9341   459
16.9441   453
16.9541   452
16.9641   484
16.9741   460
16.9841   436
16.9941   452
17.0041   460
17.0141   415
17.0241   437
17.0341   452
17.0441   466
17.0541   488
17.0641   472
17.0741   456
17.0841   443
17.0941   427
17.1041   447
17.1141   449
17.1241   472
17.1341   474
17.1441   488
17.1541   462
17.1641   442
17.1741   441
17.1841   435
17.1941   458
17.2041   466
17.2141   487
17.2241   488
17.2341   449
17.2441   458
17.2541   482
17.2641   488
17.2741   507
17.2841   466
17.2941   449
17.3041   472
17.3141   467
17.3241   467
17.3341   484
17.3441   498
17.3541   481
17.3641   506
17.3741   490
17.3841   461
17.3941   460
17.4041   442
17.4141   478
17.4241   474
17.4341   498
17.4441   489
17.4541   496
17.4641   506
17.4741   533
17.4841   515
17.4941   544
17.5041   529
17.5141   541
17.5241   542
17.5341   580
17.5441   561
17.5541   561
17.5641   559
17.5741   599
17.5841   599
17.5941   589
17.6041   600
17.6141   607
17.6241   604
17.6341   627
17.6441   649
17.6541   643
17.6641   644
17.6741   609
17.6841   608
17.6941   602
17.7041   631
17.7141   629
17.7241   596
17.7341   642
17.7441   620
17.7541   615
17.7641   598
17.7741   587
17.7841   531
17.7941   516
17.8041   566
17.8141   559
17.8241   535
17.8341   524
17.8441   519
17.8541   524
17.8641   541
17.8741   530
17.8841   539
17.8941   542
17.9041   528
17.9141   532
17.9241   500
17.9341   545
17.9441   556
17.9541   525
17.9641   527
17.9741   528
17.9841   521
17.9941   503
18.0041   500
18.0141   536
18.0241   552
18.0341   516
18.0441   552
18.0541   524
18.0641   527
18.0741   541
18.0841   538
18.0941   538
18.1041   508
18.1141   544
18.1241   542
18.1341   516
18.1441   526
18.1541   512
18.1641   498
18.1741   539
18.1841   499
18.1941   529
18.2041   517
18.2141   549
18.2241   518
18.2341   492
18.2441   531
18.2541   548
18.2641   523
18.2741   544
18.2841   529
18.2941   519
18.3041   533
18.3141   511
18.3241   502
18.3341   513
18.3441   528
18.3541   526
18.3641   528
18.3741   525
18.3841   525
18.3941   548
18.4041   538
18.4141   509
18.4241   545
18.4341   541
18.4441   545
18.4541   542
18.4641   523
18.4741   543
18.4841   537
18.4941   532
18.5041   519
18.5141   554
18.5241   531
18.5341   511
18.5441   540
18.5541   518
18.5641   555
18.5741   546
18.5841   513
18.5941   547
18.6041   549
18.6141   541
18.6241   552
18.6341   540
18.6441   522
18.6541   522
18.6641   541
18.6741   576
18.6841   543
18.6941   514
18.7041   518
18.7141   525
18.7241   540
18.7341   548
18.7441   524
18.7541   561
18.7641   597
18.7741   597
18.7841   546
18.7941   566
18.8041   536
18.8141   531
18.8241   537
18.8341   548
18.8441   567
18.8541   558
18.8641   544
18.8741   539
18.8841   559
18.8941   557
18.9041   559
18.9141   542
18.9241   542
18.9341   534
18.9441   538
18.9541   543
18.9641   541
18.9741   540
18.9841   541
18.9941   549
19.0041   539
19.0141   526
19.0241   542
19.0341   537
19.0441   561
19.0541   569
19.0641   561
19.0741   550
19.0841   551
19.0941   530
19.1041   563
19.1141   539
19.1241   564
19.1341   586
19.1441   542
19.1541   551
19.1641   540
19.1741   575
19.1841   566
19.1941   563
19.2041   545
19.2141   564
19.2241   565
19.2341   604
19.2441   609
19.2541   551
19.2641   571
19.2741   560
19.2841   568
19.2941   544
19.3041   550
19.3141   586
19.3241   585
19.3341   568
19.3441   573
19.3541   573
19.3641   551
19.3741   529
19.3841   527
19.3941   543
19.4041   578
19.4141   575
19.4241   541
19.4341   553
19.4441   569
19.4541   581
19.4641   565
19.4741   547
19.4841   559
19.4941   529
19.5041   573
19.5141   581
19.5241   533
19.5341   554
19.5441   556
19.5541   587
19.5641   574
19.5741   589
19.5841   574
19.5941   568
19.6041   572
19.6141   607
19.6241   581
19.6341   566
19.6441   591
19.6541   551
19.6641   537
19.6741   548
19.6841   568
19.6941   584
19.7041   583
19.7141   562
19.7241   581
19.7341   580
19.7441   574
19.7541   562
19.7641   597
19.7741   550
19.7841   560
19.7941   568
19.8041   574
19.8141   582
19.8241   568
19.8341   599
19.8441   592
19.8541   593
19.8641   545
19.8741   568
19.8841   554
19.8941   540
19.9041   577
19.9141   578
19.9241   572
19.9341   567
19.9441   581
19.9541   560
19.9641   576
19.9741   561
19.9841   559
19.9941   589
20.0041   604
20.0141   538
20.0241   568
20.0341   563
20.0441   571
20.0541   574
20.0641   569
20.0741   550
20.0841   583
20.0941   600
20.1041   599
20.1141   573
20.1241   552
20.1341   589
20.1441   593
20.1541   584
20.1641   582
20.1741   581
20.1841   577
20.1941   558
20.2041   556
20.2141   570
20.2241   579
20.2341   614
20.2441   578
20.2541   553
20.2641   583
20.2741   598
20.2841   576
20.2941   607
20.3041   581
20.3141   550
20.3241   590
20.3341   563
20.3441   584
20.3541   590
20.3641   562
20.3741   585
20.3841   598
20.3941   587
20.4041   623
20.4141   581
20.4241   564
20.4341   585
20.4441   587
20.4541   596
20.4641   582
20.4741   577
20.4841   626
20.4941   599
20.5041   538
20.5141   564
20.5241   567
20.5341   553
20.5441   597
20.5541   608
20.5641   566
20.5741   569
20.5841   609
20.5941   612
20.6041   588
20.6141   599
20.6241   563
20.6341   603
20.6441   654
20.6541   618
20.6641   585
20.6741   646
20.6841   570
20.6941   575
20.7041   566
20.7141   519
20.7241   582
20.7341   580
20.7441   597
20.7541   624
20.7641   583
20.7741   589
20.7841   595
20.7941   595
20.8041   637
20.8141   627
20.8241   628
20.8341   627
20.8441   598
20.8541   638
20.8641   622
20.8741   637
20.8841   652
20.8941   657
20.9041   680
20.9141   648
20.9241   679
20.9341   679
20.9441   685
20.9541   716
20.9641   735
20.9741   757
20.9841   820
20.9941   761
21.0041   779
21.0141   776
21.0241   776
21.0341   815
21.0441   793
21.0541   781
21.0641   789
21.0741   825
21.0841   841
21.0941   869
21.1041   910
21.1141   855
21.1241   840
21.1341   804
21.1441   842
21.1541   831
21.1641   799
21.1741   801
21.1841   770
21.1941   790
21.2041   777
21.2141   845
21.2241   767
21.2341   766
21.2441   761
21.2541   758
21.2641   753
21.2741   746
21.2841   709
21.2941   718
21.3041   704
21.3141   690
21.3241   679
21.3341   649
21.3441   627
21.3541   620
21.3641   621
21.3741   623
21.3841   592
21.3941   582
21.4041   588
21.4141   592
21.4241   564
21.4341   594
21.4441   594
21.4541   619
21.4641   564
21.4741   573
21.4841   593
21.4941   600
21.5041   559
21.5141   621
21.5241   576
21.5341   580
21.5441   530
21.5541   585
21.5641   600
21.5741   535
21.5841   579
21.5941   571
21.6041   621
21.6141   615
21.6241   590
21.6341   648
21.6441   566
21.6541   588
21.6641   568
21.6741   585
21.6841   567
21.6941   535
21.7041   575
21.7141   592
21.7241   610
21.7341   580
21.7441   542
21.7541   584
21.7641   613
21.7741   582
21.7841   594
21.7941   596
21.8041   579
21.8141   596
21.8241   593
21.8341   597
21.8441   591
21.8541   560
21.8641   572
21.8741   586
21.8841   595
21.8941   565
21.9041   598
21.9141   590
21.9241   565
21.9341   624
21.9441   578
21.9541   628
21.9641   609
21.9741   578
21.9841   577
21.9941   568
22.0041   537
22.0141   574
22.0241   527
22.0341   621
22.0441   571
22.0541   550
22.0641   577
22.0741   555
22.0841   634
22.0941   593
22.1041   606
22.1141   583
22.1241   545
22.1341   562
22.1441   617
22.1541   563
22.1641   558
22.1741   609
22.1841   597
22.1941   571
22.2041   560
22.2141   568
22.2241   555
22.2341   581
22.2441   602
22.2541   606
22.2641   562
22.2741   554
22.2841   594
22.2941   575
22.3041   614
22.3141   562
22.3241   553
22.3341   598
22.3441   551
22.3541   588
22.3641   602
22.3741   587
22.3841   558
22.3941   558
22.4041   587
22.4141   546
22.4241   587
22.4341   594
22.4441   595
22.4541   534
22.4641   561
22.4741   630
22.4841   575
22.4941   592
22.5041   562
22.5141   537
22.5241   591
22.5341   604
22.5441   563
22.5541   519
22.5641   570
22.5741   563
22.5841   581
22.5941   533
22.6041   539
22.6141   556
22.6241   592
22.6341   571
22.6441   579
22.6541   576
22.6641   566
22.6741   613
22.6841   554
22.6941   554
22.7041   572
22.7141   577
22.7241   609
22.7341   566
22.7441   562
22.7541   527
22.7641   572
22.7741   590
22.7841   516
22.7941   528
22.8041   548
22.8141   513
22.8241   506
22.8341   532
22.8441   593
22.8541   558
22.8641   566
22.8741   541
22.8841   613
22.8941   553
22.9041   559
22.9141   562
22.9241   592
22.9341   564
22.9441   588
22.9541   551
22.9641   568
22.9741   537
22.9841   540
22.9941   559
23.0041   565
23.0141   533
23.0241   577
23.0341   556
23.0441   553
23.0541   545
23.0641   567
23.0741   509
23.0841   584
23.0941   526
23.1041   578
23.1141   553
23.1241   565
23.1341   548
23.1441   584
23.1541   542
23.1641   541
23.1741   557
23.1841   526
23.1941   576
23.2041   536
23.2141   522
23.2241   568
23.2341   490
23.2441   582
23.2541   574
23.2641   524
23.2741   496
23.2841   525
23.2941   564
23.3041   580
23.3141   524
23.3241   557
23.3341   515
23.3441   530
23.3541   556
23.3641   542
23.3741   500
23.3841   547
23.3941   552
23.4041   570
23.4141   520
23.4241   536
23.4341   507
23.4441   507
23.4541   563
23.4641   536
23.4741   532
23.4841   536
23.4941   539
23.5041   567
23.5141   579
23.5241   525
23.5341   573
23.5441   500
23.5541   558
23.5641   555
23.5741   543
23.5841   589
23.5941   533
23.6041   535
23.6141   535
23.6241   558
23.6341   568
23.6441   516
23.6541   591
23.6641   541
23.6741   543
23.6841   554
23.6941   567
23.7041   597
23.7141   574
23.7241   547
23.7341   525
23.7441   549
23.7541   588
23.7641   589
23.7741   586
23.7841   554
23.7941   563
23.8041   599
23.8141   552
23.8241   585
23.8341   599
23.8441   548
23.8541   540
23.8641   563
23.8741   547
23.8841   567
23.8941   593
23.9041   548
23.9141   550
23.9241   549
23.9341   557
23.9441   553
23.9541   573
23.9641   555
23.9741   539
23.9841   516
23.9941   491
24.0041   528
24.0141   525
24.0241   531
24.0341   519
24.0441   553
24.0541   532
24.0641   541
24.0741   526
24.0841   524
24.0941   552
24.1041   539
24.1141   513
24.1241   504
24.1341   544
24.1441   443
24.1541   506
24.1641   523
24.1741   519
24.1841   526
24.1941   522
24.2041   537
24.2141   532
24.2241   506
24.2341   514
24.2441   529
24.2541   517
24.2641   493
24.2741   482
24.2841   511
24.2941   525
24.3041   482
24.3141   523
24.3241   513
24.3341   563
24.3441   511
24.3541   527
24.3641   524
24.3741   490
24.3841   494
24.3941   517
24.4041   527
24.4141   531
24.4241   488
24.4341   515
24.4441   512
24.4541   491
24.4641   527
24.4741   530
24.4841   508
24.4941   490
24.5041   476
24.5141   523
24.5241   479
24.5341   472
24.5441   457
24.5541   482
24.5641   494
24.5741   521
24.5841   522
24.5941   509
24.6041   502
24.6141   527
24.6241   502
24.6341   488
24.6441   481
24.6541   524
24.6641   478
24.6741   500
24.6841   507
24.6941   470
24.7041   511
24.7141   526
24.7241   476
24.7341   475
24.7441   509
24.7541   463
24.7641   484
24.7741   424
24.7841   487
24.7941   502
24.8041   521
24.8141   487
24.8241   501
24.8341   464
24.8441   484
24.8541   516
24.8641   501
24.8741   504
24.8841   478
24.8941   504
24.9041   493
24.9141   499
24.9241   532
24.9341   447
24.9441   501
24.9541   470
24.9641   536
24.9741   492
24.9841   491
24.9941   486
25.0041   520
25.0141   505
25.0241   480
25.0341   472
25.0441   519
25.0541   472
25.0641   493
25.0741   500
25.0841   491
25.0941   476
25.1041   484
25.1141   500
25.1241   502
25.1341   481
25.1441   468
25.1541   497
25.1641   458
25.1741   496
25.1841   466
25.1941   476
25.2041   471
25.2141   472
25.2241   491
25.2341   453
25.2441   505
25.2541   469
25.2641   490
25.2741   473
25.2841   486
25.2941   484
25.3041   489
25.3141   502
25.3241   499
25.3341   497
25.3441   473
25.3541   456
25.3641   483
25.3741   510
25.3841   456
25.3941   475
25.4041   469
25.4141   462
25.4241   489
25.4341   481
25.4441   471
25.4541   457
25.4641   474
25.4741   497
25.4841   459
25.4941   469
25.5041   449
25.5141   458
25.5241   488
25.5341   469
25.5441   463
25.5541   449
25.5641   440
25.5741   467
25.5841   449
25.5941   458
25.6041   424
25.6141   431
25.6241   427
25.6341   439
25.6441   442
25.6541   478
25.6641   451
25.6741   432
25.6841   465
25.6941   460
25.7041   455
25.7141   471
25.7241   442
25.7341   482
25.7441   474
25.7541   450
25.7641   431
25.7741   431
25.7841   496
25.7941   431
25.8041   447
25.8141   465
25.8241   436
25.8341   476
25.8441   487
25.8541   434
25.8641   456
25.8741   465
25.8841   455
25.8941   439
25.9041   412
25.9141   430
25.9241   440
25.9341   449
25.9441   405
25.9541   413
25.9641   414
25.9741   457
25.9841   438
25.9941   450
26.0041   446
26.0141   442
26.0241   445
26.0341   403
26.0441   415
26.0541   416
26.0641   422
26.0741   462
26.0841   453
26.0941   423
26.1041   450
26.1141   436
26.1241   468
26.1341   441
26.1441   411
26.1541   444
26.1641   382
26.1741   441
26.1841   423
26.1941   465
26.2041   416
26.2141   476
26.2241   453
26.2341   441
26.2441   425
26.2541   402
26.2641   437
26.2741   422
26.2841   432
26.2941   445
26.3041   445
26.3141   438
26.3241   405
26.3341   413
26.3441   426
26.3541   416
26.3641   455
26.3741   422
26.3841   427
26.3941   431
26.4041   448
26.4141   423
26.4241   399
26.4341   381
26.4441   427
26.4541   428
26.4641   413
26.4741   413
26.4841   429
26.4941   418
26.5041   415
26.5141   426
26.5241   401
26.5341   388
26.5441   409
26.5541   417
26.5641   429
26.5741   381
26.5841   424
26.5941   408
26.6041   416
26.6141   445
26.6241   446
26.6341   413
26.6441   430
26.6541   405
26.6641   388
26.6741   411
26.6841   381
26.6941   411
26.7041   391
26.7141   400
26.7241   385
26.7341   403
26.7441   368
26.7541   429
26.7641   416
26.7741   395
26.7841   398
26.7941   396
26.8041   383
26.8141   396
26.8241   435
26.8341   399
26.8441   387
26.8541   400
26.8641   397
26.8741   400
26.8841   417
26.8941   418
26.9041   408
26.9141   410
26.9241   364
26.9341   401
26.9441   368
26.9541   420
26.9641   419
26.9741   408
26.9841   384
26.9941   395
27.0041   392
27.0141   426
27.0241   401
27.0341   391
27.0441   395
27.0541   386
27.0641   409
27.0741   388
27.0841   376
27.0941   418
27.1041   416
27.1141   402
27.1241   383
27.1341   373
27.1441   374
27.1541   380
27.1641   400
27.1741   384
27.1841   396
27.1941   407
27.2041   401
27.2141   390
27.2241   376
27.2341   368
27.2441   394
27.2541   347
27.2641   411
27.2741   385
27.2841   407
27.2941   364
27.3041   397
27.3141   368
27.3241   348
27.3341   368
27.3441   398
27.3541   410
27.3641   397
27.3741   379
27.3841   391
27.3941   399
27.4041   415
27.4141   372
27.4241   361
27.4341   368
27.4441   391
27.4541   415
27.4641   383
27.4741   416
27.4841   381
27.4941   372
27.5041   382
27.5141   385
27.5241   362
27.5341   379
27.5441   370
27.5541   367
27.5641   381
27.5741   376
27.5841   331
27.5941   348
27.6041   321
27.6141   333
27.6241   364
27.6341   363
27.6441   361
27.6541   368
27.6641   342
27.6741   377
27.6841   361
27.6941   371
27.7041   350
27.7141   372
27.7241   362
27.7341   337
27.7441   355
27.7541   359
27.7641   374
27.7741   371
27.7841   329
27.7941   348
27.8041   353
27.8141   359
27.8241   366
27.8341   371
27.8441   402
27.8541   341
27.8641   357
27.8741   364
27.8841   328
27.8941   356
27.9041   341
27.9141   331
27.9241   343
27.9341   364
27.9441   354
27.9541   324
27.9641   363
27.9741   329
27.9841   329
27.9941   346
28.0041   343
28.0141   325
28.0241   321
28.0341   348
28.0441   365
28.0541   333
28.0641   357
28.0741   316
28.0841   340
28.0941   316
28.1041   350
28.1141   337
28.1241   349
28.1341   315
28.1441   334
28.1541   324
28.1641   359
28.1741   340
28.1841   357
28.1941   344
28.2041   335
28.2141   337
28.2241   310
28.2341   356
28.2441   357
28.2541   337
28.2641   319
28.2741   338
28.2841   305
28.2941   332
28.3041   359
28.3141   377
28.3241   315
28.3341   318
28.3441   328
28.3541   347
28.3641   343
28.3741   347
28.3841   307
28.3941   335
28.4041   345
28.4141   326
28.4241   305
28.4341   275
28.4441   344
28.4541   322
28.4641   342
28.4741   317
28.4841   352
28.4941   327
28.5041   338
28.5141   341
28.5241   310
28.5341   349
28.5441   324
28.5541   303
28.5641   318
28.5741   317
28.5841   335
28.5941   319
28.6041   301
28.6141   327
28.6241   323
28.6341   285
28.6441   288
28.6541   313
28.6641   328
28.6741   340
28.6841   328
28.6941   326
28.7041   354
28.7141   324
28.7241   319
28.7341   338
28.7441   313
28.7541   336
28.7641   317
28.7741   305
28.7841   325
28.7941   295
28.8041   320
28.8141   268
28.8241   334
28.8341   305
28.8441   310
28.8541   307
28.8641   303
28.8741   291
28.8841   346
28.8941   314
28.9041   294
28.9141   301
28.9241   295
28.9341   331
28.9441   308
28.9541   314
28.9641   295
28.9741   303
28.9841   308
28.9941   295
29.0041   299
29.0141   298
29.0241   307
29.0341   311
29.0441   298
29.0541   285
29.0641   343
29.0741   314
29.0841   285
29.0941   280
29.1041   308
29.1141   302
29.1241   291
29.1341   324
29.1441   324
29.1541   302
29.1641   309
29.1741   315
29.1841   292
29.1941   300
29.2041   324
29.2141   309
29.2241   317
29.2341   280
29.2441   305
29.2541   273
29.2641   309
29.2741   313
29.2841   297
29.2941   281
29.3041   310
29.3141   309
29.3241   291
29.3341   286
29.3441   309
29.3541   287
29.3641   295
29.3741   291
29.3841   275
29.3941   257
29.4041   285
29.4141   266
29.4241   280
29.4341   262
29.4441   310
29.4541   293
29.4641   277
29.4741   281
29.4841   300
29.4941   287
29.5041   262
29.5141   303
29.5241   269
29.5341   286
29.5441   287
29.5541   275
29.5641   267
29.5741   307
29.5841   293
29.5941   280
29.6041   263
29.6141   281
29.6241   276
29.6341   281
29.6441   277
29.6541   257
29.6641   287
29.6741   294
29.6841   273
29.6941   244
29.7041   285
29.7141   251
29.7241   274
29.7341   245
29.7441   283
29.7541   299
29.7641   257
29.7741   287
29.7841   264
29.7941   270
29.8041   255
29.8141   294
29.8241   265
29.8341   255
29.8441   249
29.8541   255
29.8641   267
29.8741   255
29.8841   256
29.8941   262
29.9041   269
29.9141   304
29.9241   257
29.9341   286
29.9441   254
29.9541   258
29.9641   272
29.9741   257
29.9841   263
29.9941   256
30.0041   277
30.0141   274
30.0241   268
30.0341   263
30.0441   259
30.0541   298
30.0641   263
30.0741   258
30.0841   259
30.0941   264
30.1041   255
30.1141   261
30.1241   245
30.1341   254
30.1441   264
30.1541   245
30.1641   261
30.1741   267
30.1841   272
30.1941   261
30.2041   279
30.2141   269
30.2241   270
30.2341   277
30.2441   276
30.2541   236
30.2641   279
30.2741   265
30.2841   255
30.2941   272
30.3041   256
30.3141   243
30.3241   240
30.3341   251
30.3441   264
30.3541   259
30.3641   275
30.3741   235
30.3841   247
30.3941   243
30.4041   228
30.4141   259
30.4241   246
30.4341   242
30.4441   226
30.4541   247
30.4641   219
30.4741   217
30.4841   257
30.4941   254
30.5041   254
30.5141   260
30.5241   250
30.5341   243
30.5441   245
30.5541   258
30.5641   243
30.5741   219
30.5841   238
30.5941   235
30.6041   231
30.6141   240
30.6241   231
30.6341   256
30.6441   264
30.6541   230
30.6641   210
30.6741   247
30.6841   237
30.6941   237
30.7041   228
30.7141   222
30.7241   231
30.7341   239
30.7441   230
30.7541   248
30.7641   233
30.7741   236
30.7841   222
30.7941   236
30.8041   234
30.8141   263
30.8241   225
30.8341   265
30.8441   230
30.8541   245
30.8641   237
30.8741   223
30.8841   221
30.8941   210
30.9041   216
30.9141   259
30.9241   246
30.9341   215
30.9441   211
30.9541   224
30.9641   234
30.9741   221
30.9841   222
30.9941   234
31.0041   244
31.0141   239
31.0241   218
31.0341   214
31.0441   207
31.0541   202
31.0641   219
31.0741   221
31.0841   199
31.0941   240
31.1041   228
31.1141   246
31.1241   218
31.1341   196
31.1441   215
31.1541   215
31.1641   196
31.1741   246
31.1841   225
31.1941   231
31.2041   227
31.2141   252
31.2241   244
31.2341   215
31.2441   220
31.2541   228
31.2641   217
31.2741   208
31.2841   223
31.2941   237
31.3041   211
31.3141   209
31.3241   245
31.3341   207
31.3441   236
31.3541   221
31.3641   221
31.3741   214
31.3841   221
31.3941   196
31.4041   192
31.4141   211
31.4241   215
31.4341   214
31.4441   211
31.4541   212
31.4641   201
31.4741   195
31.4841   191
31.4941   202
31.5041   223
31.5141   212
31.5241   226
31.5341   215
31.5441   221
31.5541   179
31.5641   207
31.5741   207
31.5841   211
31.5941   212
31.6041   215
31.6141   215
31.6241   223
31.6341   223
31.6441   203
31.6541   182
31.6641   193
31.6741   216
31.6841   198
31.6941   207
31.7041   218
31.7141   179
31.7241   232
31.7341   208
31.7441   219
31.7541   180
31.7641   203
31.7741   218
31.7841   199
31.7941   195
31.8041   200
31.8141   201
31.8241   211
31.8341   222
31.8441   210
31.8541   197
31.8641   174
31.8741   195
31.8841   195
31.8941   202
31.9041   220
31.9141   203
31.9241   172
31.9341   203
31.9441   188
31.9541   212
31.9641   186
31.9741   200
31.9841   170
31.9941   181
32.0041   189
32.0141   207
32.0241   190
32.0341   220
32.0441   208
32.0541   183
32.0641   201
32.0741   213
32.0841   193
32.0941   210
32.1041   192
32.1141   210
32.1241   204
32.1341   196
32.1441   210
32.1541   206
32.1641   203
32.1741   173
32.1841   181
32.1941   207
32.2041   178
32.2141   173
32.2241   183
32.2341   198
32.2441   194
32.2541   188
32.2641   183
32.2741   189
32.2841   170
32.2941   202
32.3041   197
32.3141   178
32.3241   193
32.3341   207
32.3441   223
32.3541   195
32.3641   201
32.3741   202
32.3841   175
32.3941   164
32.4041   171
32.4141   181
32.4241   190
32.4341   169
32.4441   196
32.4541   192
32.4641   169
32.4741   191
32.4841   185
32.4941   186
32.5041   198
32.5141   162
32.5241   187
32.5341   170
32.5441   189
32.5541   172
32.5641   192
32.5741   163
32.5841   200
32.5941   150
32.6041   185
32.6141   176
32.6241   175
32.6341   169
32.6441   153
32.6541   177
32.6641   169
32.6741   154
32.6841   171
32.6941   167
32.7041   167
32.7141   162
32.7241   169
32.7341   169
32.7441   177
32.7541   187
32.7641   186
32.7741   149
32.7841   187
32.7941   156
32.8041   149
32.8141   170
32.8241   195
32.8341   141
32.8441   179
32.8541   165
32.8641   153
32.8741   159
32.8841   191
32.8941   160
32.9041   178
32.9141   163
32.9241   183
32.9341   169
32.9441   144
32.9541   169
32.9641   171
32.9741   165
32.9841   187
32.9941   188
33.0041   172
33.0141   165
33.0241   173
33.0341   147
33.0441   160
33.0541   163
33.0641   156
33.0741   169
33.0841   163
33.0941   153
33.1041   174
33.1141   166
33.1241   152
33.1341   147
33.1441   147
33.1541   142
33.1641   155
33.1741   174
33.1841   157
33.1941   141
33.2041   160
33.2141   148
33.2241   165
33.2341   154
33.2441   156
33.2541   153
33.2641   141
33.2741   159
33.2841   151
33.2941   164
33.3041   141
33.3141   170
33.3241   151
33.3341   169
33.3441   161
33.3541   140
33.3641   150
33.3741   160
33.3841   150
33.3941   177
33.4041   148
33.4141   155
33.4241   154
33.4341   158
33.4441   147
33.4541   150
33.4641   152
33.4741   142
33.4841   143
33.4941   134
33.5041   155
33.5141   149
33.5241   138
33.5341   133
33.5441   157
33.5541   149
33.5641   142
33.5741   162
33.5841   157
33.5941   146
33.6041   162
33.6141   147
33.6241   126
33.6341   152
33.6441   155
33.6541   133
33.6641   133
33.6741   144
33.6841   126
33.6941   145
33.7041   153
33.7141   154
33.7241   157
33.7341   133
33.7441   127
33.7541   149
33.7641   125
33.7741   144
33.7841   141
33.7941   136
33.8041   171
33.8141   136
33.8241   128
33.8341   157
33.8441   150
33.8541   118
33.8641   150
33.8741   147
33.8841   139
33.8941   122
33.9041   125
33.9141   118
33.9241   125
33.9341   151
33.9441   131
33.9541   148
33.9641   135
33.9741   133
33.9841   141
33.9941   145
34.0041   121
34.0141   123
34.0241   159
34.0341   142
34.0441   134
34.0541   142
34.0641   144
34.0741   131
34.0841   154
34.0941   119
34.1041   130
34.1141   132
34.1241   120
34.1341   123
34.1441   116
34.1541   129
34.1641   143
34.1741   150
34.1841   119
34.1941   145
34.2041   144
34.2141   102
34.2241   121
34.2341   134
34.2441   121
34.2541   132
34.2641   125
34.2741   136
34.2841   143
34.2941   139
34.3041   117
34.3141   137
34.3241   136
34.3341   140
34.3441   124
34.3541   131
34.3641   123
34.3741   132
34.3841   126
34.3941   126
34.4041   132
34.4141   132
34.4241   114
34.4341   123
34.4441   116
34.4541   113
34.4641   118
34.4741   132
34.4841   144
34.4941   110
34.5041   107
34.5141   123
34.5241   117
34.5341   121
34.5441   125
34.5541   107
34.5641   115
34.5741   128
34.5841   136
34.5941   129
34.6041   124
34.6141   128
34.6241   139
34.6341   113
34.6441   113
34.6541   136
34.6641   100
34.6741   136
34.6841   121
34.6941   129
34.7041   141
34.7141   127
34.7241    98
34.7341   114
34.7441   122
34.7541   121
34.7641   128
34.7741   125
34.7841   100
34.7941   129
34.8041   106
34.8141   110
34.8241    94
34.8341   121
34.8441   122
34.8541   128
34.8641   112
34.8741   119
34.8841   111
34.8941   109
34.9041   100
34.9141   116
34.9241   118
34.9341    90
34.9441   122
34.9541   127
34.9641   107
34.9741   104
34.9841   109
34.9941   102
35.0041   113
35.0141   114
35.0241    91
35.0341   108
35.0441   111
35.0541   133
35.0641   119
35.0741    91
35.0841   105
35.0941   124
35.1041   126
35.1141   131
35.1241    92
35.1341   105
35.1441   115
35.1541   109
35.1641   112
35.1741   105
35.1841   117
35.1941   108
35.2041   102
35.2141    87
35.2241   132
35.2341   105
35.2441    99
35.2541    96
35.2641   116
35.2741   130
35.2841   116
35.2941   111
35.3041   109
35.3141   111
35.3241   111
35.3341   107
35.3441   112
35.3541   112
35.3641   114
35.3741   121
35.3841    88
35.3941    85
35.4041    92
35.4141   113
35.4241    95
35.4341   104
35.4441   115
35.4541   109
35.4641    97
35.4741    96
35.4841   114
35.4941   102
35.5041    95
35.5141   100
35.5241    85
35.5341    86
35.5441    98
35.5541    86
35.5641   118
35.5741    94
35.5841   128
35.5941    80
35.6041    92
35.6141   118
35.6241    96
35.6341    78
35.6441    94
35.6541    97
35.6641   104
35.6741    90
35.6841    95
35.6941   104
35.7041   104
35.7141   103
35.7241   113
35.7341    80
35.7441    86
35.7541    80
35.7641    90
35.7741    80
35.7841    87
35.7941   115
35.8041    93
35.8141    93
35.8241   102
35.8341    80
35.8441    91
35.8541   102
35.8641    84
35.8741   104
35.8841    87
35.8941    96
35.9041    82
35.9141    99
35.9241   103
35.9341   104
35.9441   106
35.9541    93
35.9641    97
35.9741    74
35.9841    93
35.9941    86
36.0041    92
36.0141    84
36.0241    95
36.0341    99
36.0441   104
36.0541    99
36.0641    70
36.0741    89
36.0841    91
36.0941    86
36.1041    94
36.1141   105
36.1241    88
36.1341    87
36.1441    98
36.1541    96
36.1641    75
36.1741    88
36.1841    97
36.1941    89
36.2041    80
36.2141    78
36.2241    96
36.2341    81
36.2441    87
36.2541    87
36.2641    91
36.2741    87
36.2841    84
36.2941    93
36.3041    97
36.3141    77
36.3241    94
36.3341    83
36.3441    82
36.3541    73
36.3641    74
36.3741    96
36.3841    94
36.3941    77
36.4041    83
36.4141    69
36.4241    83
36.4341    79
36.4441   102
36.4541    86
36.4641    84
36.4741    85
36.4841    95
36.4941    88
36.5041    88
36.5141   100
36.5241    75
36.5341    87
36.5441    82
36.5541    76
36.5641    73
36.5741    90
36.5841    81
36.5941    80
36.6041    90
36.6141    83
36.6241    79
36.6341    70
36.6441    79
36.6541    64
36.6641    71
36.6741    80
36.6841    62
36.6941    87
36.7041    63
36.7141    83
36.7241    85
36.7341    75
36.7441    72
36.7541    67
36.7641    77
36.7741    82
36.7841    74
36.7941    73
36.8041    82
36.8141    67
36.8241    67
36.8341    76
36.8441    70
36.8541    60
36.8641    75
36.8741    69
36.8841    74
36.8941    71
36.9041    76
36.9141    76
36.9241    72
36.9341    69
36.9441    76
36.9541    91
36.9641    75
36.9741    66
36.9841    83
36.9941    66
37.0041    75
37.0141    60
37.0241    71
37.0341    73
37.0441    70
37.0541    79
37.0641    83
37.0741    74
37.0841    60
37.0941    75
37.1041    67
37.1141    55
37.1241    75
37.1341    70
37.1441    69
37.1541    72
37.1641    57
37.1741    63
37.1841    60
37.1941    51
37.2041    69
37.2141    64
37.2241    65
37.2341    69
37.2441    71
37.2541    62
37.2641    61
37.2741    70
37.2841    72
37.2941    72
37.3041    76
37.3141    67
37.3241    66
37.3341    57
37.3441    59
37.3541    62
37.3641    67
37.3741    60
37.3841    67
37.3941    72
37.4041    58
37.4141    61
37.4241    84
37.4341    60
37.4441    64
37.4541    67
37.4641    80
37.4741    66
37.4841    65
37.4941    56
37.5041    50
37.5141    60
37.5241    61
37.5341    65
37.5441    60
37.5541    62
37.5641    53
37.5741    48
37.5841    59
37.5941    54
37.6041    64
37.6141    51
37.6241    76
37.6341    66
37.6441    63
37.6541    72
37.6641    55
37.6741    64
37.6841    47
37.6941    40
37.7041    53
37.7141    58
37.7241    57
37.7341    58
37.7441    60
37.7541    65
37.7641    51
37.7741    71
37.7841    63
37.7941    60
37.8041    64
37.8141    58
37.8241    51
37.8341    62
37.8441    57
37.8541    65
37.8641    48
37.8741    61
37.8841    55
37.8941    61
37.9041    53
37.9141    54
37.9241    58
37.9341    49
37.9441    54
37.9541    48
37.9641    42
37.9741    44
37.9841    62
37.9941    61
38.0041    55
38.0141    57
38.0241    56
38.0341    50
38.0441    56
38.0541    58
38.0641    62
38.0741    46
38.0841    56
38.0941    46
38.1041    46
38.1141    51
38.1241    59
38.1341    50
38.1441    54
38.1541    53
38.1641    50
38.1741    55
38.1841    61
38.1941    53
38.2041    64
38.2141    55
38.2241    36
38.2341    45
38.2441    46
38.2541    52
38.2641    54
38.2741    61
38.2841    61
38.2941    58
38.3041    48
38.3141    43
38.3241    48
38.3341    57
38.3441    38
38.3541    40
38.3641    48
38.3741    36
38.3841    42
38.3941    44
38.4041    54
38.4141    59
38.4241    50
38.4341    49
38.4441    43
38.4541    44
38.4641    51
38.4741    41
38.4841    42
38.4941    53
38.5041    55
38.5141    43
38.5241    52
38.5341    52
38.5441    35
38.5541    48
38.5641    42
38.5741    49
38.5841    45
38.5941    37
38.6041    48
38.6141    39
38.6241    48
38.6341    45
38.6441    42
38.6541    36
38.6641    38
38.6741    48
38.6841    45
38.6941    55
38.7041    45
38.7141    50
38.7241    35
38.7341    46
38.7441    52
38.7541    51
38.7641    43
38.7741    43
38.7841    46
38.7941    36
38.8041    38
38.8141    49
38.8241    41
38.8341    42
38.8441    37
38.8541    40
38.8641    34
38.8741    40
38.8841    56
38.8941    50
38.9041    38
38.9141    43
38.9241    46
38.9341    41
38.9441    41
38.9541    37
38.9641    30
38.9741    45
38.9841    38
38.9941    35
39.0041    31
39.0141    40
39.0241    46
39.0341    46
39.0441    40
39.0541    43
39.0641    47
39.0741    52
39.0841    39
39.0941    28
39.1041    41
39.1141    46
39.1241    36
39.1341    41
39.1441    48
39.1541    36
39.1641    30
39.1741    34
39.1841    34
39.1941    38
39.2041    44
39.2141    53
39.2241    43
39.2341    35
39.2441    35
39.2541    38
39.2641    39
39.2741    33
39.2841    41
39.2941    29
39.3041    38
39.3141    42
39.3241    47
39.3341    42
39.3441    42
39.3541    40
39.3641    41
39.3741    31
39.3841    39
39.3941    41
39.4041    52
39.4141    28
39.4241    36
39.4341    45
39.4441    40
39.4541    32
39.4641    28
39.4741    25
39.4841    35
39.4941    40
39.5041    34
39.5141    36
39.5241    45
39.5341    23
39.5441    36
39.5541    30
39.5641    41
39.5741    28
39.5841    30
39.5941    27
39.6041    29
39.6141    40
39.6241    29
39.6341    31
39.6441    30
39.6541    40
39.6641    28
39.6741    38
39.6841    30
39.6941    30
39.7041    31
39.7141    30
39.7241    32
39.7341    37
39.7441    43
39.7541    33
39.7641    30
39.7741    23
39.7841    35
39.7941    34
39.8041    25
39.8141    31
39.8241    40
39.8341    26
39.8441    31
39.8541    30
39.8641    42
39.8741    31
39.8841    33
39.8941    26
39.9041    39
39.9141    32
39.9241    42
39.9341    28
39.9441    32
39.9541    23
39.9641    25
39.9741    26
39.9841    32
39.9941    31
