Bruker Nano GmbH Berlin, Germany
Esprit 1.9

Date: 4/1/2021 4:52:02 PM
Real time: 31632
Life time: 29745
Pulse density: 84190


Detector type: XFlash 430
Window type: Custom type
Detector thickness: 0.45
Si dead layer:0.029

Calibration, lin.: 10
Calibration, abs.: -955.9
Mn FWHM: 137.05
Fano factor: 0.121
Channels: 4096

Energy Counts
-0.9559     0
-0.9459     0
-0.9359     0
-0.9259     0
-0.9159     0
-0.9059     0
-0.8959     0
-0.8859     0
-0.8759     0
-0.8659     0
-0.8559     0
-0.8459     0
-0.8359     0
-0.8259     0
-0.8159     0
-0.8059     0
-0.7959     0
-0.7859     0
-0.7759     0
-0.7659     0
-0.7559     0
-0.7459     0
-0.7359     0
-0.7259     0
-0.7159     0
-0.7059     0
-0.6959     0
-0.6859     0
-0.6759     0
-0.6659     0
-0.6559     0
-0.6459     0
-0.6359     0
-0.6259     0
-0.6159     0
-0.6059     0
-0.5959     0
-0.5859     0
-0.5759     0
-0.5659     0
-0.5559     0
-0.5459     0
-0.5359     0
-0.5259     0
-0.5159     0
-0.5059     0
-0.4959     0
-0.4859     0
-0.4759     0
-0.4659     0
-0.4559     0
-0.4459     0
-0.4359     0
-0.4259     0
-0.4159     0
-0.4059     0
-0.3959     0
-0.3859     0
-0.3759     0
-0.3659     0
-0.3559     0
-0.3459     0
-0.3359     0
-0.3259     0
-0.3159     0
-0.3059     0
-0.2959     0
-0.2859     0
-0.2759     0
-0.2659     0
-0.2559     0
-0.2459     0
-0.2359     0
-0.2259     0
-0.2159     0
-0.2059     0
-0.1959     0
-0.1859     0
-0.1759     0
-0.1659     0
-0.1559     0
-0.1459     0
-0.1359     0
-0.1259     1
-0.1159     6
-0.1059    33
-0.0959   111
-0.0859   340
-0.0759  1192
-0.0659  3382
-0.0559  8614
-0.0459 18918
-0.0359 35165
-0.0259 56468
-0.0159 77502
-0.0059 90957
 0.0041 92053
 0.0141 79226
 0.0241 58307
 0.0341 36934
 0.0441 19874
 0.0541  9417
 0.0641  3819
 0.0741  1312
 0.0841   362
 0.0941   106
 0.1041    32
 0.1141    11
 0.1241    12
 0.1341    11
 0.1441     6
 0.1541     1
 0.1641     4
 0.1741    43
 0.1841   335
 0.1941   591
 0.2041   527
 0.2141   526
 0.2241   543
 0.2341   560
 0.2441   564
 0.2541   530
 0.2641   550
 0.2741   531
 0.2841   514
 0.2941   500
 0.3041   513
 0.3141   510
 0.3241   516
 0.3341   470
 0.3441   471
 0.3541   498
 0.3641   490
 0.3741   501
 0.3841   509
 0.3941   491
 0.4041   488
 0.4141   465
 0.4241   461
 0.4341   498
 0.4441   483
 0.4541   466
 0.4641   479
 0.4741   477
 0.4841   465
 0.4941   479
 0.5041   492
 0.5141   487
 0.5241   477
 0.5341   458
 0.5441   460
 0.5541   463
 0.5641   448
 0.5741   432
 0.5841   424
 0.5941   410
 0.6041   436
 0.6141   436
 0.6241   426
 0.6341   439
 0.6441   435
 0.6541   425
 0.6641   407
 0.6741   402
 0.6841   430
 0.6941   450
 0.7041   437
 0.7141   394
 0.7241   386
 0.7341   400
 0.7441   396
 0.7541   405
 0.7641   409
 0.7741   377
 0.7841   391
 0.7941   409
 0.8041   406
 0.8141   379
 0.8241   367
 0.8341   389
 0.8441   405
 0.8541   402
 0.8641   387
 0.8741   369
 0.8841   361
 0.8941   401
 0.9041   401
 0.9141   384
 0.9241   374
 0.9341   373
 0.9441   374
 0.9541   383
 0.9641   356
 0.9741   354
 0.9841   359
 0.9941   366
 1.0041   352
 1.0141   352
 1.0241   377
 1.0341   365
 1.0441   355
 1.0541   353
 1.0641   371
 1.0741   362
 1.0841   355
 1.0941   376
 1.1041   321
 1.1141   321
 1.1241   321
 1.1341   354
 1.1441   362
 1.1541   349
 1.1641   330
 1.1741   359
 1.1841   335
 1.1941   319
 1.2041   343
 1.2141   346
 1.2241   342
 1.2341   340
 1.2441   335
 1.2541   309
 1.2641   300
 1.2741   324
 1.2841   330
 1.2941   349
 1.3041   313
 1.3141   313
 1.3241   351
 1.3341   326
 1.3441   314
 1.3541   331
 1.3641   343
 1.3741   335
 1.3841   328
 1.3941   326
 1.4041   317
 1.4141   295
 1.4241   294
 1.4341   311
 1.4441   319
 1.4541   317
 1.4641   316
 1.4741   336
 1.4841   342
 1.4941   321
 1.5041   298
 1.5141   323
 1.5241   301
 1.5341   310
 1.5441   290
 1.5541   293
 1.5641   308
 1.5741   306
 1.5841   310
 1.5941   307
 1.6041   272
 1.6141   296
 1.6241   304
 1.6341   313
 1.6441   332
 1.6541   391
 1.6641   437
 1.6741   496
 1.6841   635
 1.6941   734
 1.7041   903
 1.7141  1034
 1.7241  1153
 1.7341  1145
 1.7441  1227
 1.7541  1137
 1.7641  1060
 1.7741   920
 1.7841   729
 1.7941   639
 1.8041   534
 1.8141   460
 1.8241   415
 1.8341   399
 1.8441   375
 1.8541   382
 1.8641   352
 1.8741   334
 1.8841   331
 1.8941   325
 1.9041   318
 1.9141   300
 1.9241   308
 1.9341   324
 1.9441   334
 1.9541   310
 1.9641   334
 1.9741   337
 1.9841   348
 1.9941   364
 2.0041   371
 2.0141   363
 2.0241   371
 2.0341   341
 2.0441   308
 2.0541   334
 2.0641   353
 2.0741   304
 2.0841   311
 2.0941   311
 2.1041   303
 2.1141   290
 2.1241   279
 2.1341   279
 2.1441   287
 2.1541   295
 2.1641   301
 2.1741   269
 2.1841   284
 2.1941   275
 2.2041   268
 2.2141   251
 2.2241   279
 2.2341   271
 2.2441   269
 2.2541   272
 2.2641   268
 2.2741   278
 2.2841   269
 2.2941   281
 2.3041   257
 2.3141   277
 2.3241   254
 2.3341   254
 2.3441   239
 2.3541   266
 2.3641   252
 2.3741   262
 2.3841   264
 2.3941   247
 2.4041   271
 2.4141   238
 2.4241   261
 2.4341   224
 2.4441   235
 2.4541   230
 2.4641   239
 2.4741   270
 2.4841   264
 2.4941   257
 2.5041   241
 2.5141   234
 2.5241   235
 2.5341   255
 2.5441   238
 2.5541   241
 2.5641   254
 2.5741   273
 2.5841   251
 2.5941   252
 2.6041   259
 2.6141   238
 2.6241   247
 2.6341   243
 2.6441   226
 2.6541   230
 2.6641   227
 2.6741   225
 2.6841   232
 2.6941   218
 2.7041   257
 2.7141   235
 2.7241   218
 2.7341   240
 2.7441   217
 2.7541   228
 2.7641   226
 2.7741   236
 2.7841   218
 2.7941   246
 2.8041   239
 2.8141   223
 2.8241   242
 2.8341   242
 2.8441   243
 2.8541   203
 2.8641   247
 2.8741   246
 2.8841   226
 2.8941   225
 2.9041   230
 2.9141   209
 2.9241   216
 2.9341   216
 2.9441   221
 2.9541   227
 2.9641   213
 2.9741   200
 2.9841   201
 2.9941   221
 3.0041   211
 3.0141   212
 3.0241   199
 3.0341   182
 3.0441   217
 3.0541   189
 3.0641   194
 3.0741   218
 3.0841   215
 3.0941   215
 3.1041   187
 3.1141   212
 3.1241   184
 3.1341   195
 3.1441   183
 3.1541   194
 3.1641   189
 3.1741   196
 3.1841   192
 3.1941   202
 3.2041   220
 3.2141   199
 3.2241   191
 3.2341   221
 3.2441   217
 3.2541   248
 3.2641   268
 3.2741   250
 3.2841   257
 3.2941   284
 3.3041   273
 3.3141   305
 3.3241   262
 3.3341   311
 3.3441   278
 3.3541   274
 3.3641   234
 3.3741   195
 3.3841   200
 3.3941   183
 3.4041   188
 3.4141   185
 3.4241   157
 3.4341   186
 3.4441   175
 3.4541   199
 3.4641   162
 3.4741   159
 3.4841   198
 3.4941   188
 3.5041   187
 3.5141   202
 3.5241   178
 3.5341   221
 3.5441   235
 3.5541   259
 3.5641   291
 3.5741   354
 3.5841   472
 3.5941   581
 3.6041   738
 3.6141   930
 3.6241  1227
 3.6341  1518
 3.6441  1835
 3.6541  2137
 3.6641  2386
 3.6741  2604
 3.6841  2785
 3.6941  2711
 3.7041  2721
 3.7141  2499
 3.7241  2185
 3.7341  1887
 3.7441  1580
 3.7541  1221
 3.7641   939
 3.7741   710
 3.7841   533
 3.7941   406
 3.8041   290
 3.8141   235
 3.8241   207
 3.8341   176
 3.8441   173
 3.8541   179
 3.8641   165
 3.8741   180
 3.8841   175
 3.8941   204
 3.9041   204
 3.9141   197
 3.9241   233
 3.9341   265
 3.9441   328
 3.9541   340
 3.9641   394
 3.9741   419
 3.9841   474
 3.9941   512
 4.0041   554
 4.0141   539
 4.0241   547
 4.0341   523
 4.0441   457
 4.0541   448
 4.0641   362
 4.0741   358
 4.0841   260
 4.0941   242
 4.1041   222
 4.1141   206
 4.1241   160
 4.1341   145
 4.1441   161
 4.1541   154
 4.1641   125
 4.1741   128
 4.1841   115
 4.1941   124
 4.2041   134
 4.2141   139
 4.2241   135
 4.2341   124
 4.2441   120
 4.2541   131
 4.2641   119
 4.2741   142
 4.2841   147
 4.2941   123
 4.3041   151
 4.3141   122
 4.3241   131
 4.3341   114
 4.3441   109
 4.3541   135
 4.3641   119
 4.3741   130
 4.3841   139
 4.3941   141
 4.4041   154
 4.4141   199
 4.4241   196
 4.4341   199
 4.4441   196
 4.4541   228
 4.4641   247
 4.4741   268
 4.4841   300
 4.4941   286
 4.5041   258
 4.5141   320
 4.5241   297
 4.5341   292
 4.5441   261
 4.5541   229
 4.5641   222
 4.5741   193
 4.5841   178
 4.5941   182
 4.6041   184
 4.6141   168
 4.6241   169
 4.6341   148
 4.6441   110
 4.6541   150
 4.6641   156
 4.6741   138
 4.6841   149
 4.6941   146
 4.7041   137
 4.7141   143
 4.7241   131
 4.7341   129
 4.7441   125
 4.7541   134
 4.7641   121
 4.7741   124
 4.7841   129
 4.7941   139
 4.8041   143
 4.8141   155
 4.8241   144
 4.8341   150
 4.8441   141
 4.8541   128
 4.8641   138
 4.8741   142
 4.8841   149
 4.8941   151
 4.9041   169
 4.9141   151
 4.9241   161
 4.9341   141
 4.9441   155
 4.9541   161
 4.9641   163
 4.9741   142
 4.9841   147
 4.9941   147
 5.0041   159
 5.0141   139
 5.0241   136
 5.0341   151
 5.0441   132
 5.0541   144
 5.0641   145
 5.0741   120
 5.0841   147
 5.0941   157
 5.1041   147
 5.1141   127
 5.1241   127
 5.1341   158
 5.1441   165
 5.1541   172
 5.1641   168
 5.1741   160
 5.1841   162
 5.1941   146
 5.2041   148
 5.2141   144
 5.2241   144
 5.2341   141
 5.2441   147
 5.2541   144
 5.2641   144
 5.2741   133
 5.2841   127
 5.2941   146
 5.3041   157
 5.3141   135
 5.3241   144
 5.3341   195
 5.3441   167
 5.3541   166
 5.3641   163
 5.3741   166
 5.3841   182
 5.3941   171
 5.4041   167
 5.4141   156
 5.4241   183
 5.4341   201
 5.4441   177
 5.4541   151
 5.4641   177
 5.4741   164
 5.4841   165
 5.4941   172
 5.5041   129
 5.5141   148
 5.5241   162
 5.5341   127
 5.5441   162
 5.5541   138
 5.5641   137
 5.5741   143
 5.5841   170
 5.5941   145
 5.6041   140
 5.6141   147
 5.6241   150
 5.6341   160
 5.6441   146
 5.6541   152
 5.6641   156
 5.6741   170
 5.6841   158
 5.6941   149
 5.7041   148
 5.7141   160
 5.7241   164
 5.7341   188
 5.7441   162
 5.7541   155
 5.7641   150
 5.7741   187
 5.7841   171
 5.7941   203
 5.8041   219
 5.8141   223
 5.8241   276
 5.8341   280
 5.8441   295
 5.8541   335
 5.8641   336
 5.8741   350
 5.8841   347
 5.8941   369
 5.9041   343
 5.9141   362
 5.9241   357
 5.9341   332
 5.9441   331
 5.9541   295
 5.9641   281
 5.9741   255
 5.9841   226
 5.9941   216
 6.0041   185
 6.0141   195
 6.0241   179
 6.0341   175
 6.0441   187
 6.0541   137
 6.0641   173
 6.0741   180
 6.0841   173
 6.0941   184
 6.1041   185
 6.1141   162
 6.1241   173
 6.1341   179
 6.1441   170
 6.1541   174
 6.1641   184
 6.1741   197
 6.1841   188
 6.1941   205
 6.2041   232
 6.2141   254
 6.2241   342
 6.2341   373
 6.2441   534
 6.2541   624
 6.2641   857
 6.2741  1060
 6.2841  1358
 6.2941  1749
 6.3041  2314
 6.3141  2856
 6.3241  3440
 6.3341  4268
 6.3441  4921
 6.3541  5673
 6.3641  6221
 6.3741  6692
 6.3841  7103
 6.3941  7323
 6.4041  7142
 6.4141  6977
 6.4241  6570
 6.4341  6126
 6.4441  5464
 6.4541  4721
 6.4641  3991
 6.4741  3387
 6.4841  2724
 6.4941  2140
 6.5041  1665
 6.5141  1247
 6.5241   978
 6.5341   801
 6.5441   562
 6.5541   491
 6.5641   365
 6.5741   306
 6.5841   262
 6.5941   256
 6.6041   217
 6.6141   243
 6.6241   219
 6.6341   213
 6.6441   221
 6.6541   202
 6.6641   219
 6.6741   205
 6.6841   226
 6.6941   210
 6.7041   230
 6.7141   213
 6.7241   241
 6.7341   247
 6.7441   217
 6.7541   250
 6.7641   244
 6.7741   241
 6.7841   242
 6.7941   241
 6.8041   225
 6.8141   235
 6.8241   254
 6.8341   249
 6.8441   252
 6.8541   248
 6.8641   229
 6.8741   280
 6.8841   290
 6.8941   291
 6.9041   325
 6.9141   362
 6.9241   386
 6.9341   484
 6.9441   490
 6.9541   560
 6.9641   639
 6.9741   754
 6.9841   849
 6.9941   954
 7.0041  1026
 7.0141  1092
 7.0241  1215
 7.0341  1211
 7.0441  1328
 7.0541  1294
 7.0641  1344
 7.0741  1222
 7.0841  1169
 7.0941  1088
 7.1041  1037
 7.1141   950
 7.1241   913
 7.1341   719
 7.1441   667
 7.1541   587
 7.1641   518
 7.1741   494
 7.1841   397
 7.1941   374
 7.2041   316
 7.2141   329
 7.2241   326
 7.2341   291
 7.2441   320
 7.2541   332
 7.2641   331
 7.2741   325
 7.2841   373
 7.2941   346
 7.3041   384
 7.3141   412
 7.3241   391
 7.3341   459
 7.3441   451
 7.3541   466
 7.3641   497
 7.3741   547
 7.3841   536
 7.3941   475
 7.4041   537
 7.4141   525
 7.4241   538
 7.4341   518
 7.4441   552
 7.4541   545
 7.4641   527
 7.4741   547
 7.4841   473
 7.4941   472
 7.5041   453
 7.5141   462
 7.5241   441
 7.5341   437
 7.5441   437
 7.5541   409
 7.5641   419
 7.5741   382
 7.5841   386
 7.5941   362
 7.6041   378
 7.6141   382
 7.6241   355
 7.6341   386
 7.6441   336
 7.6541   376
 7.6641   404
 7.6741   344
 7.6841   348
 7.6941   338
 7.7041   374
 7.7141   354
 7.7241   417
 7.7341   362
 7.7441   388
 7.7541   374
 7.7641   396
 7.7741   415
 7.7841   403
 7.7941   420
 7.8041   388
 7.8141   426
 7.8241   450
 7.8341   443
 7.8441   460
 7.8541   473
 7.8641   482
 7.8741   506
 7.8841   551
 7.8941   531
 7.9041   578
 7.9141   562
 7.9241   576
 7.9341   658
 7.9441   628
 7.9541   667
 7.9641   775
 7.9741   814
 7.9841   888
 7.9941   960
 8.0041   939
 8.0141  1043
 8.0241  1150
 8.0341  1202
 8.0441  1279
 8.0541  1397
 8.0641  1502
 8.0741  1572
 8.0841  1583
 8.0941  1752
 8.1041  1873
 8.1141  1938
 8.1241  2009
 8.1341  2104
 8.1441  2136
 8.1541  2072
 8.1641  2181
 8.1741  2208
 8.1841  2246
 8.1941  2292
 8.2041  2278
 8.2141  2319
 8.2241  2405
 8.2341  2491
 8.2441  2413
 8.2541  2432
 8.2641  2685
 8.2741  2787
 8.2841  2947
 8.2941  3091
 8.3041  3355
 8.3141  3644
 8.3241  3880
 8.3341  4114
 8.3441  4245
 8.3541  4531
 8.3641  4622
 8.3741  4736
 8.3841  4755
 8.3941  4919
 8.4041  4621
 8.4141  4397
 8.4241  4078
 8.4341  3870
 8.4441  3587
 8.4541  3203
 8.4641  2688
 8.4741  2485
 8.4841  2069
 8.4941  1835
 8.5041  1514
 8.5141  1200
 8.5241  1133
 8.5341   907
 8.5441   864
 8.5541   786
 8.5641   689
 8.5741   624
 8.5841   638
 8.5941   611
 8.6041   598
 8.6141   572
 8.6241   594
 8.6341   669
 8.6441   666
 8.6541   641
 8.6641   614
 8.6741   673
 8.6841   670
 8.6941   701
 8.7041   686
 8.7141   686
 8.7241   698
 8.7341   681
 8.7441   659
 8.7541   704
 8.7641   647
 8.7741   666
 8.7841   636
 8.7941   605
 8.8041   591
 8.8141   593
 8.8241   539
 8.8341   565
 8.8441   571
 8.8541   573
 8.8641   560
 8.8741   543
 8.8841   550
 8.8941   502
 8.9041   564
 8.9141   538
 8.9241   563
 8.9341   512
 8.9441   552
 8.9541   617
 8.9641   591
 8.9741   570
 8.9841   642
 8.9941   607
 9.0041   601
 9.0141   668
 9.0241   623
 9.0341   661
 9.0441   668
 9.0541   710
 9.0641   732
 9.0741   740
 9.0841   759
 9.0941   757
 9.1041   801
 9.1141   800
 9.1241   888
 9.1341   896
 9.1441   903
 9.1541   925
 9.1641   957
 9.1741  1016
 9.1841  1090
 9.1941  1199
 9.2041  1175
 9.2141  1241
 9.2241  1291
 9.2341  1371
 9.2441  1428
 9.2541  1480
 9.2641  1554
 9.2741  1600
 9.2841  1730
 9.2941  1806
 9.3041  1844
 9.3141  1924
 9.3241  1945
 9.3341  2051
 9.3441  2052
 9.3541  2168
 9.3641  2234
 9.3741  2207
 9.3841  2265
 9.3941  2282
 9.4041  2318
 9.4141  2330
 9.4241  2366
 9.4341  2489
 9.4441  2444
 9.4541  2439
 9.4641  2496
 9.4741  2514
 9.4841  2582
 9.4941  2635
 9.5041  2677
 9.5141  2764
 9.5241  2915
 9.5341  2970
 9.5441  3131
 9.5541  3287
 9.5641  3455
 9.5741  3707
 9.5841  3748
 9.5941  4060
 9.6041  4271
 9.6141  4597
 9.6241  4714
 9.6341  4969
 9.6441  5105
 9.6541  5277
 9.6641  5422
 9.6741  5313
 9.6841  5321
 9.6941  5135
 9.7041  4858
 9.7141  4781
 9.7241  4474
 9.7341  4217
 9.7441  3996
 9.7541  3651
 9.7641  3329
 9.7741  3134
 9.7841  2866
 9.7941  2678
 9.8041  2665
 9.8141  2411
 9.8241  2308
 9.8341  2324
 9.8441  2234
 9.8541  2158
 9.8641  2194
 9.8741  2204
 9.8841  2209
 9.8941  2311
 9.9041  2342
 9.9141  2291
 9.9241  2384
 9.9341  2395
 9.9441  2381
 9.9541  2399
 9.9641  2448
 9.9741  2361
 9.9841  2269
 9.9941  2124
10.0041  1955
10.0141  1899
10.0241  1710
10.0341  1518
10.0441  1424
10.0541  1267
10.0641  1190
10.0741  1048
10.0841   962
10.0941   867
10.1041   746
10.1141   728
10.1241   653
10.1341   601
10.1441   553
10.1541   535
10.1641   488
10.1741   483
10.1841   483
10.1941   453
10.2041   440
10.2141   437
10.2241   441
10.2341   404
10.2441   378
10.2541   338
10.2641   375
10.2741   379
10.2841   364
10.2941   360
10.3041   370
10.3141   348
10.3241   320
10.3341   337
10.3441   337
10.3541   340
10.3641   336
10.3741   325
10.3841   324
10.3941   326
10.4041   347
10.4141   335
10.4241   340
10.4341   337
10.4441   325
10.4541   338
10.4641   331
10.4741   340
10.4841   332
10.4941   325
10.5041   352
10.5141   335
10.5241   308
10.5341   332
10.5441   340
10.5541   337
10.5641   351
10.5741   327
10.5841   332
10.5941   345
10.6041   347
10.6141   340
10.6241   352
10.6341   358
10.6441   354
10.6541   358
10.6641   359
10.6741   400
10.6841   398
10.6941   350
10.7041   356
10.7141   380
10.7241   367
10.7341   395
10.7441   429
10.7541   429
10.7641   444
10.7741   445
10.7841   469
10.7941   492
10.8041   482
10.8141   495
10.8241   484
10.8341   487
10.8441   521
10.8541   553
10.8641   511
10.8741   493
10.8841   525
10.8941   554
10.9041   518
10.9141   534
10.9241   532
10.9341   524
10.9441   544
10.9541   544
10.9641   539
10.9741   525
10.9841   551
10.9941   515
11.0041   494
11.0141   526
11.0241   471
11.0341   473
11.0441   501
11.0541   492
11.0641   452
11.0741   446
11.0841   481
11.0941   469
11.1041   477
11.1141   454
11.1241   476
11.1341   498
11.1441   499
11.1541   548
11.1641   557
11.1741   553
11.1841   554
11.1941   600
11.2041   666
11.2141   679
11.2241   712
11.2341   746
11.2441   731
11.2541   740
11.2641   764
11.2741   794
11.2841   780
11.2941   778
11.3041   766
11.3141   725
11.3241   706
11.3341   688
11.3441   655
11.3541   613
11.3641   615
11.3741   584
11.3841   528
11.3941   518
11.4041   495
11.4141   444
11.4241   418
11.4341   426
11.4441   413
11.4541   404
11.4641   397
11.4741   399
11.4841   396
11.4941   369
11.5041   382
11.5141   368
11.5241   390
11.5341   390
11.5441   392
11.5541   401
11.5641   393
11.5741   386
11.5841   357
11.5941   377
11.6041   377
11.6141   378
11.6241   393
11.6341   353
11.6441   382
11.6541   390
11.6641   358
11.6741   350
11.6841   364
11.6941   367
11.7041   349
11.7141   316
11.7241   327
11.7341   323
11.7441   339
11.7541   317
11.7641   290
11.7741   292
11.7841   277
11.7941   278
11.8041   282
11.8141   281
11.8241   275
11.8341   279
11.8441   281
11.8541   268
11.8641   275
11.8741   275
11.8841   270
11.8941   290
11.9041   272
11.9141   274
11.9241   275
11.9341   275
11.9441   256
11.9541   261
11.9641   273
11.9741   259
11.9841   272
11.9941   293
12.0041   291
12.0141   286
12.0241   278
12.0341   300
12.0441   296
12.0541   294
12.0641   266
12.0741   276
12.0841   285
12.0941   306
12.1041   278
12.1141   281
12.1241   282
12.1341   275
12.1441   275
12.1541   273
12.1641   278
12.1741   301
12.1841   293
12.1941   288
12.2041   301
12.2141   298
12.2241   308
12.2341   286
12.2441   263
12.2541   264
12.2641   271
12.2741   296
12.2841   295
12.2941   286
12.3041   292
12.3141   286
12.3241   294
12.3341   289
12.3441   293
12.3541   277
12.3641   279
12.3741   287
12.3841   292
12.3941   275
12.4041   252
12.4141   277
12.4241   299
12.4341   289
12.4441   313
12.4541   305
12.4641   269
12.4741   262
12.4841   277
12.4941   300
12.5041   277
12.5141   277
12.5241   297
12.5341   290
12.5441   290
12.5541   290
12.5641   300
12.5741   295
12.5841   299
12.5941   301
12.6041   298
12.6141   294
12.6241   291
12.6341   326
12.6441   317
12.6541   274
12.6641   287
12.6741   319
12.6841   330
12.6941   309
12.7041   297
12.7141   297
12.7241   306
12.7341   291
12.7441   307
12.7541   282
12.7641   284
12.7741   301
12.7841   312
12.7941   328
12.8041   308
12.8141   286
12.8241   306
12.8341   308
12.8441   293
12.8541   286
12.8641   298
12.8741   314
12.8841   306
12.8941   339
12.9041   331
12.9141   284
12.9241   304
12.9341   316
12.9441   319
12.9541   316
12.9641   331
12.9741   323
12.9841   311
12.9941   327
13.0041   324
13.0141   330
13.0241   332
13.0341   323
13.0441   338
13.0541   351
13.0641   323
13.0741   326
13.0841   339
13.0941   341
13.1041   333
13.1141   328
13.1241   344
13.1341   347
13.1441   347
13.1541   354
13.1641   349
13.1741   341
13.1841   352
13.1941   358
13.2041   340
13.2141   341
13.2241   353
13.2341   353
13.2441   355
13.2541   358
13.2641   363
13.2741   378
13.2841   359
13.2941   337
13.3041   374
13.3141   395
13.3241   379
13.3341   371
13.3441   376
13.3541   398
13.3641   422
13.3741   409
13.3841   404
13.3941   401
13.4041   401
13.4141   411
13.4241   404
13.4341   391
13.4441   374
13.4541   373
13.4641   376
13.4741   387
13.4841   397
13.4941   388
13.5041   396
13.5141   390
13.5241   385
13.5341   371
13.5441   371
13.5541   380
13.5641   352
13.5741   350
13.5841   356
13.5941   361
13.6041   379
13.6141   383
13.6241   365
13.6341   355
13.6441   384
13.6541   381
13.6641   354
13.6741   370
13.6841   381
13.6941   375
13.7041   366
13.7141   379
13.7241   379
13.7341   372
13.7441   381
13.7541   383
13.7641   383
13.7741   374
13.7841   389
13.7941   408
13.8041   398
13.8141   398
13.8241   410
13.8341   409
13.8441   432
13.8541   426
13.8641   406
13.8741   411
13.8841   396
13.8941   370
13.9041   359
13.9141   371
13.9241   387
13.9341   404
13.9441   401
13.9541   413
13.9641   432
13.9741   451
13.9841   468
13.9941   440
14.0041   426
14.0141   439
14.0241   436
14.0341   449
14.0441   482
14.0541   476
14.0641   457
14.0741   512
14.0841   540
14.0941   508
14.1041   519
14.1141   522
14.1241   492
14.1341   510
14.1441   522
14.1541   509
14.1641   519
14.1741   504
14.1841   522
14.1941   512
14.2041   475
14.2141   477
14.2241   468
14.2341   483
14.2441   498
14.2541   458
14.2641   459
14.2741   500
14.2841   473
14.2941   457
14.3041   456
14.3141   456
14.3241   478
14.3341   463
14.3441   445
14.3541   436
14.3641   423
14.3741   446
14.3841   460
14.3941   437
14.4041   428
14.4141   422
14.4241   428
14.4341   456
14.4441   462
14.4541   437
14.4641   446
14.4741   467
14.4841   461
14.4941   465
14.5041   483
14.5141   455
14.5241   442
14.5341   459
14.5441   444
14.5541   442
14.5641   477
14.5741   485
14.5841   473
14.5941   481
14.6041   472
14.6141   465
14.6241   444
14.6341   455
14.6441   484
14.6541   480
14.6641   480
14.6741   485
14.6841   481
14.6941   487
14.7041   492
14.7141   469
14.7241   470
14.7341   467
14.7441   472
14.7541   473
14.7641   470
14.7741   480
14.7841   488
14.7941   508
14.8041   490
14.8141   479
14.8241   513
14.8341   511
14.8441   492
14.8541   477
14.8641   472
14.8741   469
14.8841   473
14.8941   486
14.9041   476
14.9141   479
14.9241   481
14.9341   490
14.9441   506
14.9541   531
14.9641   525
14.9741   516
14.9841   503
14.9941   528
15.0041   530
15.0141   507
15.0241   519
15.0341   528
15.0441   514
15.0541   501
15.0641   498
15.0741   495
15.0841   488
15.0941   479
15.1041   464
15.1141   469
15.1241   515
15.1341   503
15.1441   488
15.1541   508
15.1641   509
15.1741   494
15.1841   488
15.1941   487
15.2041   502
15.2141   511
15.2241   512
15.2341   525
15.2441   515
15.2541   476
15.2641   498
15.2741   524
15.2841   519
15.2941   504
15.3041   514
15.3141   531
15.3241   491
15.3341   504
15.3441   510
15.3541   481
15.3641   506
15.3741   496
15.3841   512
15.3941   524
15.4041   514
15.4141   539
15.4241   522
15.4341   542
15.4441   543
15.4541   511
15.4641   534
15.4741   557
15.4841   535
15.4941   537
15.5041   499
15.5141   514
15.5241   563
15.5341   545
15.5441   553
15.5541   533
15.5641   534
15.5741   567
15.5841   569
15.5941   560
15.6041   593
15.6141   596
15.6241   605
15.6341   595
15.6441   611
15.6541   637
15.6641   656
15.6741   665
15.6841   682
15.6941   689
15.7041   674
15.7141   702
15.7241   720
15.7341   704
15.7441   712
15.7541   698
15.7641   727
15.7741   722
15.7841   710
15.7941   708
15.8041   715
15.8141   681
15.8241   671
15.8341   685
15.8441   692
15.8541   685
15.8641   653
15.8741   626
15.8841   634
15.8941   642
15.9041   620
15.9141   610
15.9241   600
15.9341   604
15.9441   621
15.9541   620
15.9641   610
15.9741   597
15.9841   589
15.9941   583
16.0041   591
16.0141   578
16.0241   571
16.0341   579
16.0441   576
16.0541   572
16.0641   590
16.0741   589
16.0841   605
16.0941   609
16.1041   597
16.1141   593
16.1241   601
16.1341   593
16.1441   599
16.1541   603
16.1641   615
16.1741   594
16.1841   585
16.1941   587
16.2041   602
16.2141   630
16.2241   599
16.2341   585
16.2441   622
16.2541   626
16.2641   620
16.2741   627
16.2841   601
16.2941   571
16.3041   602
16.3141   603
16.3241   607
16.3341   623
16.3441   657
16.3541   638
16.3641   618
16.3741   651
16.3841   673
16.3941   648
16.4041   667
16.4141   669
16.4241   657
16.4341   641
16.4441   652
16.4541   638
16.4641   641
16.4741   664
16.4841   640
16.4941   611
16.5041   657
16.5141   634
16.5241   641
16.5341   654
16.5441   637
16.5541   637
16.5641   659
16.5741   657
16.5841   655
16.5941   685
16.6041   640
16.6141   616
16.6241   680
16.6341   677
16.6441   657
16.6541   665
16.6641   668
16.6741   693
16.6841   706
16.6941   666
16.7041   660
16.7141   670
16.7241   667
16.7341   664
16.7441   682
16.7541   683
16.7641   697
16.7741   672
16.7841   675
16.7941   698
16.8041   662
16.8141   650
16.8241   672
16.8341   668
16.8441   678
16.8541   685
16.8641   694
16.8741   695
16.8841   672
16.8941   687
16.9041   685
16.9141   696
16.9241   696
16.9341   679
16.9441   691
16.9541   689
16.9641   688
16.9741   660
16.9841   685
16.9941   723
17.0041   695
17.0141   649
17.0241   670
17.0341   691
17.0441   702
17.0541   700
17.0641   709
17.0741   705
17.0841   675
17.0941   688
17.1041   731
17.1141   733
17.1241   692
17.1341   675
17.1441   697
17.1541   713
17.1641   703
17.1741   697
17.1841   709
17.1941   724
17.2041   721
17.2141   698
17.2241   703
17.2341   714
17.2441   749
17.2541   707
17.2641   746
17.2741   720
17.2841   713
17.2941   715
17.3041   698
17.3141   698
17.3241   689
17.3341   723
17.3441   717
17.3541   707
17.3641   702
17.3741   716
17.3841   730
17.3941   717
17.4041   744
17.4141   734
17.4241   727
17.4341   764
17.4441   748
17.4541   785
17.4641   758
17.4741   750
17.4841   766
17.4941   763
17.5041   745
17.5141   780
17.5241   748
17.5341   754
17.5441   782
17.5541   809
17.5641   774
17.5741   753
17.5841   761
17.5941   779
17.6041   804
17.6141   771
17.6241   785
17.6341   765
17.6441   730
17.6541   787
17.6641   843
17.6741   781
17.6841   784
17.6941   748
17.7041   802
17.7141   782
17.7241   793
17.7341   757
17.7441   778
17.7541   822
17.7641   796
17.7741   783
17.7841   787
17.7941   777
17.8041   775
17.8141   769
17.8241   746
17.8341   768
17.8441   781
17.8541   823
17.8641   804
17.8741   822
17.8841   825
17.8941   805
17.9041   819
17.9141   827
17.9241   814
17.9341   798
17.9441   800
17.9541   811
17.9641   817
17.9741   799
17.9841   833
17.9941   809
18.0041   777
18.0141   778
18.0241   787
18.0341   792
18.0441   771
18.0541   783
18.0641   804
18.0741   809
18.0841   846
18.0941   810
18.1041   828
18.1141   799
18.1241   760
18.1341   779
18.1441   789
18.1541   818
18.1641   801
18.1741   823
18.1841   840
18.1941   787
18.2041   767
18.2141   839
18.2241   830
18.2341   804
18.2441   829
18.2541   804
18.2641   812
18.2741   854
18.2841   807
18.2941   779
18.3041   838
18.3141   856
18.3241   811
18.3341   817
18.3441   802
18.3541   821
18.3641   849
18.3741   863
18.3841   841
18.3941   796
18.4041   835
18.4141   843
18.4241   845
18.4341   812
18.4441   844
18.4541   817
18.4641   838
18.4741   842
18.4841   821
18.4941   895
18.5041   839
18.5141   819
18.5241   858
18.5341   856
18.5441   854
18.5541   827
18.5641   830
18.5741   878
18.5841   853
18.5941   827
18.6041   847
18.6141   902
18.6241   893
18.6341   863
18.6441   883
18.6541   884
18.6641   803
18.6741   863
18.6841   864
18.6941   855
18.7041   851
18.7141   854
18.7241   888
18.7341   869
18.7441   891
18.7541   865
18.7641   857
18.7741   869
18.7841   847
18.7941   891
18.8041   866
18.8141   898
18.8241   894
18.8341   907
18.8441   860
18.8541   887
18.8641   887
18.8741   865
18.8841   888
18.8941   910
18.9041   871
18.9141   905
18.9241   910
18.9341   900
18.9441   864
18.9541   870
18.9641   899
18.9741   880
18.9841   901
18.9941   931
19.0041   919
19.0141   919
19.0241   916
19.0341   874
19.0441   897
19.0541   887
19.0641   859
19.0741   944
19.0841   902
19.0941   897
19.1041   878
19.1141   919
19.1241   907
19.1341   887
19.1441   886
19.1541   923
19.1641   903
19.1741   859
19.1841   886
19.1941   934
19.2041   893
19.2141   898
19.2241   908
19.2341   917
19.2441   920
19.2541   942
19.2641   936
19.2741   926
19.2841   907
19.2941   949
19.3041   913
19.3141   896
19.3241   915
19.3341   924
19.3441   893
19.3541   940
19.3641   919
19.3741   893
19.3841   933
19.3941   955
19.4041   951
19.4141   908
19.4241   975
19.4341   945
19.4441   889
19.4541   898
19.4641   909
19.4741   948
19.4841   970
19.4941   967
19.5041   942
19.5141   912
19.5241   903
19.5341   952
19.5441   946
19.5541   946
19.5641   938
19.5741   932
19.5841   932
19.5941   920
19.6041   884
19.6141   955
19.6241   948
19.6341   946
19.6441  1003
19.6541   957
19.6641   954
19.6741   935
19.6841   945
19.6941   950
19.7041   931
19.7141   932
19.7241   952
19.7341   943
19.7441   967
19.7541   969
19.7641   966
19.7741   935
19.7841   906
19.7941   929
19.8041   952
19.8141   991
19.8241   945
19.8341   939
19.8441   915
19.8541   919
19.8641   943
19.8741   958
19.8841   932
19.8941   973
19.9041   956
19.9141   980
19.9241   940
19.9341   929
19.9441   925
19.9541   895
19.9641   971
19.9741   943
19.9841   955
19.9941   986
20.0041   949
20.0141   928
20.0241   948
20.0341   930
20.0441   945
20.0541   964
20.0641   946
20.0741   937
20.0841   947
20.0941   969
20.1041   975
20.1141   998
20.1241   949
20.1341   991
20.1441  1041
20.1541   968
20.1641   985
20.1741   992
20.1841   974
20.1941   969
20.2041  1000
20.2141   980
20.2241   966
20.2341   959
20.2441  1003
20.2541   939
20.2641   964
20.2741   964
20.2841   965
20.2941   972
20.3041   998
20.3141   995
20.3241  1001
20.3341   967
20.3441   990
20.3541   977
20.3641  1004
20.3741   990
20.3841   980
20.3941   964
20.4041   963
20.4141  1002
20.4241  1018
20.4341   958
20.4441   942
20.4541  1032
20.4641  1025
20.4741   979
20.4841   996
20.4941   970
20.5041   933
20.5141   982
20.5241   992
20.5341  1004
20.5441   965
20.5541  1027
20.5641   959
20.5741   997
20.5841   984
20.5941   976
20.6041   998
20.6141   988
20.6241  1016
20.6341  1004
20.6441   978
20.6541  1020
20.6641   983
20.6741   997
20.6841  1010
20.6941  1047
20.7041   998
20.7141   996
20.7241   980
20.7341  1019
20.7441   986
20.7541   953
20.7641  1007
20.7741  1033
20.7841  1023
20.7941   986
20.8041   989
20.8141  1042
20.8241  1073
20.8341  1054
20.8441  1057
20.8541  1028
20.8641  1048
20.8741  1062
20.8841  1113
20.8941  1106
20.9041  1132
20.9141  1171
20.9241  1157
20.9341  1155
20.9441  1200
20.9541  1309
20.9641  1251
20.9741  1304
20.9841  1301
20.9941  1334
21.0041  1358
21.0141  1339
21.0241  1374
21.0341  1375
21.0441  1446
21.0541  1472
21.0641  1486
21.0741  1535
21.0841  1561
21.0941  1544
21.1041  1579
21.1141  1555
21.1241  1556
21.1341  1528
21.1441  1608
21.1541  1587
21.1641  1565
21.1741  1472
21.1841  1520
21.1941  1502
21.2041  1530
21.2141  1375
21.2241  1397
21.2341  1412
21.2441  1361
21.2541  1326
21.2641  1309
21.2741  1306
21.2841  1265
21.2941  1262
21.3041  1157
21.3141  1139
21.3241  1155
21.3341  1136
21.3441  1094
21.3541  1145
21.3641  1087
21.3741  1034
21.3841  1104
21.3941  1041
21.4041  1053
21.4141  1017
21.4241  1031
21.4341  1033
21.4441  1043
21.4541   959
21.4641  1000
21.4741  1032
21.4841   989
21.4941   990
21.5041  1017
21.5141  1075
21.5241  1051
21.5341   973
21.5441   966
21.5541   965
21.5641   998
21.5741   936
21.5841   962
21.5941   978
21.6041  1018
21.6141   975
21.6241  1045
21.6341  1052
21.6441   985
21.6541  1025
21.6641  1032
21.6741  1027
21.6841   974
21.6941  1009
21.7041  1015
21.7141  1048
21.7241  1003
21.7341  1022
21.7441  1062
21.7541  1048
21.7641  1025
21.7741  1007
21.7841   998
21.7941  1014
21.8041  1018
21.8141   965
21.8241  1015
21.8341  1021
21.8441  1030
21.8541   974
21.8641  1035
21.8741   996
21.8841   962
21.8941  1026
21.9041  1000
21.9141  1007
21.9241   990
21.9341   976
21.9441   958
21.9541  1027
21.9641  1058
21.9741  1029
21.9841  1045
21.9941  1008
22.0041   990
22.0141  1019
22.0241   989
22.0341   949
22.0441  1014
22.0541  1049
22.0641  1054
22.0741  1035
22.0841   979
22.0941   983
22.1041  1005
22.1141  1045
22.1241   965
22.1341   989
22.1441  1036
22.1541  1016
22.1641  1011
22.1741  1047
22.1841  1046
22.1941   996
22.2041   992
22.2141  1057
22.2241   966
22.2341  1004
22.2441  1015
22.2541  1022
22.2641  1032
22.2741  1036
22.2841  1019
22.2941  1031
22.3041  1007
22.3141   999
22.3241  1023
22.3341   988
22.3441   988
22.3541  1028
22.3641   982
22.3741   984
22.3841  1059
22.3941  1024
22.4041   984
22.4141   986
22.4241  1016
22.4341  1027
22.4441   986
22.4541   985
22.4641   990
22.4741  1003
22.4841   987
22.4941  1038
22.5041   998
22.5141   972
22.5241  1045
22.5341   988
22.5441  1019
22.5541   999
22.5641   981
22.5741   946
22.5841  1007
22.5941  1024
22.6041   987
22.6141  1010
22.6241  1015
22.6341  1026
22.6441   986
22.6541  1022
22.6641  1028
22.6741  1065
22.6841   977
22.6941  1112
22.7041   965
22.7141  1059
22.7241  1026
22.7341  1003
22.7441  1052
22.7541   985
22.7641   993
22.7741  1040
22.7841  1058
22.7941  1064
22.8041   986
22.8141   985
22.8241   988
22.8341   963
22.8441   906
22.8541  1006
22.8641  1016
22.8741  1009
22.8841   985
22.8941   999
22.9041  1008
22.9141   995
22.9241  1026
22.9341  1018
22.9441   996
22.9541  1025
22.9641   978
22.9741   968
22.9841  1017
22.9941   931
23.0041   991
23.0141   980
23.0241   973
23.0341   924
23.0441   966
23.0541  1010
23.0641  1011
23.0741   983
23.0841   961
23.0941  1003
23.1041   987
23.1141   941
23.1241  1027
23.1341  1028
23.1441   969
23.1541   995
23.1641   946
23.1741   992
23.1841   964
23.1941   995
23.2041  1004
23.2141   920
23.2241   990
23.2341   991
23.2441   970
23.2541   988
23.2641   967
23.2741   936
23.2841   987
23.2941   980
23.3041   963
23.3141  1029
23.3241  1023
23.3341   958
23.3441  1007
23.3541  1009
23.3641   963
23.3741   984
23.3841   978
23.3941  1026
23.4041   963
23.4141  1002
23.4241  1014
23.4341  1011
23.4441   939
23.4541   996
23.4641   947
23.4741   991
23.4841   981
23.4941   971
23.5041   938
23.5141   972
23.5241   996
23.5341   948
23.5441   962
23.5541   994
23.5641   965
23.5741  1010
23.5841   992
23.5941   989
23.6041   991
23.6141   970
23.6241  1009
23.6341  1031
23.6441  1000
23.6541   997
23.6641  1048
23.6741  1005
23.6841  1026
23.6941  1014
23.7041  1051
23.7141  1077
23.7241  1063
23.7341  1027
23.7441  1059
23.7541   990
23.7641  1104
23.7741  1032
23.7841  1095
23.7941  1110
23.8041  1046
23.8141  1052
23.8241  1055
23.8341  1059
23.8441  1029
23.8541  1018
23.8641  1082
23.8741  1043
23.8841  1029
23.8941  1011
23.9041  1037
23.9141  1048
23.9241  1009
23.9341  1043
23.9441  1034
23.9541   956
23.9641   964
23.9741  1025
23.9841   989
23.9941   970
24.0041   967
24.0141   982
24.0241   948
24.0341   941
24.0441   963
24.0541   915
24.0641   953
24.0741   916
24.0841  1010
24.0941   996
24.1041   956
24.1141   971
24.1241   950
24.1341   985
24.1441   931
24.1541   929
24.1641   946
24.1741   952
24.1841   932
24.1941   956
24.2041   954
24.2141  1001
24.2241   973
24.2341   951
24.2441   944
24.2541   971
24.2641   985
24.2741   952
24.2841   920
24.2941   993
24.3041   951
24.3141   982
24.3241   931
24.3341   958
24.3441   972
24.3541   942
24.3641   977
24.3741   940
24.3841   908
24.3941   926
24.4041   927
24.4141   986
24.4241   929
24.4341   947
24.4441   905
24.4541   973
24.4641   934
24.4741   975
24.4841   929
24.4941   892
24.5041   903
24.5141   915
24.5241   949
24.5341   947
24.5441   974
24.5541   952
24.5641   918
24.5741   932
24.5841   941
24.5941   888
24.6041   901
24.6141   941
24.6241   932
24.6341   916
24.6441   926
24.6541   915
24.6641   966
24.6741   937
24.6841   941
24.6941   903
24.7041   948
24.7141   890
24.7241   911
24.7341   894
24.7441   939
24.7541   919
24.7641   873
24.7741   874
24.7841   956
24.7941   893
24.8041   909
24.8141   890
24.8241   894
24.8341   910
24.8441   954
24.8541   905
24.8641   897
24.8741   883
24.8841   885
24.8941   893
24.9041   931
24.9141   892
24.9241   878
24.9341   946
24.9441   926
24.9541   968
24.9641   871
24.9741   939
24.9841   906
24.9941   973
25.0041   905
25.0141   926
25.0241   928
25.0341   925
25.0441   936
25.0541   849
25.0641   976
25.0741   918
25.0841   897
25.0941   879
25.1041   896
25.1141   956
25.1241   946
25.1341   918
25.1441   919
25.1541   962
25.1641   897
25.1741   867
25.1841   927
25.1941   901
25.2041   897
25.2141   874
25.2241   913
25.2341   947
25.2441   919
25.2541   911
25.2641   925
25.2741   884
25.2841   913
25.2941   941
25.3041   902
25.3141   910
25.3241   916
25.3341   887
25.3441   883
25.3541   893
25.3641   955
25.3741   921
25.3841   917
25.3941   866
25.4041   850
25.4141   860
25.4241   878
25.4341   854
25.4441   917
25.4541   918
25.4641   872
25.4741   929
25.4841   901
25.4941   900
25.5041   923
25.5141   895
25.5241   900
25.5341   852
25.5441   855
25.5541   879
25.5641   915
25.5741   898
25.5841   848
25.5941   818
25.6041   843
25.6141   914
25.6241   884
25.6341   857
25.6441   842
25.6541   888
25.6641   896
25.6741   868
25.6841   857
25.6941   903
25.7041   857
25.7141   866
25.7241   861
25.7341   808
25.7441   839
25.7541   827
25.7641   850
25.7741   820
25.7841   823
25.7941   822
25.8041   851
25.8141   790
25.8241   841
25.8341   888
25.8441   797
25.8541   795
25.8641   880
25.8741   874
25.8841   800
25.8941   859
25.9041   853
25.9141   869
25.9241   828
25.9341   833
25.9441   795
25.9541   848
25.9641   814
25.9741   833
25.9841   829
25.9941   831
26.0041   823
26.0141   852
26.0241   811
26.0341   790
26.0441   783
26.0541   831
26.0641   839
26.0741   810
26.0841   823
26.0941   793
26.1041   816
26.1141   861
26.1241   834
26.1341   835
26.1441   848
26.1541   826
26.1641   787
26.1741   793
26.1841   801
26.1941   792
26.2041   826
26.2141   797
26.2241   816
26.2341   861
26.2441   802
26.2541   852
26.2641   819
26.2741   802
26.2841   835
26.2941   840
26.3041   825
26.3141   759
26.3241   776
26.3341   756
26.3441   763
26.3541   809
26.3641   795
26.3741   818
26.3841   808
26.3941   839
26.4041   792
26.4141   848
26.4241   804
26.4341   817
26.4441   823
26.4541   828
26.4641   807
26.4741   841
26.4841   783
26.4941   787
26.5041   756
26.5141   776
26.5241   807
26.5341   829
26.5441   797
26.5541   776
26.5641   749
26.5741   791
26.5841   820
26.5941   819
26.6041   774
26.6141   815
26.6241   785
26.6341   791
26.6441   719
26.6541   759
26.6641   770
26.6741   764
26.6841   763
26.6941   776
26.7041   801
26.7141   755
26.7241   801
26.7341   780
26.7441   788
26.7541   752
26.7641   795
26.7741   759
26.7841   782
26.7941   720
26.8041   799
26.8141   830
26.8241   761
26.8341   808
26.8441   821
26.8541   815
26.8641   777
26.8741   771
26.8841   771
26.8941   759
26.9041   732
26.9141   795
26.9241   760
26.9341   755
26.9441   740
26.9541   764
26.9641   759
26.9741   754
26.9841   780
26.9941   741
27.0041   772
27.0141   763
27.0241   795
27.0341   757
27.0441   761
27.0541   745
27.0641   708
27.0741   746
27.0841   727
27.0941   726
27.1041   814
27.1141   744
27.1241   799
27.1341   745
27.1441   766
27.1541   740
27.1641   745
27.1741   739
27.1841   750
27.1941   738
27.2041   747
27.2141   741
27.2241   746
27.2341   725
27.2441   745
27.2541   724
27.2641   761
27.2741   745
27.2841   744
27.2941   752
27.3041   733
27.3141   743
27.3241   728
27.3341   775
27.3441   752
27.3541   762
27.3641   773
27.3741   766
27.3841   741
27.3941   764
27.4041   760
27.4141   710
27.4241   707
27.4341   784
27.4441   748
27.4541   770
27.4641   757
27.4741   703
27.4841   770
27.4941   765
27.5041   759
27.5141   761
27.5241   739
27.5341   695
27.5441   730
27.5541   662
27.5641   696
27.5741   777
27.5841   726
27.5941   732
27.6041   775
27.6141   747
27.6241   752
27.6341   720
27.6441   699
27.6541   723
27.6641   694
27.6741   724
27.6841   765
27.6941   780
27.7041   714
27.7141   724
27.7241   699
27.7341   673
27.7441   740
27.7541   690
27.7641   684
27.7741   718
27.7841   756
27.7941   733
27.8041   657
27.8141   716
27.8241   676
27.8341   706
27.8441   684
27.8541   679
27.8641   688
27.8741   659
27.8841   717
27.8941   704
27.9041   713
27.9141   713
27.9241   682
27.9341   697
27.9441   676
27.9541   649
27.9641   682
27.9741   713
27.9841   704
27.9941   644
28.0041   676
28.0141   676
28.0241   665
28.0341   689
28.0441   715
28.0541   776
28.0641   691
28.0741   684
28.0841   648
28.0941   661
28.1041   690
28.1141   694
28.1241   642
28.1341   648
28.1441   652
28.1541   670
28.1641   661
28.1741   704
28.1841   665
28.1941   649
28.2041   655
28.2141   702
28.2241   704
28.2341   639
28.2441   683
28.2541   688
28.2641   677
28.2741   696
28.2841   633
28.2941   646
28.3041   646
28.3141   624
28.3241   679
28.3341   688
28.3441   712
28.3541   691
28.3641   652
28.3741   615
28.3841   676
28.3941   644
28.4041   647
28.4141   628
28.4241   673
28.4341   653
28.4441   661
28.4541   649
28.4641   621
28.4741   661
28.4841   708
28.4941   669
28.5041   626
28.5141   700
28.5241   617
28.5341   648
28.5441   627
28.5541   680
28.5641   656
28.5741   638
28.5841   668
28.5941   669
28.6041   618
28.6141   657
28.6241   655
28.6341   653
28.6441   638
28.6541   606
28.6641   634
28.6741   643
28.6841   652
28.6941   611
28.7041   599
28.7141   596
28.7241   651
28.7341   610
28.7441   644
28.7541   632
28.7641   638
28.7741   640
28.7841   638
28.7941   622
28.8041   639
28.8141   646
28.8241   582
28.8341   590
28.8441   646
28.8541   575
28.8641   588
28.8741   628
28.8841   598
28.8941   585
28.9041   616
28.9141   607
28.9241   588
28.9341   617
28.9441   605
28.9541   581
28.9641   651
28.9741   621
28.9841   595
28.9941   594
29.0041   637
29.0141   620
29.0241   571
29.0341   629
29.0441   594
29.0541   581
29.0641   602
29.0741   597
29.0841   573
29.0941   575
29.1041   596
29.1141   593
29.1241   577
29.1341   594
29.1441   631
29.1541   566
29.1641   607
29.1741   584
29.1841   590
29.1941   606
29.2041   596
29.2141   596
29.2241   564
29.2341   597
29.2441   590
29.2541   598
29.2641   589
29.2741   602
29.2841   596
29.2941   586
29.3041   583
29.3141   582
29.3241   578
29.3341   574
29.3441   571
29.3541   626
29.3641   565
29.3741   581
29.3841   577
29.3941   606
29.4041   611
29.4141   572
29.4241   580
29.4341   548
29.4441   618
29.4541   583
29.4641   553
29.4741   535
29.4841   536
29.4941   531
29.5041   593
29.5141   565
29.5241   587
29.5341   575
29.5441   553
29.5541   540
29.5641   518
29.5741   535
29.5841   533
29.5941   579
29.6041   531
29.6141   552
29.6241   547
29.6341   542
29.6441   541
29.6541   582
29.6641   537
29.6741   542
29.6841   568
29.6941   541
29.7041   560
29.7141   551
29.7241   547
29.7341   542
29.7441   556
29.7541   552
29.7641   534
29.7741   534
29.7841   564
29.7941   557
29.8041   541
29.8141   570
29.8241   576
29.8341   559
29.8441   544
29.8541   540
29.8641   523
29.8741   515
29.8841   567
29.8941   515
29.9041   541
29.9141   504
29.9241   523
29.9341   542
29.9441   551
29.9541   540
29.9641   552
29.9741   542
29.9841   519
29.9941   536
30.0041   557
30.0141   508
30.0241   537
30.0341   502
30.0441   496
30.0541   542
30.0641   538
30.0741   522
30.0841   487
30.0941   520
30.1041   519
30.1141   496
30.1241   535
30.1341   524
30.1441   526
30.1541   490
30.1641   527
30.1741   537
30.1841   527
30.1941   508
30.2041   505
30.2141   519
30.2241   540
30.2341   533
30.2441   499
30.2541   522
30.2641   503
30.2741   490
30.2841   505
30.2941   569
30.3041   524
30.3141   498
30.3241   483
30.3341   483
30.3441   518
30.3541   471
30.3641   473
30.3741   510
30.3841   493
30.3941   479
30.4041   502
30.4141   512
30.4241   515
30.4341   508
30.4441   499
30.4541   499
30.4641   510
30.4741   509
30.4841   500
30.4941   483
30.5041   517
30.5141   470
30.5241   481
30.5341   482
30.5441   511
30.5541   459
30.5641   448
30.5741   480
30.5841   482
30.5941   471
30.6041   486
30.6141   477
30.6241   488
30.6341   443
30.6441   512
30.6541   476
30.6641   494
30.6741   474
30.6841   468
30.6941   516
30.7041   465
30.7141   489
30.7241   488
30.7341   442
30.7441   485
30.7541   505
30.7641   464
30.7741   473
30.7841   503
30.7941   475
30.8041   449
30.8141   454
30.8241   509
30.8341   460
30.8441   443
30.8541   498
30.8641   485
30.8741   478
30.8841   464
30.8941   487
30.9041   462
30.9141   481
30.9241   452
30.9341   440
30.9441   461
30.9541   452
30.9641   454
30.9741   460
30.9841   460
30.9941   477
31.0041   456
31.0141   418
31.0241   463
31.0341   414
31.0441   464
31.0541   449
31.0641   503
31.0741   437
31.0841   483
31.0941   459
31.1041   431
31.1141   454
31.1241   467
31.1341   469
31.1441   424
31.1541   435
31.1641   448
31.1741   475
31.1841   441
31.1941   450
31.2041   469
31.2141   440
31.2241   435
31.2341   431
31.2441   409
31.2541   452
31.2641   420
31.2741   412
31.2841   399
31.2941   436
31.3041   428
31.3141   452
31.3241   413
31.3341   407
31.3441   444
31.3541   450
31.3641   436
31.3741   445
31.3841   453
31.3941   416
31.4041   440
31.4141   425
31.4241   457
31.4341   432
31.4441   431
31.4541   410
31.4641   405
31.4741   399
31.4841   420
31.4941   425
31.5041   425
31.5141   472
31.5241   447
31.5341   440
31.5441   436
31.5541   446
31.5641   450
31.5741   435
31.5841   415
31.5941   445
31.6041   448
31.6141   416
31.6241   409
31.6341   423
31.6441   423
31.6541   444
31.6641   443
31.6741   426
31.6841   372
31.6941   427
31.7041   403
31.7141   374
31.7241   415
31.7341   367
31.7441   404
31.7541   437
31.7641   436
31.7741   408
31.7841   421
31.7941   386
31.8041   417
31.8141   404
31.8241   411
31.8341   406
31.8441   387
31.8541   408
31.8641   457
31.8741   448
31.8841   430
31.8941   423
31.9041   428
31.9141   403
31.9241   405
31.9341   432
31.9441   394
31.9541   393
31.9641   412
31.9741   391
31.9841   424
31.9941   433
32.0041   403
32.0141   377
32.0241   425
32.0341   401
32.0441   392
32.0541   402
32.0641   412
32.0741   402
32.0841   422
32.0941   390
32.1041   403
32.1141   412
32.1241   414
32.1341   432
32.1441   422
32.1541   396
32.1641   382
32.1741   402
32.1841   402
32.1941   422
32.2041   420
32.2141   398
32.2241   407
32.2341   410
32.2441   409
32.2541   384
32.2641   377
32.2741   356
32.2841   365
32.2941   381
32.3041   363
32.3141   381
32.3241   352
32.3341   352
32.3441   371
32.3541   392
32.3641   406
32.3741   380
32.3841   362
32.3941   346
32.4041   354
32.4141   363
32.4241   376
32.4341   397
32.4441   376
32.4541   385
32.4641   386
32.4741   368
32.4841   369
32.4941   352
32.5041   362
32.5141   377
32.5241   367
32.5341   357
32.5441   337
32.5541   364
32.5641   386
32.5741   350
32.5841   370
32.5941   349
32.6041   354
32.6141   365
32.6241   376
32.6341   322
32.6441   401
32.6541   374
32.6641   382
32.6741   362
32.6841   348
32.6941   335
32.7041   336
32.7141   333
32.7241   326
32.7341   337
32.7441   363
32.7541   368
32.7641   363
32.7741   354
32.7841   330
32.7941   327
32.8041   359
32.8141   343
32.8241   362
32.8341   344
32.8441   353
32.8541   317
32.8641   357
32.8741   358
32.8841   314
32.8941   353
32.9041   341
32.9141   316
32.9241   352
32.9341   336
32.9441   330
32.9541   355
32.9641   320
32.9741   328
32.9841   353
32.9941   331
33.0041   325
33.0141   336
33.0241   331
33.0341   302
33.0441   339
33.0541   340
33.0641   370
33.0741   332
33.0841   336
33.0941   325
33.1041   332
33.1141   317
33.1241   328
33.1341   324
33.1441   339
33.1541   298
33.1641   320
33.1741   330
33.1841   306
33.1941   339
33.2041   335
33.2141   283
33.2241   337
33.2341   333
33.2441   335
33.2541   309
33.2641   302
33.2741   315
33.2841   314
33.2941   343
33.3041   349
33.3141   306
33.3241   305
33.3341   319
33.3441   282
33.3541   322
33.3641   294
33.3741   300
33.3841   337
33.3941   308
33.4041   330
33.4141   311
33.4241   318
33.4341   299
33.4441   291
33.4541   304
33.4641   341
33.4741   306
33.4841   317
33.4941   303
33.5041   315
33.5141   296
33.5241   282
33.5341   283
33.5441   307
33.5541   308
33.5641   267
33.5741   316
33.5841   313
33.5941   304
33.6041   305
33.6141   305
33.6241   307
33.6341   320
33.6441   328
33.6541   275
33.6641   303
33.6741   296
33.6841   303
33.6941   306
33.7041   307
33.7141   320
33.7241   287
33.7341   289
33.7441   312
33.7541   302
33.7641   296
33.7741   293
33.7841   295
33.7941   307
33.8041   289
33.8141   278
33.8241   285
33.8341   260
33.8441   262
33.8541   292
33.8641   304
33.8741   299
33.8841   282
33.8941   305
33.9041   285
33.9141   274
33.9241   284
33.9341   290
33.9441   280
33.9541   282
33.9641   292
33.9741   270
33.9841   240
33.9941   295
34.0041   291
34.0141   307
34.0241   260
34.0341   266
34.0441   309
34.0541   281
34.0641   280
34.0741   269
34.0841   285
34.0941   252
34.1041   271
34.1141   281
34.1241   293
34.1341   263
34.1441   285
34.1541   279
34.1641   320
34.1741   267
34.1841   305
34.1941   300
34.2041   289
34.2141   271
34.2241   264
34.2341   278
34.2441   254
34.2541   260
34.2641   266
34.2741   258
34.2841   263
34.2941   266
34.3041   261
34.3141   270
34.3241   232
34.3341   235
34.3441   244
34.3541   258
34.3641   266
34.3741   258
34.3841   279
34.3941   225
34.4041   252
34.4141   268
34.4241   217
34.4341   251
34.4441   247
34.4541   270
34.4641   250
34.4741   266
34.4841   243
34.4941   259
34.5041   238
34.5141   269
34.5241   258
34.5341   251
34.5441   241
34.5541   261
34.5641   241
34.5741   245
34.5841   226
34.5941   233
34.6041   246
34.6141   241
34.6241   263
34.6341   246
34.6441   275
34.6541   249
34.6641   253
34.6741   246
34.6841   237
34.6941   252
34.7041   232
34.7141   224
34.7241   231
34.7341   225
34.7441   232
34.7541   232
34.7641   232
34.7741   240
34.7841   231
34.7941   235
34.8041   225
34.8141   259
34.8241   230
34.8341   238
34.8441   255
34.8541   261
34.8641   252
34.8741   272
34.8841   235
34.8941   238
34.9041   236
34.9141   236
34.9241   262
34.9341   230
34.9441   226
34.9541   247
34.9641   237
34.9741   243
34.9841   219
34.9941   230
35.0041   248
35.0141   215
35.0241   222
35.0341   225
35.0441   251
35.0541   216
35.0641   222
35.0741   222
35.0841   211
35.0941   219
35.1041   217
35.1141   209
35.1241   223
35.1341   223
35.1441   235
35.1541   226
35.1641   201
35.1741   228
35.1841   221
35.1941   225
35.2041   218
35.2141   229
35.2241   213
35.2341   203
35.2441   210
35.2541   205
35.2641   226
35.2741   222
35.2841   204
35.2941   228
35.3041   216
35.3141   227
35.3241   232
35.3341   201
35.3441   219
35.3541   190
35.3641   214
35.3741   225
35.3841   233
35.3941   213
35.4041   227
35.4141   205
35.4241   227
35.4341   198
35.4441   212
35.4541   205
35.4641   208
35.4741   213
35.4841   214
35.4941   225
35.5041   214
35.5141   221
35.5241   215
35.5341   212
35.5441   204
35.5541   224
35.5641   181
35.5741   199
35.5841   201
35.5941   212
35.6041   205
35.6141   199
35.6241   202
35.6341   214
35.6441   172
35.6541   204
35.6641   191
35.6741   190
35.6841   194
35.6941   224
35.7041   201
35.7141   195
35.7241   205
35.7341   213
35.7441   187
35.7541   176
35.7641   191
35.7741   205
35.7841   207
35.7941   200
35.8041   230
35.8141   189
35.8241   171
35.8341   203
35.8441   213
35.8541   199
35.8641   188
35.8741   187
35.8841   201
35.8941   180
35.9041   199
35.9141   184
35.9241   213
35.9341   206
35.9441   198
35.9541   195
35.9641   180
35.9741   182
35.9841   196
35.9941   202
36.0041   193
36.0141   192
36.0241   176
36.0341   191
36.0441   177
36.0541   186
36.0641   198
36.0741   193
36.0841   194
36.0941   187
36.1041   189
36.1141   170
36.1241   172
36.1341   177
36.1441   172
36.1541   183
36.1641   159
36.1741   165
36.1841   180
36.1941   205
36.2041   174
36.2141   205
36.2241   196
36.2341   168
36.2441   201
36.2541   188
36.2641   170
36.2741   148
36.2841   186
36.2941   162
36.3041   170
36.3141   172
36.3241   176
36.3341   193
36.3441   186
36.3541   173
36.3641   185
36.3741   190
36.3841   169
36.3941   170
36.4041   174
36.4141   165
36.4241   156
36.4341   157
36.4441   173
36.4541   180
36.4641   190
36.4741   193
36.4841   195
36.4941   169
36.5041   159
36.5141   152
36.5241   162
36.5341   172
36.5441   169
36.5541   151
36.5641   176
36.5741   168
36.5841   166
36.5941   166
36.6041   167
36.6141   167
36.6241   177
36.6341   163
36.6441   183
36.6541   152
36.6641   139
36.6741   173
36.6841   173
36.6941   165
36.7041   174
36.7141   144
36.7241   153
36.7341   180
36.7441   151
36.7541   158
36.7641   139
36.7741   158
36.7841   155
36.7941   188
36.8041   155
36.8141   156
36.8241   141
36.8341   144
36.8441   160
36.8541   160
36.8641   145
36.8741   160
36.8841   136
36.8941   146
36.9041   150
36.9141   149
36.9241   168
36.9341   154
36.9441   145
36.9541   157
36.9641   173
36.9741   152
36.9841   146
36.9941   151
37.0041   148
37.0141   170
37.0241   144
37.0341   137
37.0441   166
37.0541   135
37.0641   155
37.0741   141
37.0841   154
37.0941   152
37.1041   143
37.1141   144
37.1241   142
37.1341   145
37.1441   148
37.1541   147
37.1641   136
37.1741   156
37.1841   149
37.1941   146
37.2041   161
37.2141   145
37.2241   138
37.2341   138
37.2441   153
37.2541   148
37.2641   155
37.2741   155
37.2841   126
37.2941   138
37.3041   135
37.3141   138
37.3241   157
37.3341   134
37.3441   133
37.3541   127
37.3641   145
37.3741   132
37.3841   144
37.3941   131
37.4041   130
37.4141   128
37.4241   147
37.4341   146
37.4441   141
37.4541   141
37.4641   138
37.4741   119
37.4841   131
37.4941   142
37.5041   139
37.5141   137
37.5241   130
37.5341   153
37.5441   123
37.5541   131
37.5641   138
37.5741   136
37.5841   123
37.5941   142
37.6041   130
37.6141   126
37.6241   118
37.6341   121
37.6441   121
37.6541   131
37.6641   148
37.6741   101
37.6841   128
37.6941   141
37.7041   127
37.7141   133
37.7241   125
37.7341   138
37.7441   134
37.7541   115
37.7641   122
37.7741   115
37.7841   140
37.7941   113
37.8041   128
37.8141   126
37.8241   122
37.8341   110
37.8441   106
37.8541   127
37.8641   141
37.8741   127
37.8841   136
37.8941   122
37.9041   121
37.9141   119
37.9241   123
37.9341   131
37.9441   115
37.9541   113
37.9641   137
37.9741   106
37.9841   124
37.9941   131
38.0041   117
38.0141   107
38.0241   115
38.0341   126
38.0441   113
38.0541   104
38.0641   116
38.0741   113
38.0841    98
38.0941    93
38.1041   101
38.1141   113
38.1241   122
38.1341   120
38.1441   119
38.1541    91
38.1641   101
38.1741   122
38.1841   123
38.1941   108
38.2041    94
38.2141   111
38.2241   140
38.2341   113
38.2441   118
38.2541    93
38.2641    94
38.2741   106
38.2841   114
38.2941    98
38.3041    97
38.3141    97
38.3241   101
38.3341   110
38.3441   100
38.3541   126
38.3641   106
38.3741   109
38.3841   109
38.3941   101
38.4041    98
38.4141   105
38.4241   105
38.4341   103
38.4441   111
38.4541   103
38.4641   112
38.4741    98
38.4841   105
38.4941   101
38.5041    80
38.5141   100
38.5241    95
38.5341   105
38.5441    86
38.5541   109
38.5641   100
38.5741    95
38.5841   104
38.5941    85
38.6041   102
38.6141    91
38.6241    99
38.6341   118
38.6441    93
38.6541   102
38.6641    82
38.6741    97
38.6841    92
38.6941    92
38.7041    85
38.7141    90
38.7241    81
38.7341   101
38.7441    91
38.7541    86
38.7641   102
38.7741    84
38.7841    89
38.7941    99
38.8041    82
38.8141    95
38.8241   102
38.8341    94
38.8441    93
38.8541    93
38.8641    73
38.8741    94
38.8841    86
38.8941    92
38.9041    83
38.9141    75
38.9241    80
38.9341    90
38.9441    91
38.9541    88
38.9641    76
38.9741    91
38.9841    80
38.9941    76
39.0041    86
39.0141    94
39.0241    97
39.0341    88
39.0441    76
39.0541    95
39.0641    83
39.0741    83
39.0841    80
39.0941    93
39.1041    74
39.1141    74
39.1241    85
39.1341    84
39.1441    79
39.1541    82
39.1641    77
39.1741    85
39.1841    85
39.1941    87
39.2041    87
39.2141    83
39.2241    68
39.2341    78
39.2441    73
39.2541    75
39.2641    82
39.2741    80
39.2841    90
39.2941    85
39.3041    72
39.3141    84
39.3241    64
39.3341    83
39.3441    75
39.3541    82
39.3641    83
39.3741    75
39.3841    73
39.3941    95
39.4041    70
39.4141    82
39.4241    69
39.4341    82
39.4441    93
39.4541    82
39.4641    78
39.4741    66
39.4841    66
39.4941    59
39.5041    70
39.5141    70
39.5241    63
39.5341    60
39.5441    64
39.5541    65
39.5641    62
39.5741    56
39.5841    78
39.5941    73
39.6041    77
39.6141    68
39.6241    84
39.6341    67
39.6441    58
39.6541    58
39.6641    83
39.6741    64
39.6841    67
39.6941    68
39.7041    89
39.7141    64
39.7241    66
39.7341    77
39.7441    61
39.7541    61
39.7641    71
39.7741    70
39.7841    63
39.7941    56
39.8041    57
39.8141    75
39.8241    71
39.8341    71
39.8441    67
39.8541    75
39.8641    61
39.8741    46
39.8841    66
39.8941    58
39.9041    54
39.9141    64
39.9241    60
39.9341    60
39.9441    66
39.9541    63
39.9641    69
39.9741    75
39.9841    65
39.9941    61
