Bruker Nano GmbH Berlin, Germany
Esprit 1.9

Date: 4/1/2021 4:16:43 PM
Real time: 20854
Life time: 19491
Pulse density: 95820


Detector type: XFlash 430
Window type: Custom type
Detector thickness: 0.45
Si dead layer:0.029

Calibration, lin.: 10
Calibration, abs.: -955.9
Mn FWHM: 137.05
Fano factor: 0.121
Channels: 4095

Energy Counts
-0.9559     0
-0.9459     0
-0.9359     0
-0.9259     0
-0.9159     0
-0.9059     0
-0.8959     0
-0.8859     0
-0.8759     0
-0.8659     0
-0.8559     0
-0.8459     0
-0.8359     0
-0.8259     0
-0.8159     0
-0.8059     0
-0.7959     0
-0.7859     0
-0.7759     0
-0.7659     0
-0.7559     0
-0.7459     0
-0.7359     0
-0.7259     0
-0.7159     0
-0.7059     0
-0.6959     0
-0.6859     0
-0.6759     0
-0.6659     0
-0.6559     0
-0.6459     0
-0.6359     0
-0.6259     0
-0.6159     0
-0.6059     0
-0.5959     0
-0.5859     0
-0.5759     0
-0.5659     0
-0.5559     0
-0.5459     0
-0.5359     0
-0.5259     0
-0.5159     0
-0.5059     0
-0.4959     0
-0.4859     0
-0.4759     0
-0.4659     0
-0.4559     0
-0.4459     0
-0.4359     0
-0.4259     0
-0.4159     0
-0.4059     0
-0.3959     0
-0.3859     0
-0.3759     0
-0.3659     0
-0.3559     0
-0.3459     0
-0.3359     0
-0.3259     0
-0.3159     0
-0.3059     0
-0.2959     0
-0.2859     0
-0.2759     0
-0.2659     0
-0.2559     0
-0.2459     0
-0.2359     0
-0.2259     0
-0.2159     0
-0.2059     0
-0.1959     0
-0.1859     0
-0.1759     0
-0.1659     0
-0.1559     0
-0.1459     0
-0.1359     0
-0.1259     1
-0.1159     4
-0.1059     8
-0.0959    48
-0.0859   196
-0.0759   819
-0.0659  2217
-0.0559  5568
-0.0459 12361
-0.0359 23202
-0.0259 37298
-0.0159 51030
-0.0059 59634
 0.0041 60304
 0.0141 52004
 0.0241 37658
 0.0341 24070
 0.0441 13154
 0.0541  6056
 0.0641  2387
 0.0741   893
 0.0841   241
 0.0941    78
 0.1041    14
 0.1141    13
 0.1241     6
 0.1341     8
 0.1441     8
 0.1541     3
 0.1641     3
 0.1741     1
 0.1841   178
 0.1941   352
 0.2041   302
 0.2141   335
 0.2241   331
 0.2341   358
 0.2441   332
 0.2541   330
 0.2641   337
 0.2741   332
 0.2841   318
 0.2941   324
 0.3041   309
 0.3141   321
 0.3241   314
 0.3341   295
 0.3441   296
 0.3541   305
 0.3641   295
 0.3741   282
 0.3841   291
 0.3941   297
 0.4041   305
 0.4141   299
 0.4241   304
 0.4341   290
 0.4441   281
 0.4541   280
 0.4641   260
 0.4741   272
 0.4841   290
 0.4941   286
 0.5041   268
 0.5141   277
 0.5241   264
 0.5341   253
 0.5441   266
 0.5541   283
 0.5641   279
 0.5741   273
 0.5841   255
 0.5941   247
 0.6041   242
 0.6141   235
 0.6241   225
 0.6341   244
 0.6441   251
 0.6541   250
 0.6641   254
 0.6741   244
 0.6841   257
 0.6941   263
 0.7041   258
 0.7141   255
 0.7241   249
 0.7341   222
 0.7441   228
 0.7541   254
 0.7641   247
 0.7741   244
 0.7841   233
 0.7941   221
 0.8041   226
 0.8141   239
 0.8241   230
 0.8341   221
 0.8441   237
 0.8541   232
 0.8641   201
 0.8741   234
 0.8841   238
 0.8941   223
 0.9041   208
 0.9141   207
 0.9241   222
 0.9341   227
 0.9441   224
 0.9541   197
 0.9641   219
 0.9741   211
 0.9841   211
 0.9941   233
 1.0041   235
 1.0141   210
 1.0241   211
 1.0341   222
 1.0441   209
 1.0541   206
 1.0641   199
 1.0741   198
 1.0841   196
 1.0941   211
 1.1041   216
 1.1141   194
 1.1241   194
 1.1341   212
 1.1441   220
 1.1541   206
 1.1641   203
 1.1741   219
 1.1841   205
 1.1941   226
 1.2041   215
 1.2141   183
 1.2241   189
 1.2341   190
 1.2441   199
 1.2541   207
 1.2641   196
 1.2741   216
 1.2841   194
 1.2941   171
 1.3041   181
 1.3141   170
 1.3241   199
 1.3341   199
 1.3441   188
 1.3541   198
 1.3641   190
 1.3741   196
 1.3841   167
 1.3941   183
 1.4041   191
 1.4141   178
 1.4241   171
 1.4341   201
 1.4441   196
 1.4541   196
 1.4641   180
 1.4741   198
 1.4841   200
 1.4941   188
 1.5041   198
 1.5141   198
 1.5241   196
 1.5341   174
 1.5441   207
 1.5541   205
 1.5641   189
 1.5741   194
 1.5841   198
 1.5941   195
 1.6041   178
 1.6141   179
 1.6241   196
 1.6341   204
 1.6441   235
 1.6541   200
 1.6641   233
 1.6741   329
 1.6841   377
 1.6941   433
 1.7041   553
 1.7141   628
 1.7241   644
 1.7341   665
 1.7441   645
 1.7541   654
 1.7641   559
 1.7741   531
 1.7841   454
 1.7941   396
 1.8041   337
 1.8141   296
 1.8241   244
 1.8341   226
 1.8441   220
 1.8541   212
 1.8641   199
 1.8741   225
 1.8841   230
 1.8941   209
 1.9041   208
 1.9141   177
 1.9241   186
 1.9341   197
 1.9441   186
 1.9541   213
 1.9641   187
 1.9741   233
 1.9841   215
 1.9941   202
 2.0041   240
 2.0141   244
 2.0241   242
 2.0341   230
 2.0441   218
 2.0541   206
 2.0641   194
 2.0741   184
 2.0841   191
 2.0941   181
 2.1041   197
 2.1141   171
 2.1241   183
 2.1341   180
 2.1441   167
 2.1541   149
 2.1641   195
 2.1741   177
 2.1841   160
 2.1941   196
 2.2041   185
 2.2141   138
 2.2241   164
 2.2341   170
 2.2441   173
 2.2541   157
 2.2641   164
 2.2741   174
 2.2841   171
 2.2941   171
 2.3041   159
 2.3141   177
 2.3241   168
 2.3341   182
 2.3441   169
 2.3541   155
 2.3641   185
 2.3741   169
 2.3841   159
 2.3941   158
 2.4041   166
 2.4141   163
 2.4241   146
 2.4341   155
 2.4441   151
 2.4541   140
 2.4641   158
 2.4741   142
 2.4841   141
 2.4941   184
 2.5041   151
 2.5141   156
 2.5241   146
 2.5341   149
 2.5441   159
 2.5541   166
 2.5641   146
 2.5741   151
 2.5841   162
 2.5941   161
 2.6041   149
 2.6141   130
 2.6241   163
 2.6341   148
 2.6441   145
 2.6541   133
 2.6641   147
 2.6741   130
 2.6841   144
 2.6941   164
 2.7041   169
 2.7141   153
 2.7241   138
 2.7341   117
 2.7441   144
 2.7541   143
 2.7641   130
 2.7741   145
 2.7841   152
 2.7941   143
 2.8041   150
 2.8141   135
 2.8241   169
 2.8341   156
 2.8441   135
 2.8541   148
 2.8641   172
 2.8741   135
 2.8841   131
 2.8941   149
 2.9041   149
 2.9141   131
 2.9241   136
 2.9341   106
 2.9441   155
 2.9541   150
 2.9641   158
 2.9741   161
 2.9841   133
 2.9941   144
 3.0041   136
 3.0141   142
 3.0241   120
 3.0341   140
 3.0441   114
 3.0541   146
 3.0641   142
 3.0741   139
 3.0841   138
 3.0941   135
 3.1041   118
 3.1141   112
 3.1241   124
 3.1341   124
 3.1441   144
 3.1541   106
 3.1641   114
 3.1741   136
 3.1841   144
 3.1941   147
 3.2041   145
 3.2141   157
 3.2241   180
 3.2341   224
 3.2441   232
 3.2541   294
 3.2641   346
 3.2741   384
 3.2841   452
 3.2941   454
 3.3041   503
 3.3141   524
 3.3241   485
 3.3341   477
 3.3441   440
 3.3541   370
 3.3641   337
 3.3741   283
 3.3841   237
 3.3941   186
 3.4041   184
 3.4141   149
 3.4241   133
 3.4341   117
 3.4441   117
 3.4541   115
 3.4641   137
 3.4741   120
 3.4841   119
 3.4941   128
 3.5041   139
 3.5141   155
 3.5241   144
 3.5341   180
 3.5441   192
 3.5541   197
 3.5641   232
 3.5741   272
 3.5841   281
 3.5941   365
 3.6041   440
 3.6141   519
 3.6241   592
 3.6341   723
 3.6441   894
 3.6541   982
 3.6641  1104
 3.6741  1174
 3.6841  1212
 3.6941  1193
 3.7041  1125
 3.7141  1031
 3.7241   981
 3.7341   839
 3.7441   762
 3.7541   543
 3.7641   425
 3.7741   315
 3.7841   263
 3.7941   204
 3.8041   154
 3.8141   116
 3.8241   112
 3.8341   104
 3.8441   110
 3.8541   107
 3.8641   110
 3.8741    97
 3.8841    94
 3.8941   130
 3.9041   113
 3.9141   132
 3.9241   136
 3.9341   150
 3.9441   155
 3.9541   176
 3.9641   195
 3.9741   219
 3.9841   248
 3.9941   240
 4.0041   227
 4.0141   228
 4.0241   259
 4.0341   238
 4.0441   200
 4.0541   180
 4.0641   173
 4.0741   172
 4.0841   149
 4.0941   127
 4.1041   120
 4.1141   124
 4.1241   101
 4.1341    93
 4.1441    97
 4.1541    84
 4.1641    87
 4.1741    97
 4.1841    94
 4.1941    80
 4.2041    98
 4.2141   104
 4.2241    73
 4.2341    97
 4.2441    82
 4.2541    86
 4.2641    86
 4.2741    87
 4.2841   103
 4.2941    76
 4.3041    78
 4.3141    82
 4.3241    75
 4.3341    94
 4.3441    90
 4.3541    89
 4.3641    83
 4.3741    95
 4.3841   122
 4.3941   143
 4.4041   164
 4.4141   209
 4.4241   219
 4.4341   275
 4.4441   288
 4.4541   334
 4.4641   389
 4.4741   430
 4.4841   469
 4.4941   478
 4.5041   428
 4.5141   421
 4.5241   434
 4.5341   403
 4.5441   352
 4.5541   346
 4.5641   268
 4.5741   238
 4.5841   190
 4.5941   199
 4.6041   160
 4.6141   128
 4.6241   114
 4.6341    85
 4.6441    96
 4.6541   101
 4.6641    97
 4.6741    96
 4.6841    80
 4.6941    90
 4.7041    95
 4.7141    98
 4.7241   102
 4.7341   102
 4.7441    98
 4.7541   107
 4.7641   101
 4.7741   115
 4.7841   154
 4.7941   138
 4.8041   133
 4.8141   170
 4.8241   186
 4.8341   171
 4.8441   155
 4.8541   193
 4.8641   170
 4.8741   162
 4.8841   191
 4.8941   192
 4.9041   194
 4.9141   183
 4.9241   196
 4.9341   205
 4.9441   188
 4.9541   180
 4.9641   148
 4.9741   155
 4.9841   150
 4.9941   141
 5.0041   115
 5.0141   112
 5.0241   106
 5.0341   125
 5.0441    95
 5.0541    98
 5.0641   106
 5.0741   113
 5.0841    88
 5.0941    95
 5.1041   102
 5.1141   111
 5.1241   102
 5.1341   110
 5.1441   111
 5.1541   105
 5.1641   106
 5.1741   109
 5.1841   112
 5.1941   119
 5.2041    92
 5.2141    98
 5.2241   117
 5.2341    97
 5.2441   117
 5.2541   128
 5.2641   109
 5.2741   124
 5.2841   115
 5.2941   136
 5.3041   142
 5.3141   172
 5.3241   206
 5.3341   229
 5.3441   242
 5.3541   279
 5.3641   326
 5.3741   347
 5.3841   352
 5.3941   377
 5.4041   350
 5.4141   386
 5.4241   374
 5.4341   404
 5.4441   366
 5.4541   330
 5.4641   284
 5.4741   245
 5.4841   259
 5.4941   208
 5.5041   170
 5.5141   151
 5.5241   127
 5.5341   161
 5.5441   125
 5.5541   126
 5.5641   136
 5.5741   110
 5.5841   103
 5.5941   109
 5.6041   102
 5.6141   109
 5.6241   125
 5.6341   100
 5.6441    90
 5.6541   103
 5.6641   120
 5.6741   112
 5.6841   121
 5.6941   124
 5.7041   121
 5.7141   128
 5.7241   103
 5.7341   133
 5.7441   124
 5.7541   119
 5.7641   162
 5.7741   174
 5.7841   166
 5.7941   205
 5.8041   204
 5.8141   244
 5.8241   301
 5.8341   324
 5.8441   358
 5.8541   391
 5.8641   397
 5.8741   435
 5.8841   432
 5.8941   460
 5.9041   466
 5.9141   443
 5.9241   448
 5.9341   391
 5.9441   340
 5.9541   354
 5.9641   322
 5.9741   286
 5.9841   243
 5.9941   245
 6.0041   200
 6.0141   199
 6.0241   167
 6.0341   140
 6.0441   141
 6.0541   137
 6.0641   130
 6.0741   140
 6.0841   149
 6.0941   143
 6.1041   123
 6.1141   166
 6.1241   148
 6.1341   174
 6.1441   147
 6.1541   168
 6.1641   181
 6.1741   242
 6.1841   227
 6.1941   282
 6.2041   360
 6.2141   446
 6.2241   586
 6.2341   799
 6.2441  1157
 6.2541  1543
 6.2641  2205
 6.2741  2883
 6.2841  3929
 6.2941  5277
 6.3041  6815
 6.3141  8529
 6.3241 10678
 6.3341 13001
 6.3441 15038
 6.3541 17125
 6.3641 19359
 6.3741 20750
 6.3841 21743
 6.3941 22197
 6.4041 22110
 6.4141 21336
 6.4241 20386
 6.4341 18376
 6.4441 16301
 6.4541 14282
 6.4641 12104
 6.4741  9930
 6.4841  7947
 6.4941  6225
 6.5041  4535
 6.5141  3459
 6.5241  2623
 6.5341  1828
 6.5441  1285
 6.5541   938
 6.5641   646
 6.5741   448
 6.5841   373
 6.5941   267
 6.6041   229
 6.6141   193
 6.6241   166
 6.6341   172
 6.6441   176
 6.6541   165
 6.6641   174
 6.6741   158
 6.6841   150
 6.6941   156
 6.7041   149
 6.7141   157
 6.7241   161
 6.7341   199
 6.7441   173
 6.7541   156
 6.7641   177
 6.7741   174
 6.7841   172
 6.7941   179
 6.8041   194
 6.8141   206
 6.8241   215
 6.8341   231
 6.8441   219
 6.8541   267
 6.8641   278
 6.8741   297
 6.8841   359
 6.8941   424
 6.9041   513
 6.9141   615
 6.9241   693
 6.9341   863
 6.9441  1056
 6.9541  1223
 6.9641  1578
 6.9741  1888
 6.9841  2170
 6.9941  2545
 7.0041  2840
 7.0141  3136
 7.0241  3577
 7.0341  3663
 7.0441  3804
 7.0541  3743
 7.0641  3625
 7.0741  3625
 7.0841  3367
 7.0941  3055
 7.1041  2828
 7.1141  2452
 7.1241  2086
 7.1341  1767
 7.1441  1446
 7.1541  1123
 7.1641   996
 7.1741   767
 7.1841   626
 7.1941   517
 7.2041   416
 7.2141   310
 7.2241   290
 7.2341   268
 7.2441   257
 7.2541   224
 7.2641   223
 7.2741   211
 7.2841   198
 7.2941   195
 7.3041   246
 7.3141   254
 7.3241   315
 7.3341   305
 7.3441   321
 7.3541   358
 7.3641   422
 7.3741   409
 7.3841   491
 7.3941   540
 7.4041   584
 7.4141   609
 7.4241   627
 7.4341   710
 7.4441   768
 7.4541   780
 7.4641   779
 7.4741   789
 7.4841   757
 7.4941   726
 7.5041   708
 7.5141   607
 7.5241   564
 7.5341   491
 7.5441   489
 7.5541   466
 7.5641   377
 7.5741   334
 7.5841   300
 7.5941   292
 7.6041   265
 7.6141   220
 7.6241   234
 7.6341   209
 7.6441   213
 7.6541   204
 7.6641   193
 7.6741   203
 7.6841   208
 7.6941   193
 7.7041   226
 7.7141   220
 7.7241   218
 7.7341   227
 7.7441   203
 7.7541   216
 7.7641   219
 7.7741   244
 7.7841   242
 7.7941   229
 7.8041   238
 7.8141   269
 7.8241   287
 7.8341   278
 7.8441   282
 7.8541   243
 7.8641   267
 7.8741   293
 7.8841   302
 7.8941   335
 7.9041   334
 7.9141   361
 7.9241   349
 7.9341   362
 7.9441   395
 7.9541   406
 7.9641   455
 7.9741   441
 7.9841   457
 7.9941   511
 8.0041   588
 8.0141   615
 8.0241   725
 8.0341   715
 8.0441   759
 8.0541   793
 8.0641   844
 8.0741   919
 8.0841   988
 8.0941  1051
 8.1041  1072
 8.1141  1130
 8.1241  1190
 8.1341  1253
 8.1441  1253
 8.1541  1312
 8.1641  1394
 8.1741  1403
 8.1841  1383
 8.1941  1436
 8.2041  1514
 8.2141  1458
 8.2241  1520
 8.2341  1593
 8.2441  1680
 8.2541  1784
 8.2641  1797
 8.2741  1932
 8.2841  2115
 8.2941  2300
 8.3041  2501
 8.3141  2710
 8.3241  2931
 8.3341  3066
 8.3441  3323
 8.3541  3440
 8.3641  3552
 8.3741  3676
 8.3841  3759
 8.3941  3747
 8.4041  3604
 8.4141  3458
 8.4241  3280
 8.4341  3053
 8.4441  2802
 8.4541  2523
 8.4641  2212
 8.4741  1991
 8.4841  1692
 8.4941  1481
 8.5041  1231
 8.5141  1013
 8.5241   846
 8.5341   699
 8.5441   652
 8.5541   542
 8.5641   514
 8.5741   475
 8.5841   417
 8.5941   405
 8.6041   385
 8.6141   368
 8.6241   404
 8.6341   379
 8.6441   376
 8.6541   374
 8.6641   380
 8.6741   368
 8.6841   353
 8.6941   342
 8.7041   341
 8.7141   326
 8.7241   352
 8.7341   307
 8.7441   299
 8.7541   333
 8.7641   324
 8.7741   322
 8.7841   346
 8.7941   311
 8.8041   297
 8.8141   312
 8.8241   286
 8.8341   309
 8.8441   315
 8.8541   312
 8.8641   282
 8.8741   304
 8.8841   320
 8.8941   307
 8.9041   343
 8.9141   333
 8.9241   323
 8.9341   341
 8.9441   343
 8.9541   332
 8.9641   333
 8.9741   348
 8.9841   365
 8.9941   331
 9.0041   328
 9.0141   354
 9.0241   380
 9.0341   392
 9.0441   380
 9.0541   433
 9.0641   422
 9.0741   409
 9.0841   417
 9.0941   470
 9.1041   476
 9.1141   484
 9.1241   503
 9.1341   524
 9.1441   551
 9.1541   560
 9.1641   601
 9.1741   643
 9.1841   645
 9.1941   692
 9.2041   745
 9.2141   713
 9.2241   836
 9.2341   822
 9.2441   901
 9.2541   927
 9.2641   948
 9.2741   955
 9.2841   989
 9.2941  1036
 9.3041  1127
 9.3141  1149
 9.3241  1178
 9.3341  1216
 9.3441  1232
 9.3541  1267
 9.3641  1298
 9.3741  1337
 9.3841  1365
 9.3941  1296
 9.4041  1431
 9.4141  1426
 9.4241  1415
 9.4341  1427
 9.4441  1536
 9.4541  1516
 9.4641  1501
 9.4741  1545
 9.4841  1573
 9.4941  1662
 9.5041  1645
 9.5141  1724
 9.5241  1751
 9.5341  1856
 9.5441  1895
 9.5541  2000
 9.5641  2231
 9.5741  2320
 9.5841  2324
 9.5941  2651
 9.6041  2745
 9.6141  2910
 9.6241  3074
 9.6341  3099
 9.6441  3299
 9.6541  3376
 9.6641  3499
 9.6741  3364
 9.6841  3318
 9.6941  3242
 9.7041  3155
 9.7141  2955
 9.7241  2771
 9.7341  2598
 9.7441  2438
 9.7541  2280
 9.7641  2070
 9.7741  1843
 9.7841  1781
 9.7941  1696
 9.8041  1575
 9.8141  1434
 9.8241  1364
 9.8341  1301
 9.8441  1340
 9.8541  1273
 9.8641  1297
 9.8741  1271
 9.8841  1314
 9.8941  1368
 9.9041  1337
 9.9141  1347
 9.9241  1331
 9.9341  1349
 9.9441  1369
 9.9541  1373
 9.9641  1397
 9.9741  1359
 9.9841  1287
 9.9941  1234
10.0041  1163
10.0141  1067
10.0241  1002
10.0341   935
10.0441   844
10.0541   705
10.0641   626
10.0741   585
10.0841   487
10.0941   475
10.1041   423
10.1141   401
10.1241   350
10.1341   303
10.1441   292
10.1541   320
10.1641   298
10.1741   267
10.1841   280
10.1941   272
10.2041   252
10.2141   234
10.2241   234
10.2341   220
10.2441   212
10.2541   212
10.2641   200
10.2741   212
10.2841   215
10.2941   205
10.3041   204
10.3141   195
10.3241   181
10.3341   200
10.3441   193
10.3541   173
10.3641   180
10.3741   180
10.3841   178
10.3941   177
10.4041   187
10.4141   184
10.4241   187
10.4341   166
10.4441   190
10.4541   179
10.4641   210
10.4741   195
10.4841   191
10.4941   193
10.5041   200
10.5141   201
10.5241   196
10.5341   197
10.5441   187
10.5541   199
10.5641   205
10.5741   211
10.5841   198
10.5941   187
10.6041   198
10.6141   203
10.6241   200
10.6341   194
10.6441   203
10.6541   217
10.6641   229
10.6741   225
10.6841   221
10.6941   217
10.7041   222
10.7141   220
10.7241   243
10.7341   233
10.7441   248
10.7541   250
10.7641   259
10.7741   246
10.7841   252
10.7941   257
10.8041   270
10.8141   277
10.8241   263
10.8341   270
10.8441   316
10.8541   315
10.8641   295
10.8741   319
10.8841   273
10.8941   282
10.9041   275
10.9141   293
10.9241   281
10.9341   334
10.9441   328
10.9541   319
10.9641   292
10.9741   293
10.9841   287
10.9941   279
11.0041   296
11.0141   301
11.0241   308
11.0341   291
11.0441   275
11.0541   252
11.0641   253
11.0741   281
11.0841   293
11.0941   272
11.1041   260
11.1141   266
11.1241   286
11.1341   277
11.1441   282
11.1541   313
11.1641   329
11.1741   324
11.1841   339
11.1941   373
11.2041   380
11.2141   386
11.2241   426
11.2341   416
11.2441   442
11.2541   409
11.2641   419
11.2741   425
11.2841   414
11.2941   453
11.3041   448
11.3141   440
11.3241   417
11.3341   443
11.3441   417
11.3541   372
11.3641   354
11.3741   325
11.3841   314
11.3941   317
11.4041   282
11.4141   263
11.4241   266
11.4341   263
11.4441   255
11.4541   265
11.4641   237
11.4741   226
11.4841   209
11.4941   229
11.5041   223
11.5141   219
11.5241   224
11.5341   248
11.5441   221
11.5541   230
11.5641   262
11.5741   270
11.5841   259
11.5941   240
11.6041   220
11.6141   242
11.6241   264
11.6341   250
11.6441   244
11.6541   226
11.6641   245
11.6741   257
11.6841   255
11.6941   225
11.7041   211
11.7141   227
11.7241   217
11.7341   209
11.7441   224
11.7541   210
11.7641   187
11.7741   190
11.7841   194
11.7941   187
11.8041   173
11.8141   161
11.8241   184
11.8341   188
11.8441   179
11.8541   161
11.8641   167
11.8741   172
11.8841   171
11.8941   161
11.9041   172
11.9141   183
11.9241   169
11.9341   160
11.9441   155
11.9541   152
11.9641   160
11.9741   162
11.9841   163
11.9941   178
12.0041   179
12.0141   158
12.0241   171
12.0341   160
12.0441   178
12.0541   184
12.0641   167
12.0741   182
12.0841   190
12.0941   171
12.1041   172
12.1141   175
12.1241   177
12.1341   170
12.1441   166
12.1541   159
12.1641   162
12.1741   162
12.1841   153
12.1941   165
12.2041   165
12.2141   158
12.2241   162
12.2341   149
12.2441   147
12.2541   160
12.2641   167
12.2741   159
12.2841   145
12.2941   147
12.3041   151
12.3141   160
12.3241   153
12.3341   160
12.3441   171
12.3541   175
12.3641   159
12.3741   153
12.3841   179
12.3941   162
12.4041   155
12.4141   161
12.4241   164
12.4341   186
12.4441   181
12.4541   166
12.4641   164
12.4741   165
12.4841   176
12.4941   186
12.5041   170
12.5141   160
12.5241   164
12.5341   181
12.5441   184
12.5541   166
12.5641   169
12.5741   174
12.5841   181
12.5941   180
12.6041   174
12.6141   178
12.6241   177
12.6341   183
12.6441   165
12.6541   161
12.6641   179
12.6741   180
12.6841   176
12.6941   180
12.7041   171
12.7141   161
12.7241   189
12.7341   179
12.7441   162
12.7541   171
12.7641   177
12.7741   176
12.7841   179
12.7941   184
12.8041   185
12.8141   192
12.8241   195
12.8341   187
12.8441   181
12.8541   182
12.8641   183
12.8741   186
12.8841   187
12.8941   189
12.9041   193
12.9141   192
12.9241   193
12.9341   193
12.9441   190
12.9541   206
12.9641   200
12.9741   193
12.9841   183
12.9941   195
13.0041   215
13.0141   213
13.0241   191
13.0341   180
13.0441   194
13.0541   210
13.0641   204
13.0741   201
13.0841   205
13.0941   202
13.1041   193
13.1141   201
13.1241   208
13.1341   201
13.1441   209
13.1541   211
13.1641   214
13.1741   206
13.1841   211
13.1941   218
13.2041   241
13.2141   251
13.2241   242
13.2341   251
13.2441   277
13.2541   301
13.2641   292
13.2741   309
13.2841   331
13.2941   336
13.3041   367
13.3141   413
13.3241   409
13.3341   395
13.3441   408
13.3541   417
13.3641   433
13.3741   431
13.3841   433
13.3941   449
13.4041   438
13.4141   434
13.4241   420
13.4341   385
13.4441   379
13.4541   365
13.4641   331
13.4741   311
13.4841   301
13.4941   299
13.5041   305
13.5141   295
13.5241   271
13.5341   255
13.5441   256
13.5541   254
13.5641   255
13.5741   267
13.5841   265
13.5941   261
13.6041   240
13.6141   246
13.6241   250
13.6341   232
13.6441   248
13.6541   247
13.6641   230
13.6741   235
13.6841   234
13.6941   228
13.7041   221
13.7141   212
13.7241   211
13.7341   211
13.7441   217
13.7541   233
13.7641   230
13.7741   223
13.7841   225
13.7941   231
13.8041   242
13.8141   233
13.8241   236
13.8341   232
13.8441   237
13.8541   259
13.8641   264
13.8741   265
13.8841   255
13.8941   267
13.9041   291
13.9141   319
13.9241   345
13.9341   367
13.9441   395
13.9541   435
13.9641   504
13.9741   539
13.9841   593
13.9941   685
14.0041   768
14.0141   851
14.0241   931
14.0341  1011
14.0441  1101
14.0541  1167
14.0641  1280
14.0741  1409
14.0841  1453
14.0941  1552
14.1041  1669
14.1141  1715
14.1241  1704
14.1341  1745
14.1441  1824
14.1541  1804
14.1641  1761
14.1741  1720
14.1841  1646
14.1941  1545
14.2041  1442
14.2141  1387
14.2241  1310
14.2341  1227
14.2441  1126
14.2541  1007
14.2641   891
14.2741   783
14.2841   720
14.2941   651
14.3041   576
14.3141   495
14.3241   430
14.3341   396
14.3441   375
14.3541   355
14.3641   347
14.3741   321
14.3841   274
14.3941   254
14.4041   241
14.4141   248
14.4241   263
14.4341   261
14.4441   249
14.4541   246
14.4641   269
14.4741   268
14.4841   262
14.4941   259
14.5041   251
14.5141   260
14.5241   257
14.5341   235
14.5441   244
14.5541   253
14.5641   248
14.5741   257
14.5841   255
14.5941   257
14.6041   267
14.6141   264
14.6241   256
14.6341   266
14.6441   260
14.6541   252
14.6641   259
14.6741   242
14.6841   248
14.6941   259
14.7041   256
14.7141   274
14.7241   274
14.7341   257
14.7441   251
14.7541   263
14.7641   267
14.7741   275
14.7841   287
14.7941   293
14.8041   309
14.8141   300
14.8241   293
14.8341   296
14.8441   307
14.8541   302
14.8641   296
14.8741   293
14.8841   301
14.8941   318
14.9041   294
14.9141   296
14.9241   322
14.9341   321
14.9441   309
14.9541   315
14.9641   330
14.9741   324
14.9841   313
14.9941   316
15.0041   314
15.0141   291
15.0241   287
15.0341   315
15.0441   309
15.0541   298
15.0641   294
15.0741   276
15.0841   282
15.0941   279
15.1041   266
15.1141   267
15.1241   291
15.1341   292
15.1441   265
15.1541   274
15.1641   305
15.1741   306
15.1841   277
15.1941   262
15.2041   275
15.2141   285
15.2241   278
15.2341   280
15.2441   282
15.2541   274
15.2641   276
15.2741   286
15.2841   308
15.2941   296
15.3041   288
15.3141   287
15.3241   291
15.3341   286
15.3441   271
15.3541   267
15.3641   286
15.3741   272
15.3841   263
15.3941   263
15.4041   265
15.4141   282
15.4241   311
15.4341   291
15.4441   279
15.4541   297
15.4641   315
15.4741   317
15.4841   323
15.4941   330
15.5041   338
15.5141   334
15.5241   341
15.5341   351
15.5441   349
15.5541   375
15.5641   390
15.5741   399
15.5841   420
15.5941   441
15.6041   470
15.6141   495
15.6241   532
15.6341   584
15.6441   616
15.6541   645
15.6641   686
15.6741   717
15.6841   755
15.6941   774
15.7041   821
15.7141   862
15.7241   868
15.7341   888
15.7441   912
15.7541   929
15.7641   969
15.7741   989
15.7841  1003
15.7941   976
15.8041   943
15.8141   956
15.8241   912
15.8341   852
15.8441   839
15.8541   806
15.8641   790
15.8741   722
15.8841   687
15.8941   664
15.9041   627
15.9141   603
15.9241   557
15.9341   524
15.9441   512
15.9541   493
15.9641   463
15.9741   418
15.9841   389
15.9941   387
16.0041   385
16.0141   381
16.0241   365
16.0341   379
16.0441   395
16.0541   357
16.0641   363
16.0741   367
16.0841   354
16.0941   350
16.1041   382
16.1141   363
16.1241   316
16.1341   316
16.1441   359
16.1541   346
16.1641   337
16.1741   319
16.1841   349
16.1941   340
16.2041   330
16.2141   325
16.2241   331
16.2341   336
16.2441   340
16.2541   332
16.2641   334
16.2741   329
16.2841   323
16.2941   332
16.3041   331
16.3141   334
16.3241   329
16.3341   316
16.3441   326
16.3541   332
16.3641   308
16.3741   320
16.3841   313
16.3941   319
16.4041   349
16.4141   323
16.4241   318
16.4341   323
16.4441   330
16.4541   334
16.4641   352
16.4741   351
16.4841   323
16.4941   331
16.5041   363
16.5141   359
16.5241   348
16.5341   369
16.5441   347
16.5541   348
16.5641   368
16.5741   340
16.5841   343
16.5941   342
16.6041   336
16.6141   355
16.6241   343
16.6341   334
16.6441   363
16.6541   358
16.6641   350
16.6741   328
16.6841   321
16.6941   334
16.7041   379
16.7141   367
16.7241   330
16.7341   306
16.7441   323
16.7541   329
16.7641   339
16.7741   337
16.7841   356
16.7941   366
16.8041   358
16.8141   363
16.8241   364
16.8341   329
16.8441   340
16.8541   341
16.8641   338
16.8741   357
16.8841   369
16.8941   333
16.9041   317
16.9141   325
16.9241   336
16.9341   337
16.9441   329
16.9541   344
16.9641   355
16.9741   353
16.9841   359
16.9941   373
17.0041   366
17.0141   350
17.0241   338
17.0341   333
17.0441   351
17.0541   374
17.0641   391
17.0741   350
17.0841   365
17.0941   371
17.1041   356
17.1141   364
17.1241   366
17.1341   365
17.1441   373
17.1541   370
17.1641   360
17.1741   362
17.1841   358
17.1941   365
17.2041   354
17.2141   364
17.2241   364
17.2341   347
17.2441   344
17.2541   362
17.2641   399
17.2741   378
17.2841   402
17.2941   356
17.3041   372
17.3141   385
17.3241   365
17.3341   368
17.3441   371
17.3541   378
17.3641   376
17.3741   373
17.3841   394
17.3941   375
17.4041   360
17.4141   386
17.4241   405
17.4341   375
17.4441   383
17.4541   374
17.4641   387
17.4741   393
17.4841   381
17.4941   396
17.5041   400
17.5141   432
17.5241   420
17.5341   432
17.5441   432
17.5541   424
17.5641   445
17.5741   449
17.5841   436
17.5941   468
17.6041   457
17.6141   451
17.6241   449
17.6341   464
17.6441   463
17.6541   461
17.6641   474
17.6741   487
17.6841   493
17.6941   458
17.7041   467
17.7141   486
17.7241   476
17.7341   475
17.7441   454
17.7541   432
17.7641   458
17.7741   441
17.7841   439
17.7941   433
17.8041   425
17.8141   434
17.8241   442
17.8341   432
17.8441   393
17.8541   410
17.8641   406
17.8741   409
17.8841   370
17.8941   377
17.9041   393
17.9141   389
17.9241   428
17.9341   430
17.9441   412
17.9541   422
17.9641   417
17.9741   433
17.9841   421
17.9941   436
18.0041   403
18.0141   413
18.0241   420
18.0341   416
18.0441   403
18.0541   406
18.0641   404
18.0741   413
18.0841   424
18.0941   405
18.1041   438
18.1141   413
18.1241   402
18.1341   413
18.1441   430
18.1541   413
18.1641   402
18.1741   417
18.1841   412
18.1941   426
18.2041   410
18.2141   404
18.2241   394
18.2341   418
18.2441   440
18.2541   425
18.2641   438
18.2741   413
18.2841   429
18.2941   433
18.3041   435
18.3141   435
18.3241   423
18.3341   422
18.3441   403
18.3541   441
18.3641   405
18.3741   442
18.3841   418
18.3941   414
18.4041   396
18.4141   412
18.4241   410
18.4341   462
18.4441   429
18.4541   432
18.4641   456
18.4741   467
18.4841   445
18.4941   432
18.5041   443
18.5141   423
18.5241   464
18.5341   440
18.5441   450
18.5541   424
18.5641   432
18.5741   443
18.5841   432
18.5941   426
18.6041   421
18.6141   403
18.6241   419
18.6341   419
18.6441   456
18.6541   457
18.6641   440
18.6741   452
18.6841   436
18.6941   421
18.7041   453
18.7141   424
18.7241   427
18.7341   421
18.7441   429
18.7541   443
18.7641   450
18.7741   447
18.7841   457
18.7941   461
18.8041   447
18.8141   478
18.8241   461
18.8341   470
18.8441   453
18.8541   455
18.8641   447
18.8741   453
18.8841   424
18.8941   454
18.9041   440
18.9141   441
18.9241   473
18.9341   419
18.9441   419
18.9541   464
18.9641   465
18.9741   451
18.9841   486
18.9941   455
19.0041   438
19.0141   439
19.0241   488
19.0341   460
19.0441   453
19.0541   462
19.0641   473
19.0741   457
19.0841   460
19.0941   471
19.1041   448
19.1141   448
19.1241   450
19.1341   476
19.1441   457
19.1541   473
19.1641   481
19.1741   492
19.1841   480
19.1941   427
19.2041   464
19.2141   479
19.2241   464
19.2341   476
19.2441   487
19.2541   488
19.2641   495
19.2741   485
19.2841   467
19.2941   465
19.3041   459
19.3141   487
19.3241   478
19.3341   481
19.3441   485
19.3541   481
19.3641   475
19.3741   483
19.3841   486
19.3941   495
19.4041   471
19.4141   467
19.4241   481
19.4341   480
19.4441   475
19.4541   485
19.4641   474
19.4741   492
19.4841   496
19.4941   450
19.5041   454
19.5141   489
19.5241   480
19.5341   544
19.5441   523
19.5541   513
19.5641   481
19.5741   471
19.5841   495
19.5941   492
19.6041   493
19.6141   483
19.6241   466
19.6341   480
19.6441   479
19.6541   500
19.6641   474
19.6741   466
19.6841   488
19.6941   457
19.7041   500
19.7141   501
19.7241   493
19.7341   493
19.7441   486
19.7541   491
19.7641   496
19.7741   507
19.7841   488
19.7941   509
19.8041   500
19.8141   475
19.8241   492
19.8341   472
19.8441   473
19.8541   500
19.8641   512
19.8741   496
19.8841   513
19.8941   484
19.9041   448
19.9141   492
19.9241   474
19.9341   500
19.9441   471
19.9541   526
19.9641   494
19.9741   489
19.9841   489
19.9941   521
20.0041   493
20.0141   461
20.0241   474
20.0341   508
20.0441   536
20.0541   506
20.0641   488
20.0741   486
20.0841   480
20.0941   480
20.1041   481
20.1141   486
20.1241   489
20.1341   522
20.1441   520
20.1541   485
20.1641   485
20.1741   512
20.1841   539
20.1941   518
20.2041   545
20.2141   493
20.2241   510
20.2341   507
20.2441   490
20.2541   496
20.2641   552
20.2741   536
20.2841   507
20.2941   509
20.3041   507
20.3141   481
20.3241   483
20.3341   484
20.3441   521
20.3541   478
20.3641   526
20.3741   516
20.3841   481
20.3941   504
20.4041   493
20.4141   474
20.4241   489
20.4341   528
20.4441   511
20.4541   492
20.4641   520
20.4741   554
20.4841   524
20.4941   518
20.5041   484
20.5141   514
20.5241   528
20.5341   493
20.5441   488
20.5541   500
20.5641   477
20.5741   495
20.5841   510
20.5941   503
20.6041   506
20.6141   540
20.6241   527
20.6341   479
20.6441   485
20.6541   533
20.6641   497
20.6741   516
20.6841   541
20.6941   506
20.7041   528
20.7141   533
20.7241   533
20.7341   537
20.7441   534
20.7541   529
20.7641   542
20.7741   517
20.7841   523
20.7941   535
20.8041   563
20.8141   541
20.8241   544
20.8341   576
20.8441   589
20.8541   569
20.8641   586
20.8741   561
20.8841   593
20.8941   631
20.9041   631
20.9141   668
20.9241   675
20.9341   689
20.9441   657
20.9541   677
20.9641   685
20.9741   657
20.9841   673
20.9941   743
21.0041   745
21.0141   751
21.0241   778
21.0341   837
21.0441   768
21.0541   783
21.0641   840
21.0741   846
21.0841   871
21.0941   884
21.1041   907
21.1141   877
21.1241   918
21.1341   886
21.1441   880
21.1541   849
21.1641   856
21.1741   896
21.1841   867
21.1941   814
21.2041   825
21.2141   772
21.2241   823
21.2341   762
21.2441   737
21.2541   763
21.2641   711
21.2741   717
21.2841   682
21.2941   674
21.3041   636
21.3141   651
21.3241   653
21.3341   613
21.3441   606
21.3541   611
21.3641   593
21.3741   546
21.3841   575
21.3941   554
21.4041   535
21.4141   542
21.4241   525
21.4341   573
21.4441   557
21.4541   555
21.4641   527
21.4741   538
21.4841   548
21.4941   515
21.5041   541
21.5141   526
21.5241   494
21.5341   516
21.5441   527
21.5541   531
21.5641   551
21.5741   539
21.5841   519
21.5941   500
21.6041   555
21.6141   522
21.6241   513
21.6341   500
21.6441   561
21.6541   527
21.6641   537
21.6741   542
21.6841   505
21.6941   538
21.7041   540
21.7141   558
21.7241   550
21.7341   511
21.7441   538
21.7541   515
21.7641   530
21.7741   542
21.7841   523
21.7941   549
21.8041   528
21.8141   560
21.8241   516
21.8341   543
21.8441   568
21.8541   550
21.8641   533
21.8741   542
21.8841   566
21.8941   553
21.9041   528
21.9141   552
21.9241   541
21.9341   546
21.9441   553
21.9541   527
21.9641   502
21.9741   530
21.9841   552
21.9941   570
22.0041   529
22.0141   578
22.0241   555
22.0341   564
22.0441   542
22.0541   594
22.0641   552
22.0741   537
22.0841   548
22.0941   537
22.1041   546
22.1141   547
22.1241   539
22.1341   526
22.1441   555
22.1541   571
22.1641   559
22.1741   500
22.1841   562
22.1941   512
22.2041   562
22.2141   540
22.2241   536
22.2341   527
22.2441   520
22.2541   528
22.2641   566
22.2741   577
22.2841   544
22.2941   534
22.3041   531
22.3141   526
22.3241   576
22.3341   558
22.3441   568
22.3541   521
22.3641   598
22.3741   580
22.3841   574
22.3941   570
22.4041   555
22.4141   538
22.4241   532
22.4341   521
22.4441   544
22.4541   512
22.4641   500
22.4741   519
22.4841   532
22.4941   572
22.5041   603
22.5141   539
22.5241   543
22.5341   531
22.5441   598
22.5541   552
22.5641   508
22.5741   539
22.5841   532
22.5941   551
22.6041   564
22.6141   502
22.6241   544
22.6341   575
22.6441   529
22.6541   550
22.6641   518
22.6741   562
22.6841   551
22.6941   505
22.7041   541
22.7141   598
22.7241   562
22.7341   530
22.7441   552
22.7541   541
22.7641   541
22.7741   555
22.7841   560
22.7941   568
22.8041   574
22.8141   575
22.8241   587
22.8341   593
22.8441   537
22.8541   538
22.8641   570
22.8741   554
22.8841   518
22.8941   539
22.9041   551
22.9141   557
22.9241   525
22.9341   522
22.9441   531
22.9541   572
22.9641   549
22.9741   551
22.9841   539
22.9941   553
23.0041   571
23.0141   545
23.0241   545
23.0341   555
23.0441   550
23.0541   573
23.0641   544
23.0741   509
23.0841   540
23.0941   522
23.1041   520
23.1141   542
23.1241   520
23.1341   573
23.1441   521
23.1541   537
23.1641   569
23.1741   524
23.1841   552
23.1941   520
23.2041   534
23.2141   574
23.2241   552
23.2341   489
23.2441   570
23.2541   545
23.2641   538
23.2741   551
23.2841   562
23.2941   504
23.3041   527
23.3141   553
23.3241   500
23.3341   547
23.3441   555
23.3541   548
23.3641   568
23.3741   525
23.3841   547
23.3941   547
23.4041   562
23.4141   516
23.4241   530
23.4341   542
23.4441   513
23.4541   526
23.4641   532
23.4741   516
23.4841   569
23.4941   534
23.5041   542
23.5141   510
23.5241   557
23.5341   544
23.5441   547
23.5541   549
23.5641   590
23.5741   589
23.5841   559
23.5941   580
23.6041   525
23.6141   547
23.6241   526
23.6341   586
23.6441   523
23.6541   550
23.6641   618
23.6741   550
23.6841   611
23.6941   556
23.7041   587
23.7141   554
23.7241   593
23.7341   629
23.7441   579
23.7541   620
23.7641   581
23.7741   533
23.7841   640
23.7941   593
23.8041   592
23.8141   579
23.8241   619
23.8341   584
23.8441   625
23.8541   611
23.8641   569
23.8741   614
23.8841   577
23.8941   622
23.9041   578
23.9141   559
23.9241   559
23.9341   541
23.9441   552
23.9541   516
23.9641   550
23.9741   566
23.9841   576
23.9941   554
24.0041   490
24.0141   533
24.0241   517
24.0341   516
24.0441   500
24.0541   538
24.0641   541
24.0741   517
24.0841   539
24.0941   507
24.1041   519
24.1141   506
24.1241   536
24.1341   558
24.1441   497
24.1541   559
24.1641   497
24.1741   527
24.1841   575
24.1941   565
24.2041   502
24.2141   545
24.2241   511
24.2341   535
24.2441   492
24.2541   562
24.2641   585
24.2741   509
24.2841   583
24.2941   518
24.3041   509
24.3141   542
24.3241   547
24.3341   536
24.3441   533
24.3541   561
24.3641   536
24.3741   523
24.3841   563
24.3941   514
24.4041   500
24.4141   564
24.4241   550
24.4341   545
24.4441   506
24.4541   502
24.4641   544
24.4741   502
24.4841   537
24.4941   548
24.5041   531
24.5141   528
24.5241   558
24.5341   504
24.5441   552
24.5541   526
24.5641   517
24.5741   542
24.5841   508
24.5941   516
24.6041   536
24.6141   533
24.6241   512
24.6341   524
24.6441   499
24.6541   506
24.6641   549
24.6741   552
24.6841   536
24.6941   539
24.7041   568
24.7141   513
24.7241   506
24.7341   503
24.7441   514
24.7541   507
24.7641   539
24.7741   492
24.7841   500
24.7941   533
24.8041   517
24.8141   494
24.8241   498
24.8341   503
24.8441   538
24.8541   534
24.8641   510
24.8741   495
24.8841   541
24.8941   503
24.9041   496
24.9141   503
24.9241   517
24.9341   498
24.9441   519
24.9541   506
24.9641   491
24.9741   498
24.9841   516
24.9941   480
25.0041   506
25.0141   503
25.0241   487
25.0341   520
25.0441   508
25.0541   499
25.0641   504
25.0741   527
25.0841   529
25.0941   519
25.1041   504
25.1141   541
25.1241   535
25.1341   509
25.1441   518
25.1541   517
25.1641   499
25.1741   482
25.1841   534
25.1941   564
25.2041   532
25.2141   514
25.2241   536
25.2341   530
25.2441   536
25.2541   534
25.2641   544
25.2741   489
25.2841   525
25.2941   497
25.3041   506
25.3141   532
25.3241   512
25.3341   549
25.3441   527
25.3541   537
25.3641   492
25.3741   545
25.3841   539
25.3941   511
25.4041   510
25.4141   491
25.4241   530
25.4341   486
25.4441   511
25.4541   495
25.4641   536
25.4741   518
25.4841   518
25.4941   493
25.5041   499
25.5141   495
25.5241   491
25.5341   471
25.5441   471
25.5541   514
25.5641   502
25.5741   468
25.5841   488
25.5941   478
25.6041   493
25.6141   506
25.6241   491
25.6341   487
25.6441   481
25.6541   479
25.6641   506
25.6741   472
25.6841   493
25.6941   465
25.7041   504
25.7141   514
25.7241   515
25.7341   490
25.7441   506
25.7541   503
25.7641   472
25.7741   523
25.7841   483
25.7941   494
25.8041   495
25.8141   454
25.8241   488
25.8341   498
25.8441   458
25.8541   468
25.8641   495
25.8741   502
25.8841   480
25.8941   466
25.9041   442
25.9141   491
25.9241   493
25.9341   471
25.9441   488
25.9541   479
25.9641   486
25.9741   475
25.9841   504
25.9941   528
26.0041   490
26.0141   474
26.0241   509
26.0341   467
26.0441   466
26.0541   492
26.0641   507
26.0741   485
26.0841   469
26.0941   498
26.1041   503
26.1141   489
26.1241   495
26.1341   487
26.1441   487
26.1541   478
26.1641   489
26.1741   466
26.1841   483
26.1941   449
26.2041   492
26.2141   469
26.2241   477
26.2341   469
26.2441   444
26.2541   468
26.2641   446
26.2741   459
26.2841   468
26.2941   487
26.3041   502
26.3141   468
26.3241   508
26.3341   482
26.3441   479
26.3541   470
26.3641   447
26.3741   480
26.3841   504
26.3941   466
26.4041   456
26.4141   475
26.4241   485
26.4341   478
26.4441   464
26.4541   437
26.4641   483
26.4741   453
26.4841   485
26.4941   505
26.5041   455
26.5141   474
26.5241   470
26.5341   471
26.5441   440
26.5541   444
26.5641   440
26.5741   465
26.5841   475
26.5941   473
26.6041   460
26.6141   433
26.6241   443
26.6341   448
26.6441   460
26.6541   468
26.6641   458
26.6741   442
26.6841   466
26.6941   418
26.7041   460
26.7141   454
26.7241   440
26.7341   443
26.7441   438
26.7541   489
26.7641   419
26.7741   442
26.7841   444
26.7941   464
26.8041   419
26.8141   482
26.8241   440
26.8341   432
26.8441   449
26.8541   434
26.8641   472
26.8741   444
26.8841   442
26.8941   431
26.9041   440
26.9141   456
26.9241   420
26.9341   441
26.9441   450
26.9541   408
26.9641   440
26.9741   450
26.9841   444
26.9941   426
27.0041   414
27.0141   452
27.0241   442
27.0341   407
27.0441   422
27.0541   443
27.0641   438
27.0741   434
27.0841   421
27.0941   445
27.1041   411
27.1141   441
27.1241   426
27.1341   458
27.1441   430
27.1541   436
27.1641   448
27.1741   434
27.1841   461
27.1941   432
27.2041   452
27.2141   459
27.2241   429
27.2341   451
27.2441   454
27.2541   422
27.2641   434
27.2741   453
27.2841   426
27.2941   424
27.3041   466
27.3141   426
27.3241   440
27.3341   443
27.3441   440
27.3541   436
27.3641   447
27.3741   434
27.3841   438
27.3941   441
27.4041   413
27.4141   464
27.4241   436
27.4341   434
27.4441   471
27.4541   447
27.4641   442
27.4741   422
27.4841   466
27.4941   467
27.5041   407
27.5141   418
27.5241   430
27.5341   435
27.5441   462
27.5541   451
27.5641   423
27.5741   449
27.5841   433
27.5941   434
27.6041   482
27.6141   423
27.6241   425
27.6341   419
27.6441   417
27.6541   435
27.6641   397
27.6741   422
27.6841   412
27.6941   404
27.7041   409
27.7141   403
27.7241   449
27.7341   405
27.7441   403
27.7541   404
27.7641   375
27.7741   399
27.7841   411
27.7941   435
27.8041   402
27.8141   385
27.8241   402
27.8341   403
27.8441   424
27.8541   399
27.8641   371
27.8741   389
27.8841   399
27.8941   428
27.9041   401
27.9141   376
27.9241   382
27.9341   390
27.9441   409
27.9541   385
27.9641   432
27.9741   365
27.9841   411
27.9941   368
28.0041   410
28.0141   397
28.0241   406
28.0341   369
28.0441   418
28.0541   366
28.0641   403
28.0741   367
28.0841   384
28.0941   394
28.1041   384
28.1141   384
28.1241   407
28.1341   366
28.1441   392
28.1541   441
28.1641   396
28.1741   362
28.1841   379
28.1941   386
28.2041   384
28.2141   382
28.2241   390
28.2341   404
28.2441   403
28.2541   412
28.2641   407
28.2741   405
28.2841   407
28.2941   395
28.3041   395
28.3141   407
28.3241   398
28.3341   355
28.3441   402
28.3541   388
28.3641   345
28.3741   368
28.3841   408
28.3941   417
28.4041   391
28.4141   365
28.4241   400
28.4341   397
28.4441   389
28.4541   364
28.4641   367
28.4741   393
28.4841   354
28.4941   389
28.5041   354
28.5141   398
28.5241   365
28.5341   414
28.5441   441
28.5541   359
28.5641   410
28.5741   395
28.5841   353
28.5941   380
28.6041   361
28.6141   376
28.6241   374
28.6341   383
28.6441   371
28.6541   410
28.6641   383
28.6741   387
28.6841   374
28.6941   371
28.7041   378
28.7141   356
28.7241   360
28.7341   353
28.7441   380
28.7541   361
28.7641   388
28.7741   384
28.7841   391
28.7941   372
28.8041   392
28.8141   373
28.8241   359
28.8341   389
28.8441   398
28.8541   386
28.8641   379
28.8741   332
28.8841   366
28.8941   367
28.9041   331
28.9141   365
28.9241   359
28.9341   344
28.9441   356
28.9541   353
28.9641   400
28.9741   398
28.9841   361
28.9941   360
29.0041   392
29.0141   353
29.0241   369
29.0341   385
29.0441   326
29.0541   369
29.0641   353
29.0741   341
29.0841   348
29.0941   358
29.1041   369
29.1141   332
29.1241   365
29.1341   359
29.1441   361
29.1541   353
29.1641   374
29.1741   349
29.1841   381
29.1941   371
29.2041   375
29.2141   374
29.2241   369
29.2341   356
29.2441   348
29.2541   341
29.2641   327
29.2741   364
29.2841   353
29.2941   355
29.3041   374
29.3141   387
29.3241   347
29.3341   343
29.3441   374
29.3541   354
29.3641   325
29.3741   345
29.3841   363
29.3941   309
29.4041   359
29.4141   360
29.4241   344
29.4341   357
29.4441   324
29.4541   370
29.4641   346
29.4741   358
29.4841   361
29.4941   345
29.5041   337
29.5141   297
29.5241   324
29.5341   340
29.5441   361
29.5541   314
29.5641   313
29.5741   340
29.5841   340
29.5941   335
29.6041   352
29.6141   317
29.6241   356
29.6341   332
29.6441   316
29.6541   354
29.6641   360
29.6741   325
29.6841   338
29.6941   341
29.7041   330
29.7141   345
29.7241   336
29.7341   320
29.7441   327
29.7541   327
29.7641   309
29.7741   369
29.7841   367
29.7941   337
29.8041   331
29.8141   335
29.8241   327
29.8341   317
29.8441   332
29.8541   301
29.8641   331
29.8741   312
29.8841   302
29.8941   320
29.9041   292
29.9141   337
29.9241   305
29.9341   329
29.9441   323
29.9541   327
29.9641   316
29.9741   310
29.9841   321
29.9941   338
30.0041   364
30.0141   309
30.0241   306
30.0341   299
30.0441   330
30.0541   297
30.0641   321
30.0741   315
30.0841   309
30.0941   324
30.1041   341
30.1141   319
30.1241   320
30.1341   303
30.1441   326
30.1541   297
30.1641   337
30.1741   321
30.1841   312
30.1941   292
30.2041   302
30.2141   300
30.2241   293
30.2341   329
30.2441   326
30.2541   299
30.2641   297
30.2741   280
30.2841   313
30.2941   315
30.3041   301
30.3141   295
30.3241   282
30.3341   293
30.3441   310
30.3541   284
30.3641   280
30.3741   307
30.3841   284
30.3941   310
30.4041   310
30.4141   316
30.4241   313
30.4341   292
30.4441   304
30.4541   319
30.4641   304
30.4741   295
30.4841   322
30.4941   299
30.5041   265
30.5141   280
30.5241   315
30.5341   298
30.5441   308
30.5541   302
30.5641   285
30.5741   305
30.5841   280
30.5941   301
30.6041   279
30.6141   282
30.6241   303
30.6341   279
30.6441   316
30.6541   284
30.6641   323
30.6741   298
30.6841   278
30.6941   300
30.7041   302
30.7141   297
30.7241   299
30.7341   249
30.7441   279
30.7541   251
30.7641   275
30.7741   270
30.7841   275
30.7941   304
30.8041   283
30.8141   277
30.8241   300
30.8341   280
30.8441   290
30.8541   298
30.8641   265
30.8741   266
30.8841   259
30.8941   276
30.9041   306
30.9141   255
30.9241   295
30.9341   251
30.9441   301
30.9541   279
30.9641   283
30.9741   309
30.9841   263
30.9941   286
31.0041   271
31.0141   277
31.0241   269
31.0341   280
31.0441   278
31.0541   281
31.0641   254
31.0741   292
31.0841   285
31.0941   287
31.1041   252
31.1141   265
31.1241   252
31.1341   271
31.1441   271
31.1541   284
31.1641   259
31.1741   288
31.1841   271
31.1941   279
31.2041   246
31.2141   290
31.2241   273
31.2341   289
31.2441   292
31.2541   268
31.2641   275
31.2741   252
31.2841   252
31.2941   282
31.3041   247
31.3141   275
31.3241   273
31.3341   251
31.3441   288
31.3541   293
31.3641   274
31.3741   270
31.3841   274
31.3941   274
31.4041   266
31.4141   266
31.4241   286
31.4341   266
31.4441   273
31.4541   252
31.4641   280
31.4741   274
31.4841   256
31.4941   273
31.5041   251
31.5141   267
31.5241   245
31.5341   264
31.5441   242
31.5541   263
31.5641   255
31.5741   254
31.5841   251
31.5941   278
31.6041   284
31.6141   230
31.6241   280
31.6341   272
31.6441   265
31.6541   252
31.6641   271
31.6741   273
31.6841   277
31.6941   261
31.7041   274
31.7141   285
31.7241   278
31.7341   296
31.7441   290
31.7541   253
31.7641   270
31.7741   239
31.7841   267
31.7941   249
31.8041   298
31.8141   282
31.8241   289
31.8341   295
31.8441   283
31.8541   280
31.8641   274
31.8741   314
31.8841   289
31.8941   249
31.9041   270
31.9141   262
31.9241   269
31.9341   287
31.9441   264
31.9541   255
31.9641   253
31.9741   286
31.9841   259
31.9941   283
32.0041   304
32.0141   282
32.0241   271
32.0341   266
32.0441   284
32.0541   272
32.0641   258
32.0741   285
32.0841   311
32.0941   277
32.1041   287
32.1141   289
32.1241   265
32.1341   282
32.1441   278
32.1541   292
32.1641   279
32.1741   294
32.1841   303
32.1941   307
32.2041   282
32.2141   263
32.2241   303
32.2341   263
32.2441   281
32.2541   270
32.2641   292
32.2741   283
32.2841   275
32.2941   276
32.3041   282
32.3141   265
32.3241   254
32.3341   251
32.3441   269
32.3541   284
32.3641   267
32.3741   249
32.3841   248
32.3941   239
32.4041   261
32.4141   245
32.4241   223
32.4341   216
32.4441   246
32.4541   254
32.4641   256
32.4741   236
32.4841   228
32.4941   219
32.5041   219
32.5141   219
32.5241   210
32.5341   242
32.5441   215
32.5541   216
32.5641   236
32.5741   190
32.5841   216
32.5941   236
32.6041   215
32.6141   236
32.6241   234
32.6341   225
32.6441   228
32.6541   230
32.6641   220
32.6741   207
32.6841   218
32.6941   223
32.7041   214
32.7141   225
32.7241   212
32.7341   217
32.7441   227
32.7541   213
32.7641   218
32.7741   212
32.7841   213
32.7941   215
32.8041   208
32.8141   211
32.8241   222
32.8341   189
32.8441   210
32.8541   218
32.8641   208
32.8741   189
32.8841   213
32.8941   200
32.9041   213
32.9141   204
32.9241   199
32.9341   193
32.9441   197
32.9541   205
32.9641   199
32.9741   184
32.9841   193
32.9941   209
33.0041   196
33.0141   225
33.0241   209
33.0341   210
33.0441   202
33.0541   221
33.0641   213
33.0741   196
33.0841   188
33.0941   181
33.1041   203
33.1141   204
33.1241   195
33.1341   198
33.1441   185
33.1541   177
33.1641   216
33.1741   180
33.1841   223
33.1941   198
33.2041   202
33.2141   215
33.2241   186
33.2341   186
33.2441   194
33.2541   210
33.2641   192
33.2741   200
33.2841   166
33.2941   199
33.3041   198
33.3141   182
33.3241   191
33.3341   200
33.3441   177
33.3541   198
33.3641   179
33.3741   182
33.3841   195
33.3941   204
33.4041   206
33.4141   200
33.4241   180
33.4341   185
33.4441   202
33.4541   214
33.4641   202
33.4741   159
33.4841   165
33.4941   195
33.5041   210
33.5141   191
33.5241   199
33.5341   199
33.5441   175
33.5541   208
33.5641   176
33.5741   175
33.5841   166
33.5941   183
33.6041   161
33.6141   188
33.6241   184
33.6341   198
33.6441   186
33.6541   194
33.6641   176
33.6741   163
33.6841   173
33.6941   157
33.7041   196
33.7141   198
33.7241   184
33.7341   187
33.7441   168
33.7541   185
33.7641   188
33.7741   205
33.7841   188
33.7941   180
33.8041   191
33.8141   186
33.8241   179
33.8341   201
33.8441   178
33.8541   165
33.8641   160
33.8741   181
33.8841   182
33.8941   168
33.9041   192
33.9141   171
33.9241   160
33.9341   152
33.9441   167
33.9541   197
33.9641   149
33.9741   172
33.9841   178
33.9941   172
34.0041   192
34.0141   173
34.0241   204
34.0341   158
34.0441   168
34.0541   198
34.0641   180
34.0741   160
34.0841   182
34.0941   147
34.1041   164
34.1141   176
34.1241   167
34.1341   178
34.1441   172
34.1541   162
34.1641   156
34.1741   144
34.1841   163
34.1941   147
34.2041   155
34.2141   176
34.2241   176
34.2341   158
34.2441   174
34.2541   161
34.2641   171
34.2741   142
34.2841   152
34.2941   168
34.3041   180
34.3141   174
34.3241   152
34.3341   163
34.3441   166
34.3541   164
34.3641   157
34.3741   165
34.3841   136
34.3941   149
34.4041   165
34.4141   162
34.4241   155
34.4341   148
34.4441   172
34.4541   151
34.4641   148
34.4741   148
34.4841   133
34.4941   171
34.5041   161
34.5141   160
34.5241   160
34.5341   157
34.5441   151
34.5541   170
34.5641   144
34.5741   171
34.5841   132
34.5941   154
34.6041   160
34.6141   153
34.6241   148
34.6341   164
34.6441   154
34.6541   154
34.6641   151
34.6741   155
34.6841   155
34.6941   140
34.7041   137
34.7141   163
34.7241   134
34.7341   152
34.7441   144
34.7541   165
34.7641   153
34.7741   149
34.7841   144
34.7941   158
34.8041   153
34.8141   165
34.8241   130
34.8341   138
34.8441   159
34.8541   142
34.8641   151
34.8741   142
34.8841   120
34.8941   130
34.9041   155
34.9141   157
34.9241   134
34.9341   130
34.9441   125
34.9541   148
34.9641   139
34.9741   126
34.9841   150
34.9941   145
35.0041   137
35.0141   163
35.0241   158
35.0341   144
35.0441   150
35.0541   136
35.0641   132
35.0741   131
35.0841   140
35.0941   132
35.1041   128
35.1141   156
35.1241   139
35.1341   134
35.1441   139
35.1541   164
35.1641   144
35.1741   123
35.1841   124
35.1941   143
35.2041   137
35.2141   140
35.2241   153
35.2341   130
35.2441   126
35.2541   132
35.2641   146
35.2741   136
35.2841   128
35.2941   138
35.3041   135
35.3141   142
35.3241   133
35.3341   128
35.3441   139
35.3541   123
35.3641   137
35.3741   156
35.3841   145
35.3941   134
35.4041   124
35.4141   136
35.4241   144
35.4341   140
35.4441   141
35.4541   132
35.4641   138
35.4741   126
35.4841   137
35.4941   121
35.5041   126
35.5141   114
35.5241   126
35.5341   120
35.5441    99
35.5541   123
35.5641   130
35.5741   123
35.5841   120
35.5941   121
35.6041   105
35.6141   129
35.6241   130
35.6341   156
35.6441   125
35.6541   113
35.6641   135
35.6741   123
35.6841   123
35.6941   135
35.7041   123
35.7141   134
35.7241   132
35.7341   142
35.7441   124
35.7541   130
35.7641   126
35.7741   111
35.7841   142
35.7941   109
35.8041   119
35.8141   117
35.8241   126
35.8341   126
35.8441   115
35.8541   125
35.8641   119
35.8741   131
35.8841   123
35.8941   125
35.9041   120
35.9141   106
35.9241   110
35.9341   119
35.9441   113
35.9541   130
35.9641   103
35.9741   109
35.9841   112
35.9941   131
36.0041   135
36.0141   134
36.0241   125
36.0341   113
36.0441   121
36.0541   112
36.0641   128
36.0741   125
36.0841   124
36.0941   114
36.1041   100
36.1141    96
36.1241   130
36.1341   112
36.1441   107
36.1541   115
36.1641   106
36.1741   124
36.1841   114
36.1941   131
36.2041   108
36.2141   113
36.2241   122
36.2341   129
36.2441   130
36.2541   127
36.2641   119
36.2741   118
36.2841   109
36.2941   117
36.3041   110
36.3141   118
36.3241   128
36.3341   102
36.3441   109
36.3541   113
36.3641   118
36.3741   107
36.3841   116
36.3941   118
36.4041   109
36.4141   114
36.4241   107
36.4341   111
36.4441   110
36.4541   106
36.4641   102
36.4741   118
36.4841   118
36.4941   107
36.5041   113
36.5141   106
36.5241   111
36.5341   104
36.5441   116
36.5541   108
36.5641    97
36.5741   110
36.5841   108
36.5941    93
36.6041    99
36.6141    92
36.6241   103
36.6341   100
36.6441   122
36.6541    95
36.6641    98
36.6741   106
36.6841    97
36.6941    93
36.7041    91
36.7141   101
36.7241   111
36.7341   102
36.7441   104
36.7541    90
36.7641    98
36.7741    85
36.7841    85
36.7941    76
36.8041    97
36.8141    97
36.8241    96
36.8341    75
36.8441    84
36.8541    90
36.8641   104
36.8741    94
36.8841   113
36.8941   111
36.9041   112
36.9141    88
36.9241    93
36.9341    94
36.9441    84
36.9541    95
36.9641    75
36.9741    79
36.9841    81
36.9941    81
37.0041   118
37.0141   109
37.0241    92
37.0341    74
37.0441    97
37.0541    85
37.0641    88
37.0741   107
37.0841   101
37.0941    83
37.1041   105
37.1141    93
37.1241    97
37.1341    93
37.1441    99
37.1541    87
37.1641    77
37.1741    73
37.1841    91
37.1941    89
37.2041   101
37.2141   100
37.2241   107
37.2341    78
37.2441    82
37.2541    94
37.2641    98
37.2741    87
37.2841    95
37.2941    89
37.3041    77
37.3141    63
37.3241    79
37.3341    88
37.3441    83
37.3541    98
37.3641    87
37.3741    78
37.3841    88
37.3941   105
37.4041    99
37.4141    86
37.4241    92
37.4341    82
37.4441    65
37.4541    72
37.4641    87
37.4741    84
37.4841    91
37.4941    85
37.5041    82
37.5141    71
37.5241    82
37.5341    80
37.5441    82
37.5541    85
37.5641    90
37.5741    80
37.5841    76
37.5941    87
37.6041    83
37.6141    73
37.6241    69
37.6341    83
37.6441    80
37.6541    79
37.6641    73
37.6741    79
37.6841    87
37.6941    70
37.7041    78
37.7141    75
37.7241    83
37.7341    84
37.7441    69
37.7541    79
37.7641    78
37.7741    97
37.7841    74
37.7941    62
37.8041    82
37.8141    86
37.8241    84
37.8341    83
37.8441    68
37.8541    71
37.8641    81
37.8741    82
37.8841    80
37.8941    78
37.9041    72
37.9141    77
37.9241    60
37.9341    87
37.9441    70
37.9541    68
37.9641    83
37.9741    74
37.9841    52
37.9941    73
38.0041    73
38.0141    54
38.0241    69
38.0341    60
38.0441    65
38.0541    79
38.0641    60
38.0741    63
38.0841    58
38.0941    67
38.1041    50
38.1141    65
38.1241    71
38.1341    59
38.1441    70
38.1541    69
38.1641    52
38.1741    72
38.1841    73
38.1941    82
38.2041    74
38.2141    75
38.2241    56
38.2341    92
38.2441    57
38.2541    61
38.2641    77
38.2741    62
38.2841    63
38.2941    63
38.3041    72
38.3141    64
38.3241    74
38.3341    78
38.3441    71
38.3541    65
38.3641    51
38.3741    55
38.3841    66
38.3941    63
38.4041    74
38.4141    74
38.4241    65
38.4341    57
38.4441    72
38.4541    63
38.4641    45
38.4741    57
38.4841    64
38.4941    54
38.5041    62
38.5141    72
38.5241    66
38.5341    72
38.5441    66
38.5541    63
38.5641    57
38.5741    61
38.5841    67
38.5941    63
38.6041    51
38.6141    53
38.6241    60
38.6341    53
38.6441    49
38.6541    62
38.6641    64
38.6741    45
38.6841    44
38.6941    63
38.7041    61
38.7141    59
38.7241    58
38.7341    50
38.7441    58
38.7541    51
38.7641    55
38.7741    57
38.7841    63
38.7941    59
38.8041    49
38.8141    54
38.8241    47
38.8341    70
38.8441    57
38.8541    60
38.8641    52
38.8741    47
38.8841    50
38.8941    46
38.9041    48
38.9141    54
38.9241    61
38.9341    51
38.9441    56
38.9541    40
38.9641    58
38.9741    56
38.9841    67
38.9941    58
39.0041    58
39.0141    54
39.0241    47
39.0341    55
39.0441    40
39.0541    44
39.0641    43
39.0741    59
39.0841    39
39.0941    50
39.1041    52
39.1141    54
39.1241    45
39.1341    40
39.1441    64
39.1541    57
39.1641    52
39.1741    49
39.1841    55
39.1941    51
39.2041    53
39.2141    54
39.2241    51
39.2341    47
39.2441    52
39.2541    52
39.2641    38
39.2741    46
39.2841    48
39.2941    50
39.3041    68
39.3141    50
39.3241    44
39.3341    46
39.3441    41
39.3541    44
39.3641    61
39.3741    51
39.3841    36
39.3941    59
39.4041    53
39.4141    44
39.4241    44
39.4341    41
39.4441    35
39.4541    47
39.4641    49
39.4741    39
39.4841    32
39.4941    37
39.5041    32
39.5141    49
39.5241    54
39.5341    29
39.5441    39
39.5541    69
39.5641    50
39.5741    51
39.5841    40
39.5941    41
39.6041    49
39.6141    49
39.6241    39
39.6341    43
39.6441    43
39.6541    38
39.6641    47
39.6741    36
39.6841    42
39.6941    47
39.7041    39
39.7141    39
39.7241    38
39.7341    40
39.7441    41
39.7541    44
39.7641    45
39.7741    40
39.7841    33
39.7941    23
39.8041    34
39.8141    39
39.8241    32
39.8341    39
39.8441    38
39.8541    39
39.8641    44
39.8741    43
39.8841    31
39.8941    44
39.9041    50
39.9141    37
39.9241    35
39.9341    38
39.9441    35
39.9541    43
39.9641    29
39.9741    30
39.9841    50
