Bruker Nano GmbH Berlin, Germany
Esprit 1.9

Date: 4/21/2021 2:31:22 PM
Real time: 21624
Life time: 20234
Pulse density: 94381


Detector type: XFlash 430
Window type: Custom type
Detector thickness: 0.45
Si dead layer:0.029

Calibration, lin.: 10
Calibration, abs.: -955.9
Mn FWHM: 137.05
Fano factor: 0.121
Channels: 4095

Energy Counts
-0.9559     0
-0.9459     0
-0.9359     0
-0.9259     0
-0.9159     0
-0.9059     0
-0.8959     0
-0.8859     0
-0.8759     0
-0.8659     0
-0.8559     0
-0.8459     0
-0.8359     0
-0.8259     0
-0.8159     0
-0.8059     0
-0.7959     0
-0.7859     0
-0.7759     0
-0.7659     0
-0.7559     0
-0.7459     0
-0.7359     0
-0.7259     0
-0.7159     0
-0.7059     0
-0.6959     0
-0.6859     0
-0.6759     0
-0.6659     0
-0.6559     0
-0.6459     0
-0.6359     0
-0.6259     0
-0.6159     0
-0.6059     0
-0.5959     0
-0.5859     0
-0.5759     0
-0.5659     0
-0.5559     0
-0.5459     0
-0.5359     0
-0.5259     0
-0.5159     0
-0.5059     0
-0.4959     0
-0.4859     0
-0.4759     0
-0.4659     0
-0.4559     0
-0.4459     0
-0.4359     0
-0.4259     0
-0.4159     0
-0.4059     0
-0.3959     0
-0.3859     0
-0.3759     0
-0.3659     0
-0.3559     0
-0.3459     0
-0.3359     0
-0.3259     0
-0.3159     0
-0.3059     0
-0.2959     0
-0.2859     0
-0.2759     0
-0.2659     0
-0.2559     0
-0.2459     0
-0.2359     0
-0.2259     0
-0.2159     0
-0.2059     0
-0.1959     0
-0.1859     0
-0.1759     0
-0.1659     0
-0.1559     0
-0.1459     0
-0.1359     0
-0.1259     0
-0.1159     2
-0.1059    15
-0.0959    58
-0.0859   215
-0.0759   794
-0.0659  2312
-0.0559  5901
-0.0459 12991
-0.0359 24250
-0.0259 38907
-0.0159 52771
-0.0059 61739
 0.0041 62071
 0.0141 53471
 0.0241 39652
 0.0341 25332
 0.0441 13458
 0.0541  6378
 0.0641  2543
 0.0741   872
 0.0841   285
 0.0941    78
 0.1041    22
 0.1141     9
 0.1241    18
 0.1341     6
 0.1441    10
 0.1541     8
 0.1641     2
 0.1741    18
 0.1841   190
 0.1941   382
 0.2041   319
 0.2141   339
 0.2241   365
 0.2341   295
 0.2441   332
 0.2541   316
 0.2641   324
 0.2741   315
 0.2841   343
 0.2941   331
 0.3041   310
 0.3141   300
 0.3241   313
 0.3341   294
 0.3441   301
 0.3541   297
 0.3641   317
 0.3741   320
 0.3841   326
 0.3941   290
 0.4041   335
 0.4141   315
 0.4241   273
 0.4341   304
 0.4441   309
 0.4541   294
 0.4641   302
 0.4741   298
 0.4841   266
 0.4941   286
 0.5041   293
 0.5141   297
 0.5241   284
 0.5341   297
 0.5441   294
 0.5541   276
 0.5641   264
 0.5741   266
 0.5841   279
 0.5941   271
 0.6041   256
 0.6141   262
 0.6241   254
 0.6341   261
 0.6441   259
 0.6541   259
 0.6641   260
 0.6741   248
 0.6841   255
 0.6941   256
 0.7041   268
 0.7141   269
 0.7241   245
 0.7341   250
 0.7441   249
 0.7541   255
 0.7641   253
 0.7741   240
 0.7841   241
 0.7941   240
 0.8041   237
 0.8141   244
 0.8241   234
 0.8341   233
 0.8441   240
 0.8541   231
 0.8641   247
 0.8741   221
 0.8841   227
 0.8941   239
 0.9041   227
 0.9141   225
 0.9241   231
 0.9341   233
 0.9441   226
 0.9541   207
 0.9641   233
 0.9741   225
 0.9841   233
 0.9941   226
 1.0041   236
 1.0141   211
 1.0241   237
 1.0341   222
 1.0441   237
 1.0541   206
 1.0641   225
 1.0741   225
 1.0841   204
 1.0941   210
 1.1041   215
 1.1141   216
 1.1241   205
 1.1341   193
 1.1441   194
 1.1541   224
 1.1641   220
 1.1741   230
 1.1841   216
 1.1941   228
 1.2041   229
 1.2141   191
 1.2241   197
 1.2341   229
 1.2441   200
 1.2541   192
 1.2641   211
 1.2741   216
 1.2841   210
 1.2941   190
 1.3041   211
 1.3141   221
 1.3241   216
 1.3341   204
 1.3441   208
 1.3541   197
 1.3641   199
 1.3741   228
 1.3841   213
 1.3941   205
 1.4041   213
 1.4141   199
 1.4241   190
 1.4341   195
 1.4441   188
 1.4541   209
 1.4641   205
 1.4741   201
 1.4841   194
 1.4941   202
 1.5041   198
 1.5141   203
 1.5241   200
 1.5341   190
 1.5441   215
 1.5541   212
 1.5641   197
 1.5741   185
 1.5841   201
 1.5941   202
 1.6041   193
 1.6141   180
 1.6241   205
 1.6341   228
 1.6441   222
 1.6541   247
 1.6641   255
 1.6741   315
 1.6841   422
 1.6941   490
 1.7041   597
 1.7141   653
 1.7241   726
 1.7341   817
 1.7441   818
 1.7541   810
 1.7641   720
 1.7741   634
 1.7841   475
 1.7941   406
 1.8041   350
 1.8141   307
 1.8241   267
 1.8341   263
 1.8441   250
 1.8541   214
 1.8641   218
 1.8741   211
 1.8841   196
 1.8941   186
 1.9041   221
 1.9141   195
 1.9241   198
 1.9341   197
 1.9441   172
 1.9541   200
 1.9641   251
 1.9741   232
 1.9841   223
 1.9941   209
 2.0041   222
 2.0141   254
 2.0241   242
 2.0341   259
 2.0441   241
 2.0541   221
 2.0641   213
 2.0741   202
 2.0841   187
 2.0941   160
 2.1041   158
 2.1141   171
 2.1241   182
 2.1341   160
 2.1441   176
 2.1541   185
 2.1641   159
 2.1741   167
 2.1841   191
 2.1941   179
 2.2041   159
 2.2141   162
 2.2241   165
 2.2341   160
 2.2441   155
 2.2541   173
 2.2641   166
 2.2741   181
 2.2841   155
 2.2941   158
 2.3041   175
 2.3141   159
 2.3241   147
 2.3341   191
 2.3441   175
 2.3541   168
 2.3641   172
 2.3741   188
 2.3841   170
 2.3941   180
 2.4041   145
 2.4141   179
 2.4241   162
 2.4341   155
 2.4441   171
 2.4541   169
 2.4641   168
 2.4741   156
 2.4841   166
 2.4941   158
 2.5041   159
 2.5141   162
 2.5241   165
 2.5341   153
 2.5441   148
 2.5541   154
 2.5641   176
 2.5741   178
 2.5841   180
 2.5941   152
 2.6041   160
 2.6141   173
 2.6241   159
 2.6341   162
 2.6441   184
 2.6541   133
 2.6641   142
 2.6741   136
 2.6841   165
 2.6941   170
 2.7041   143
 2.7141   145
 2.7241   155
 2.7341   167
 2.7441   161
 2.7541   134
 2.7641   157
 2.7741   153
 2.7841   141
 2.7941   138
 2.8041   149
 2.8141   151
 2.8241   185
 2.8341   172
 2.8441   148
 2.8541   139
 2.8641   140
 2.8741   158
 2.8841   152
 2.8941   169
 2.9041   140
 2.9141   141
 2.9241   135
 2.9341   135
 2.9441   106
 2.9541   126
 2.9641   125
 2.9741   153
 2.9841   138
 2.9941   134
 3.0041   133
 3.0141   122
 3.0241   138
 3.0341   142
 3.0441   142
 3.0541   124
 3.0641   136
 3.0741   139
 3.0841   125
 3.0941   130
 3.1041   134
 3.1141   105
 3.1241    97
 3.1341   124
 3.1441   122
 3.1541   117
 3.1641   109
 3.1741   132
 3.1841   119
 3.1941   127
 3.2041   160
 3.2141   146
 3.2241   168
 3.2341   176
 3.2441   187
 3.2541   231
 3.2641   256
 3.2741   302
 3.2841   334
 3.2941   335
 3.3041   399
 3.3141   381
 3.3241   379
 3.3341   342
 3.3441   302
 3.3541   290
 3.3641   248
 3.3741   210
 3.3841   198
 3.3941   169
 3.4041   141
 3.4141   146
 3.4241   126
 3.4341   108
 3.4441    95
 3.4541    99
 3.4641   111
 3.4741   113
 3.4841    97
 3.4941   117
 3.5041   133
 3.5141   131
 3.5241   154
 3.5341   177
 3.5441   172
 3.5541   193
 3.5641   206
 3.5741   237
 3.5841   302
 3.5941   390
 3.6041   469
 3.6141   589
 3.6241   755
 3.6341   850
 3.6441  1060
 3.6541  1234
 3.6641  1314
 3.6741  1454
 3.6841  1573
 3.6941  1474
 3.7041  1475
 3.7141  1281
 3.7241  1165
 3.7341  1020
 3.7441   906
 3.7541   702
 3.7641   572
 3.7741   432
 3.7841   325
 3.7941   236
 3.8041   172
 3.8141   144
 3.8241   126
 3.8341   115
 3.8441   111
 3.8541   120
 3.8641   106
 3.8741   118
 3.8841   115
 3.8941   119
 3.9041   113
 3.9141   129
 3.9241   149
 3.9341   172
 3.9441   179
 3.9541   204
 3.9641   214
 3.9741   249
 3.9841   261
 3.9941   290
 4.0041   320
 4.0141   321
 4.0241   338
 4.0341   308
 4.0441   289
 4.0541   250
 4.0641   230
 4.0741   205
 4.0841   196
 4.0941   158
 4.1041   129
 4.1141   110
 4.1241   111
 4.1341   120
 4.1441    99
 4.1541   107
 4.1641   113
 4.1741    87
 4.1841    98
 4.1941    93
 4.2041    84
 4.2141    84
 4.2241    96
 4.2341    90
 4.2441    81
 4.2541    79
 4.2641    91
 4.2741    78
 4.2841    81
 4.2941    71
 4.3041    94
 4.3141    82
 4.3241   109
 4.3341   108
 4.3441    66
 4.3541    88
 4.3641    93
 4.3741    96
 4.3841   130
 4.3941   134
 4.4041   169
 4.4141   177
 4.4241   206
 4.4341   277
 4.4441   336
 4.4541   350
 4.4641   387
 4.4741   439
 4.4841   471
 4.4941   530
 4.5041   481
 4.5141   496
 4.5241   464
 4.5341   454
 4.5441   413
 4.5541   374
 4.5641   288
 4.5741   265
 4.5841   244
 4.5941   178
 4.6041   181
 4.6141   136
 4.6241   129
 4.6341   148
 4.6441   104
 4.6541   124
 4.6641    99
 4.6741   100
 4.6841   106
 4.6941    97
 4.7041    96
 4.7141    78
 4.7241    93
 4.7341    91
 4.7441    97
 4.7541   104
 4.7641   117
 4.7741   104
 4.7841    93
 4.7941   112
 4.8041   118
 4.8141   122
 4.8241   139
 4.8341   163
 4.8441   131
 4.8541   152
 4.8641   153
 4.8741   163
 4.8841   168
 4.8941   151
 4.9041   170
 4.9141   185
 4.9241   185
 4.9341   165
 4.9441   171
 4.9541   185
 4.9641   186
 4.9741   160
 4.9841   130
 4.9941   119
 5.0041   158
 5.0141   124
 5.0241   131
 5.0341   111
 5.0441   111
 5.0541    93
 5.0641   102
 5.0741    95
 5.0841    91
 5.0941   102
 5.1041   104
 5.1141    90
 5.1241   118
 5.1341    94
 5.1441   101
 5.1541   104
 5.1641   105
 5.1741   122
 5.1841   113
 5.1941   104
 5.2041    81
 5.2141   108
 5.2241    93
 5.2341    66
 5.2441    89
 5.2541    94
 5.2641   105
 5.2741   113
 5.2841    86
 5.2941    94
 5.3041   111
 5.3141    98
 5.3241   131
 5.3341   112
 5.3441   110
 5.3541    91
 5.3641   100
 5.3741   112
 5.3841   126
 5.3941   123
 5.4041   131
 5.4141   129
 5.4241   121
 5.4341   117
 5.4441   122
 5.4541   139
 5.4641   126
 5.4741   124
 5.4841   127
 5.4941   126
 5.5041   109
 5.5141   106
 5.5241   110
 5.5341   110
 5.5441   121
 5.5541   111
 5.5641   108
 5.5741   109
 5.5841   108
 5.5941    93
 5.6041   119
 5.6141   115
 5.6241   103
 5.6341   110
 5.6441    96
 5.6541   103
 5.6641   124
 5.6741   125
 5.6841   100
 5.6941   126
 5.7041   109
 5.7141   104
 5.7241   103
 5.7341   112
 5.7441   133
 5.7541   142
 5.7641   146
 5.7741   173
 5.7841   169
 5.7941   201
 5.8041   239
 5.8141   263
 5.8241   339
 5.8341   359
 5.8441   431
 5.8541   461
 5.8641   503
 5.8741   534
 5.8841   529
 5.8941   529
 5.9041   530
 5.9141   524
 5.9241   482
 5.9341   473
 5.9441   442
 5.9541   375
 5.9641   356
 5.9741   260
 5.9841   229
 5.9941   216
 6.0041   194
 6.0141   172
 6.0241   164
 6.0341   143
 6.0441   163
 6.0541   153
 6.0641   139
 6.0741   139
 6.0841   164
 6.0941   145
 6.1041   163
 6.1141   145
 6.1241   136
 6.1341   161
 6.1441   158
 6.1541   181
 6.1641   193
 6.1741   217
 6.1841   230
 6.1941   305
 6.2041   362
 6.2141   440
 6.2241   622
 6.2341   804
 6.2441  1105
 6.2541  1499
 6.2641  2226
 6.2741  2984
 6.2841  4092
 6.2941  5427
 6.3041  7089
 6.3141  8915
 6.3241 10910
 6.3341 13211
 6.3441 15808
 6.3541 18092
 6.3641 20101
 6.3741 21624
 6.3841 22851
 6.3941 23768
 6.4041 23169
 6.4141 22959
 6.4241 21650
 6.4341 19626
 6.4441 17765
 6.4541 15474
 6.4641 13197
 6.4741 10865
 6.4841  8803
 6.4941  6867
 6.5041  5261
 6.5141  3994
 6.5241  2735
 6.5341  2028
 6.5441  1427
 6.5541  1011
 6.5641   690
 6.5741   539
 6.5841   392
 6.5941   283
 6.6041   261
 6.6141   219
 6.6241   206
 6.6341   209
 6.6441   194
 6.6541   173
 6.6641   169
 6.6741   186
 6.6841   174
 6.6941   159
 6.7041   177
 6.7141   176
 6.7241   194
 6.7341   161
 6.7441   172
 6.7541   169
 6.7641   190
 6.7741   182
 6.7841   182
 6.7941   197
 6.8041   197
 6.8141   210
 6.8241   268
 6.8341   233
 6.8441   237
 6.8541   249
 6.8641   278
 6.8741   358
 6.8841   384
 6.8941   468
 6.9041   490
 6.9141   620
 6.9241   747
 6.9341   885
 6.9441  1136
 6.9541  1338
 6.9641  1616
 6.9741  2019
 6.9841  2350
 6.9941  2796
 7.0041  3008
 7.0141  3357
 7.0241  3642
 7.0341  3855
 7.0441  4056
 7.0541  3961
 7.0641  3872
 7.0741  3870
 7.0841  3601
 7.0941  3377
 7.1041  3062
 7.1141  2690
 7.1241  2346
 7.1341  1948
 7.1441  1573
 7.1541  1269
 7.1641   998
 7.1741   826
 7.1841   684
 7.1941   528
 7.2041   402
 7.2141   360
 7.2241   304
 7.2341   249
 7.2441   236
 7.2541   223
 7.2641   189
 7.2741   206
 7.2841   222
 7.2941   208
 7.3041   236
 7.3141   222
 7.3241   244
 7.3341   250
 7.3441   236
 7.3541   231
 7.3641   240
 7.3741   289
 7.3841   281
 7.3941   253
 7.4041   286
 7.4141   280
 7.4241   235
 7.4341   265
 7.4441   257
 7.4541   247
 7.4641   262
 7.4741   229
 7.4841   236
 7.4941   233
 7.5041   211
 7.5141   225
 7.5241   216
 7.5341   186
 7.5441   209
 7.5541   205
 7.5641   206
 7.5741   216
 7.5841   191
 7.5941   214
 7.6041   209
 7.6141   185
 7.6241   201
 7.6341   209
 7.6441   173
 7.6541   190
 7.6641   201
 7.6741   203
 7.6841   191
 7.6941   202
 7.7041   201
 7.7141   232
 7.7241   226
 7.7341   217
 7.7441   206
 7.7541   247
 7.7641   221
 7.7741   220
 7.7841   227
 7.7941   260
 7.8041   253
 7.8141   252
 7.8241   266
 7.8341   263
 7.8441   298
 7.8541   272
 7.8641   305
 7.8741   319
 7.8841   329
 7.8941   307
 7.9041   340
 7.9141   344
 7.9241   370
 7.9341   389
 7.9441   364
 7.9541   405
 7.9641   443
 7.9741   488
 7.9841   523
 7.9941   560
 8.0041   565
 8.0141   605
 8.0241   688
 8.0341   715
 8.0441   747
 8.0541   797
 8.0641   889
 8.0741  1012
 8.0841  1016
 8.0941  1088
 8.1041  1117
 8.1141  1145
 8.1241  1207
 8.1341  1247
 8.1441  1262
 8.1541  1253
 8.1641  1366
 8.1741  1361
 8.1841  1454
 8.1941  1471
 8.2041  1352
 8.2141  1390
 8.2241  1507
 8.2341  1518
 8.2441  1517
 8.2541  1602
 8.2641  1592
 8.2741  1718
 8.2841  1900
 8.2941  2054
 8.3041  2175
 8.3141  2324
 8.3241  2503
 8.3341  2806
 8.3441  2905
 8.3541  3144
 8.3641  3244
 8.3741  3324
 8.3841  3390
 8.3941  3317
 8.4041  3403
 8.4141  3266
 8.4241  3082
 8.4341  2810
 8.4441  2590
 8.4541  2401
 8.4641  2103
 8.4741  1906
 8.4841  1558
 8.4941  1332
 8.5041  1185
 8.5141   984
 8.5241   825
 8.5341   755
 8.5441   652
 8.5541   560
 8.5641   538
 8.5741   497
 8.5841   499
 8.5941   491
 8.6041   483
 8.6141   477
 8.6241   515
 8.6341   495
 8.6441   490
 8.6541   455
 8.6641   466
 8.6741   452
 8.6841   432
 8.6941   405
 8.7041   386
 8.7141   369
 8.7241   386
 8.7341   376
 8.7441   341
 8.7541   309
 8.7641   316
 8.7741   327
 8.7841   316
 8.7941   327
 8.8041   309
 8.8141   312
 8.8241   316
 8.8341   291
 8.8441   301
 8.8541   307
 8.8641   295
 8.8741   279
 8.8841   294
 8.8941   305
 8.9041   305
 8.9141   308
 8.9241   320
 8.9341   320
 8.9441   352
 8.9541   322
 8.9641   348
 8.9741   325
 8.9841   316
 8.9941   331
 9.0041   372
 9.0141   369
 9.0241   364
 9.0341   389
 9.0441   388
 9.0541   399
 9.0641   425
 9.0741   424
 9.0841   432
 9.0941   433
 9.1041   463
 9.1141   480
 9.1241   479
 9.1341   531
 9.1441   518
 9.1541   554
 9.1641   619
 9.1741   589
 9.1841   646
 9.1941   681
 9.2041   703
 9.2141   735
 9.2241   767
 9.2341   822
 9.2441   866
 9.2541   947
 9.2641   963
 9.2741  1041
 9.2841  1057
 9.2941  1063
 9.3041  1126
 9.3141  1174
 9.3241  1134
 9.3341  1225
 9.3441  1226
 9.3541  1230
 9.3641  1314
 9.3741  1322
 9.3841  1376
 9.3941  1372
 9.4041  1371
 9.4141  1394
 9.4241  1426
 9.4341  1430
 9.4441  1433
 9.4541  1544
 9.4641  1476
 9.4741  1551
 9.4841  1555
 9.4941  1610
 9.5041  1650
 9.5141  1736
 9.5241  1802
 9.5341  1850
 9.5441  1954
 9.5541  2089
 9.5641  2159
 9.5741  2382
 9.5841  2489
 9.5941  2586
 9.6041  2725
 9.6141  2910
 9.6241  3084
 9.6341  3200
 9.6441  3253
 9.6541  3503
 9.6641  3508
 9.6741  3410
 9.6841  3389
 9.6941  3251
 9.7041  3127
 9.7141  2961
 9.7241  2798
 9.7341  2623
 9.7441  2431
 9.7541  2174
 9.7641  2109
 9.7741  1917
 9.7841  1772
 9.7941  1586
 9.8041  1565
 9.8141  1458
 9.8241  1322
 9.8341  1285
 9.8441  1301
 9.8541  1293
 9.8641  1305
 9.8741  1328
 9.8841  1358
 9.8941  1326
 9.9041  1387
 9.9141  1473
 9.9241  1443
 9.9341  1421
 9.9441  1461
 9.9541  1470
 9.9641  1453
 9.9741  1425
 9.9841  1422
 9.9941  1290
10.0041  1266
10.0141  1161
10.0241  1087
10.0341  1054
10.0441   937
10.0541   836
10.0641   721
10.0741   678
10.0841   574
10.0941   505
10.1041   502
10.1141   419
10.1241   354
10.1341   359
10.1441   309
10.1541   315
10.1641   292
10.1741   292
10.1841   276
10.1941   266
10.2041   257
10.2141   226
10.2241   224
10.2341   222
10.2441   227
10.2541   194
10.2641   205
10.2741   210
10.2841   214
10.2941   193
10.3041   186
10.3141   185
10.3241   174
10.3341   177
10.3441   168
10.3541   168
10.3641   194
10.3741   180
10.3841   166
10.3941   184
10.4041   168
10.4141   177
10.4241   185
10.4341   184
10.4441   189
10.4541   179
10.4641   189
10.4741   205
10.4841   190
10.4941   169
10.5041   220
10.5141   191
10.5241   168
10.5341   190
10.5441   195
10.5541   216
10.5641   206
10.5741   219
10.5841   202
10.5941   207
10.6041   207
10.6141   192
10.6241   217
10.6341   203
10.6441   206
10.6541   211
10.6641   217
10.6741   213
10.6841   236
10.6941   233
10.7041   227
10.7141   222
10.7241   211
10.7341   221
10.7441   250
10.7541   246
10.7641   242
10.7741   235
10.7841   239
10.7941   254
10.8041   271
10.8141   274
10.8241   271
10.8341   277
10.8441   295
10.8541   291
10.8641   302
10.8741   295
10.8841   300
10.8941   310
10.9041   290
10.9141   299
10.9241   286
10.9341   307
10.9441   317
10.9541   313
10.9641   315
10.9741   320
10.9841   311
10.9941   308
11.0041   282
11.0141   281
11.0241   272
11.0341   275
11.0441   280
11.0541   259
11.0641   250
11.0741   268
11.0841   258
11.0941   249
11.1041   264
11.1141   290
11.1241   285
11.1341   265
11.1441   291
11.1541   295
11.1641   298
11.1741   303
11.1841   332
11.1941   344
11.2041   352
11.2141   355
11.2241   371
11.2341   399
11.2441   432
11.2541   423
11.2641   450
11.2741   448
11.2841   443
11.2941   478
11.3041   429
11.3141   414
11.3241   419
11.3341   399
11.3441   383
11.3541   337
11.3641   342
11.3741   327
11.3841   305
11.3941   291
11.4041   269
11.4141   261
11.4241   254
11.4341   243
11.4441   229
11.4541   233
11.4641   216
11.4741   200
11.4841   212
11.4941   208
11.5041   205
11.5141   205
11.5241   220
11.5341   230
11.5441   235
11.5541   243
11.5641   248
11.5741   235
11.5841   237
11.5941   258
11.6041   251
11.6141   223
11.6241   244
11.6341   235
11.6441   236
11.6541   228
11.6641   231
11.6741   219
11.6841   216
11.6941   212
11.7041   210
11.7141   233
11.7241   214
11.7341   191
11.7441   199
11.7541   194
11.7641   172
11.7741   191
11.7841   201
11.7941   180
11.8041   166
11.8141   156
11.8241   151
11.8341   174
11.8441   168
11.8541   155
11.8641   167
11.8741   165
11.8841   162
11.8941   154
11.9041   163
11.9141   156
11.9241   153
11.9341   150
11.9441   162
11.9541   175
11.9641   175
11.9741   155
11.9841   158
11.9941   167
12.0041   176
12.0141   189
12.0241   184
12.0341   176
12.0441   167
12.0541   179
12.0641   175
12.0741   180
12.0841   183
12.0941   163
12.1041   170
12.1141   168
12.1241   161
12.1341   158
12.1441   160
12.1541   159
12.1641   169
12.1741   165
12.1841   166
12.1941   150
12.2041   160
12.2141   173
12.2241   164
12.2341   159
12.2441   151
12.2541   152
12.2641   160
12.2741   143
12.2841   157
12.2941   160
12.3041   163
12.3141   167
12.3241   170
12.3341   158
12.3441   153
12.3541   152
12.3641   168
12.3741   174
12.3841   185
12.3941   176
12.4041   150
12.4141   160
12.4241   160
12.4341   156
12.4441   168
12.4541   173
12.4641   162
12.4741   157
12.4841   183
12.4941   185
12.5041   181
12.5141   168
12.5241   164
12.5341   176
12.5441   172
12.5541   185
12.5641   184
12.5741   179
12.5841   178
12.5941   185
12.6041   187
12.6141   183
12.6241   178
12.6341   184
12.6441   185
12.6541   182
12.6641   188
12.6741   197
12.6841   189
12.6941   183
12.7041   185
12.7141   175
12.7241   168
12.7341   172
12.7441   174
12.7541   172
12.7641   174
12.7741   179
12.7841   181
12.7941   180
12.8041   180
12.8141   182
12.8241   181
12.8341   176
12.8441   175
12.8541   177
12.8641   178
12.8741   187
12.8841   194
12.8941   187
12.9041   179
12.9141   177
12.9241   174
12.9341   184
12.9441   191
12.9541   185
12.9641   174
12.9741   179
12.9841   200
12.9941   196
13.0041   183
13.0141   193
13.0241   197
13.0341   199
13.0441   212
13.0541   198
13.0641   190
13.0741   191
13.0841   193
13.0941   191
13.1041   178
13.1141   180
13.1241   179
13.1341   176
13.1441   199
13.1541   203
13.1641   187
13.1741   202
13.1841   211
13.1941   214
13.2041   224
13.2141   223
13.2241   234
13.2341   239
13.2441   259
13.2541   285
13.2641   319
13.2741   322
13.2841   330
13.2941   349
13.3041   364
13.3141   378
13.3241   377
13.3341   370
13.3441   396
13.3541   423
13.3641   416
13.3741   396
13.3841   387
13.3941   416
13.4041   422
13.4141   420
13.4241   390
13.4341   369
13.4441   401
13.4541   391
13.4641   339
13.4741   327
13.4841   307
13.4941   291
13.5041   285
13.5141   286
13.5241   281
13.5341   252
13.5441   245
13.5541   263
13.5641   260
13.5741   220
13.5841   219
13.5941   243
13.6041   238
13.6141   233
13.6241   228
13.6341   231
13.6441   238
13.6541   221
13.6641   214
13.6741   229
13.6841   228
13.6941   220
13.7041   218
13.7141   225
13.7241   227
13.7341   205
13.7441   210
13.7541   229
13.7641   221
13.7741   216
13.7841   222
13.7941   219
13.8041   220
13.8141   215
13.8241   220
13.8341   230
13.8441   231
13.8541   245
13.8641   253
13.8741   262
13.8841   257
13.8941   240
13.9041   250
13.9141   268
13.9241   267
13.9341   276
13.9441   316
13.9541   344
13.9641   364
13.9741   403
13.9841   429
13.9941   476
14.0041   512
14.0141   538
14.0241   574
14.0341   621
14.0441   704
14.0541   780
14.0641   837
14.0741   878
14.0841   920
14.0941   974
14.1041   986
14.1141  1039
14.1241  1083
14.1341  1078
14.1441  1097
14.1541  1092
14.1641  1074
14.1741  1015
14.1841   976
14.1941   966
14.2041   937
14.2141   874
14.2241   805
14.2341   779
14.2441   737
14.2541   663
14.2641   633
14.2741   578
14.2841   513
14.2941   488
14.3041   455
14.3141   435
14.3241   403
14.3341   359
14.3441   327
14.3541   323
14.3641   300
14.3741   283
14.3841   281
14.3941   269
14.4041   253
14.4141   246
14.4241   264
14.4341   281
14.4441   268
14.4541   266
14.4641   277
14.4741   276
14.4841   270
14.4941   261
14.5041   259
14.5141   253
14.5241   255
14.5341   254
14.5441   258
14.5541   264
14.5641   253
14.5741   250
14.5841   252
14.5941   261
14.6041   261
14.6141   266
14.6241   274
14.6341   266
14.6441   251
14.6541   267
14.6641   274
14.6741   253
14.6841   260
14.6941   278
14.7041   281
14.7141   265
14.7241   260
14.7341   277
14.7441   264
14.7541   258
14.7641   274
14.7741   278
14.7841   272
14.7941   271
14.8041   283
14.8141   308
14.8241   315
14.8341   311
14.8441   296
14.8541   299
14.8641   300
14.8741   300
14.8841   325
14.8941   331
14.9041   322
14.9141   336
14.9241   341
14.9341   352
14.9441   345
14.9541   341
14.9641   327
14.9741   325
14.9841   338
14.9941   339
15.0041   331
15.0141   319
15.0241   335
15.0341   350
15.0441   331
15.0541   299
15.0641   302
15.0741   318
15.0841   317
15.0941   311
15.1041   293
15.1141   299
15.1241   301
15.1341   311
15.1441   307
15.1541   298
15.1641   300
15.1741   287
15.1841   281
15.1941   283
15.2041   286
15.2141   290
15.2241   277
15.2341   278
15.2441   280
15.2541   293
15.2641   283
15.2741   283
15.2841   296
15.2941   304
15.3041   316
15.3141   296
15.3241   297
15.3341   298
15.3441   271
15.3541   286
15.3641   290
15.3741   287
15.3841   304
15.3941   310
15.4041   311
15.4141   315
15.4241   296
15.4341   296
15.4441   292
15.4541   283
15.4641   293
15.4741   317
15.4841   333
15.4941   319
15.5041   329
15.5141   332
15.5241   330
15.5341   343
15.5441   350
15.5541   327
15.5641   354
15.5741   371
15.5841   377
15.5941   398
15.6041   392
15.6141   395
15.6241   411
15.6341   406
15.6441   449
15.6541   487
15.6641   495
15.6741   499
15.6841   526
15.6941   538
15.7041   560
15.7141   599
15.7241   640
15.7341   633
15.7441   621
15.7541   664
15.7641   667
15.7741   682
15.7841   680
15.7941   634
15.8041   630
15.8141   641
15.8241   656
15.8341   627
15.8441   601
15.8541   624
15.8641   600
15.8741   549
15.8841   541
15.8941   519
15.9041   482
15.9141   469
15.9241   468
15.9341   449
15.9441   418
15.9541   404
15.9641   416
15.9741   395
15.9841   398
15.9941   399
16.0041   390
16.0141   377
16.0241   353
16.0341   340
16.0441   347
16.0541   382
16.0641   370
16.0741   363
16.0841   365
16.0941   365
16.1041   364
16.1141   361
16.1241   356
16.1341   351
16.1441   366
16.1541   357
16.1641   338
16.1741   360
16.1841   369
16.1941   344
16.2041   337
16.2141   357
16.2241   361
16.2341   344
16.2441   338
16.2541   346
16.2641   341
16.2741   330
16.2841   315
16.2941   322
16.3041   353
16.3141   358
16.3241   357
16.3341   364
16.3441   372
16.3541   346
16.3641   368
16.3741   352
16.3841   363
16.3941   366
16.4041   356
16.4141   378
16.4241   372
16.4341   354
16.4441   348
16.4541   348
16.4641   356
16.4741   390
16.4841   404
16.4941   377
16.5041   375
16.5141   388
16.5241   381
16.5341   390
16.5441   386
16.5541   370
16.5641   370
16.5741   353
16.5841   351
16.5941   367
16.6041   376
16.6141   402
16.6241   400
16.6341   406
16.6441   391
16.6541   368
16.6641   374
16.6741   379
16.6841   367
16.6941   370
16.7041   420
16.7141   419
16.7241   377
16.7341   378
16.7441   423
16.7541   404
16.7641   381
16.7741   376
16.7841   360
16.7941   396
16.8041   409
16.8141   382
16.8241   394
16.8341   399
16.8441   379
16.8541   384
16.8641   384
16.8741   374
16.8841   395
16.8941   389
16.9041   376
16.9141   372
16.9241   393
16.9341   396
16.9441   397
16.9541   403
16.9641   403
16.9741   383
16.9841   414
16.9941   398
17.0041   397
17.0141   403
17.0241   428
17.0341   414
17.0441   384
17.0541   399
17.0641   401
17.0741   411
17.0841   390
17.0941   404
17.1041   394
17.1141   394
17.1241   382
17.1341   409
17.1441   402
17.1541   385
17.1641   366
17.1741   370
17.1841   389
17.1941   431
17.2041   433
17.2141   400
17.2241   411
17.2341   453
17.2441   421
17.2541   424
17.2641   399
17.2741   390
17.2841   406
17.2941   400
17.3041   410
17.3141   400
17.3241   417
17.3341   399
17.3441   417
17.3541   448
17.3641   454
17.3741   443
17.3841   420
17.3941   411
17.4041   420
17.4141   441
17.4241   425
17.4341   407
17.4441   418
17.4541   407
17.4641   414
17.4741   422
17.4841   414
17.4941   442
17.5041   455
17.5141   452
17.5241   439
17.5341   436
17.5441   459
17.5541   456
17.5641   478
17.5741   478
17.5841   460
17.5941   450
17.6041   448
17.6141   470
17.6241   472
17.6341   484
17.6441   485
17.6541   488
17.6641   477
17.6741   457
17.6841   466
17.6941   480
17.7041   477
17.7141   473
17.7241   473
17.7341   466
17.7441   481
17.7541   507
17.7641   472
17.7741   460
17.7841   480
17.7941   453
17.8041   448
17.8141   494
17.8241   485
17.8341   466
17.8441   492
17.8541   449
17.8641   439
17.8741   437
17.8841   478
17.8941   468
17.9041   448
17.9141   454
17.9241   443
17.9341   463
17.9441   494
17.9541   485
17.9641   460
17.9741   462
17.9841   468
17.9941   467
18.0041   433
18.0141   465
18.0241   452
18.0341   474
18.0441   484
18.0541   440
18.0641   469
18.0741   476
18.0841   475
18.0941   484
18.1041   464
18.1141   452
18.1241   429
18.1341   465
18.1441   460
18.1541   473
18.1641   488
18.1741   486
18.1841   489
18.1941   465
18.2041   486
18.2141   459
18.2241   457
18.2341   458
18.2441   452
18.2541   484
18.2641   454
18.2741   470
18.2841   482
18.2941   500
18.3041   468
18.3141   486
18.3241   482
18.3341   478
18.3441   478
18.3541   468
18.3641   466
18.3741   484
18.3841   483
18.3941   493
18.4041   511
18.4141   497
18.4241   472
18.4341   507
18.4441   491
18.4541   482
18.4641   490
18.4741   495
18.4841   494
18.4941   481
18.5041   457
18.5141   466
18.5241   508
18.5341   479
18.5441   464
18.5541   475
18.5641   469
18.5741   494
18.5841   510
18.5941   488
18.6041   523
18.6141   499
18.6241   504
18.6341   470
18.6441   477
18.6541   486
18.6641   516
18.6741   491
18.6841   519
18.6941   488
18.7041   467
18.7141   493
18.7241   498
18.7341   520
18.7441   480
18.7541   482
18.7641   495
18.7741   519
18.7841   529
18.7941   491
18.8041   482
18.8141   499
18.8241   529
18.8341   572
18.8441   517
18.8541   539
18.8641   505
18.8741   510
18.8841   511
18.8941   479
18.9041   486
18.9141   499
18.9241   494
18.9341   466
18.9441   474
18.9541   517
18.9641   485
18.9741   519
18.9841   520
18.9941   544
19.0041   522
19.0141   492
19.0241   519
19.0341   516
19.0441   533
19.0541   503
19.0641   518
19.0741   490
19.0841   525
19.0941   496
19.1041   526
19.1141   533
19.1241   497
19.1341   521
19.1441   524
19.1541   485
19.1641   506
19.1741   518
19.1841   517
19.1941   534
19.2041   509
19.2141   534
19.2241   518
19.2341   556
19.2441   495
19.2541   517
19.2641   535
19.2741   534
19.2841   549
19.2941   551
19.3041   518
19.3141   531
19.3241   528
19.3341   510
19.3441   552
19.3541   552
19.3641   521
19.3741   519
19.3841   525
19.3941   536
19.4041   528
19.4141   508
19.4241   538
19.4341   523
19.4441   559
19.4541   533
19.4641   478
19.4741   537
19.4841   525
19.4941   579
19.5041   537
19.5141   571
19.5241   550
19.5341   516
19.5441   548
19.5541   530
19.5641   524
19.5741   528
19.5841   548
19.5941   524
19.6041   541
19.6141   558
19.6241   565
19.6341   549
19.6441   546
19.6541   530
19.6641   564
19.6741   514
19.6841   571
19.6941   582
19.7041   562
19.7141   575
19.7241   541
19.7341   562
19.7441   529
19.7541   556
19.7641   542
19.7741   569
19.7841   616
19.7941   572
19.8041   562
19.8141   525
19.8241   500
19.8341   503
19.8441   558
19.8541   556
19.8641   559
19.8741   519
19.8841   531
19.8941   538
19.9041   547
19.9141   571
19.9241   589
19.9341   569
19.9441   561
19.9541   536
19.9641   525
19.9741   512
19.9841   606
19.9941   567
20.0041   546
20.0141   554
20.0241   555
20.0341   534
20.0441   540
20.0541   568
20.0641   567
20.0741   541
20.0841   541
20.0941   536
20.1041   527
20.1141   573
20.1241   600
20.1341   563
20.1441   549
20.1541   566
20.1641   547
20.1741   553
20.1841   548
20.1941   594
20.2041   534
20.2141   575
20.2241   573
20.2341   542
20.2441   562
20.2541   537
20.2641   571
20.2741   590
20.2841   580
20.2941   523
20.3041   550
20.3141   575
20.3241   582
20.3341   587
20.3441   572
20.3541   573
20.3641   617
20.3741   556
20.3841   538
20.3941   588
20.4041   586
20.4141   556
20.4241   541
20.4341   531
20.4441   534
20.4541   586
20.4641   566
20.4741   584
20.4841   570
20.4941   561
20.5041   575
20.5141   531
20.5241   564
20.5341   581
20.5441   618
20.5541   571
20.5641   602
20.5741   539
20.5841   585
20.5941   541
20.6041   558
20.6141   589
20.6241   552
20.6341   616
20.6441   588
20.6541   576
20.6641   602
20.6741   559
20.6841   547
20.6941   598
20.7041   619
20.7141   565
20.7241   555
20.7341   590
20.7441   616
20.7541   587
20.7641   558
20.7741   593
20.7841   557
20.7941   602
20.8041   607
20.8141   602
20.8241   589
20.8341   645
20.8441   616
20.8541   621
20.8641   646
20.8741   637
20.8841   672
20.8941   691
20.9041   678
20.9141   728
20.9241   729
20.9341   739
20.9441   761
20.9541   751
20.9641   696
20.9741   761
20.9841   769
20.9941   755
21.0041   771
21.0141   790
21.0241   828
21.0341   859
21.0441   844
21.0541   859
21.0641   888
21.0741   883
21.0841   892
21.0941   895
21.1041   935
21.1141   890
21.1241   906
21.1341   931
21.1441   916
21.1541   871
21.1641   918
21.1741   944
21.1841   957
21.1941   895
21.2041   880
21.2141   908
21.2241   883
21.2341   887
21.2441   858
21.2541   759
21.2641   769
21.2741   757
21.2841   752
21.2941   719
21.3041   737
21.3141   744
21.3241   727
21.3341   669
21.3441   641
21.3541   652
21.3641   614
21.3741   614
21.3841   629
21.3941   577
21.4041   626
21.4141   601
21.4241   593
21.4341   605
21.4441   589
21.4541   616
21.4641   604
21.4741   612
21.4841   610
21.4941   596
21.5041   612
21.5141   630
21.5241   582
21.5341   611
21.5441   633
21.5541   589
21.5641   589
21.5741   581
21.5841   587
21.5941   589
21.6041   623
21.6141   572
21.6241   595
21.6341   555
21.6441   608
21.6541   543
21.6641   585
21.6741   619
21.6841   589
21.6941   597
21.7041   561
21.7141   601
21.7241   554
21.7341   577
21.7441   583
21.7541   610
21.7641   632
21.7741   548
21.7841   585
21.7941   569
21.8041   596
21.8141   579
21.8241   627
21.8341   592
21.8441   587
21.8541   575
21.8641   594
21.8741   609
21.8841   610
21.8941   571
21.9041   589
21.9141   614
21.9241   595
21.9341   608
21.9441   599
21.9541   601
21.9641   596
21.9741   586
21.9841   582
21.9941   620
22.0041   635
22.0141   588
22.0241   612
22.0341   609
22.0441   550
22.0541   583
22.0641   591
22.0741   596
22.0841   580
22.0941   602
22.1041   574
22.1141   572
22.1241   628
22.1341   586
22.1441   603
22.1541   598
22.1641   606
22.1741   558
22.1841   557
22.1941   604
22.2041   573
22.2141   603
22.2241   578
22.2341   570
22.2441   604
22.2541   596
22.2641   600
22.2741   566
22.2841   636
22.2941   575
22.3041   636
22.3141   579
22.3241   627
22.3341   576
22.3441   610
22.3541   605
22.3641   558
22.3741   621
22.3841   591
22.3941   615
22.4041   598
22.4141   572
22.4241   580
22.4341   587
22.4441   598
22.4541   605
22.4641   573
22.4741   640
22.4841   579
22.4941   632
22.5041   588
22.5141   587
22.5241   576
22.5341   603
22.5441   621
22.5541   584
22.5641   590
22.5741   581
22.5841   588
22.5941   584
22.6041   594
22.6141   573
22.6241   602
22.6341   585
22.6441   629
22.6541   551
22.6641   610
22.6741   585
22.6841   623
22.6941   578
22.7041   597
22.7141   579
22.7241   636
22.7341   600
22.7441   564
22.7541   580
22.7641   614
22.7741   600
22.7841   573
22.7941   622
22.8041   638
22.8141   603
22.8241   582
22.8341   618
22.8441   586
22.8541   578
22.8641   575
22.8741   594
22.8841   603
22.8941   591
22.9041   578
22.9141   584
22.9241   643
22.9341   556
22.9441   565
22.9541   603
22.9641   575
22.9741   630
22.9841   575
22.9941   566
23.0041   607
23.0141   568
23.0241   547
23.0341   599
23.0441   622
23.0541   587
23.0641   570
23.0741   529
23.0841   593
23.0941   569
23.1041   595
23.1141   554
23.1241   615
23.1341   611
23.1441   613
23.1541   578
23.1641   604
23.1741   584
23.1841   611
23.1941   564
23.2041   577
23.2141   624
23.2241   568
23.2341   583
23.2441   578
23.2541   568
23.2641   600
23.2741   562
23.2841   513
23.2941   623
23.3041   582
23.3141   603
23.3241   637
23.3341   562
23.3441   588
23.3541   616
23.3641   557
23.3741   574
23.3841   632
23.3941   553
23.4041   598
23.4141   604
23.4241   528
23.4341   556
23.4441   551
23.4541   567
23.4641   603
23.4741   597
23.4841   638
23.4941   581
23.5041   614
23.5141   555
23.5241   582
23.5341   618
23.5441   628
23.5541   562
23.5641   574
23.5741   533
23.5841   551
23.5941   603
23.6041   577
23.6141   554
23.6241   563
23.6341   573
23.6441   630
23.6541   599
23.6641   643
23.6741   578
23.6841   599
23.6941   630
23.7041   645
23.7141   607
23.7241   615
23.7341   585
23.7441   652
23.7541   594
23.7641   592
23.7741   642
23.7841   625
23.7941   656
23.8041   639
23.8141   593
23.8241   619
23.8341   621
23.8441   641
23.8541   681
23.8641   631
23.8741   638
23.8841   596
23.8941   619
23.9041   629
23.9141   632
23.9241   632
23.9341   595
23.9441   600
23.9541   599
23.9641   584
23.9741   601
23.9841   602
23.9941   568
24.0041   564
24.0141   610
24.0241   544
24.0341   579
24.0441   608
24.0541   560
24.0641   586
24.0741   578
24.0841   599
24.0941   585
24.1041   584
24.1141   583
24.1241   601
24.1341   547
24.1441   595
24.1541   605
24.1641   577
24.1741   570
24.1841   555
24.1941   576
24.2041   554
24.2141   564
24.2241   589
24.2341   576
24.2441   578
24.2541   564
24.2641   544
24.2741   572
24.2841   563
24.2941   541
24.3041   614
24.3141   569
24.3241   577
24.3341   581
24.3441   552
24.3541   568
24.3641   553
24.3741   600
24.3841   598
24.3941   537
24.4041   576
24.4141   544
24.4241   557
24.4341   553
24.4441   571
24.4541   547
24.4641   568
24.4741   561
24.4841   570
24.4941   587
24.5041   587
24.5141   535
24.5241   579
24.5341   529
24.5441   533
24.5541   527
24.5641   511
24.5741   576
24.5841   561
24.5941   529
24.6041   564
24.6141   559
24.6241   568
24.6341   560
24.6441   516
24.6541   550
24.6641   579
24.6741   602
24.6841   542
24.6941   545
24.7041   566
24.7141   542
24.7241   552
24.7341   541
24.7441   561
24.7541   606
24.7641   565
24.7741   584
24.7841   547
24.7941   564
24.8041   576
24.8141   570
24.8241   527
24.8341   517
24.8441   605
24.8541   548
24.8641   573
24.8741   532
24.8841   553
24.8941   554
24.9041   562
24.9141   568
24.9241   544
24.9341   543
24.9441   575
24.9541   586
24.9641   565
24.9741   579
24.9841   576
24.9941   567
25.0041   573
25.0141   511
25.0241   580
25.0341   571
25.0441   563
25.0541   562
25.0641   527
25.0741   541
25.0841   521
25.0941   589
25.1041   581
25.1141   535
25.1241   551
25.1341   572
25.1441   561
25.1541   569
25.1641   557
25.1741   542
25.1841   530
25.1941   552
25.2041   531
25.2141   577
25.2241   562
25.2341   561
25.2441   592
25.2541   587
25.2641   555
25.2741   544
25.2841   553
25.2941   536
25.3041   587
25.3141   613
25.3241   555
25.3341   531
25.3441   572
25.3541   496
25.3641   496
25.3741   522
25.3841   545
25.3941   485
25.4041   548
25.4141   532
25.4241   589
25.4341   550
25.4441   529
25.4541   504
25.4641   553
25.4741   534
25.4841   554
25.4941   523
25.5041   534
25.5141   523
25.5241   520
25.5341   508
25.5441   510
25.5541   489
25.5641   498
25.5741   525
25.5841   518
25.5941   505
25.6041   537
25.6141   531
25.6241   537
25.6341   517
25.6441   523
25.6541   500
25.6641   526
25.6741   556
25.6841   531
25.6941   505
25.7041   483
25.7141   481
25.7241   529
25.7341   531
25.7441   556
25.7541   538
25.7641   491
25.7741   529
25.7841   503
25.7941   469
25.8041   462
25.8141   517
25.8241   486
25.8341   498
25.8441   492
25.8541   516
25.8641   538
25.8741   526
25.8841   494
25.8941   525
25.9041   492
25.9141   489
25.9241   505
25.9341   483
25.9441   467
25.9541   478
25.9641   465
25.9741   485
25.9841   510
25.9941   498
26.0041   517
26.0141   502
26.0241   475
26.0341   503
26.0441   527
26.0541   517
26.0641   529
26.0741   508
26.0841   511
26.0941   490
26.1041   457
26.1141   524
26.1241   481
26.1341   475
26.1441   502
26.1541   511
26.1641   482
26.1741   530
26.1841   482
26.1941   469
26.2041   507
26.2141   466
26.2241   490
26.2341   475
26.2441   483
26.2541   471
26.2641   517
26.2741   529
26.2841   516
26.2941   535
26.3041   499
26.3141   518
26.3241   513
26.3341   496
26.3441   494
26.3541   472
26.3641   522
26.3741   497
26.3841   509
26.3941   504
26.4041   481
26.4141   495
26.4241   474
26.4341   500
26.4441   480
26.4541   508
26.4641   525
26.4741   487
26.4841   485
26.4941   475
26.5041   499
26.5141   488
26.5241   473
26.5341   461
26.5441   492
26.5541   492
26.5641   490
26.5741   478
26.5841   466
26.5941   481
26.6041   425
26.6141   463
26.6241   432
26.6341   474
26.6441   476
26.6541   471
26.6641   489
26.6741   460
26.6841   479
26.6941   491
26.7041   480
26.7141   444
26.7241   492
26.7341   458
26.7441   496
26.7541   427
26.7641   475
26.7741   516
26.7841   469
26.7941   438
26.8041   457
26.8141   484
26.8241   496
26.8341   484
26.8441   450
26.8541   466
26.8641   449
26.8741   477
26.8841   479
26.8941   476
26.9041   475
26.9141   482
26.9241   496
26.9341   478
26.9441   460
26.9541   453
26.9641   446
26.9741   445
26.9841   471
26.9941   434
27.0041   475
27.0141   467
27.0241   445
27.0341   470
27.0441   454
27.0541   447
27.0641   449
27.0741   463
27.0841   436
27.0941   457
27.1041   434
27.1141   424
27.1241   448
27.1341   433
27.1441   449
27.1541   453
27.1641   430
27.1741   454
27.1841   447
27.1941   472
27.2041   470
27.2141   463
27.2241   476
27.2341   457
27.2441   449
27.2541   442
27.2641   476
27.2741   466
27.2841   493
27.2941   461
27.3041   474
27.3141   435
27.3241   433
27.3341   414
27.3441   470
27.3541   443
27.3641   458
27.3741   400
27.3841   444
27.3941   503
27.4041   429
27.4141   439
27.4241   446
27.4341   461
27.4441   443
27.4541   423
27.4641   414
27.4741   443
27.4841   446
27.4941   432
27.5041   469
27.5141   433
27.5241   431
27.5341   463
27.5441   456
27.5541   455
27.5641   429
27.5741   456
27.5841   448
27.5941   458
27.6041   472
27.6141   437
27.6241   456
27.6341   423
27.6441   396
27.6541   389
27.6641   444
27.6741   424
27.6841   442
27.6941   431
27.7041   403
27.7141   423
27.7241   406
27.7341   420
27.7441   417
27.7541   454
27.7641   413
27.7741   401
27.7841   384
27.7941   432
27.8041   447
27.8141   444
27.8241   396
27.8341   440
27.8441   397
27.8541   420
27.8641   441
27.8741   411
27.8841   428
27.8941   382
27.9041   432
27.9141   429
27.9241   394
27.9341   420
27.9441   430
27.9541   405
27.9641   424
27.9741   420
27.9841   443
27.9941   429
28.0041   469
28.0141   424
28.0241   400
28.0341   420
28.0441   423
28.0541   406
28.0641   424
28.0741   394
28.0841   428
28.0941   400
28.1041   414
28.1141   412
28.1241   434
28.1341   433
28.1441   414
28.1541   405
28.1641   415
28.1741   393
28.1841   433
28.1941   396
28.2041   421
28.2141   402
28.2241   418
28.2341   401
28.2441   401
28.2541   428
28.2641   373
28.2741   377
28.2841   440
28.2941   427
28.3041   391
28.3141   415
28.3241   453
28.3341   400
28.3441   382
28.3541   432
28.3641   399
28.3741   401
28.3841   366
28.3941   377
28.4041   372
28.4141   426
28.4241   433
28.4341   417
28.4441   405
28.4541   429
28.4641   415
28.4741   387
28.4841   386
28.4941   387
28.5041   384
28.5141   398
28.5241   404
28.5341   431
28.5441   415
28.5541   354
28.5641   364
28.5741   366
28.5841   382
28.5941   391
28.6041   374
28.6141   375
28.6241   407
28.6341   398
28.6441   413
28.6541   420
28.6641   406
28.6741   420
28.6841   368
28.6941   386
28.7041   386
28.7141   390
28.7241   387
28.7341   364
28.7441   373
28.7541   368
28.7641   353
28.7741   392
28.7841   407
28.7941   393
28.8041   370
28.8141   352
28.8241   378
28.8341   387
28.8441   387
28.8541   377
28.8641   399
28.8741   372
28.8841   380
28.8941   336
28.9041   399
28.9141   386
28.9241   360
28.9341   358
28.9441   362
28.9541   359
28.9641   373
28.9741   379
28.9841   389
28.9941   377
29.0041   350
29.0141   362
29.0241   333
29.0341   360
29.0441   335
29.0541   380
29.0641   369
29.0741   371
29.0841   385
29.0941   355
29.1041   387
29.1141   361
29.1241   362
29.1341   377
29.1441   359
29.1541   368
29.1641   413
29.1741   360
29.1841   346
29.1941   370
29.2041   355
29.2141   351
29.2241   398
29.2341   373
29.2441   375
29.2541   371
29.2641   312
29.2741   349
29.2841   376
29.2941   349
29.3041   380
29.3141   347
29.3241   358
29.3341   356
29.3441   352
29.3541   375
29.3641   347
29.3741   382
29.3841   370
29.3941   372
29.4041   373
29.4141   348
29.4241   347
29.4341   373
29.4441   362
29.4541   331
29.4641   348
29.4741   319
29.4841   349
29.4941   336
29.5041   374
29.5141   368
29.5241   344
29.5341   334
29.5441   345
29.5541   368
29.5641   328
29.5741   349
29.5841   306
29.5941   357
29.6041   331
29.6141   346
29.6241   343
29.6341   346
29.6441   319
29.6541   354
29.6641   311
29.6741   374
29.6841   338
29.6941   341
29.7041   320
29.7141   334
29.7241   338
29.7341   339
29.7441   355
29.7541   341
29.7641   327
29.7741   353
29.7841   321
29.7941   331
29.8041   322
29.8141   290
29.8241   331
29.8341   363
29.8441   324
29.8541   344
29.8641   349
29.8741   319
29.8841   345
29.8941   306
29.9041   344
29.9141   329
29.9241   320
29.9341   312
29.9441   302
29.9541   320
29.9641   333
29.9741   346
29.9841   350
29.9941   331
30.0041   346
30.0141   337
30.0241   325
30.0341   308
30.0441   334
30.0541   310
30.0641   322
30.0741   308
30.0841   319
30.0941   298
30.1041   318
30.1141   315
30.1241   330
30.1341   335
30.1441   313
30.1541   290
30.1641   296
30.1741   327
30.1841   322
30.1941   323
30.2041   350
30.2141   321
30.2241   311
30.2341   280
30.2441   300
30.2541   296
30.2641   306
30.2741   341
30.2841   329
30.2941   332
30.3041   292
30.3141   282
30.3241   298
30.3341   303
30.3441   315
30.3541   301
30.3641   301
30.3741   309
30.3841   295
30.3941   332
30.4041   314
30.4141   321
30.4241   304
30.4341   319
30.4441   312
30.4541   306
30.4641   298
30.4741   313
30.4841   316
30.4941   286
30.5041   288
30.5141   303
30.5241   317
30.5341   297
30.5441   310
30.5541   284
30.5641   318
30.5741   279
30.5841   293
30.5941   293
30.6041   295
30.6141   325
30.6241   272
30.6341   293
30.6441   311
30.6541   316
30.6641   292
30.6741   329
30.6841   301
30.6941   299
30.7041   294
30.7141   284
30.7241   315
30.7341   295
30.7441   323
30.7541   300
30.7641   264
30.7741   300
30.7841   291
30.7941   274
30.8041   310
30.8141   294
30.8241   312
30.8341   288
30.8441   300
30.8541   294
30.8641   294
30.8741   314
30.8841   283
30.8941   322
30.9041   272
30.9141   283
30.9241   283
30.9341   259
30.9441   293
30.9541   280
30.9641   266
30.9741   303
30.9841   279
30.9941   289
31.0041   277
31.0141   265
31.0241   289
31.0341   261
31.0441   257
31.0541   293
31.0641   244
31.0741   301
31.0841   266
31.0941   267
31.1041   284
31.1141   301
31.1241   259
31.1341   313
31.1441   288
31.1541   255
31.1641   250
31.1741   268
31.1841   270
31.1941   289
31.2041   266
31.2141   287
31.2241   269
31.2341   283
31.2441   291
31.2541   274
31.2641   281
31.2741   257
31.2841   246
31.2941   254
31.3041   267
31.3141   288
31.3241   255
31.3341   290
31.3441   273
31.3541   273
31.3641   277
31.3741   276
31.3841   263
31.3941   267
31.4041   266
31.4141   276
31.4241   282
31.4341   263
31.4441   233
31.4541   273
31.4641   254
31.4741   259
31.4841   271
31.4941   259
31.5041   256
31.5141   258
31.5241   275
31.5341   250
31.5441   245
31.5541   278
31.5641   282
31.5741   253
31.5841   270
31.5941   262
31.6041   284
31.6141   239
31.6241   253
31.6341   285
31.6441   284
31.6541   269
31.6641   274
31.6741   250
31.6841   278
31.6941   236
31.7041   273
31.7141   276
31.7241   268
31.7341   289
31.7441   286
31.7541   255
31.7641   237
31.7741   287
31.7841   296
31.7941   269
31.8041   283
31.8141   275
31.8241   251
31.8341   270
31.8441   270
31.8541   259
31.8641   291
31.8741   256
31.8841   291
31.8941   233
31.9041   249
31.9141   271
31.9241   258
31.9341   276
31.9441   241
31.9541   239
31.9641   227
31.9741   257
31.9841   227
31.9941   270
32.0041   235
32.0141   259
32.0241   272
32.0341   281
32.0441   251
32.0541   240
32.0641   260
32.0741   271
32.0841   266
32.0941   253
32.1041   279
32.1141   283
32.1241   270
32.1341   279
32.1441   265
32.1541   259
32.1641   284
32.1741   267
32.1841   282
32.1941   265
32.2041   270
32.2141   277
32.2241   273
32.2341   272
32.2441   281
32.2541   281
32.2641   269
32.2741   220
32.2841   257
32.2941   258
32.3041   252
32.3141   263
32.3241   255
32.3341   236
32.3441   280
32.3541   235
32.3641   226
32.3741   238
32.3841   240
32.3941   252
32.4041   231
32.4141   235
32.4241   239
32.4341   238
32.4441   226
32.4541   238
32.4641   219
32.4741   246
32.4841   241
32.4941   232
32.5041   238
32.5141   232
32.5241   210
32.5341   274
32.5441   225
32.5541   227
32.5641   234
32.5741   227
32.5841   200
32.5941   231
32.6041   211
32.6141   214
32.6241   225
32.6341   230
32.6441   243
32.6541   238
32.6641   230
32.6741   238
32.6841   236
32.6941   206
32.7041   219
32.7141   212
32.7241   229
32.7341   207
32.7441   213
32.7541   195
32.7641   193
32.7741   193
32.7841   216
32.7941   197
32.8041   198
32.8141   196
32.8241   215
32.8341   227
32.8441   217
32.8541   212
32.8641   218
32.8741   210
32.8841   207
32.8941   208
32.9041   210
32.9141   224
32.9241   212
32.9341   204
32.9441   225
32.9541   222
32.9641   207
32.9741   194
32.9841   217
32.9941   209
33.0041   202
33.0141   181
33.0241   205
33.0341   230
33.0441   211
33.0541   212
33.0641   190
33.0741   208
33.0841   189
33.0941   217
33.1041   223
33.1141   204
33.1241   197
33.1341   166
33.1441   197
33.1541   183
33.1641   202
33.1741   198
33.1841   184
33.1941   210
33.2041   202
33.2141   225
33.2241   179
33.2341   195
33.2441   211
33.2541   182
33.2641   197
33.2741   205
33.2841   213
33.2941   189
33.3041   202
33.3141   191
33.3241   187
33.3341   210
33.3441   194
33.3541   197
33.3641   203
33.3741   200
33.3841   197
33.3941   186
33.4041   202
33.4141   196
33.4241   176
33.4341   205
33.4441   200
33.4541   191
33.4641   196
33.4741   196
33.4841   169
33.4941   163
33.5041   178
33.5141   177
33.5241   199
33.5341   208
33.5441   203
33.5541   183
33.5641   167
33.5741   170
33.5841   217
33.5941   183
33.6041   210
33.6141   172
33.6241   167
33.6341   203
33.6441   170
33.6541   212
33.6641   192
33.6741   182
33.6841   180
33.6941   183
33.7041   173
33.7141   160
33.7241   188
33.7341   188
33.7441   195
33.7541   192
33.7641   190
33.7741   158
33.7841   156
33.7941   171
33.8041   172
33.8141   199
33.8241   172
33.8341   158
33.8441   186
33.8541   186
33.8641   194
33.8741   166
33.8841   183
33.8941   176
33.9041   185
33.9141   184
33.9241   170
33.9341   170
33.9441   178
33.9541   154
33.9641   179
33.9741   168
33.9841   184
33.9941   162
34.0041   147
34.0141   152
34.0241   176
34.0341   158
34.0441   163
34.0541   182
34.0641   183
34.0741   158
34.0841   159
34.0941   176
34.1041   160
34.1141   165
34.1241   170
34.1341   163
34.1441   173
34.1541   169
34.1641   174
34.1741   184
34.1841   165
34.1941   182
34.2041   159
34.2141   185
34.2241   163
34.2341   156
34.2441   162
34.2541   178
34.2641   158
34.2741   149
34.2841   151
34.2941   156
34.3041   147
34.3141   171
34.3241   176
34.3341   185
34.3441   157
34.3541   151
34.3641   157
34.3741   165
34.3841   144
34.3941   173
34.4041   144
34.4141   141
34.4241   164
34.4341   174
34.4441   169
34.4541   158
34.4641   167
34.4741   157
34.4841   157
34.4941   153
34.5041   131
34.5141   163
34.5241   162
34.5341   153
34.5441   145
34.5541   168
34.5641   162
34.5741   176
34.5841   145
34.5941   148
34.6041   155
34.6141   149
34.6241   149
34.6341   155
34.6441   142
34.6541   165
34.6641   148
34.6741   143
34.6841   164
34.6941   132
34.7041   163
34.7141   156
34.7241   170
34.7341   147
34.7441   147
34.7541   189
34.7641   154
34.7741   163
34.7841   140
34.7941   147
34.8041   129
34.8141   135
34.8241   161
34.8341   142
34.8441   128
34.8541   148
34.8641   123
34.8741   142
34.8841   156
34.8941   127
34.9041   153
34.9141   142
34.9241   153
34.9341   145
34.9441   141
34.9541   162
34.9641   139
34.9741   140
34.9841   160
34.9941   149
35.0041   131
35.0141   139
35.0241   131
35.0341   156
35.0441   135
35.0541   147
35.0641   146
35.0741   138
35.0841   156
35.0941   142
35.1041   136
35.1141   131
35.1241   142
35.1341   134
35.1441   145
35.1541   164
35.1641   142
35.1741   121
35.1841   146
35.1941   130
35.2041   143
35.2141   150
35.2241   130
35.2341   129
35.2441   139
35.2541   142
35.2641   152
35.2741   104
35.2841   139
35.2941   151
35.3041   120
35.3141   144
35.3241   124
35.3341   123
35.3441   126
35.3541   145
35.3641   131
35.3741   125
35.3841   164
35.3941   133
35.4041   143
35.4141   130
35.4241   127
35.4341   123
35.4441   129
35.4541   124
35.4641   130
35.4741   131
35.4841   127
35.4941   122
35.5041   142
35.5141   153
35.5241   149
35.5341   132
35.5441   134
35.5541   133
35.5641   128
35.5741   131
35.5841   116
35.5941   127
35.6041   132
35.6141   131
35.6241   132
35.6341   127
35.6441   120
35.6541   118
35.6641   111
35.6741   105
35.6841   124
35.6941   131
35.7041   133
35.7141   122
35.7241   128
35.7341   122
35.7441   126
35.7541   121
35.7641   108
35.7741   124
35.7841   118
35.7941   128
35.8041   125
35.8141   123
35.8241   112
35.8341   110
35.8441   117
35.8541    98
35.8641   133
35.8741   135
35.8841   141
35.8941   136
35.9041   104
35.9141   103
35.9241   101
35.9341   125
35.9441   104
35.9541   119
35.9641   104
35.9741   123
35.9841   121
35.9941   126
36.0041   120
36.0141   105
36.0241   115
36.0341   124
36.0441   111
36.0541   126
36.0641   114
36.0741   110
36.0841    95
36.0941   124
36.1041   105
36.1141    99
36.1241   110
36.1341   117
36.1441   120
36.1541   127
36.1641   124
36.1741   104
36.1841   109
36.1941   115
36.2041    85
36.2141   113
36.2241   124
36.2341   101
36.2441   122
36.2541    97
36.2641   118
36.2741    99
36.2841   112
36.2941   110
36.3041   113
36.3141   113
36.3241   120
36.3341   131
36.3441   139
36.3541    98
36.3641   104
36.3741   109
36.3841   102
36.3941   113
36.4041   103
36.4141   115
36.4241   110
36.4341   120
36.4441    99
36.4541    99
36.4641   117
36.4741   118
36.4841   114
36.4941   110
36.5041    97
36.5141   107
36.5241   125
36.5341   103
36.5441   106
36.5541    97
36.5641    95
36.5741   102
36.5841    87
36.5941    94
36.6041   102
36.6141   104
36.6241    93
36.6341   112
36.6441    94
36.6541   115
36.6641    94
36.6741   125
36.6841   108
36.6941   104
36.7041   100
36.7141   113
36.7241    93
36.7341    93
36.7441   106
36.7541    71
36.7641    91
36.7741   107
36.7841    97
36.7941    94
36.8041   108
36.8141   101
36.8241    79
36.8341    93
36.8441   108
36.8541    93
36.8641    73
36.8741    89
36.8841    87
36.8941    91
36.9041    96
36.9141    98
36.9241    98
36.9341    81
36.9441    82
36.9541   101
36.9641    93
36.9741    98
36.9841    95
36.9941    99
37.0041    90
37.0141    80
37.0241    94
37.0341    84
37.0441    83
37.0541    89
37.0641   103
37.0741    93
37.0841    99
37.0941   106
37.1041    90
37.1141    90
37.1241    77
37.1341    94
37.1441    88
37.1541    79
37.1641    81
37.1741    84
37.1841    85
37.1941    70
37.2041    91
37.2141    79
37.2241    83
37.2341    78
37.2441    99
37.2541    92
37.2641    80
37.2741    83
37.2841    86
37.2941    77
37.3041    81
37.3141    90
37.3241    71
37.3341    73
37.3441    85
37.3541    70
37.3641    88
37.3741    83
37.3841    83
37.3941    90
37.4041    87
37.4141    83
37.4241    92
37.4341    92
37.4441    88
37.4541    81
37.4641    79
37.4741    77
37.4841    80
37.4941    78
37.5041    64
37.5141    66
37.5241    70
37.5341    90
37.5441    78
37.5541    76
37.5641    64
37.5741    86
37.5841    73
37.5941    70
37.6041    69
37.6141    79
37.6241    78
37.6341    79
37.6441    91
37.6541    75
37.6641    86
37.6741    80
37.6841    74
37.6941    90
37.7041    92
37.7141    77
37.7241    92
37.7341    72
37.7441    68
37.7541    62
37.7641    79
37.7741    68
37.7841    77
37.7941    74
37.8041    84
37.8141    65
37.8241    59
37.8341    62
37.8441    72
37.8541    68
37.8641    76
37.8741    76
37.8841    79
37.8941    75
37.9041    59
37.9141    59
37.9241    64
37.9341    83
37.9441    92
37.9541    77
37.9641    78
37.9741    69
37.9841    78
37.9941    78
38.0041    67
38.0141    73
38.0241    62
38.0341    79
38.0441    58
38.0541    62
38.0641    83
38.0741    69
38.0841    66
38.0941    57
38.1041    75
38.1141    71
38.1241    61
38.1341    62
38.1441    59
38.1541    78
38.1641    58
38.1741    47
38.1841    65
38.1941    61
38.2041    59
38.2141    59
38.2241    65
38.2341    51
38.2441    67
38.2541    73
38.2641    72
38.2741    71
38.2841    62
38.2941    50
38.3041    70
38.3141    69
38.3241    63
38.3341    61
38.3441    61
38.3541    61
38.3641    75
38.3741    63
38.3841    53
38.3941    68
38.4041    61
38.4141    56
38.4241    66
38.4341    76
38.4441    68
38.4541    51
38.4641    75
38.4741    52
38.4841    66
38.4941    59
38.5041    58
38.5141    55
38.5241    58
38.5341    66
38.5441    56
38.5541    55
38.5641    63
38.5741    61
38.5841    66
38.5941    60
38.6041    64
38.6141    54
38.6241    53
38.6341    62
38.6441    62
38.6541    62
38.6641    57
38.6741    49
38.6841    63
38.6941    64
38.7041    58
38.7141    62
38.7241    65
38.7341    65
38.7441    47
38.7541    59
38.7641    53
38.7741    57
38.7841    60
38.7941    64
38.8041    66
38.8141    66
38.8241    41
38.8341    62
38.8441    75
38.8541    49
38.8641    51
38.8741    57
38.8841    54
38.8941    39
38.9041    52
38.9141    53
38.9241    50
38.9341    56
38.9441    49
38.9541    50
38.9641    60
38.9741    50
38.9841    60
38.9941    57
39.0041    65
39.0141    49
39.0241    41
39.0341    51
39.0441    58
39.0541    48
39.0641    54
39.0741    54
39.0841    57
39.0941    45
39.1041    40
39.1141    59
39.1241    53
39.1341    48
39.1441    46
39.1541    51
39.1641    56
39.1741    44
39.1841    41
39.1941    42
39.2041    43
39.2141    48
39.2241    39
39.2341    40
39.2441    53
39.2541    49
39.2641    36
39.2741    43
39.2841    47
39.2941    53
39.3041    38
39.3141    33
39.3241    49
39.3341    45
39.3441    41
39.3541    57
39.3641    38
39.3741    58
39.3841    36
39.3941    46
39.4041    42
39.4141    39
39.4241    35
39.4341    49
39.4441    44
39.4541    48
39.4641    45
39.4741    42
39.4841    50
39.4941    42
39.5041    42
39.5141    41
39.5241    43
39.5341    55
39.5441    54
39.5541    54
39.5641    44
39.5741    42
39.5841    35
39.5941    47
39.6041    30
39.6141    40
39.6241    37
39.6341    42
39.6441    46
39.6541    36
39.6641    37
39.6741    44
39.6841    35
39.6941    43
39.7041    49
39.7141    39
39.7241    34
39.7341    31
39.7441    45
39.7541    40
39.7641    42
39.7741    42
39.7841    38
39.7941    42
39.8041    24
39.8141    41
39.8241    37
39.8341    31
39.8441    21
39.8541    34
39.8641    39
39.8741    43
39.8841    40
39.8941    34
39.9041    37
39.9141    34
39.9241    27
39.9341    40
39.9441    43
39.9541    24
39.9641    32
39.9741    38
39.9841    45
