Bruker Nano GmbH Berlin, Germany
Esprit 1.9

Date: 5/14/2021 3:44:29 PM
Real time: 18774
Life time: 17558
Pulse density: 93159


Detector type: XFlash 430
Window type: Custom type
Detector thickness: 0.45
Si dead layer:0.029

Calibration, lin.: 10
Calibration, abs.: -955.9
Mn FWHM: 137.05
Fano factor: 0.121
Channels: 4095

Energy Counts
-0.9559     0
-0.9459     0
-0.9359     0
-0.9259     0
-0.9159     0
-0.9059     0
-0.8959     0
-0.8859     0
-0.8759     0
-0.8659     0
-0.8559     0
-0.8459     0
-0.8359     0
-0.8259     0
-0.8159     0
-0.8059     0
-0.7959     0
-0.7859     0
-0.7759     0
-0.7659     0
-0.7559     0
-0.7459     0
-0.7359     0
-0.7259     0
-0.7159     0
-0.7059     0
-0.6959     0
-0.6859     0
-0.6759     0
-0.6659     0
-0.6559     0
-0.6459     0
-0.6359     0
-0.6259     0
-0.6159     0
-0.6059     0
-0.5959     0
-0.5859     0
-0.5759     0
-0.5659     0
-0.5559     0
-0.5459     0
-0.5359     0
-0.5259     0
-0.5159     0
-0.5059     0
-0.4959     0
-0.4859     0
-0.4759     0
-0.4659     0
-0.4559     0
-0.4459     0
-0.4359     0
-0.4259     0
-0.4159     0
-0.4059     0
-0.3959     0
-0.3859     0
-0.3759     0
-0.3659     0
-0.3559     0
-0.3459     0
-0.3359     0
-0.3259     0
-0.3159     0
-0.3059     0
-0.2959     0
-0.2859     0
-0.2759     0
-0.2659     0
-0.2559     0
-0.2459     0
-0.2359     0
-0.2259     0
-0.2159     0
-0.2059     0
-0.1959     0
-0.1859     0
-0.1759     0
-0.1659     0
-0.1559     0
-0.1459     0
-0.1359     0
-0.1259     1
-0.1159     5
-0.1059     7
-0.0959    56
-0.0859   224
-0.0759   690
-0.0659  1963
-0.0559  5101
-0.0459 11039
-0.0359 21010
-0.0259 33688
-0.0159 45414
-0.0059 53815
 0.0041 54300
 0.0141 46672
 0.0241 34231
 0.0341 21769
 0.0441 11873
 0.0541  5533
 0.0641  2240
 0.0741   774
 0.0841   244
 0.0941    48
 0.1041    23
 0.1141    16
 0.1241     6
 0.1341     7
 0.1441     8
 0.1541     5
 0.1641     3
 0.1741     2
 0.1841   180
 0.1941   341
 0.2041   319
 0.2141   308
 0.2241   310
 0.2341   282
 0.2441   300
 0.2541   293
 0.2641   288
 0.2741   291
 0.2841   301
 0.2941   305
 0.3041   284
 0.3141   290
 0.3241   297
 0.3341   282
 0.3441   271
 0.3541   277
 0.3641   279
 0.3741   305
 0.3841   285
 0.3941   258
 0.4041   266
 0.4141   263
 0.4241   278
 0.4341   272
 0.4441   283
 0.4541   245
 0.4641   233
 0.4741   262
 0.4841   271
 0.4941   259
 0.5041   254
 0.5141   255
 0.5241   267
 0.5341   264
 0.5441   264
 0.5541   265
 0.5641   248
 0.5741   230
 0.5841   232
 0.5941   239
 0.6041   241
 0.6141   235
 0.6241   232
 0.6341   252
 0.6441   252
 0.6541   228
 0.6641   241
 0.6741   257
 0.6841   248
 0.6941   244
 0.7041   221
 0.7141   210
 0.7241   225
 0.7341   224
 0.7441   216
 0.7541   231
 0.7641   234
 0.7741   226
 0.7841   235
 0.7941   227
 0.8041   209
 0.8141   217
 0.8241   221
 0.8341   210
 0.8441   219
 0.8541   232
 0.8641   218
 0.8741   201
 0.8841   204
 0.8941   200
 0.9041   206
 0.9141   221
 0.9241   217
 0.9341   200
 0.9441   197
 0.9541   213
 0.9641   200
 0.9741   215
 0.9841   217
 0.9941   230
 1.0041   196
 1.0141   191
 1.0241   181
 1.0341   172
 1.0441   179
 1.0541   208
 1.0641   212
 1.0741   198
 1.0841   195
 1.0941   190
 1.1041   186
 1.1141   190
 1.1241   197
 1.1341   186
 1.1441   195
 1.1541   178
 1.1641   188
 1.1741   163
 1.1841   178
 1.1941   177
 1.2041   173
 1.2141   199
 1.2241   201
 1.2341   183
 1.2441   182
 1.2541   209
 1.2641   187
 1.2741   194
 1.2841   179
 1.2941   169
 1.3041   174
 1.3141   185
 1.3241   197
 1.3341   181
 1.3441   184
 1.3541   194
 1.3641   186
 1.3741   214
 1.3841   193
 1.3941   161
 1.4041   176
 1.4141   162
 1.4241   171
 1.4341   157
 1.4441   187
 1.4541   173
 1.4641   174
 1.4741   167
 1.4841   184
 1.4941   171
 1.5041   162
 1.5141   159
 1.5241   154
 1.5341   188
 1.5441   183
 1.5541   159
 1.5641   154
 1.5741   166
 1.5841   149
 1.5941   155
 1.6041   185
 1.6141   183
 1.6241   177
 1.6341   178
 1.6441   192
 1.6541   221
 1.6641   247
 1.6741   317
 1.6841   357
 1.6941   452
 1.7041   500
 1.7141   630
 1.7241   670
 1.7341   694
 1.7441   721
 1.7541   692
 1.7641   596
 1.7741   494
 1.7841   420
 1.7941   371
 1.8041   328
 1.8141   269
 1.8241   220
 1.8341   222
 1.8441   218
 1.8541   182
 1.8641   199
 1.8741   202
 1.8841   186
 1.8941   192
 1.9041   179
 1.9141   174
 1.9241   186
 1.9341   173
 1.9441   183
 1.9541   181
 1.9641   203
 1.9741   190
 1.9841   206
 1.9941   243
 2.0041   224
 2.0141   225
 2.0241   229
 2.0341   208
 2.0441   217
 2.0541   189
 2.0641   170
 2.0741   179
 2.0841   175
 2.0941   184
 2.1041   167
 2.1141   155
 2.1241   161
 2.1341   169
 2.1441   173
 2.1541   162
 2.1641   143
 2.1741   134
 2.1841   170
 2.1941   156
 2.2041   165
 2.2141   152
 2.2241   160
 2.2341   171
 2.2441   174
 2.2541   161
 2.2641   165
 2.2741   157
 2.2841   142
 2.2941   158
 2.3041   149
 2.3141   144
 2.3241   148
 2.3341   141
 2.3441   135
 2.3541   152
 2.3641   175
 2.3741   149
 2.3841   164
 2.3941   138
 2.4041   143
 2.4141   143
 2.4241   138
 2.4341   111
 2.4441   139
 2.4541   152
 2.4641   149
 2.4741   145
 2.4841   143
 2.4941   141
 2.5041   142
 2.5141   131
 2.5241   151
 2.5341   142
 2.5441   127
 2.5541   133
 2.5641   128
 2.5741   128
 2.5841   143
 2.5941   139
 2.6041   130
 2.6141   126
 2.6241   143
 2.6341   130
 2.6441   148
 2.6541   135
 2.6641   119
 2.6741   127
 2.6841   122
 2.6941   121
 2.7041   133
 2.7141   149
 2.7241   129
 2.7341   128
 2.7441   154
 2.7541   121
 2.7641   136
 2.7741   137
 2.7841   143
 2.7941   137
 2.8041   135
 2.8141   149
 2.8241   157
 2.8341   131
 2.8441   126
 2.8541   161
 2.8641   139
 2.8741   120
 2.8841   134
 2.8941   131
 2.9041   144
 2.9141   127
 2.9241   121
 2.9341   109
 2.9441   131
 2.9541   138
 2.9641   123
 2.9741   127
 2.9841   120
 2.9941   131
 3.0041   116
 3.0141   121
 3.0241   125
 3.0341   126
 3.0441   137
 3.0541   116
 3.0641   115
 3.0741   125
 3.0841   116
 3.0941   111
 3.1041   100
 3.1141   107
 3.1241   106
 3.1341   107
 3.1441    93
 3.1541   100
 3.1641   109
 3.1741   111
 3.1841   121
 3.1941   128
 3.2041   130
 3.2141   127
 3.2241   160
 3.2341   164
 3.2441   208
 3.2541   225
 3.2641   267
 3.2741   251
 3.2841   290
 3.2941   365
 3.3041   342
 3.3141   349
 3.3241   362
 3.3341   334
 3.3441   299
 3.3541   266
 3.3641   227
 3.3741   209
 3.3841   176
 3.3941   141
 3.4041   133
 3.4141   124
 3.4241    88
 3.4341    95
 3.4441   105
 3.4541    91
 3.4641   110
 3.4741   107
 3.4841   115
 3.4941   112
 3.5041   113
 3.5141   127
 3.5241   148
 3.5341   147
 3.5441   161
 3.5541   172
 3.5641   209
 3.5741   192
 3.5841   215
 3.5941   294
 3.6041   336
 3.6141   431
 3.6241   533
 3.6341   599
 3.6441   724
 3.6541   825
 3.6641   906
 3.6741  1014
 3.6841  1025
 3.6941  1085
 3.7041  1021
 3.7141   959
 3.7241   831
 3.7341   695
 3.7441   580
 3.7541   465
 3.7641   403
 3.7741   313
 3.7841   220
 3.7941   196
 3.8041   129
 3.8141   105
 3.8241    95
 3.8341    89
 3.8441    86
 3.8541    69
 3.8641   101
 3.8741   106
 3.8841    68
 3.8941   105
 3.9041   124
 3.9141    99
 3.9241   110
 3.9341   110
 3.9441   136
 3.9541   167
 3.9641   173
 3.9741   193
 3.9841   193
 3.9941   200
 4.0041   213
 4.0141   220
 4.0241   242
 4.0341   218
 4.0441   194
 4.0541   179
 4.0641   164
 4.0741   154
 4.0841   109
 4.0941   104
 4.1041   107
 4.1141    95
 4.1241    86
 4.1341    86
 4.1441    76
 4.1541    92
 4.1641    90
 4.1741    84
 4.1841    86
 4.1941    90
 4.2041    69
 4.2141    85
 4.2241    66
 4.2341    83
 4.2441    73
 4.2541    68
 4.2641    82
 4.2741    88
 4.2841    84
 4.2941    82
 4.3041    90
 4.3141    92
 4.3241    67
 4.3341    83
 4.3441    77
 4.3541    89
 4.3641    77
 4.3741    93
 4.3841    88
 4.3941   126
 4.4041   137
 4.4141   178
 4.4241   198
 4.4341   225
 4.4441   260
 4.4541   318
 4.4641   344
 4.4741   387
 4.4841   363
 4.4941   391
 4.5041   440
 4.5141   445
 4.5241   388
 4.5341   359
 4.5441   363
 4.5541   291
 4.5641   277
 4.5741   255
 4.5841   186
 4.5941   162
 4.6041   141
 4.6141   127
 4.6241   118
 4.6341   101
 4.6441   116
 4.6541   113
 4.6641    90
 4.6741   100
 4.6841    83
 4.6941    96
 4.7041    77
 4.7141    85
 4.7241    81
 4.7341   101
 4.7441    80
 4.7541    97
 4.7641    88
 4.7741   110
 4.7841   111
 4.7941   104
 4.8041   127
 4.8141   135
 4.8241   136
 4.8341   134
 4.8441   128
 4.8541   130
 4.8641   147
 4.8741   155
 4.8841   150
 4.8941   138
 4.9041   135
 4.9141   142
 4.9241   150
 4.9341   143
 4.9441   148
 4.9541   138
 4.9641   127
 4.9741   133
 4.9841   108
 4.9941   120
 5.0041   129
 5.0141   107
 5.0241   102
 5.0341    97
 5.0441   108
 5.0541   101
 5.0641    91
 5.0741    95
 5.0841   104
 5.0941    98
 5.1041   102
 5.1141    92
 5.1241   106
 5.1341    98
 5.1441    99
 5.1541    96
 5.1641    95
 5.1741   104
 5.1841    77
 5.1941    80
 5.2041    72
 5.2141    74
 5.2241    88
 5.2341    84
 5.2441    75
 5.2541    92
 5.2641    73
 5.2741   102
 5.2841   105
 5.2941   128
 5.3041    83
 5.3141   102
 5.3241    98
 5.3341   114
 5.3441   124
 5.3541   126
 5.3641   148
 5.3741   149
 5.3841   176
 5.3941   179
 5.4041   174
 5.4141   184
 5.4241   176
 5.4341   146
 5.4441   145
 5.4541   154
 5.4641   138
 5.4741   128
 5.4841   131
 5.4941   121
 5.5041    99
 5.5141   118
 5.5241   109
 5.5341   115
 5.5441    93
 5.5541    99
 5.5641   109
 5.5741    97
 5.5841    95
 5.5941   101
 5.6041   104
 5.6141    85
 5.6241    98
 5.6341    91
 5.6441    82
 5.6541   102
 5.6641   101
 5.6741    78
 5.6841   103
 5.6941   109
 5.7041   103
 5.7141   100
 5.7241   115
 5.7341   129
 5.7441   109
 5.7541   114
 5.7641   124
 5.7741   115
 5.7841   144
 5.7941   131
 5.8041   187
 5.8141   195
 5.8241   202
 5.8341   243
 5.8441   245
 5.8541   254
 5.8641   312
 5.8741   289
 5.8841   327
 5.8941   345
 5.9041   330
 5.9141   305
 5.9241   296
 5.9341   295
 5.9441   251
 5.9541   232
 5.9641   222
 5.9741   235
 5.9841   192
 5.9941   170
 6.0041   152
 6.0141   134
 6.0241   135
 6.0341   121
 6.0441   124
 6.0541   103
 6.0641   125
 6.0741   118
 6.0841   116
 6.0941   110
 6.1041   117
 6.1141   105
 6.1241   139
 6.1341   150
 6.1441   151
 6.1541   127
 6.1641   152
 6.1741   153
 6.1841   212
 6.1941   217
 6.2041   288
 6.2141   339
 6.2241   445
 6.2341   603
 6.2441   759
 6.2541  1090
 6.2641  1554
 6.2741  2166
 6.2841  2846
 6.2941  3714
 6.3041  4822
 6.3141  6159
 6.3241  7501
 6.3341  9180
 6.3441 10682
 6.3541 12318
 6.3641 13767
 6.3741 14885
 6.3841 15708
 6.3941 16132
 6.4041 16008
 6.4141 15445
 6.4241 14842
 6.4341 13482
 6.4441 11964
 6.4541 10471
 6.4641  8862
 6.4741  7274
 6.4841  5808
 6.4941  4545
 6.5041  3480
 6.5141  2746
 6.5241  1848
 6.5341  1297
 6.5441   948
 6.5541   709
 6.5641   540
 6.5741   354
 6.5841   255
 6.5941   197
 6.6041   196
 6.6141   180
 6.6241   154
 6.6341   118
 6.6441   128
 6.6541   123
 6.6641   133
 6.6741   115
 6.6841   130
 6.6941   128
 6.7041   144
 6.7141   135
 6.7241   134
 6.7341   124
 6.7441   136
 6.7541   132
 6.7641   152
 6.7741   140
 6.7841   120
 6.7941   137
 6.8041   139
 6.8141   199
 6.8241   174
 6.8341   198
 6.8441   184
 6.8541   201
 6.8641   199
 6.8741   244
 6.8841   262
 6.8941   310
 6.9041   355
 6.9141   413
 6.9241   496
 6.9341   596
 6.9441   780
 6.9541   912
 6.9641  1084
 6.9741  1332
 6.9841  1510
 6.9941  1815
 7.0041  1916
 7.0141  2199
 7.0241  2316
 7.0341  2475
 7.0441  2559
 7.0541  2544
 7.0641  2568
 7.0741  2448
 7.0841  2273
 7.0941  2233
 7.1041  1882
 7.1141  1653
 7.1241  1545
 7.1341  1221
 7.1441  1020
 7.1541   869
 7.1641   636
 7.1741   553
 7.1841   446
 7.1941   381
 7.2041   305
 7.2141   237
 7.2241   279
 7.2341   215
 7.2441   195
 7.2541   169
 7.2641   184
 7.2741   186
 7.2841   211
 7.2941   167
 7.3041   197
 7.3141   219
 7.3241   199
 7.3341   222
 7.3441   233
 7.3541   233
 7.3641   258
 7.3741   249
 7.3841   262
 7.3941   270
 7.4041   292
 7.4141   283
 7.4241   281
 7.4341   278
 7.4441   296
 7.4541   335
 7.4641   306
 7.4741   289
 7.4841   293
 7.4941   268
 7.5041   262
 7.5141   227
 7.5241   262
 7.5341   232
 7.5441   205
 7.5541   241
 7.5641   209
 7.5741   204
 7.5841   224
 7.5941   189
 7.6041   189
 7.6141   206
 7.6241   197
 7.6341   194
 7.6441   190
 7.6541   189
 7.6641   202
 7.6741   199
 7.6841   176
 7.6941   197
 7.7041   194
 7.7141   181
 7.7241   197
 7.7341   222
 7.7441   205
 7.7541   227
 7.7641   199
 7.7741   208
 7.7841   229
 7.7941   260
 7.8041   228
 7.8141   221
 7.8241   243
 7.8341   227
 7.8441   280
 7.8541   268
 7.8641   278
 7.8741   257
 7.8841   283
 7.8941   308
 7.9041   310
 7.9141   311
 7.9241   355
 7.9341   365
 7.9441   382
 7.9541   411
 7.9641   451
 7.9741   489
 7.9841   494
 7.9941   548
 8.0041   529
 8.0141   587
 8.0241   592
 8.0341   662
 8.0441   729
 8.0541   775
 8.0641   839
 8.0741   845
 8.0841   908
 8.0941   928
 8.1041   989
 8.1141  1055
 8.1241  1110
 8.1341  1116
 8.1441  1134
 8.1541  1164
 8.1641  1208
 8.1741  1218
 8.1841  1254
 8.1941  1302
 8.2041  1308
 8.2141  1239
 8.2241  1334
 8.2341  1317
 8.2441  1387
 8.2541  1484
 8.2641  1485
 8.2741  1681
 8.2841  1754
 8.2941  1899
 8.3041  1927
 8.3141  2111
 8.3241  2364
 8.3341  2464
 8.3441  2634
 8.3541  2778
 8.3641  2841
 8.3741  2912
 8.3841  3069
 8.3941  3027
 8.4041  2918
 8.4141  2893
 8.4241  2673
 8.4341  2498
 8.4441  2304
 8.4541  2058
 8.4641  1830
 8.4741  1568
 8.4841  1316
 8.4941  1132
 8.5041   962
 8.5141   830
 8.5241   727
 8.5341   622
 8.5441   492
 8.5541   416
 8.5641   379
 8.5741   352
 8.5841   328
 8.5941   325
 8.6041   280
 8.6141   316
 8.6241   343
 8.6341   323
 8.6441   302
 8.6541   317
 8.6641   292
 8.6741   309
 8.6841   319
 8.6941   290
 8.7041   267
 8.7141   319
 8.7241   298
 8.7341   284
 8.7441   287
 8.7541   300
 8.7641   268
 8.7741   244
 8.7841   275
 8.7941   295
 8.8041   287
 8.8141   285
 8.8241   282
 8.8341   315
 8.8441   271
 8.8541   277
 8.8641   290
 8.8741   263
 8.8841   257
 8.8941   281
 8.9041   275
 8.9141   256
 8.9241   276
 8.9341   293
 8.9441   318
 8.9541   320
 8.9641   284
 8.9741   290
 8.9841   309
 8.9941   321
 9.0041   316
 9.0141   352
 9.0241   365
 9.0341   347
 9.0441   337
 9.0541   359
 9.0641   387
 9.0741   388
 9.0841   433
 9.0941   453
 9.1041   420
 9.1141   454
 9.1241   495
 9.1341   492
 9.1441   548
 9.1541   529
 9.1641   518
 9.1741   573
 9.1841   619
 9.1941   664
 9.2041   684
 9.2141   726
 9.2241   715
 9.2341   749
 9.2441   788
 9.2541   868
 9.2641   945
 9.2741   894
 9.2841   930
 9.2941  1050
 9.3041  1069
 9.3141  1093
 9.3241  1117
 9.3341  1175
 9.3441  1139
 9.3541  1172
 9.3641  1224
 9.3741  1258
 9.3841  1283
 9.3941  1219
 9.4041  1261
 9.4141  1338
 9.4241  1353
 9.4341  1373
 9.4441  1279
 9.4541  1332
 9.4641  1390
 9.4741  1358
 9.4841  1349
 9.4941  1357
 9.5041  1416
 9.5141  1481
 9.5241  1497
 9.5341  1618
 9.5441  1701
 9.5541  1766
 9.5641  1911
 9.5741  2027
 9.5841  2172
 9.5941  2255
 9.6041  2422
 9.6141  2618
 9.6241  2706
 9.6341  2805
 9.6441  2863
 9.6541  2988
 9.6641  3028
 9.6741  2921
 9.6841  2946
 9.6941  2859
 9.7041  2739
 9.7141  2550
 9.7241  2437
 9.7341  2269
 9.7441  2162
 9.7541  2036
 9.7641  1808
 9.7741  1693
 9.7841  1651
 9.7941  1508
 9.8041  1396
 9.8141  1423
 9.8241  1362
 9.8341  1315
 9.8441  1315
 9.8541  1321
 9.8641  1395
 9.8741  1370
 9.8841  1412
 9.8941  1355
 9.9041  1397
 9.9141  1417
 9.9241  1425
 9.9341  1389
 9.9441  1435
 9.9541  1434
 9.9641  1438
 9.9741  1323
 9.9841  1273
 9.9941  1196
10.0041  1152
10.0141  1027
10.0241   960
10.0341   842
10.0441   761
10.0541   687
10.0641   589
10.0741   528
10.0841   469
10.0941   438
10.1041   396
10.1141   347
10.1241   333
10.1341   329
10.1441   306
10.1541   247
10.1641   237
10.1741   247
10.1841   236
10.1941   226
10.2041   209
10.2141   240
10.2241   209
10.2341   193
10.2441   204
10.2541   219
10.2641   196
10.2741   199
10.2841   196
10.2941   181
10.3041   179
10.3141   182
10.3241   166
10.3341   168
10.3441   178
10.3541   190
10.3641   175
10.3741   176
10.3841   182
10.3941   175
10.4041   178
10.4141   187
10.4241   176
10.4341   192
10.4441   177
10.4541   161
10.4641   189
10.4741   182
10.4841   178
10.4941   191
10.5041   189
10.5141   196
10.5241   181
10.5341   190
10.5441   181
10.5541   194
10.5641   205
10.5741   197
10.5841   193
10.5941   180
10.6041   188
10.6141   203
10.6241   203
10.6341   189
10.6441   192
10.6541   174
10.6641   181
10.6741   218
10.6841   230
10.6941   212
10.7041   198
10.7141   225
10.7241   218
10.7341   227
10.7441   219
10.7541   231
10.7641   227
10.7741   229
10.7841   274
10.7941   260
10.8041   236
10.8141   245
10.8241   259
10.8341   257
10.8441   249
10.8541   261
10.8641   277
10.8741   253
10.8841   266
10.8941   281
10.9041   278
10.9141   261
10.9241   263
10.9341   274
10.9441   294
10.9541   280
10.9641   276
10.9741   279
10.9841   267
10.9941   276
11.0041   277
11.0141   275
11.0241   254
11.0341   253
11.0441   251
11.0541   231
11.0641   223
11.0741   257
11.0841   244
11.0941   228
11.1041   231
11.1141   250
11.1241   254
11.1341   277
11.1441   271
11.1541   307
11.1641   321
11.1741   301
11.1841   316
11.1941   305
11.2041   321
11.2141   346
11.2241   380
11.2341   374
11.2441   390
11.2541   400
11.2641   402
11.2741   422
11.2841   438
11.2941   411
11.3041   426
11.3141   403
11.3241   377
11.3341   361
11.3441   363
11.3541   353
11.3641   329
11.3741   315
11.3841   282
11.3941   265
11.4041   261
11.4141   255
11.4241   240
11.4341   235
11.4441   239
11.4541   226
11.4641   206
11.4741   195
11.4841   209
11.4941   192
11.5041   174
11.5141   204
11.5241   204
11.5341   197
11.5441   200
11.5541   222
11.5641   216
11.5741   215
11.5841   217
11.5941   225
11.6041   230
11.6141   232
11.6241   235
11.6341   235
11.6441   246
11.6541   238
11.6641   229
11.6741   227
11.6841   236
11.6941   236
11.7041   222
11.7141   210
11.7241   208
11.7341   186
11.7441   176
11.7541   170
11.7641   163
11.7741   184
11.7841   196
11.7941   184
11.8041   169
11.8141   180
11.8241   167
11.8341   160
11.8441   162
11.8541   164
11.8641   151
11.8741   150
11.8841   153
11.8941   162
11.9041   152
11.9141   149
11.9241   145
11.9341   149
11.9441   151
11.9541   163
11.9641   158
11.9741   138
11.9841   149
11.9941   157
12.0041   157
12.0141   153
12.0241   162
12.0341   152
12.0441   157
12.0541   150
12.0641   160
12.0741   169
12.0841   164
12.0941   149
12.1041   147
12.1141   149
12.1241   152
12.1341   153
12.1441   146
12.1541   153
12.1641   155
12.1741   145
12.1841   136
12.1941   151
12.2041   145
12.2141   136
12.2241   142
12.2341   153
12.2441   156
12.2541   135
12.2641   125
12.2741   142
12.2841   143
12.2941   131
12.3041   122
12.3141   129
12.3241   140
12.3341   136
12.3441   129
12.3541   127
12.3641   140
12.3741   143
12.3841   141
12.3941   137
12.4041   144
12.4141   159
12.4241   157
12.4341   154
12.4441   151
12.4541   155
12.4641   142
12.4741   147
12.4841   158
12.4941   158
12.5041   159
12.5141   166
12.5241   172
12.5341   166
12.5441   160
12.5541   165
12.5641   161
12.5741   167
12.5841   167
12.5941   163
12.6041   166
12.6141   165
12.6241   178
12.6341   173
12.6441   174
12.6541   169
12.6641   163
12.6741   165
12.6841   178
12.6941   174
12.7041   172
12.7141   171
12.7241   170
12.7341   167
12.7441   163
12.7541   170
12.7641   178
12.7741   182
12.7841   180
12.7941   175
12.8041   174
12.8141   174
12.8241   171
12.8341   169
12.8441   171
12.8541   172
12.8641   174
12.8741   173
12.8841   171
12.8941   174
12.9041   178
12.9141   175
12.9241   173
12.9341   179
12.9441   184
12.9541   185
12.9641   181
12.9741   174
12.9841   172
12.9941   175
13.0041   182
13.0141   187
13.0241   186
13.0341   181
13.0441   185
13.0541   195
13.0641   199
13.0741   194
13.0841   190
13.0941   187
13.1041   182
13.1141   178
13.1241   179
13.1341   187
13.1441   195
13.1541   193
13.1641   187
13.1741   189
13.1841   206
13.1941   218
13.2041   203
13.2141   193
13.2241   203
13.2341   197
13.2441   188
13.2541   216
13.2641   229
13.2741   234
13.2841   240
13.2941   241
13.3041   253
13.3141   263
13.3241   264
13.3341   282
13.3441   301
13.3541   306
13.3641   304
13.3741   298
13.3841   302
13.3941   315
13.4041   303
13.4141   296
13.4241   287
13.4341   267
13.4441   270
13.4541   271
13.4641   259
13.4741   253
13.4841   262
13.4941   255
13.5041   234
13.5141   227
13.5241   255
13.5341   267
13.5441   234
13.5541   233
13.5641   237
13.5741   218
13.5841   218
13.5941   220
13.6041   224
13.6141   228
13.6241   210
13.6341   207
13.6441   210
13.6541   225
13.6641   230
13.6741   212
13.6841   211
13.6941   224
13.7041   229
13.7141   221
13.7241   225
13.7341   223
13.7441   201
13.7541   196
13.7641   219
13.7741   223
13.7841   227
13.7941   228
13.8041   213
13.8141   218
13.8241   220
13.8341   219
13.8441   232
13.8541   232
13.8641   225
13.8741   229
13.8841   229
13.8941   217
13.9041   227
13.9141   240
13.9241   244
13.9341   250
13.9441   244
13.9541   249
13.9641   262
13.9741   279
13.9841   302
13.9941   297
14.0041   312
14.0141   330
14.0241   325
14.0341   332
14.0441   344
14.0541   359
14.0641   365
14.0741   398
14.0841   417
14.0941   411
14.1041   414
14.1141   422
14.1241   447
14.1341   456
14.1441   451
14.1541   444
14.1641   409
14.1741   400
14.1841   419
14.1941   428
14.2041   402
14.2141   381
14.2241   355
14.2341   331
14.2441   361
14.2541   341
14.2641   315
14.2741   319
14.2841   307
14.2941   288
14.3041   276
14.3141   273
14.3241   270
14.3341   252
14.3441   240
14.3541   238
14.3641   238
14.3741   264
14.3841   261
14.3941   244
14.4041   234
14.4141   244
14.4241   252
14.4341   262
14.4441   258
14.4541   219
14.4641   215
14.4741   228
14.4841   243
14.4941   247
14.5041   231
14.5141   241
14.5241   247
14.5341   245
14.5441   245
14.5541   238
14.5641   238
14.5741   231
14.5841   234
14.5941   248
14.6041   240
14.6141   233
14.6241   233
14.6341   248
14.6441   266
14.6541   252
14.6641   249
14.6741   246
14.6841   252
14.6941   252
14.7041   240
14.7141   255
14.7241   261
14.7341   248
14.7441   243
14.7541   268
14.7641   276
14.7741   272
14.7841   279
14.7941   268
14.8041   254
14.8141   260
14.8241   262
14.8341   282
14.8441   304
14.8541   276
14.8641   275
14.8741   299
14.8841   296
14.8941   297
14.9041   285
14.9141   282
14.9241   298
14.9341   300
14.9441   319
14.9541   301
14.9641   291
14.9741   310
14.9841   297
14.9941   287
15.0041   288
15.0141   289
15.0241   310
15.0341   294
15.0441   274
15.0541   273
15.0641   275
15.0741   289
15.0841   276
15.0941   299
15.1041   301
15.1141   286
15.1241   299
15.1341   308
15.1441   283
15.1541   260
15.1641   282
15.1741   295
15.1841   287
15.1941   280
15.2041   263
15.2141   253
15.2241   270
15.2341   287
15.2441   292
15.2541   291
15.2641   286
15.2741   288
15.2841   279
15.2941   285
15.3041   303
15.3141   298
15.3241   291
15.3341   295
15.3441   280
15.3541   284
15.3641   293
15.3741   288
15.3841   294
15.3941   295
15.4041   295
15.4141   296
15.4241   283
15.4341   292
15.4441   286
15.4541   285
15.4641   287
15.4741   307
15.4841   313
15.4941   297
15.5041   302
15.5141   310
15.5241   317
15.5341   321
15.5441   312
15.5541   325
15.5641   358
15.5741   356
15.5841   349
15.5941   329
15.6041   361
15.6141   394
15.6241   381
15.6341   376
15.6441   402
15.6541   409
15.6641   396
15.6741   436
15.6841   435
15.6941   443
15.7041   467
15.7141   482
15.7241   477
15.7341   488
15.7441   491
15.7541   496
15.7641   506
15.7741   479
15.7841   468
15.7941   487
15.8041   486
15.8141   482
15.8241   481
15.8341   451
15.8441   460
15.8541   431
15.8641   413
15.8741   415
15.8841   411
15.8941   412
15.9041   393
15.9141   363
15.9241   361
15.9341   358
15.9441   350
15.9541   341
15.9641   330
15.9741   340
15.9841   360
15.9941   339
16.0041   324
16.0141   321
16.0241   339
16.0341   341
16.0441   341
16.0541   350
16.0641   304
16.0741   319
16.0841   352
16.0941   352
16.1041   359
16.1141   323
16.1241   352
16.1341   362
16.1441   329
16.1541   319
16.1641   310
16.1741   330
16.1841   354
16.1941   371
16.2041   332
16.2141   335
16.2241   343
16.2341   338
16.2441   359
16.2541   343
16.2641   327
16.2741   317
16.2841   330
16.2941   318
16.3041   323
16.3141   332
16.3241   338
16.3341   335
16.3441   355
16.3541   336
16.3641   358
16.3741   338
16.3841   340
16.3941   357
16.4041   344
16.4141   360
16.4241   366
16.4341   357
16.4441   370
16.4541   339
16.4641   343
16.4741   348
16.4841   368
16.4941   339
16.5041   348
16.5141   374
16.5241   372
16.5341   349
16.5441   364
16.5541   352
16.5641   387
16.5741   370
16.5841   340
16.5941   365
16.6041   391
16.6141   400
16.6241   392
16.6341   414
16.6441   388
16.6541   412
16.6641   408
16.6741   373
16.6841   366
16.6941   352
16.7041   360
16.7141   360
16.7241   354
16.7341   364
16.7441   383
16.7541   372
16.7641   371
16.7741   353
16.7841   373
16.7941   370
16.8041   370
16.8141   396
16.8241   370
16.8341   360
16.8441   374
16.8541   377
16.8641   368
16.8741   363
16.8841   408
16.8941   382
16.9041   375
16.9141   381
16.9241   390
16.9341   384
16.9441   373
16.9541   383
16.9641   365
16.9741   385
16.9841   378
16.9941   391
17.0041   397
17.0141   403
17.0241   389
17.0341   422
17.0441   418
17.0541   392
17.0641   406
17.0741   403
17.0841   411
17.0941   388
17.1041   387
17.1141   410
17.1241   420
17.1341   435
17.1441   414
17.1541   407
17.1641   394
17.1741   372
17.1841   391
17.1941   400
17.2041   418
17.2141   402
17.2241   387
17.2341   414
17.2441   401
17.2541   406
17.2641   443
17.2741   416
17.2841   397
17.2941   414
17.3041   396
17.3141   404
17.3241   410
17.3341   402
17.3441   399
17.3541   391
17.3641   393
17.3741   431
17.3841   410
17.3941   416
17.4041   425
17.4141   425
17.4241   420
17.4341   420
17.4441   438
17.4541   423
17.4641   420
17.4741   407
17.4841   425
17.4941   459
17.5041   465
17.5141   448
17.5241   419
17.5341   460
17.5441   438
17.5541   421
17.5641   438
17.5741   435
17.5841   421
17.5941   429
17.6041   454
17.6141   430
17.6241   430
17.6341   446
17.6441   447
17.6541   461
17.6641   469
17.6741   485
17.6841   469
17.6941   454
17.7041   443
17.7141   454
17.7241   427
17.7341   486
17.7441   491
17.7541   464
17.7641   482
17.7741   443
17.7841   436
17.7941   439
17.8041   441
17.8141   440
17.8241   417
17.8341   444
17.8441   445
17.8541   450
17.8641   425
17.8741   422
17.8841   435
17.8941   429
17.9041   420
17.9141   425
17.9241   423
17.9341   433
17.9441   440
17.9541   447
17.9641   455
17.9741   427
17.9841   398
17.9941   437
18.0041   481
18.0141   462
18.0241   454
18.0341   479
18.0441   474
18.0541   479
18.0641   454
18.0741   453
18.0841   445
18.0941   448
18.1041   477
18.1141   483
18.1241   445
18.1341   442
18.1441   439
18.1541   438
18.1641   489
18.1741   463
18.1841   484
18.1941   436
18.2041   442
18.2141   452
18.2241   465
18.2341   444
18.2441   450
18.2541   467
18.2641   457
18.2741   473
18.2841   444
18.2941   474
18.3041   448
18.3141   464
18.3241   463
18.3341   465
18.3441   486
18.3541   476
18.3641   468
18.3741   483
18.3841   478
18.3941   482
18.4041   459
18.4141   471
18.4241   472
18.4341   473
18.4441   433
18.4541   465
18.4641   490
18.4741   504
18.4841   478
18.4941   469
18.5041   497
18.5141   509
18.5241   480
18.5341   495
18.5441   495
18.5541   507
18.5641   480
18.5741   467
18.5841   454
18.5941   483
18.6041   471
18.6141   492
18.6241   494
18.6341   510
18.6441   461
18.6541   477
18.6641   521
18.6741   512
18.6841   513
18.6941   503
18.7041   533
18.7141   471
18.7241   489
18.7341   547
18.7441   524
18.7541   502
18.7641   486
18.7741   435
18.7841   485
18.7941   488
18.8041   445
18.8141   502
18.8241   476
18.8341   498
18.8441   482
18.8541   507
18.8641   522
18.8741   509
18.8841   526
18.8941   485
18.9041   470
18.9141   472
18.9241   498
18.9341   515
18.9441   505
18.9541   481
18.9641   528
18.9741   528
18.9841   514
18.9941   502
19.0041   478
19.0141   494
19.0241   514
19.0341   518
19.0441   492
19.0541   518
19.0641   507
19.0741   532
19.0841   497
19.0941   495
19.1041   516
19.1141   517
19.1241   488
19.1341   490
19.1441   523
19.1541   507
19.1641   541
19.1741   504
19.1841   489
19.1941   538
19.2041   541
19.2141   498
19.2241   503
19.2341   497
19.2441   484
19.2541   494
19.2641   503
19.2741   490
19.2841   498
19.2941   525
19.3041   507
19.3141   507
19.3241   514
19.3341   482
19.3441   501
19.3541   538
19.3641   543
19.3741   547
19.3841   530
19.3941   500
19.4041   518
19.4141   460
19.4241   531
19.4341   509
19.4441   534
19.4541   548
19.4641   542
19.4741   563
19.4841   534
19.4941   512
19.5041   527
19.5141   539
19.5241   518
19.5341   512
19.5441   518
19.5541   487
19.5641   533
19.5741   505
19.5841   517
19.5941   503
19.6041   549
19.6141   519
19.6241   522
19.6341   514
19.6441   503
19.6541   492
19.6641   507
19.6741   520
19.6841   511
19.6941   504
19.7041   566
19.7141   541
19.7241   570
19.7341   529
19.7441   537
19.7541   545
19.7641   550
19.7741   594
19.7841   558
19.7941   524
19.8041   546
19.8141   561
19.8241   543
19.8341   565
19.8441   518
19.8541   535
19.8641   546
19.8741   556
19.8841   565
19.8941   545
19.9041   492
19.9141   519
19.9241   535
19.9341   525
19.9441   565
19.9541   482
19.9641   535
19.9741   539
19.9841   527
19.9941   513
20.0041   542
20.0141   551
20.0241   520
20.0341   543
20.0441   553
20.0541   551
20.0641   543
20.0741   541
20.0841   576
20.0941   559
20.1041   532
20.1141   525
20.1241   494
20.1341   533
20.1441   515
20.1541   549
20.1641   530
20.1741   547
20.1841   525
20.1941   558
20.2041   539
20.2141   560
20.2241   532
20.2341   542
20.2441   551
20.2541   547
20.2641   559
20.2741   533
20.2841   572
20.2941   562
20.3041   517
20.3141   546
20.3241   515
20.3341   571
20.3441   545
20.3541   516
20.3641   582
20.3741   593
20.3841   571
20.3941   550
20.4041   567
20.4141   529
20.4241   550
20.4341   555
20.4441   570
20.4541   553
20.4641   567
20.4741   539
20.4841   550
20.4941   543
20.5041   542
20.5141   539
20.5241   547
20.5341   513
20.5441   512
20.5541   568
20.5641   509
20.5741   540
20.5841   563
20.5941   524
20.6041   575
20.6141   533
20.6241   527
20.6341   584
20.6441   563
20.6541   558
20.6641   549
20.6741   566
20.6841   551
20.6941   569
20.7041   579
20.7141   588
20.7241   537
20.7341   568
20.7441   566
20.7541   557
20.7641   564
20.7741   542
20.7841   589
20.7941   597
20.8041   583
20.8141   611
20.8241   580
20.8341   574
20.8441   645
20.8541   571
20.8641   667
20.8741   611
20.8841   609
20.8941   642
20.9041   637
20.9141   645
20.9241   678
20.9341   702
20.9441   677
20.9541   727
20.9641   704
20.9741   707
20.9841   739
20.9941   738
21.0041   749
21.0141   782
21.0241   788
21.0341   792
21.0441   790
21.0541   851
21.0641   874
21.0741   839
21.0841   809
21.0941   862
21.1041   821
21.1141   863
21.1241   919
21.1341   830
21.1441   850
21.1541   863
21.1641   842
21.1741   871
21.1841   846
21.1941   811
21.2041   833
21.2141   844
21.2241   804
21.2341   796
21.2441   767
21.2541   716
21.2641   759
21.2741   713
21.2841   719
21.2941   703
21.3041   668
21.3141   644
21.3241   640
21.3341   622
21.3441   649
21.3541   602
21.3641   579
21.3741   573
21.3841   561
21.3941   603
21.4041   584
21.4141   612
21.4241   580
21.4341   572
21.4441   568
21.4541   542
21.4641   560
21.4741   537
21.4841   583
21.4941   560
21.5041   576
21.5141   587
21.5241   571
21.5341   565
21.5441   590
21.5541   590
21.5641   569
21.5741   532
21.5841   543
21.5941   592
21.6041   563
21.6141   559
21.6241   601
21.6341   578
21.6441   609
21.6541   578
21.6641   558
21.6741   559
21.6841   522
21.6941   564
21.7041   569
21.7141   588
21.7241   538
21.7341   538
21.7441   551
21.7541   564
21.7641   585
21.7741   587
21.7841   550
21.7941   549
21.8041   552
21.8141   572
21.8241   575
21.8341   601
21.8441   572
21.8541   520
21.8641   551
21.8741   526
21.8841   573
21.8941   551
21.9041   621
21.9141   573
21.9241   591
21.9341   560
21.9441   557
21.9541   592
21.9641   551
21.9741   588
21.9841   593
21.9941   560
22.0041   535
22.0141   583
22.0241   544
22.0341   589
22.0441   573
22.0541   577
22.0641   561
22.0741   516
22.0841   558
22.0941   574
22.1041   575
22.1141   590
22.1241   549
22.1341   584
22.1441   588
22.1541   556
22.1641   592
22.1741   560
22.1841   578
22.1941   552
22.2041   565
22.2141   549
22.2241   557
22.2341   557
22.2441   583
22.2541   555
22.2641   536
22.2741   547
22.2841   587
22.2941   574
22.3041   539
22.3141   561
22.3241   547
22.3341   560
22.3441   571
22.3541   589
22.3641   562
22.3741   548
22.3841   579
22.3941   586
22.4041   553
22.4141   590
22.4241   607
22.4341   609
22.4441   577
22.4541   547
22.4641   560
22.4741   577
22.4841   531
22.4941   573
22.5041   575
22.5141   568
22.5241   530
22.5341   548
22.5441   619
22.5541   586
22.5641   572
22.5741   592
22.5841   576
22.5941   570
22.6041   562
22.6141   573
22.6241   551
22.6341   571
22.6441   552
22.6541   612
22.6641   561
22.6741   575
22.6841   525
22.6941   525
22.7041   531
22.7141   568
22.7241   546
22.7341   559
22.7441   599
22.7541   587
22.7641   531
22.7741   558
22.7841   587
22.7941   549
22.8041   550
22.8141   579
22.8241   580
22.8341   569
22.8441   564
22.8541   508
22.8641   575
22.8741   527
22.8841   553
22.8941   553
22.9041   567
22.9141   555
22.9241   555
22.9341   567
22.9441   591
22.9541   539
22.9641   578
22.9741   555
22.9841   574
22.9941   563
23.0041   576
23.0141   541
23.0241   570
23.0341   574
23.0441   577
23.0541   519
23.0641   524
23.0741   608
23.0841   547
23.0941   528
23.1041   561
23.1141   597
23.1241   567
23.1341   521
23.1441   541
23.1541   546
23.1641   571
23.1741   553
23.1841   511
23.1941   543
23.2041   568
23.2141   589
23.2241   553
23.2341   551
23.2441   501
23.2541   515
23.2641   549
23.2741   568
23.2841   576
23.2941   546
23.3041   564
23.3141   559
23.3241   540
23.3341   529
23.3441   567
23.3541   527
23.3641   535
23.3741   543
23.3841   558
23.3941   547
23.4041   577
23.4141   595
23.4241   591
23.4341   530
23.4441   547
23.4541   538
23.4641   530
23.4741   550
23.4841   572
23.4941   543
23.5041   573
23.5141   540
23.5241   561
23.5341   579
23.5441   509
23.5541   612
23.5641   553
23.5741   581
23.5841   545
23.5941   524
23.6041   548
23.6141   532
23.6241   557
23.6341   565
23.6441   564
23.6541   570
23.6641   573
23.6741   581
23.6841   545
23.6941   584
23.7041   543
23.7141   605
23.7241   600
23.7341   615
23.7441   621
23.7541   579
23.7641   590
23.7741   580
23.7841   560
23.7941   607
23.8041   542
23.8141   619
23.8241   614
23.8341   591
23.8441   556
23.8541   592
23.8641   579
23.8741   599
23.8841   580
23.8941   585
23.9041   594
23.9141   578
23.9241   550
23.9341   548
23.9441   557
23.9541   568
23.9641   562
23.9741   550
23.9841   572
23.9941   549
24.0041   523
24.0141   557
24.0241   543
24.0341   548
24.0441   542
24.0541   541
24.0641   538
24.0741   511
24.0841   568
24.0941   574
24.1041   520
24.1141   556
24.1241   554
24.1341   549
24.1441   513
24.1541   544
24.1641   605
24.1741   504
24.1841   544
24.1941   550
24.2041   548
24.2141   525
24.2241   581
24.2341   523
24.2441   498
24.2541   571
24.2641   556
24.2741   577
24.2841   554
24.2941   557
24.3041   499
24.3141   530
24.3241   539
24.3341   555
24.3441   550
24.3541   547
24.3641   541
24.3741   527
24.3841   530
24.3941   539
24.4041   558
24.4141   564
24.4241   479
24.4341   519
24.4441   540
24.4541   522
24.4641   508
24.4741   521
24.4841   523
24.4941   521
24.5041   545
24.5141   516
24.5241   528
24.5341   524
24.5441   550
24.5541   524
24.5641   524
24.5741   472
24.5841   529
24.5941   490
24.6041   516
24.6141   502
24.6241   521
24.6341   471
24.6441   555
24.6541   534
24.6641   489
24.6741   481
24.6841   513
24.6941   493
24.7041   510
24.7141   486
24.7241   520
24.7341   493
24.7441   543
24.7541   484
24.7641   531
24.7741   538
24.7841   525
24.7941   500
24.8041   512
24.8141   496
24.8241   492
24.8341   532
24.8441   492
24.8541   538
24.8641   489
24.8741   475
24.8841   483
24.8941   503
24.9041   466
24.9141   522
24.9241   470
24.9341   519
24.9441   521
24.9541   499
24.9641   540
24.9741   492
24.9841   510
24.9941   535
25.0041   514
25.0141   540
25.0241   517
25.0341   514
25.0441   504
25.0541   521
25.0641   509
25.0741   505
25.0841   553
25.0941   526
25.1041   493
25.1141   536
25.1241   514
25.1341   479
25.1441   508
25.1541   542
25.1641   512
25.1741   534
25.1841   523
25.1941   529
25.2041   558
25.2141   502
25.2241   492
25.2341   491
25.2441   500
25.2541   490
25.2641   534
25.2741   507
25.2841   496
25.2941   490
25.3041   518
25.3141   492
25.3241   482
25.3341   530
25.3441   480
25.3541   546
25.3641   509
25.3741   518
25.3841   483
25.3941   518
25.4041   486
25.4141   492
25.4241   480
25.4341   500
25.4441   461
25.4541   511
25.4641   476
25.4741   487
25.4841   501
25.4941   514
25.5041   516
25.5141   479
25.5241   465
25.5341   496
25.5441   490
25.5541   510
25.5641   501
25.5741   486
25.5841   505
25.5941   498
25.6041   496
25.6141   490
25.6241   464
25.6341   493
25.6441   458
25.6541   455
25.6641   473
25.6741   463
25.6841   458
25.6941   472
25.7041   505
25.7141   485
25.7241   470
25.7341   481
25.7441   451
25.7541   470
25.7641   448
25.7741   478
25.7841   492
25.7941   456
25.8041   478
25.8141   472
25.8241   475
25.8341   464
25.8441   463
25.8541   452
25.8641   444
25.8741   468
25.8841   466
25.8941   467
25.9041   445
25.9141   441
25.9241   470
25.9341   479
25.9441   460
25.9541   457
25.9641   437
25.9741   447
25.9841   491
25.9941   460
26.0041   460
26.0141   454
26.0241   473
26.0341   507
26.0441   466
26.0541   484
26.0641   475
26.0741   464
26.0841   466
26.0941   462
26.1041   426
26.1141   443
26.1241   493
26.1341   487
26.1441   450
26.1541   434
26.1641   501
26.1741   464
26.1841   447
26.1941   456
26.2041   451
26.2141   465
26.2241   454
26.2341   437
26.2441   456
26.2541   449
26.2641   441
26.2741   463
26.2841   432
26.2941   486
26.3041   464
26.3141   438
26.3241   439
26.3341   457
26.3441   490
26.3541   459
26.3641   474
26.3741   476
26.3841   470
26.3941   441
26.4041   401
26.4141   434
26.4241   427
26.4341   444
26.4441   454
26.4541   425
26.4641   470
26.4741   444
26.4841   411
26.4941   441
26.5041   477
26.5141   461
26.5241   432
26.5341   435
26.5441   434
26.5541   462
26.5641   406
26.5741   450
26.5841   446
26.5941   465
26.6041   462
26.6141   423
26.6241   441
26.6341   437
26.6441   425
26.6541   426
26.6641   455
26.6741   450
26.6841   447
26.6941   447
26.7041   423
26.7141   401
26.7241   437
26.7341   431
26.7441   433
26.7541   426
26.7641   424
26.7741   435
26.7841   416
26.7941   420
26.8041   450
26.8141   414
26.8241   389
26.8341   435
26.8441   438
26.8541   477
26.8641   432
26.8741   408
26.8841   421
26.8941   454
26.9041   417
26.9141   428
26.9241   419
26.9341   433
26.9441   395
26.9541   418
26.9641   400
26.9741   406
26.9841   432
26.9941   412
27.0041   413
27.0141   434
27.0241   394
27.0341   408
27.0441   425
27.0541   402
27.0641   448
27.0741   420
27.0841   446
27.0941   424
27.1041   457
27.1141   420
27.1241   384
27.1341   439
27.1441   411
27.1541   437
27.1641   443
27.1741   419
27.1841   434
27.1941   406
27.2041   407
27.2141   425
27.2241   425
27.2341   454
27.2441   440
27.2541   438
27.2641   447
27.2741   442
27.2841   408
27.2941   447
27.3041   417
27.3141   425
27.3241   418
27.3341   435
27.3441   421
27.3541   414
27.3641   372
27.3741   418
27.3841   406
27.3941   420
27.4041   455
27.4141   391
27.4241   439
27.4341   419
27.4441   394
27.4541   405
27.4641   399
27.4741   406
27.4841   407
27.4941   420
27.5041   396
27.5141   389
27.5241   384
27.5341   382
27.5441   405
27.5541   430
27.5641   390
27.5741   391
27.5841   415
27.5941   427
27.6041   370
27.6141   385
27.6241   391
27.6341   380
27.6441   424
27.6541   401
27.6641   394
27.6741   429
27.6841   403
27.6941   375
27.7041   399
27.7141   408
27.7241   440
27.7341   368
27.7441   393
27.7541   394
27.7641   402
27.7741   388
27.7841   393
27.7941   385
27.8041   359
27.8141   376
27.8241   381
27.8341   374
27.8441   364
27.8541   390
27.8641   363
27.8741   376
27.8841   387
27.8941   389
27.9041   374
27.9141   365
27.9241   386
27.9341   383
27.9441   380
27.9541   391
27.9641   421
27.9741   365
27.9841   368
27.9941   390
28.0041   348
28.0141   382
28.0241   363
28.0341   379
28.0441   368
28.0541   395
28.0641   393
28.0741   369
28.0841   400
28.0941   404
28.1041   371
28.1141   367
28.1241   348
28.1341   385
28.1441   393
28.1541   346
28.1641   378
28.1741   397
28.1841   372
28.1941   365
28.2041   346
28.2141   362
28.2241   329
28.2341   369
28.2441   382
28.2541   369
28.2641   399
28.2741   351
28.2841   402
28.2941   383
28.3041   365
28.3141   362
28.3241   341
28.3341   385
28.3441   380
28.3541   368
28.3641   343
28.3741   340
28.3841   343
28.3941   358
28.4041   384
28.4141   393
28.4241   385
28.4341   385
28.4441   351
28.4541   350
28.4641   341
28.4741   361
28.4841   377
28.4941   382
28.5041   399
28.5141   374
28.5241   388
28.5341   386
28.5441   357
28.5541   373
28.5641   385
28.5741   372
28.5841   345
28.5941   377
28.6041   350
28.6141   374
28.6241   351
28.6341   377
28.6441   344
28.6541   368
28.6641   334
28.6741   359
28.6841   351
28.6941   326
28.7041   378
28.7141   341
28.7241   382
28.7341   345
28.7441   348
28.7541   349
28.7641   373
28.7741   338
28.7841   336
28.7941   319
28.8041   337
28.8141   339
28.8241   336
28.8341   333
28.8441   351
28.8541   306
28.8641   366
28.8741   369
28.8841   357
28.8941   338
28.9041   373
28.9141   331
28.9241   340
28.9341   361
28.9441   367
28.9541   343
28.9641   330
28.9741   346
28.9841   350
28.9941   366
29.0041   343
29.0141   331
29.0241   339
29.0341   337
29.0441   348
29.0541   338
29.0641   322
29.0741   331
29.0841   305
29.0941   314
29.1041   345
29.1141   345
29.1241   340
29.1341   343
29.1441   372
29.1541   343
29.1641   330
29.1741   316
29.1841   345
29.1941   322
29.2041   304
29.2141   335
29.2241   334
29.2341   329
29.2441   375
29.2541   323
29.2641   309
29.2741   307
29.2841   339
29.2941   338
29.3041   311
29.3141   331
29.3241   318
29.3341   323
29.3441   346
29.3541   318
29.3641   328
29.3741   313
29.3841   332
29.3941   325
29.4041   329
29.4141   316
29.4241   301
29.4341   327
29.4441   342
29.4541   286
29.4641   336
29.4741   334
29.4841   325
29.4941   333
29.5041   329
29.5141   312
29.5241   342
29.5341   310
29.5441   298
29.5541   304
29.5641   306
29.5741   319
29.5841   310
29.5941   314
29.6041   314
29.6141   342
29.6241   320
29.6341   314
29.6441   312
29.6541   337
29.6641   300
29.6741   293
29.6841   303
29.6941   318
29.7041   303
29.7141   334
29.7241   321
29.7341   322
29.7441   300
29.7541   287
29.7641   307
29.7741   294
29.7841   307
29.7941   312
29.8041   305
29.8141   312
29.8241   305
29.8341   312
29.8441   303
29.8541   307
29.8641   293
29.8741   299
29.8841   291
29.8941   308
29.9041   317
29.9141   290
29.9241   295
29.9341   295
29.9441   302
29.9541   301
29.9641   278
29.9741   297
29.9841   273
29.9941   306
30.0041   309
30.0141   303
30.0241   309
30.0341   305
30.0441   281
30.0541   295
30.0641   286
30.0741   272
30.0841   307
30.0941   312
30.1041   271
30.1141   291
30.1241   296
30.1341   301
30.1441   295
30.1541   284
30.1641   311
30.1741   278
30.1841   285
30.1941   270
30.2041   268
30.2141   296
30.2241   282
30.2341   288
30.2441   275
30.2541   290
30.2641   310
30.2741   286
30.2841   278
30.2941   290
30.3041   274
30.3141   288
30.3241   257
30.3341   310
30.3441   309
30.3541   298
30.3641   264
30.3741   290
30.3841   270
30.3941   292
30.4041   271
30.4141   307
30.4241   276
30.4341   267
30.4441   261
30.4541   280
30.4641   285
30.4741   260
30.4841   240
30.4941   285
30.5041   268
30.5141   292
30.5241   277
30.5341   297
30.5441   279
30.5541   272
30.5641   290
30.5741   299
30.5841   247
30.5941   243
30.6041   238
30.6141   261
30.6241   261
30.6341   255
30.6441   266
30.6541   272
30.6641   275
30.6741   288
30.6841   262
30.6941   259
30.7041   268
30.7141   263
30.7241   268
30.7341   305
30.7441   287
30.7541   253
30.7641   263
30.7741   304
30.7841   270
30.7941   263
30.8041   257
30.8141   260
30.8241   257
30.8341   266
30.8441   273
30.8541   258
30.8641   262
30.8741   244
30.8841   275
30.8941   254
30.9041   260
30.9141   280
30.9241   250
30.9341   260
30.9441   275
30.9541   236
30.9641   275
30.9741   273
30.9841   244
30.9941   257
31.0041   263
31.0141   268
31.0241   265
31.0341   259
31.0441   224
31.0541   272
31.0641   265
31.0741   266
31.0841   242
31.0941   270
31.1041   246
31.1141   236
31.1241   255
31.1341   262
31.1441   231
31.1541   213
31.1641   228
31.1741   268
31.1841   274
31.1941   229
31.2041   251
31.2141   237
31.2241   244
31.2341   233
31.2441   234
31.2541   250
31.2641   237
31.2741   245
31.2841   231
31.2941   241
31.3041   235
31.3141   252
31.3241   234
31.3341   253
31.3441   236
31.3541   219
31.3641   239
31.3741   244
31.3841   219
31.3941   252
31.4041   253
31.4141   234
31.4241   248
31.4341   243
31.4441   233
31.4541   227
31.4641   223
31.4741   245
31.4841   234
31.4941   270
31.5041   243
31.5141   252
31.5241   230
31.5341   238
31.5441   235
31.5541   243
31.5641   251
31.5741   223
31.5841   255
31.5941   230
31.6041   263
31.6141   244
31.6241   230
31.6341   207
31.6441   252
31.6541   241
31.6641   262
31.6741   256
31.6841   258
31.6941   246
31.7041   264
31.7141   235
31.7241   236
31.7341   218
31.7441   238
31.7541   239
31.7641   239
31.7741   244
31.7841   246
31.7941   245
31.8041   233
31.8141   220
31.8241   257
31.8341   243
31.8441   225
31.8541   245
31.8641   247
31.8741   220
31.8841   201
31.8941   225
31.9041   231
31.9141   233
31.9241   251
31.9341   216
31.9441   233
31.9541   234
31.9641   229
31.9741   261
31.9841   245
31.9941   227
32.0041   228
32.0141   263
32.0241   250
32.0341   246
32.0441   262
32.0541   234
32.0641   253
32.0741   256
32.0841   221
32.0941   256
32.1041   213
32.1141   231
32.1241   243
32.1341   238
32.1441   280
32.1541   221
32.1641   255
32.1741   232
32.1841   240
32.1941   250
32.2041   229
32.2141   259
32.2241   266
32.2341   231
32.2441   236
32.2541   252
32.2641   243
32.2741   217
32.2841   229
32.2941   214
32.3041   236
32.3141   243
32.3241   217
32.3341   207
32.3441   219
32.3541   210
32.3641   242
32.3741   229
32.3841   243
32.3941   208
32.4041   206
32.4141   205
32.4241   214
32.4341   210
32.4441   235
32.4541   210
32.4641   221
32.4741   198
32.4841   194
32.4941   175
32.5041   209
32.5141   208
32.5241   203
32.5341   172
32.5441   215
32.5541   202
32.5641   214
32.5741   219
32.5841   191
32.5941   200
32.6041   186
32.6141   198
32.6241   171
32.6341   211
32.6441   198
32.6541   197
32.6641   199
32.6741   190
32.6841   219
32.6941   167
32.7041   179
32.7141   210
32.7241   206
32.7341   195
32.7441   194
32.7541   211
32.7641   160
32.7741   179
32.7841   174
32.7941   197
32.8041   182
32.8141   176
32.8241   220
32.8341   192
32.8441   170
32.8541   172
32.8641   181
32.8741   182
32.8841   180
32.8941   193
32.9041   167
32.9141   159
32.9241   207
32.9341   189
32.9441   203
32.9541   177
32.9641   150
32.9741   173
32.9841   194
32.9941   185
33.0041   184
33.0141   186
33.0241   191
33.0341   190
33.0441   182
33.0541   219
33.0641   214
33.0741   184
33.0841   184
33.0941   186
33.1041   200
33.1141   174
33.1241   184
33.1341   180
33.1441   176
33.1541   175
33.1641   177
33.1741   168
33.1841   194
33.1941   174
33.2041   176
33.2141   210
33.2241   173
33.2341   195
33.2441   182
33.2541   195
33.2641   176
33.2741   183
33.2841   183
33.2941   190
33.3041   183
33.3141   176
33.3241   143
33.3341   179
33.3441   165
33.3541   161
33.3641   154
33.3741   172
33.3841   150
33.3941   171
33.4041   173
33.4141   175
33.4241   165
33.4341   185
33.4441   165
33.4541   192
33.4641   177
33.4741   171
33.4841   174
33.4941   176
33.5041   175
33.5141   182
33.5241   173
33.5341   163
33.5441   154
33.5541   187
33.5641   175
33.5741   175
33.5841   152
33.5941   170
33.6041   157
33.6141   139
33.6241   174
33.6341   179
33.6441   155
33.6541   167
33.6641   171
33.6741   157
33.6841   162
33.6941   169
33.7041   180
33.7141   169
33.7241   175
33.7341   151
33.7441   181
33.7541   165
33.7641   161
33.7741   142
33.7841   159
33.7941   173
33.8041   170
33.8141   165
33.8241   165
33.8341   157
33.8441   169
33.8541   178
33.8641   162
33.8741   168
33.8841   151
33.8941   160
33.9041   160
33.9141   151
33.9241   160
33.9341   158
33.9441   147
33.9541   151
33.9641   163
33.9741   136
33.9841   149
33.9941   158
34.0041   159
34.0141   155
34.0241   164
34.0341   156
34.0441   156
34.0541   154
34.0641   155
34.0741   131
34.0841   145
34.0941   166
34.1041   163
34.1141   158
34.1241   141
34.1341   143
34.1441   141
34.1541   145
34.1641   141
34.1741   168
34.1841   125
34.1941   152
34.2041   141
34.2141   133
34.2241   171
34.2341   149
34.2441   133
34.2541   144
34.2641   131
34.2741   158
34.2841   151
34.2941   121
34.3041   146
34.3141   125
34.3241   149
34.3341   153
34.3441   127
34.3541   153
34.3641   150
34.3741   162
34.3841   163
34.3941   141
34.4041   168
34.4141   147
34.4241   114
34.4341   163
34.4441   148
34.4541   149
34.4641   140
34.4741   163
34.4841   133
34.4941   152
34.5041   135
34.5141   140
34.5241   153
34.5341   151
34.5441   134
34.5541   151
34.5641   156
34.5741   134
34.5841   148
34.5941   141
34.6041   146
34.6141   145
34.6241   120
34.6341   131
34.6441   121
34.6541   134
34.6641   123
34.6741   126
34.6841   140
34.6941   149
34.7041   129
34.7141   130
34.7241   133
34.7341   128
34.7441   120
34.7541   137
34.7641   141
34.7741   140
34.7841   144
34.7941   122
34.8041   161
34.8141   145
34.8241   121
34.8341   153
34.8441   137
34.8541   162
34.8641   140
34.8741   141
34.8841   123
34.8941   129
34.9041   143
34.9141   115
34.9241   140
34.9341   123
34.9441   116
34.9541   127
34.9641   132
34.9741   113
34.9841   123
34.9941   138
35.0041   136
35.0141   120
35.0241   132
35.0341   127
35.0441   115
35.0541   129
35.0641   129
35.0741   128
35.0841   131
35.0941   111
35.1041   120
35.1141   119
35.1241   132
35.1341   134
35.1441   128
35.1541   154
35.1641   106
35.1741   128
35.1841   131
35.1941   127
35.2041   134
35.2141   137
35.2241   140
35.2341   132
35.2441   112
35.2541   113
35.2641   110
35.2741   126
35.2841   130
35.2941   125
35.3041   119
35.3141   130
35.3241   109
35.3341   121
35.3441   118
35.3541   116
35.3641   110
35.3741   132
35.3841   109
35.3941   138
35.4041   136
35.4141   118
35.4241   104
35.4341   128
35.4441   114
35.4541   138
35.4641   112
35.4741   124
35.4841   106
35.4941   103
35.5041   107
35.5141   123
35.5241   116
35.5341   104
35.5441   106
35.5541   121
35.5641    93
35.5741   108
35.5841   119
35.5941   112
35.6041   118
35.6141   116
35.6241   108
35.6341   103
35.6441   101
35.6541   111
35.6641   116
35.6741   114
35.6841   124
35.6941   105
35.7041    97
35.7141   121
35.7241   105
35.7341   117
35.7441   103
35.7541   110
35.7641    97
35.7741   114
35.7841   116
35.7941   112
35.8041   111
35.8141   111
35.8241   104
35.8341   103
35.8441   102
35.8541   101
35.8641   107
35.8741    98
35.8841   122
35.8941   108
35.9041    98
35.9141   106
35.9241    85
35.9341   109
35.9441   100
35.9541   106
35.9641   109
35.9741   102
35.9841   112
35.9941   118
36.0041   105
36.0141    94
36.0241   105
36.0341    88
36.0441    98
36.0541   101
36.0641    97
36.0741   120
36.0841    94
36.0941    82
36.1041    93
36.1141   110
36.1241    99
36.1341   116
36.1441   110
36.1541   104
36.1641    87
36.1741    99
36.1841    85
36.1941   110
36.2041   119
36.2141    82
36.2241    96
36.2341   104
36.2441   106
36.2541   109
36.2641   110
36.2741   109
36.2841   108
36.2941   104
36.3041   104
36.3141   101
36.3241    91
36.3341   108
36.3441   111
36.3541    95
36.3641    99
36.3741   121
36.3841   126
36.3941    91
36.4041    92
36.4141   108
36.4241    95
36.4341   102
36.4441   110
36.4541   104
36.4641    96
36.4741    95
36.4841    95
36.4941    91
36.5041    96
36.5141   100
36.5241   103
36.5341    91
36.5441    88
36.5541    88
36.5641    79
36.5741    94
36.5841    90
36.5941    75
36.6041    95
36.6141    78
36.6241    79
36.6341    85
36.6441    74
36.6541    88
36.6641    90
36.6741    71
36.6841    99
36.6941    90
36.7041    90
36.7141   108
36.7241    98
36.7341    80
36.7441    98
36.7541    81
36.7641   100
36.7741    86
36.7841    87
36.7941    79
36.8041    89
36.8141    94
36.8241    88
36.8341    85
36.8441    90
36.8541    92
36.8641    84
36.8741    93
36.8841    81
36.8941    76
36.9041    78
36.9141    77
36.9241    81
36.9341    92
36.9441    89
36.9541    91
36.9641    96
36.9741    80
36.9841    75
36.9941    82
37.0041    78
37.0141    85
37.0241    82
37.0341    98
37.0441    91
37.0541    91
37.0641    92
37.0741    88
37.0841    82
37.0941    85
37.1041    81
37.1141    80
37.1241    84
37.1341    83
37.1441    81
37.1541    77
37.1641    76
37.1741    74
37.1841    75
37.1941    83
37.2041    73
37.2141    81
37.2241    87
37.2341    73
37.2441    72
37.2541    64
37.2641    71
37.2741    80
37.2841    81
37.2941    83
37.3041    77
37.3141    81
37.3241    90
37.3341    96
37.3441    78
37.3541    83
37.3641    63
37.3741    75
37.3841    80
37.3941    75
37.4041    72
37.4141    96
37.4241    66
37.4341    80
37.4441    71
37.4541    71
37.4641    73
37.4741    72
37.4841    63
37.4941    78
37.5041    73
37.5141    74
37.5241    51
37.5341    71
37.5441    64
37.5541    66
37.5641    82
37.5741    80
37.5841    66
37.5941    70
37.6041    74
37.6141    70
37.6241    72
37.6341    43
37.6441    67
37.6541    71
37.6641    59
37.6741    67
37.6841    70
37.6941    73
37.7041    68
37.7141    78
37.7241    63
37.7341    66
37.7441    74
37.7541    66
37.7641    65
37.7741    67
37.7841    51
37.7941    64
37.8041    69
37.8141    60
37.8241    64
37.8341    52
37.8441    69
37.8541    69
37.8641    69
37.8741    55
37.8841    70
37.8941    52
37.9041    67
37.9141    75
37.9241    68
37.9341    63
37.9441    72
37.9541    72
37.9641    58
37.9741    60
37.9841    60
37.9941    56
38.0041    62
38.0141    62
38.0241    57
38.0341    68
38.0441    60
38.0541    65
38.0641    68
38.0741    72
38.0841    64
38.0941    60
38.1041    63
38.1141    76
38.1241    57
38.1341    71
38.1441    70
38.1541    66
38.1641    64
38.1741    63
38.1841    45
38.1941    62
38.2041    65
38.2141    60
38.2241    68
38.2341    54
38.2441    52
38.2541    58
38.2641    55
38.2741    63
38.2841    69
38.2941    64
38.3041    54
38.3141    67
38.3241    68
38.3341    55
38.3441    49
38.3541    55
38.3641    64
38.3741    64
38.3841    53
38.3941    53
38.4041    45
38.4141    50
38.4241    45
38.4341    44
38.4441    42
38.4541    48
38.4641    59
38.4741    65
38.4841    72
38.4941    67
38.5041    49
38.5141    63
38.5241    52
38.5341    59
38.5441    60
38.5541    61
38.5641    52
38.5741    43
38.5841    50
38.5941    68
38.6041    45
38.6141    48
38.6241    56
38.6341    65
38.6441    50
38.6541    42
38.6641    58
38.6741    53
38.6841    56
38.6941    57
38.7041    42
38.7141    51
38.7241    52
38.7341    55
38.7441    56
38.7541    47
38.7641    52
38.7741    38
38.7841    49
38.7941    59
38.8041    47
38.8141    51
38.8241    46
38.8341    51
38.8441    54
38.8541    57
38.8641    49
38.8741    43
38.8841    44
38.8941    48
38.9041    55
38.9141    44
38.9241    50
38.9341    51
38.9441    35
38.9541    51
38.9641    40
38.9741    54
38.9841    40
38.9941    53
39.0041    47
39.0141    40
39.0241    50
39.0341    45
39.0441    54
39.0541    50
39.0641    50
39.0741    42
39.0841    49
39.0941    47
39.1041    44
39.1141    43
39.1241    43
39.1341    43
39.1441    50
39.1541    41
39.1641    42
39.1741    44
39.1841    58
39.1941    47
39.2041    39
39.2141    51
39.2241    44
39.2341    49
39.2441    52
39.2541    51
39.2641    39
39.2741    50
39.2841    49
39.2941    39
39.3041    29
39.3141    39
39.3241    34
39.3341    42
39.3441    38
39.3541    45
39.3641    39
39.3741    43
39.3841    41
39.3941    39
39.4041    42
39.4141    40
39.4241    34
39.4341    39
39.4441    35
39.4541    41
39.4641    40
39.4741    36
39.4841    41
39.4941    41
39.5041    31
39.5141    41
39.5241    33
39.5341    36
39.5441    37
39.5541    45
39.5641    39
39.5741    41
39.5841    32
39.5941    28
39.6041    45
39.6141    51
39.6241    34
39.6341    29
39.6441    33
39.6541    38
39.6641    31
39.6741    48
39.6841    31
39.6941    31
39.7041    47
39.7141    40
39.7241    36
39.7341    41
39.7441    41
39.7541    41
39.7641    35
39.7741    36
39.7841    37
39.7941    43
39.8041    41
39.8141    38
39.8241    32
39.8341    39
39.8441    24
39.8541    40
39.8641    28
39.8741    35
39.8841    38
39.8941    30
39.9041    32
39.9141    40
39.9241    29
39.9341    36
39.9441    24
39.9541    26
39.9641    43
39.9741    46
39.9841    44
