Bruker Nano GmbH Berlin, Germany
Esprit 1.9

Date: 4/21/2021 1:43:28 PM
Real time: 22854
Life time: 21488
Pulse density: 87491


Detector type: XFlash 430
Window type: Custom type
Detector thickness: 0.45
Si dead layer:0.029

Calibration, lin.: 10
Calibration, abs.: -955.9
Mn FWHM: 137.05
Fano factor: 0.121
Channels: 4095

Energy Counts
-0.9559     0
-0.9459     0
-0.9359     0
-0.9259     0
-0.9159     0
-0.9059     0
-0.8959     0
-0.8859     0
-0.8759     0
-0.8659     0
-0.8559     0
-0.8459     0
-0.8359     0
-0.8259     0
-0.8159     0
-0.8059     0
-0.7959     0
-0.7859     0
-0.7759     0
-0.7659     0
-0.7559     0
-0.7459     0
-0.7359     0
-0.7259     0
-0.7159     0
-0.7059     0
-0.6959     0
-0.6859     0
-0.6759     0
-0.6659     0
-0.6559     0
-0.6459     0
-0.6359     0
-0.6259     0
-0.6159     0
-0.6059     0
-0.5959     0
-0.5859     0
-0.5759     0
-0.5659     0
-0.5559     0
-0.5459     0
-0.5359     0
-0.5259     0
-0.5159     0
-0.5059     0
-0.4959     0
-0.4859     0
-0.4759     0
-0.4659     0
-0.4559     0
-0.4459     0
-0.4359     0
-0.4259     0
-0.4159     0
-0.4059     0
-0.3959     0
-0.3859     0
-0.3759     0
-0.3659     0
-0.3559     0
-0.3459     0
-0.3359     0
-0.3259     0
-0.3159     0
-0.3059     0
-0.2959     0
-0.2859     0
-0.2759     0
-0.2659     0
-0.2559     0
-0.2459     0
-0.2359     0
-0.2259     0
-0.2159     0
-0.2059     0
-0.1959     0
-0.1859     0
-0.1759     0
-0.1659     0
-0.1559     0
-0.1459     0
-0.1359     0
-0.1259     0
-0.1159     6
-0.1059    11
-0.0959    62
-0.0859   231
-0.0759   827
-0.0659  2527
-0.0559  6377
-0.0459 13532
-0.0359 25168
-0.0259 40799
-0.0159 56542
-0.0059 66093
 0.0041 66670
 0.0141 56758
 0.0241 41888
 0.0341 26385
 0.0441 14553
 0.0541  6711
 0.0641  2658
 0.0741   897
 0.0841   302
 0.0941    91
 0.1041    30
 0.1141     6
 0.1241    14
 0.1341     9
 0.1441     4
 0.1541     9
 0.1641     5
 0.1741     3
 0.1841   186
 0.1941   351
 0.2041   334
 0.2141   312
 0.2241   314
 0.2341   305
 0.2441   290
 0.2541   309
 0.2641   314
 0.2741   345
 0.2841   320
 0.2941   301
 0.3041   312
 0.3141   296
 0.3241   303
 0.3341   303
 0.3441   309
 0.3541   304
 0.3641   280
 0.3741   285
 0.3841   276
 0.3941   269
 0.4041   296
 0.4141   292
 0.4241   279
 0.4341   251
 0.4441   267
 0.4541   282
 0.4641   279
 0.4741   289
 0.4841   295
 0.4941   278
 0.5041   266
 0.5141   258
 0.5241   271
 0.5341   293
 0.5441   265
 0.5541   253
 0.5641   252
 0.5741   253
 0.5841   254
 0.5941   253
 0.6041   243
 0.6141   263
 0.6241   266
 0.6341   235
 0.6441   237
 0.6541   244
 0.6641   243
 0.6741   228
 0.6841   226
 0.6941   232
 0.7041   225
 0.7141   235
 0.7241   242
 0.7341   243
 0.7441   236
 0.7541   218
 0.7641   214
 0.7741   229
 0.7841   241
 0.7941   249
 0.8041   244
 0.8141   239
 0.8241   237
 0.8341   219
 0.8441   215
 0.8541   217
 0.8641   213
 0.8741   217
 0.8841   218
 0.8941   214
 0.9041   223
 0.9141   227
 0.9241   221
 0.9341   210
 0.9441   215
 0.9541   221
 0.9641   217
 0.9741   202
 0.9841   197
 0.9941   205
 1.0041   241
 1.0141   212
 1.0241   199
 1.0341   196
 1.0441   204
 1.0541   197
 1.0641   202
 1.0741   224
 1.0841   202
 1.0941   186
 1.1041   202
 1.1141   220
 1.1241   194
 1.1341   198
 1.1441   186
 1.1541   197
 1.1641   204
 1.1741   188
 1.1841   181
 1.1941   200
 1.2041   210
 1.2141   198
 1.2241   186
 1.2341   194
 1.2441   195
 1.2541   196
 1.2641   167
 1.2741   165
 1.2841   181
 1.2941   176
 1.3041   193
 1.3141   193
 1.3241   189
 1.3341   178
 1.3441   176
 1.3541   188
 1.3641   180
 1.3741   183
 1.3841   195
 1.3941   208
 1.4041   210
 1.4141   172
 1.4241   164
 1.4341   181
 1.4441   185
 1.4541   191
 1.4641   173
 1.4741   189
 1.4841   170
 1.4941   198
 1.5041   196
 1.5141   180
 1.5241   194
 1.5341   168
 1.5441   180
 1.5541   183
 1.5641   172
 1.5741   194
 1.5841   159
 1.5941   195
 1.6041   188
 1.6141   174
 1.6241   202
 1.6341   186
 1.6441   208
 1.6541   216
 1.6641   275
 1.6741   364
 1.6841   426
 1.6941   489
 1.7041   610
 1.7141   673
 1.7241   776
 1.7341   797
 1.7441   803
 1.7541   825
 1.7641   695
 1.7741   626
 1.7841   507
 1.7941   440
 1.8041   397
 1.8141   291
 1.8241   296
 1.8341   267
 1.8441   246
 1.8541   211
 1.8641   218
 1.8741   220
 1.8841   200
 1.8941   186
 1.9041   202
 1.9141   171
 1.9241   226
 1.9341   203
 1.9441   171
 1.9541   207
 1.9641   206
 1.9741   222
 1.9841   254
 1.9941   257
 2.0041   230
 2.0141   238
 2.0241   253
 2.0341   210
 2.0441   207
 2.0541   191
 2.0641   172
 2.0741   166
 2.0841   175
 2.0941   200
 2.1041   174
 2.1141   183
 2.1241   177
 2.1341   152
 2.1441   178
 2.1541   152
 2.1641   156
 2.1741   205
 2.1841   180
 2.1941   169
 2.2041   174
 2.2141   159
 2.2241   172
 2.2341   158
 2.2441   167
 2.2541   157
 2.2641   166
 2.2741   171
 2.2841   172
 2.2941   184
 2.3041   155
 2.3141   167
 2.3241   131
 2.3341   161
 2.3441   172
 2.3541   137
 2.3641   149
 2.3741   153
 2.3841   143
 2.3941   158
 2.4041   140
 2.4141   121
 2.4241   153
 2.4341   131
 2.4441   152
 2.4541   152
 2.4641   152
 2.4741   167
 2.4841   132
 2.4941   142
 2.5041   150
 2.5141   132
 2.5241   144
 2.5341   139
 2.5441   143
 2.5541   167
 2.5641   170
 2.5741   139
 2.5841   128
 2.5941   166
 2.6041   152
 2.6141   148
 2.6241   165
 2.6341   148
 2.6441   160
 2.6541   146
 2.6641   145
 2.6741   146
 2.6841   137
 2.6941   148
 2.7041   139
 2.7141   136
 2.7241   137
 2.7341   136
 2.7441   120
 2.7541   132
 2.7641   143
 2.7741   123
 2.7841   147
 2.7941   131
 2.8041   144
 2.8141   152
 2.8241   153
 2.8341   145
 2.8441   168
 2.8541   148
 2.8641   127
 2.8741   128
 2.8841   150
 2.8941   137
 2.9041   135
 2.9141   150
 2.9241   130
 2.9341   121
 2.9441   138
 2.9541   133
 2.9641   135
 2.9741   130
 2.9841   137
 2.9941   144
 3.0041   140
 3.0141   113
 3.0241   117
 3.0341   135
 3.0441   128
 3.0541   125
 3.0641   118
 3.0741   130
 3.0841   122
 3.0941   135
 3.1041   119
 3.1141   109
 3.1241   106
 3.1341   122
 3.1441   112
 3.1541   145
 3.1641   134
 3.1741   131
 3.1841   108
 3.1941   116
 3.2041   121
 3.2141   154
 3.2241   134
 3.2341   168
 3.2441   184
 3.2541   199
 3.2641   211
 3.2741   267
 3.2841   286
 3.2941   311
 3.3041   300
 3.3141   321
 3.3241   319
 3.3341   288
 3.3441   285
 3.3541   242
 3.3641   229
 3.3741   184
 3.3841   175
 3.3941   149
 3.4041   129
 3.4141   127
 3.4241   121
 3.4341   114
 3.4441   118
 3.4541   104
 3.4641   101
 3.4741   113
 3.4841   143
 3.4941   111
 3.5041   121
 3.5141   127
 3.5241   128
 3.5341   155
 3.5441   163
 3.5541   191
 3.5641   216
 3.5741   223
 3.5841   293
 3.5941   364
 3.6041   442
 3.6141   606
 3.6241   803
 3.6341   920
 3.6441  1156
 3.6541  1330
 3.6641  1467
 3.6741  1621
 3.6841  1735
 3.6941  1735
 3.7041  1606
 3.7141  1472
 3.7241  1306
 3.7341  1085
 3.7441   905
 3.7541   713
 3.7641   573
 3.7741   413
 3.7841   329
 3.7941   239
 3.8041   189
 3.8141   165
 3.8241   117
 3.8341   107
 3.8441    91
 3.8541   110
 3.8641   108
 3.8741    87
 3.8841    98
 3.8941    95
 3.9041   117
 3.9141   134
 3.9241   139
 3.9341   162
 3.9441   186
 3.9541   210
 3.9641   222
 3.9741   290
 3.9841   306
 3.9941   285
 4.0041   334
 4.0141   331
 4.0241   308
 4.0341   285
 4.0441   280
 4.0541   259
 4.0641   225
 4.0741   200
 4.0841   183
 4.0941   142
 4.1041   137
 4.1141   121
 4.1241   138
 4.1341    96
 4.1441    86
 4.1541    95
 4.1641    79
 4.1741    80
 4.1841    72
 4.1941    77
 4.2041    86
 4.2141    93
 4.2241    77
 4.2341    78
 4.2441    65
 4.2541    79
 4.2641    85
 4.2741    85
 4.2841    90
 4.2941    77
 4.3041    71
 4.3141    94
 4.3241    93
 4.3341    87
 4.3441    84
 4.3541   106
 4.3641   110
 4.3741   108
 4.3841   124
 4.3941   134
 4.4041   156
 4.4141   160
 4.4241   226
 4.4341   261
 4.4441   296
 4.4541   396
 4.4641   472
 4.4741   508
 4.4841   555
 4.4941   567
 4.5041   587
 4.5141   510
 4.5241   532
 4.5341   491
 4.5441   454
 4.5541   436
 4.5641   341
 4.5741   304
 4.5841   259
 4.5941   220
 4.6041   159
 4.6141   141
 4.6241   153
 4.6341   119
 4.6441   128
 4.6541   101
 4.6641   114
 4.6741    69
 4.6841    89
 4.6941   112
 4.7041   104
 4.7141    94
 4.7241   108
 4.7341    96
 4.7441   113
 4.7541    87
 4.7641    95
 4.7741    93
 4.7841   128
 4.7941   111
 4.8041   135
 4.8141   125
 4.8241   120
 4.8341   119
 4.8441   149
 4.8541   150
 4.8641   176
 4.8741   159
 4.8841   201
 4.8941   189
 4.9041   185
 4.9141   178
 4.9241   199
 4.9341   201
 4.9441   198
 4.9541   186
 4.9641   169
 4.9741   168
 4.9841   167
 4.9941   133
 5.0041   162
 5.0141   143
 5.0241   131
 5.0341   128
 5.0441   121
 5.0541   102
 5.0641   116
 5.0741   110
 5.0841   103
 5.0941    99
 5.1041   109
 5.1141    98
 5.1241   127
 5.1341   112
 5.1441    97
 5.1541   111
 5.1641   110
 5.1741   110
 5.1841   107
 5.1941   104
 5.2041    90
 5.2141    90
 5.2241   115
 5.2341   106
 5.2441   103
 5.2541   103
 5.2641   108
 5.2741   116
 5.2841   106
 5.2941   122
 5.3041   129
 5.3141   108
 5.3241   136
 5.3341   144
 5.3441   129
 5.3541   132
 5.3641   132
 5.3741   114
 5.3841   161
 5.3941   129
 5.4041   153
 5.4141   150
 5.4241   148
 5.4341   152
 5.4441   122
 5.4541   107
 5.4641   137
 5.4741   129
 5.4841   129
 5.4941   137
 5.5041   105
 5.5141   106
 5.5241   120
 5.5341   137
 5.5441   124
 5.5541   134
 5.5641   108
 5.5741   113
 5.5841   112
 5.5941   102
 5.6041   100
 5.6141   110
 5.6241    94
 5.6341   135
 5.6441   100
 5.6541   111
 5.6641    95
 5.6741   113
 5.6841   113
 5.6941   106
 5.7041   129
 5.7141   111
 5.7241   107
 5.7341   134
 5.7441   134
 5.7541   144
 5.7641   163
 5.7741   156
 5.7841   169
 5.7941   202
 5.8041   234
 5.8141   243
 5.8241   333
 5.8341   336
 5.8441   394
 5.8541   382
 5.8641   415
 5.8741   485
 5.8841   513
 5.8941   463
 5.9041   486
 5.9141   467
 5.9241   459
 5.9341   430
 5.9441   400
 5.9541   353
 5.9641   302
 5.9741   262
 5.9841   265
 5.9941   225
 6.0041   188
 6.0141   169
 6.0241   152
 6.0341   174
 6.0441   142
 6.0541   140
 6.0641   163
 6.0741   142
 6.0841   135
 6.0941   148
 6.1041   172
 6.1141   137
 6.1241   134
 6.1341   182
 6.1441   158
 6.1541   176
 6.1641   210
 6.1741   228
 6.1841   281
 6.1941   304
 6.2041   350
 6.2141   467
 6.2241   625
 6.2341   803
 6.2441  1086
 6.2541  1503
 6.2641  2156
 6.2741  2927
 6.2841  3920
 6.2941  5157
 6.3041  6601
 6.3141  8560
 6.3241 10449
 6.3341 12625
 6.3441 14722
 6.3541 16911
 6.3641 19072
 6.3741 20291
 6.3841 21454
 6.3941 22003
 6.4041 22016
 6.4141 21403
 6.4241 20265
 6.4341 18646
 6.4441 16684
 6.4541 14450
 6.4641 12000
 6.4741 10203
 6.4841  8131
 6.4941  6406
 6.5041  4846
 6.5141  3512
 6.5241  2624
 6.5341  1935
 6.5441  1395
 6.5541   991
 6.5641   699
 6.5741   515
 6.5841   403
 6.5941   270
 6.6041   238
 6.6141   218
 6.6241   219
 6.6341   197
 6.6441   175
 6.6541   178
 6.6641   188
 6.6741   164
 6.6841   204
 6.6941   175
 6.7041   202
 6.7141   172
 6.7241   161
 6.7341   195
 6.7441   203
 6.7541   189
 6.7641   214
 6.7741   202
 6.7841   223
 6.7941   183
 6.8041   217
 6.8141   240
 6.8241   229
 6.8341   243
 6.8441   273
 6.8541   268
 6.8641   287
 6.8741   336
 6.8841   359
 6.8941   418
 6.9041   463
 6.9141   563
 6.9241   702
 6.9341   923
 6.9441  1090
 6.9541  1346
 6.9641  1525
 6.9741  1911
 6.9841  2142
 6.9941  2533
 7.0041  2863
 7.0141  3239
 7.0241  3440
 7.0341  3495
 7.0441  3789
 7.0541  3862
 7.0641  3806
 7.0741  3594
 7.0841  3416
 7.0941  3141
 7.1041  2803
 7.1141  2415
 7.1241  2172
 7.1341  1851
 7.1441  1501
 7.1541  1245
 7.1641   988
 7.1741   767
 7.1841   651
 7.1941   493
 7.2041   457
 7.2141   317
 7.2241   293
 7.2341   256
 7.2441   237
 7.2541   249
 7.2641   237
 7.2741   228
 7.2841   226
 7.2941   245
 7.3041   241
 7.3141   266
 7.3241   268
 7.3341   272
 7.3441   276
 7.3541   269
 7.3641   279
 7.3741   303
 7.3841   321
 7.3941   309
 7.4041   325
 7.4141   302
 7.4241   311
 7.4341   345
 7.4441   316
 7.4541   337
 7.4641   292
 7.4741   311
 7.4841   281
 7.4941   261
 7.5041   269
 7.5141   265
 7.5241   266
 7.5341   250
 7.5441   234
 7.5541   251
 7.5641   215
 7.5741   222
 7.5841   236
 7.5941   232
 7.6041   229
 7.6141   216
 7.6241   224
 7.6341   225
 7.6441   247
 7.6541   224
 7.6641   230
 7.6741   250
 7.6841   245
 7.6941   230
 7.7041   245
 7.7141   246
 7.7241   249
 7.7341   228
 7.7441   272
 7.7541   298
 7.7641   277
 7.7741   283
 7.7841   297
 7.7941   251
 7.8041   272
 7.8141   284
 7.8241   299
 7.8341   325
 7.8441   328
 7.8541   316
 7.8641   352
 7.8741   326
 7.8841   362
 7.8941   364
 7.9041   405
 7.9141   396
 7.9241   442
 7.9341   445
 7.9441   473
 7.9541   510
 7.9641   557
 7.9741   574
 7.9841   567
 7.9941   653
 8.0041   725
 8.0141   731
 8.0241   765
 8.0341   838
 8.0441   943
 8.0541   966
 8.0641  1041
 8.0741  1056
 8.0841  1154
 8.0941  1235
 8.1041  1335
 8.1141  1327
 8.1241  1341
 8.1341  1501
 8.1441  1470
 8.1541  1467
 8.1641  1530
 8.1741  1591
 8.1841  1595
 8.1941  1628
 8.2041  1621
 8.2141  1576
 8.2241  1592
 8.2341  1617
 8.2441  1692
 8.2541  1718
 8.2641  1875
 8.2741  1961
 8.2841  1991
 8.2941  2121
 8.3041  2317
 8.3141  2498
 8.3241  2661
 8.3341  2856
 8.3441  3056
 8.3541  3205
 8.3641  3273
 8.3741  3370
 8.3841  3399
 8.3941  3427
 8.4041  3362
 8.4141  3184
 8.4241  3074
 8.4341  2886
 8.4441  2669
 8.4541  2288
 8.4641  2066
 8.4741  1841
 8.4841  1674
 8.4941  1363
 8.5041  1145
 8.5141  1000
 8.5241   848
 8.5341   782
 8.5441   667
 8.5541   601
 8.5641   588
 8.5741   506
 8.5841   496
 8.5941   493
 8.6041   486
 8.6141   507
 8.6241   521
 8.6341   503
 8.6441   481
 8.6541   507
 8.6641   496
 8.6741   529
 8.6841   460
 8.6941   481
 8.7041   487
 8.7141   474
 8.7241   438
 8.7341   417
 8.7441   439
 8.7541   429
 8.7641   403
 8.7741   413
 8.7841   410
 8.7941   412
 8.8041   382
 8.8141   350
 8.8241   363
 8.8341   375
 8.8441   366
 8.8541   357
 8.8641   365
 8.8741   373
 8.8841   355
 8.8941   372
 8.9041   402
 8.9141   388
 8.9241   361
 8.9341   374
 8.9441   409
 8.9541   390
 8.9641   414
 8.9741   380
 8.9841   435
 8.9941   418
 9.0041   421
 9.0141   462
 9.0241   448
 9.0341   461
 9.0441   458
 9.0541   514
 9.0641   514
 9.0741   492
 9.0841   497
 9.0941   527
 9.1041   567
 9.1141   570
 9.1241   610
 9.1341   631
 9.1441   640
 9.1541   644
 9.1641   680
 9.1741   710
 9.1841   752
 9.1941   832
 9.2041   843
 9.2141   849
 9.2241   916
 9.2341   943
 9.2441   995
 9.2541  1069
 9.2641  1023
 9.2741  1154
 9.2841  1161
 9.2941  1253
 9.3041  1304
 9.3141  1298
 9.3241  1312
 9.3341  1427
 9.3441  1451
 9.3541  1406
 9.3641  1500
 9.3741  1536
 9.3841  1573
 9.3941  1565
 9.4041  1574
 9.4141  1594
 9.4241  1658
 9.4341  1622
 9.4441  1695
 9.4541  1709
 9.4641  1777
 9.4741  1715
 9.4841  1746
 9.4941  1835
 9.5041  1845
 9.5141  1894
 9.5241  1926
 9.5341  2046
 9.5441  2140
 9.5541  2220
 9.5641  2319
 9.5741  2492
 9.5841  2574
 9.5941  2723
 9.6041  2894
 9.6141  3074
 9.6241  3148
 9.6341  3326
 9.6441  3428
 9.6541  3403
 9.6641  3522
 9.6741  3378
 9.6841  3366
 9.6941  3286
 9.7041  3159
 9.7141  3018
 9.7241  2775
 9.7341  2590
 9.7441  2367
 9.7541  2216
 9.7641  2087
 9.7741  1936
 9.7841  1774
 9.7941  1674
 9.8041  1557
 9.8141  1462
 9.8241  1344
 9.8341  1357
 9.8441  1334
 9.8541  1321
 9.8641  1383
 9.8741  1406
 9.8841  1361
 9.8941  1395
 9.9041  1463
 9.9141  1482
 9.9241  1467
 9.9341  1483
 9.9441  1521
 9.9541  1469
 9.9641  1473
 9.9741  1471
 9.9841  1379
 9.9941  1306
10.0041  1230
10.0141  1138
10.0241  1061
10.0341   927
10.0441   839
10.0541   788
10.0641   739
10.0741   643
10.0841   584
10.0941   539
10.1041   477
10.1141   449
10.1241   408
10.1341   368
10.1441   346
10.1541   319
10.1641   260
10.1741   280
10.1841   268
10.1941   272
10.2041   257
10.2141   241
10.2241   237
10.2341   224
10.2441   230
10.2541   232
10.2641   212
10.2741   200
10.2841   215
10.2941   216
10.3041   206
10.3141   219
10.3241   212
10.3341   185
10.3441   171
10.3541   199
10.3641   192
10.3741   199
10.3841   191
10.3941   183
10.4041   168
10.4141   188
10.4241   194
10.4341   197
10.4441   185
10.4541   188
10.4641   202
10.4741   203
10.4841   213
10.4941   207
10.5041   224
10.5141   219
10.5241   219
10.5341   214
10.5441   204
10.5541   219
10.5641   220
10.5741   222
10.5841   218
10.5941   223
10.6041   257
10.6141   245
10.6241   232
10.6341   233
10.6441   240
10.6541   250
10.6641   218
10.6741   247
10.6841   238
10.6941   258
10.7041   263
10.7141   250
10.7241   265
10.7341   265
10.7441   270
10.7541   272
10.7641   258
10.7741   285
10.7841   310
10.7941   319
10.8041   309
10.8141   329
10.8241   322
10.8341   303
10.8441   343
10.8541   333
10.8641   319
10.8741   337
10.8841   326
10.8941   330
10.9041   357
10.9141   332
10.9241   351
10.9341   327
10.9441   297
10.9541   337
10.9641   337
10.9741   331
10.9841   329
10.9941   335
11.0041   343
11.0141   353
11.0241   324
11.0341   322
11.0441   322
11.0541   318
11.0641   312
11.0741   308
11.0841   291
11.0941   295
11.1041   271
11.1141   275
11.1241   275
11.1341   283
11.1441   318
11.1541   344
11.1641   338
11.1741   330
11.1841   345
11.1941   346
11.2041   401
11.2141   428
11.2241   462
11.2341   445
11.2441   463
11.2541   495
11.2641   471
11.2741   466
11.2841   473
11.2941   475
11.3041   472
11.3141   439
11.3241   432
11.3341   418
11.3441   411
11.3541   396
11.3641   365
11.3741   337
11.3841   332
11.3941   325
11.4041   321
11.4141   290
11.4241   263
11.4341   264
11.4441   280
11.4541   265
11.4641   260
11.4741   234
11.4841   223
11.4941   226
11.5041   223
11.5141   231
11.5241   248
11.5341   254
11.5441   252
11.5541   255
11.5641   247
11.5741   239
11.5841   268
11.5941   268
11.6041   264
11.6141   259
11.6241   242
11.6341   245
11.6441   270
11.6541   255
11.6641   232
11.6741   239
11.6841   229
11.6941   258
11.7041   248
11.7141   222
11.7241   220
11.7341   206
11.7441   209
11.7541   205
11.7641   198
11.7741   199
11.7841   204
11.7941   193
11.8041   178
11.8141   177
11.8241   187
11.8341   179
11.8441   178
11.8541   186
11.8641   175
11.8741   178
11.8841   167
11.8941   165
11.9041   162
11.9141   161
11.9241   161
11.9341   156
11.9441   186
11.9541   178
11.9641   176
11.9741   177
11.9841   186
11.9941   176
12.0041   185
12.0141   181
12.0241   188
12.0341   190
12.0441   189
12.0541   195
12.0641   197
12.0741   195
12.0841   189
12.0941   179
12.1041   188
12.1141   179
12.1241   189
12.1341   187
12.1441   190
12.1541   180
12.1641   167
12.1741   183
12.1841   178
12.1941   177
12.2041   161
12.2141   160
12.2241   174
12.2341   189
12.2441   179
12.2541   178
12.2641   165
12.2741   174
12.2841   191
12.2941   167
12.3041   165
12.3141   179
12.3241   181
12.3341   180
12.3441   184
12.3541   183
12.3641   175
12.3741   170
12.3841   162
12.3941   173
12.4041   176
12.4141   181
12.4241   177
12.4341   170
12.4441   194
12.4541   193
12.4641   186
12.4741   188
12.4841   176
12.4941   172
12.5041   173
12.5141   178
12.5241   191
12.5341   165
12.5441   179
12.5541   190
12.5641   199
12.5741   183
12.5841   179
12.5941   179
12.6041   190
12.6141   200
12.6241   200
12.6341   192
12.6441   200
12.6541   208
12.6641   202
12.6741   190
12.6841   200
12.6941   194
12.7041   176
12.7141   195
12.7241   186
12.7341   181
12.7441   191
12.7541   196
12.7641   200
12.7741   195
12.7841   190
12.7941   192
12.8041   194
12.8141   191
12.8241   191
12.8341   195
12.8441   200
12.8541   203
12.8641   203
12.8741   203
12.8841   199
12.8941   194
12.9041   192
12.9141   193
12.9241   200
12.9341   206
12.9441   205
12.9541   206
12.9641   208
12.9741   209
12.9841   216
12.9941   220
13.0041   214
13.0141   205
13.0241   211
13.0341   223
13.0441   220
13.0541   201
13.0641   191
13.0741   194
13.0841   209
13.0941   205
13.1041   192
13.1141   191
13.1241   210
13.1341   212
13.1441   216
13.1541   224
13.1641   221
13.1741   240
13.1841   244
13.1941   250
13.2041   238
13.2141   219
13.2241   239
13.2341   253
13.2441   259
13.2541   263
13.2641   276
13.2741   307
13.2841   310
13.2941   300
13.3041   311
13.3141   321
13.3241   336
13.3341   359
13.3441   358
13.3541   343
13.3641   367
13.3741   391
13.3841   376
13.3941   368
13.4041   372
13.4141   369
13.4241   365
13.4341   355
13.4441   349
13.4541   343
13.4641   336
13.4741   315
13.4841   291
13.4941   277
13.5041   267
13.5141   265
13.5241   261
13.5341   259
13.5441   261
13.5541   273
13.5641   278
13.5741   262
13.5841   251
13.5941   253
13.6041   256
13.6141   252
13.6241   244
13.6341   250
13.6441   243
13.6541   238
13.6641   249
13.6741   250
13.6841   248
13.6941   255
13.7041   264
13.7141   245
13.7241   230
13.7341   242
13.7441   246
13.7541   245
13.7641   242
13.7741   246
13.7841   250
13.7941   255
13.8041   256
13.8141   256
13.8241   257
13.8341   259
13.8441   276
13.8541   273
13.8641   255
13.8741   255
13.8841   260
13.8941   271
13.9041   290
13.9141   289
13.9241   290
13.9341   315
13.9441   331
13.9541   326
13.9641   340
13.9741   382
13.9841   430
13.9941   468
14.0041   510
14.0141   559
14.0241   566
14.0341   600
14.0441   660
14.0541   714
14.0641   759
14.0741   803
14.0841   850
14.0941   855
14.1041   892
14.1141   935
14.1241   946
14.1341   988
14.1441  1007
14.1541   991
14.1641   964
14.1741   964
14.1841   969
14.1941   891
14.2041   872
14.2141   859
14.2241   792
14.2341   732
14.2441   686
14.2541   641
14.2641   578
14.2741   528
14.2841   486
14.2941   468
14.3041   441
14.3141   399
14.3241   364
14.3341   346
14.3441   326
14.3541   321
14.3641   329
14.3741   313
14.3841   304
14.3941   296
14.4041   288
14.4141   282
14.4241   304
14.4341   288
14.4441   269
14.4541   282
14.4641   283
14.4741   292
14.4841   277
14.4941   252
14.5041   247
14.5141   256
14.5241   264
14.5341   268
14.5441   282
14.5541   278
14.5641   273
14.5741   290
14.5841   291
14.5941   292
14.6041   283
14.6141   280
14.6241   268
14.6341   267
14.6441   275
14.6541   276
14.6641   279
14.6741   282
14.6841   288
14.6941   285
14.7041   291
14.7141   298
14.7241   296
14.7341   288
14.7441   272
14.7541   286
14.7641   292
14.7741   302
14.7841   315
14.7941   330
14.8041   308
14.8141   290
14.8241   309
14.8341   335
14.8441   347
14.8541   330
14.8641   349
14.8741   371
14.8841   358
14.8941   329
14.9041   320
14.9141   329
14.9241   342
14.9341   361
14.9441   353
14.9541   352
14.9641   349
14.9741   343
14.9841   344
14.9941   360
15.0041   367
15.0141   350
15.0241   360
15.0341   365
15.0441   345
15.0541   334
15.0641   319
15.0741   316
15.0841   314
15.0941   324
15.1041   340
15.1141   323
15.1241   336
15.1341   325
15.1441   302
15.1541   324
15.1641   315
15.1741   313
15.1841   338
15.1941   333
15.2041   314
15.2141   319
15.2241   308
15.2341   289
15.2441   292
15.2541   297
15.2641   324
15.2741   325
15.2841   313
15.2941   307
15.3041   309
15.3141   302
15.3241   312
15.3341   317
15.3441   323
15.3541   329
15.3641   289
15.3741   318
15.3841   353
15.3941   317
15.4041   298
15.4141   328
15.4241   338
15.4341   319
15.4441   307
15.4541   298
15.4641   312
15.4741   333
15.4841   365
15.4941   362
15.5041   350
15.5141   349
15.5241   360
15.5341   371
15.5441   399
15.5541   367
15.5641   358
15.5741   393
15.5841   421
15.5941   448
15.6041   470
15.6141   492
15.6241   473
15.6341   470
15.6441   509
15.6541   570
15.6641   598
15.6741   613
15.6841   623
15.6941   656
15.7041   688
15.7141   708
15.7241   728
15.7341   726
15.7441   775
15.7541   766
15.7641   742
15.7741   740
15.7841   767
15.7941   784
15.8041   751
15.8141   733
15.8241   732
15.8341   702
15.8441   692
15.8541   645
15.8641   622
15.8741   619
15.8841   591
15.8941   552
15.9041   521
15.9141   516
15.9241   518
15.9341   488
15.9441   434
15.9541   422
15.9641   426
15.9741   438
15.9841   439
15.9941   404
16.0041   388
16.0141   367
16.0241   379
16.0341   402
16.0441   373
16.0541   379
16.0641   398
16.0741   395
16.0841   395
16.0941   409
16.1041   379
16.1141   347
16.1241   378
16.1341   386
16.1441   384
16.1541   364
16.1641   375
16.1741   381
16.1841   373
16.1941   361
16.2041   367
16.2141   374
16.2241   379
16.2341   388
16.2441   384
16.2541   372
16.2641   378
16.2741   390
16.2841   381
16.2941   349
16.3041   350
16.3141   349
16.3241   390
16.3341   403
16.3441   397
16.3541   369
16.3641   385
16.3741   391
16.3841   363
16.3941   393
16.4041   407
16.4141   376
16.4241   394
16.4341   377
16.4441   369
16.4541   393
16.4641   399
16.4741   395
16.4841   404
16.4941   392
16.5041   372
16.5141   384
16.5241   393
16.5341   391
16.5441   368
16.5541   373
16.5641   361
16.5741   371
16.5841   403
16.5941   406
16.6041   389
16.6141   406
16.6241   405
16.6341   416
16.6441   403
16.6541   379
16.6641   372
16.6741   408
16.6841   439
16.6941   421
16.7041   398
16.7141   404
16.7241   393
16.7341   391
16.7441   433
16.7541   392
16.7641   382
16.7741   394
16.7841   408
16.7941   422
16.8041   412
16.8141   408
16.8241   417
16.8341   405
16.8441   399
16.8541   397
16.8641   408
16.8741   383
16.8841   392
16.8941   403
16.9041   386
16.9141   405
16.9241   427
16.9341   382
16.9441   403
16.9541   397
16.9641   402
16.9741   387
16.9841   411
16.9941   413
17.0041   379
17.0141   407
17.0241   399
17.0341   424
17.0441   419
17.0541   419
17.0641   442
17.0741   428
17.0841   397
17.0941   406
17.1041   413
17.1141   405
17.1241   399
17.1341   407
17.1441   436
17.1541   397
17.1641   396
17.1741   416
17.1841   416
17.1941   439
17.2041   434
17.2141   423
17.2241   401
17.2341   416
17.2441   420
17.2541   425
17.2641   392
17.2741   434
17.2841   439
17.2941   407
17.3041   433
17.3141   445
17.3241   394
17.3341   419
17.3441   435
17.3541   449
17.3641   431
17.3741   421
17.3841   415
17.3941   428
17.4041   448
17.4141   424
17.4241   449
17.4341   431
17.4441   437
17.4541   435
17.4641   475
17.4741   449
17.4841   435
17.4941   446
17.5041   442
17.5141   456
17.5241   487
17.5341   466
17.5441   479
17.5541   479
17.5641   479
17.5741   453
17.5841   496
17.5941   510
17.6041   466
17.6141   489
17.6241   503
17.6341   501
17.6441   497
17.6541   509
17.6641   517
17.6741   507
17.6841   494
17.6941   489
17.7041   478
17.7141   485
17.7241   513
17.7341   502
17.7441   511
17.7541   478
17.7641   485
17.7741   488
17.7841   499
17.7941   499
17.8041   464
17.8141   478
17.8241   487
17.8341   484
17.8441   445
17.8541   447
17.8641   471
17.8741   466
17.8841   470
17.8941   472
17.9041   468
17.9141   466
17.9241   485
17.9341   491
17.9441   448
17.9541   479
17.9641   501
17.9741   472
17.9841   465
17.9941   438
18.0041   477
18.0141   488
18.0241   508
18.0341   506
18.0441   473
18.0541   450
18.0641   468
18.0741   484
18.0841   498
18.0941   475
18.1041   457
18.1141   466
18.1241   512
18.1341   491
18.1441   477
18.1541   460
18.1641   503
18.1741   499
18.1841   462
18.1941   493
18.2041   487
18.2141   455
18.2241   444
18.2341   448
18.2441   508
18.2541   475
18.2641   481
18.2741   478
18.2841   482
18.2941   505
18.3041   508
18.3141   506
18.3241   490
18.3341   490
18.3441   486
18.3541   522
18.3641   496
18.3741   506
18.3841   513
18.3941   487
18.4041   502
18.4141   533
18.4241   533
18.4341   486
18.4441   473
18.4541   466
18.4641   472
18.4741   484
18.4841   475
18.4941   515
18.5041   490
18.5141   463
18.5241   482
18.5341   462
18.5441   489
18.5541   482
18.5641   482
18.5741   506
18.5841   520
18.5941   470
18.6041   506
18.6141   471
18.6241   478
18.6341   475
18.6441   478
18.6541   498
18.6641   501
18.6741   512
18.6841   502
18.6941   498
18.7041   483
18.7141   518
18.7241   517
18.7341   502
18.7441   501
18.7541   510
18.7641   490
18.7741   501
18.7841   492
18.7941   505
18.8041   516
18.8141   496
18.8241   523
18.8341   541
18.8441   533
18.8541   520
18.8641   527
18.8741   490
18.8841   504
18.8941   516
18.9041   520
18.9141   520
18.9241   517
18.9341   549
18.9441   526
18.9541   488
18.9641   493
18.9741   546
18.9841   533
18.9941   477
19.0041   513
19.0141   507
19.0241   514
19.0341   533
19.0441   519
19.0541   498
19.0641   531
19.0741   529
19.0841   530
19.0941   535
19.1041   515
19.1141   539
19.1241   544
19.1341   499
19.1441   498
19.1541   541
19.1641   513
19.1741   536
19.1841   548
19.1941   545
19.2041   529
19.2141   545
19.2241   523
19.2341   524
19.2441   527
19.2541   536
19.2641   543
19.2741   526
19.2841   546
19.2941   492
19.3041   543
19.3141   530
19.3241   529
19.3341   531
19.3441   538
19.3541   531
19.3641   540
19.3741   515
19.3841   527
19.3941   556
19.4041   540
19.4141   543
19.4241   549
19.4341   544
19.4441   527
19.4541   511
19.4641   557
19.4741   528
19.4841   525
19.4941   538
19.5041   525
19.5141   550
19.5241   538
19.5341   553
19.5441   500
19.5541   559
19.5641   593
19.5741   551
19.5841   541
19.5941   545
19.6041   531
19.6141   517
19.6241   532
19.6341   531
19.6441   531
19.6541   554
19.6641   542
19.6741   518
19.6841   539
19.6941   532
19.7041   552
19.7141   546
19.7241   515
19.7341   533
19.7441   566
19.7541   564
19.7641   528
19.7741   543
19.7841   548
19.7941   565
19.8041   553
19.8141   531
19.8241   538
19.8341   534
19.8441   562
19.8541   544
19.8641   533
19.8741   569
19.8841   551
19.8941   581
19.9041   553
19.9141   560
19.9241   561
19.9341   539
19.9441   549
19.9541   522
19.9641   568
19.9741   571
19.9841   560
19.9941   564
20.0041   551
20.0141   537
20.0241   561
20.0341   627
20.0441   578
20.0541   568
20.0641   565
20.0741   547
20.0841   557
20.0941   561
20.1041   557
20.1141   532
20.1241   546
20.1341   566
20.1441   574
20.1541   556
20.1641   545
20.1741   538
20.1841   511
20.1941   562
20.2041   569
20.2141   595
20.2241   588
20.2341   529
20.2441   562
20.2541   574
20.2641   545
20.2741   551
20.2841   568
20.2941   552
20.3041   577
20.3141   548
20.3241   575
20.3341   548
20.3441   551
20.3541   558
20.3641   550
20.3741   581
20.3841   588
20.3941   564
20.4041   565
20.4141   516
20.4241   568
20.4341   554
20.4441   572
20.4541   582
20.4641   588
20.4741   586
20.4841   567
20.4941   566
20.5041   582
20.5141   546
20.5241   604
20.5341   578
20.5441   583
20.5541   550
20.5641   551
20.5741   584
20.5841   563
20.5941   561
20.6041   531
20.6141   583
20.6241   568
20.6341   583
20.6441   563
20.6541   553
20.6641   576
20.6741   575
20.6841   551
20.6941   527
20.7041   582
20.7141   600
20.7241   552
20.7341   579
20.7441   570
20.7541   553
20.7641   541
20.7741   606
20.7841   606
20.7941   600
20.8041   573
20.8141   595
20.8241   604
20.8341   619
20.8441   647
20.8541   630
20.8641   561
20.8741   576
20.8841   656
20.8941   632
20.9041   676
20.9141   680
20.9241   681
20.9341   683
20.9441   688
20.9541   694
20.9641   748
20.9741   744
20.9841   739
20.9941   740
21.0041   765
21.0141   777
21.0241   761
21.0341   844
21.0441   774
21.0541   823
21.0641   846
21.0741   817
21.0841   846
21.0941   835
21.1041   889
21.1141   862
21.1241   842
21.1341   875
21.1441   895
21.1541   876
21.1641   899
21.1741   853
21.1841   848
21.1941   858
21.2041   784
21.2141   805
21.2241   833
21.2341   808
21.2441   781
21.2541   789
21.2641   734
21.2741   726
21.2841   719
21.2941   758
21.3041   698
21.3141   677
21.3241   674
21.3341   658
21.3441   609
21.3541   626
21.3641   628
21.3741   638
21.3841   642
21.3941   607
21.4041   612
21.4141   578
21.4241   557
21.4341   568
21.4441   572
21.4541   567
21.4641   582
21.4741   613
21.4841   605
21.4941   577
21.5041   602
21.5141   587
21.5241   606
21.5341   613
21.5441   568
21.5541   569
21.5641   556
21.5741   587
21.5841   600
21.5941   614
21.6041   551
21.6141   569
21.6241   594
21.6341   551
21.6441   572
21.6541   595
21.6641   586
21.6741   593
21.6841   562
21.6941   566
21.7041   592
21.7141   588
21.7241   573
21.7341   573
21.7441   575
21.7541   571
21.7641   568
21.7741   587
21.7841   625
21.7941   589
21.8041   574
21.8141   566
21.8241   508
21.8341   561
21.8441   590
21.8541   606
21.8641   593
21.8741   590
21.8841   551
21.8941   603
21.9041   642
21.9141   574
21.9241   584
21.9341   603
21.9441   585
21.9541   585
21.9641   545
21.9741   516
21.9841   582
21.9941   600
22.0041   572
22.0141   619
22.0241   584
22.0341   620
22.0441   605
22.0541   578
22.0641   589
22.0741   584
22.0841   577
22.0941   577
22.1041   584
22.1141   587
22.1241   624
22.1341   566
22.1441   620
22.1541   558
22.1641   574
22.1741   583
22.1841   588
22.1941   589
22.2041   561
22.2141   573
22.2241   533
22.2341   566
22.2441   567
22.2541   556
22.2641   558
22.2741   600
22.2841   526
22.2941   579
22.3041   574
22.3141   574
22.3241   599
22.3341   553
22.3441   576
22.3541   546
22.3641   556
22.3741   576
22.3841   606
22.3941   585
22.4041   613
22.4141   602
22.4241   604
22.4341   561
22.4441   546
22.4541   577
22.4641   591
22.4741   573
22.4841   605
22.4941   640
22.5041   593
22.5141   558
22.5241   580
22.5341   602
22.5441   555
22.5541   624
22.5641   550
22.5741   563
22.5841   586
22.5941   557
22.6041   545
22.6141   509
22.6241   556
22.6341   562
22.6441   568
22.6541   606
22.6641   614
22.6741   597
22.6841   546
22.6941   599
22.7041   579
22.7141   584
22.7241   609
22.7341   537
22.7441   517
22.7541   602
22.7641   593
22.7741   589
22.7841   567
22.7941   610
22.8041   538
22.8141   576
22.8241   568
22.8341   560
22.8441   582
22.8541   587
22.8641   547
22.8741   585
22.8841   590
22.8941   552
22.9041   578
22.9141   570
22.9241   573
22.9341   513
22.9441   563
22.9541   611
22.9641   575
22.9741   541
22.9841   545
22.9941   543
23.0041   585
23.0141   539
23.0241   575
23.0341   583
23.0441   551
23.0541   585
23.0641   525
23.0741   512
23.0841   553
23.0941   610
23.1041   547
23.1141   574
23.1241   605
23.1341   580
23.1441   543
23.1541   572
23.1641   607
23.1741   587
23.1841   568
23.1941   588
23.2041   587
23.2141   549
23.2241   555
23.2341   567
23.2441   528
23.2541   530
23.2641   547
23.2741   589
23.2841   574
23.2941   548
23.3041   585
23.3141   543
23.3241   559
23.3341   568
23.3441   551
23.3541   598
23.3641   547
23.3741   564
23.3841   611
23.3941   539
23.4041   578
23.4141   570
23.4241   536
23.4341   583
23.4441   588
23.4541   574
23.4641   593
23.4741   521
23.4841   537
23.4941   556
23.5041   540
23.5141   616
23.5241   540
23.5341   587
23.5441   569
23.5541   574
23.5641   553
23.5741   546
23.5841   553
23.5941   585
23.6041   596
23.6141   543
23.6241   548
23.6341   565
23.6441   552
23.6541   570
23.6641   608
23.6741   578
23.6841   580
23.6941   597
23.7041   577
23.7141   627
23.7241   584
23.7341   590
23.7441   635
23.7541   601
23.7641   597
23.7741   591
23.7841   609
23.7941   606
23.8041   554
23.8141   563
23.8241   617
23.8341   612
23.8441   584
23.8541   595
23.8641   619
23.8741   540
23.8841   581
23.8941   606
23.9041   577
23.9141   598
23.9241   555
23.9341   587
23.9441   554
23.9541   578
23.9641   572
23.9741   549
23.9841   555
23.9941   507
24.0041   530
24.0141   537
24.0241   566
24.0341   567
24.0441   555
24.0541   546
24.0641   562
24.0741   507
24.0841   554
24.0941   562
24.1041   538
24.1141   533
24.1241   537
24.1341   552
24.1441   542
24.1541   557
24.1641   554
24.1741   553
24.1841   524
24.1941   574
24.2041   537
24.2141   559
24.2241   545
24.2341   551
24.2441   509
24.2541   548
24.2641   574
24.2741   569
24.2841   537
24.2941   554
24.3041   530
24.3141   543
24.3241   520
24.3341   577
24.3441   592
24.3541   534
24.3641   538
24.3741   579
24.3841   542
24.3941   540
24.4041   553
24.4141   578
24.4241   523
24.4341   509
24.4441   490
24.4541   536
24.4641   559
24.4741   515
24.4841   558
24.4941   525
24.5041   511
24.5141   566
24.5241   530
24.5341   517
24.5441   509
24.5541   550
24.5641   510
24.5741   477
24.5841   530
24.5941   510
24.6041   518
24.6141   550
24.6241   529
24.6341   520
24.6441   501
24.6541   533
24.6641   476
24.6741   522
24.6841   572
24.6941   551
24.7041   511
24.7141   538
24.7241   489
24.7341   504
24.7441   516
24.7541   565
24.7641   553
24.7741   477
24.7841   515
24.7941   531
24.8041   518
24.8141   513
24.8241   533
24.8341   530
24.8441   512
24.8541   537
24.8641   522
24.8741   528
24.8841   500
24.8941   512
24.9041   569
24.9141   521
24.9241   499
24.9341   548
24.9441   505
24.9541   538
24.9641   500
24.9741   552
24.9841   522
24.9941   588
25.0041   551
25.0141   521
25.0241   482
25.0341   486
25.0441   542
25.0541   523
25.0641   498
25.0741   533
25.0841   515
25.0941   544
25.1041   513
25.1141   549
25.1241   525
25.1341   539
25.1441   491
25.1541   527
25.1641   540
25.1741   497
25.1841   518
25.1941   504
25.2041   538
25.2141   556
25.2241   525
25.2341   504
25.2441   515
25.2541   519
25.2641   472
25.2741   505
25.2841   518
25.2941   510
25.3041   496
25.3141   495
25.3241   518
25.3341   508
25.3441   518
25.3541   542
25.3641   541
25.3741   505
25.3841   484
25.3941   508
25.4041   526
25.4141   521
25.4241   506
25.4341   497
25.4441   511
25.4541   490
25.4641   485
25.4741   537
25.4841   477
25.4941   514
25.5041   512
25.5141   459
25.5241   463
25.5341   504
25.5441   520
25.5541   519
25.5641   475
25.5741   525
25.5841   520
25.5941   495
25.6041   519
25.6141   481
25.6241   459
25.6341   454
25.6441   520
25.6541   489
25.6641   492
25.6741   514
25.6841   528
25.6941   518
25.7041   451
25.7141   486
25.7241   524
25.7341   485
25.7441   525
25.7541   440
25.7641   487
25.7741   507
25.7841   459
25.7941   470
25.8041   489
25.8141   503
25.8241   474
25.8341   486
25.8441   515
25.8541   479
25.8641   493
25.8741   482
25.8841   513
25.8941   524
25.9041   495
25.9141   501
25.9241   457
25.9341   471
25.9441   479
25.9541   465
25.9641   484
25.9741   503
25.9841   457
25.9941   449
26.0041   467
26.0141   481
26.0241   475
26.0341   443
26.0441   452
26.0541   454
26.0641   474
26.0741   493
26.0841   490
26.0941   483
26.1041   460
26.1141   469
26.1241   489
26.1341   452
26.1441   452
26.1541   470
26.1641   483
26.1741   473
26.1841   488
26.1941   497
26.2041   465
26.2141   472
26.2241   490
26.2341   469
26.2441   487
26.2541   493
26.2641   470
26.2741   467
26.2841   462
26.2941   455
26.3041   496
26.3141   476
26.3241   478
26.3341   465
26.3441   453
26.3541   431
26.3641   453
26.3741   431
26.3841   434
26.3941   444
26.4041   427
26.4141   434
26.4241   456
26.4341   471
26.4441   428
26.4541   433
26.4641   483
26.4741   499
26.4841   463
26.4941   485
26.5041   453
26.5141   433
26.5241   463
26.5341   505
26.5441   469
26.5541   443
26.5641   451
26.5741   462
26.5841   448
26.5941   465
26.6041   452
26.6141   458
26.6241   460
26.6341   475
26.6441   456
26.6541   449
26.6641   444
26.6741   467
26.6841   419
26.6941   414
26.7041   458
26.7141   479
26.7241   467
26.7341   432
26.7441   464
26.7541   446
26.7641   451
26.7741   445
26.7841   482
26.7941   434
26.8041   413
26.8141   467
26.8241   474
26.8341   436
26.8441   420
26.8541   430
26.8641   438
26.8741   408
26.8841   481
26.8941   434
26.9041   438
26.9141   426
26.9241   454
26.9341   451
26.9441   434
26.9541   383
26.9641   440
26.9741   440
26.9841   411
26.9941   442
27.0041   428
27.0141   415
27.0241   447
27.0341   410
27.0441   467
27.0541   423
27.0641   456
27.0741   434
27.0841   438
27.0941   397
27.1041   437
27.1141   401
27.1241   443
27.1341   448
27.1441   435
27.1541   426
27.1641   443
27.1741   404
27.1841   438
27.1941   448
27.2041   398
27.2141   402
27.2241   419
27.2341   417
27.2441   422
27.2541   411
27.2641   419
27.2741   441
27.2841   394
27.2941   429
27.3041   440
27.3141   395
27.3241   451
27.3341   428
27.3441   446
27.3541   390
27.3641   396
27.3741   419
27.3841   456
27.3941   460
27.4041   420
27.4141   402
27.4241   422
27.4341   431
27.4441   417
27.4541   414
27.4641   409
27.4741   416
27.4841   419
27.4941   430
27.5041   423
27.5141   403
27.5241   428
27.5341   390
27.5441   373
27.5541   413
27.5641   410
27.5741   424
27.5841   381
27.5941   407
27.6041   395
27.6141   407
27.6241   398
27.6341   373
27.6441   390
27.6541   392
27.6641   409
27.6741   412
27.6841   400
27.6941   422
27.7041   410
27.7141   441
27.7241   369
27.7341   405
27.7441   398
27.7541   428
27.7641   393
27.7741   406
27.7841   420
27.7941   382
27.8041   414
27.8141   371
27.8241   431
27.8341   380
27.8441   405
27.8541   366
27.8641   419
27.8741   370
27.8841   381
27.8941   393
27.9041   408
27.9141   395
27.9241   421
27.9341   369
27.9441   389
27.9541   387
27.9641   377
27.9741   389
27.9841   384
27.9941   364
28.0041   375
28.0141   388
28.0241   388
28.0341   409
28.0441   391
28.0541   430
28.0641   367
28.0741   382
28.0841   388
28.0941   404
28.1041   385
28.1141   362
28.1241   383
28.1341   367
28.1441   379
28.1541   383
28.1641   403
28.1741   358
28.1841   379
28.1941   345
28.2041   379
28.2141   369
28.2241   384
28.2341   401
28.2441   404
28.2541   382
28.2641   348
28.2741   395
28.2841   381
28.2941   386
28.3041   358
28.3141   351
28.3241   363
28.3341   386
28.3441   385
28.3541   357
28.3641   373
28.3741   335
28.3841   364
28.3941   394
28.4041   365
28.4141   359
28.4241   349
28.4341   386
28.4441   348
28.4541   381
28.4641   370
28.4741   371
28.4841   373
28.4941   373
28.5041   385
28.5141   358
28.5241   376
28.5341   393
28.5441   387
28.5541   383
28.5641   355
28.5741   343
28.5841   391
28.5941   355
28.6041   396
28.6141   381
28.6241   361
28.6341   355
28.6441   401
28.6541   373
28.6641   393
28.6741   353
28.6841   359
28.6941   385
28.7041   360
28.7141   342
28.7241   361
28.7341   378
28.7441   370
28.7541   369
28.7641   344
28.7741   363
28.7841   386
28.7941   365
28.8041   330
28.8141   358
28.8241   378
28.8341   351
28.8441   343
28.8541   357
28.8641   327
28.8741   333
28.8841   324
28.8941   348
28.9041   331
28.9141   346
28.9241   361
28.9341   338
28.9441   335
28.9541   341
28.9641   337
28.9741   331
28.9841   323
28.9941   343
29.0041   340
29.0141   324
29.0241   349
29.0341   354
29.0441   336
29.0541   350
29.0641   338
29.0741   361
29.0841   340
29.0941   330
29.1041   316
29.1141   330
29.1241   361
29.1341   331
29.1441   366
29.1541   326
29.1641   334
29.1741   319
29.1841   362
29.1941   316
29.2041   330
29.2141   359
29.2241   354
29.2341   338
29.2441   336
29.2541   368
29.2641   322
29.2741   352
29.2841   318
29.2941   368
29.3041   335
29.3141   337
29.3241   342
29.3341   330
29.3441   269
29.3541   320
29.3641   311
29.3741   338
29.3841   324
29.3941   327
29.4041   309
29.4141   319
29.4241   341
29.4341   321
29.4441   296
29.4541   331
29.4641   326
29.4741   319
29.4841   330
29.4941   297
29.5041   309
29.5141   327
29.5241   321
29.5341   334
29.5441   338
29.5541   344
29.5641   340
29.5741   304
29.5841   318
29.5941   303
29.6041   339
29.6141   335
29.6241   307
29.6341   321
29.6441   296
29.6541   304
29.6641   279
29.6741   340
29.6841   322
29.6941   295
29.7041   312
29.7141   310
29.7241   301
29.7341   329
29.7441   339
29.7541   308
29.7641   321
29.7741   306
29.7841   299
29.7941   312
29.8041   334
29.8141   332
29.8241   304
29.8341   319
29.8441   333
29.8541   337
29.8641   319
29.8741   291
29.8841   311
29.8941   311
29.9041   307
29.9141   309
29.9241   285
29.9341   319
29.9441   298
29.9541   298
29.9641   302
29.9741   313
29.9841   281
29.9941   314
30.0041   295
30.0141   305
30.0241   303
30.0341   292
30.0441   292
30.0541   327
30.0641   287
30.0741   300
30.0841   277
30.0941   280
30.1041   309
30.1141   293
30.1241   311
30.1341   276
30.1441   303
30.1541   300
30.1641   253
30.1741   295
30.1841   287
30.1941   272
30.2041   294
30.2141   302
30.2241   272
30.2341   274
30.2441   335
30.2541   288
30.2641   285
30.2741   326
30.2841   293
30.2941   272
30.3041   290
30.3141   270
30.3241   286
30.3341   278
30.3441   246
30.3541   269
30.3641   277
30.3741   281
30.3841   292
30.3941   266
30.4041   281
30.4141   284
30.4241   289
30.4341   271
30.4441   281
30.4541   288
30.4641   285
30.4741   279
30.4841   259
30.4941   283
30.5041   279
30.5141   273
30.5241   302
30.5341   289
30.5441   283
30.5541   298
30.5641   266
30.5741   262
30.5841   259
30.5941   292
30.6041   290
30.6141   279
30.6241   263
30.6341   268
30.6441   257
30.6541   271
30.6641   266
30.6741   236
30.6841   289
30.6941   250
30.7041   250
30.7141   246
30.7241   257
30.7341   253
30.7441   270
30.7541   261
30.7641   260
30.7741   284
30.7841   260
30.7941   268
30.8041   270
30.8141   264
30.8241   255
30.8341   233
30.8441   255
30.8541   261
30.8641   244
30.8741   275
30.8841   260
30.8941   261
30.9041   292
30.9141   262
30.9241   265
30.9341   256
30.9441   260
30.9541   255
30.9641   232
30.9741   274
30.9841   271
30.9941   251
31.0041   280
31.0141   262
31.0241   266
31.0341   279
31.0441   261
31.0541   291
31.0641   242
31.0741   235
31.0841   251
31.0941   259
31.1041   255
31.1141   290
31.1241   276
31.1341   240
31.1441   256
31.1541   249
31.1641   270
31.1741   259
31.1841   247
31.1941   239
31.2041   257
31.2141   292
31.2241   277
31.2341   244
31.2441   249
31.2541   244
31.2641   231
31.2741   281
31.2841   249
31.2941   215
31.3041   235
31.3141   272
31.3241   268
31.3341   235
31.3441   241
31.3541   237
31.3641   250
31.3741   251
31.3841   237
31.3941   245
31.4041   224
31.4141   262
31.4241   208
31.4341   221
31.4441   219
31.4541   270
31.4641   257
31.4741   221
31.4841   232
31.4941   243
31.5041   249
31.5141   228
31.5241   265
31.5341   237
31.5441   232
31.5541   275
31.5641   223
31.5741   255
31.5841   252
31.5941   248
31.6041   211
31.6141   238
31.6241   237
31.6341   246
31.6441   266
31.6541   239
31.6641   245
31.6741   252
31.6841   228
31.6941   231
31.7041   240
31.7141   233
31.7241   265
31.7341   257
31.7441   245
31.7541   245
31.7641   259
31.7741   236
31.7841   238
31.7941   237
31.8041   222
31.8141   227
31.8241   240
31.8341   244
31.8441   245
31.8541   233
31.8641   252
31.8741   243
31.8841   237
31.8941   229
31.9041   220
31.9141   243
31.9241   230
31.9341   228
31.9441   228
31.9541   220
31.9641   210
31.9741   230
31.9841   246
31.9941   249
32.0041   261
32.0141   243
32.0241   255
32.0341   228
32.0441   231
32.0541   232
32.0641   268
32.0741   226
32.0841   243
32.0941   259
32.1041   243
32.1141   239
32.1241   226
32.1341   247
32.1441   264
32.1541   244
32.1641   248
32.1741   243
32.1841   252
32.1941   261
32.2041   251
32.2141   259
32.2241   248
32.2341   235
32.2441   259
32.2541   239
32.2641   248
32.2741   241
32.2841   252
32.2941   239
32.3041   238
32.3141   245
32.3241   212
32.3341   204
32.3441   206
32.3541   215
32.3641   248
32.3741   212
32.3841   195
32.3941   232
32.4041   202
32.4141   209
32.4241   230
32.4341   225
32.4441   232
32.4541   206
32.4641   212
32.4741   215
32.4841   208
32.4941   185
32.5041   218
32.5141   230
32.5241   206
32.5341   176
32.5441   195
32.5541   195
32.5641   203
32.5741   201
32.5841   209
32.5941   219
32.6041   203
32.6141   220
32.6241   207
32.6341   198
32.6441   192
32.6541   195
32.6641   202
32.6741   208
32.6841   173
32.6941   182
32.7041   180
32.7141   196
32.7241   218
32.7341   211
32.7441   193
32.7541   190
32.7641   216
32.7741   229
32.7841   211
32.7941   210
32.8041   185
32.8141   194
32.8241   175
32.8341   202
32.8441   197
32.8541   205
32.8641   192
32.8741   197
32.8841   202
32.8941   185
32.9041   187
32.9141   175
32.9241   170
32.9341   192
32.9441   175
32.9541   199
32.9641   182
32.9741   204
32.9841   165
32.9941   194
33.0041   184
33.0141   176
33.0241   182
33.0341   195
33.0441   219
33.0541   192
33.0641   173
33.0741   173
33.0841   183
33.0941   185
33.1041   179
33.1141   185
33.1241   173
33.1341   200
33.1441   176
33.1541   178
33.1641   192
33.1741   189
33.1841   228
33.1941   188
33.2041   194
33.2141   190
33.2241   182
33.2341   168
33.2441   177
33.2541   166
33.2641   172
33.2741   164
33.2841   155
33.2941   167
33.3041   151
33.3141   158
33.3241   191
33.3341   180
33.3441   161
33.3541   167
33.3641   186
33.3741   162
33.3841   160
33.3941   181
33.4041   169
33.4141   178
33.4241   175
33.4341   185
33.4441   168
33.4541   188
33.4641   182
33.4741   172
33.4841   188
33.4941   186
33.5041   169
33.5141   162
33.5241   181
33.5341   164
33.5441   199
33.5541   169
33.5641   182
33.5741   203
33.5841   172
33.5941   153
33.6041   158
33.6141   163
33.6241   159
33.6341   170
33.6441   181
33.6541   169
33.6641   167
33.6741   149
33.6841   160
33.6941   171
33.7041   172
33.7141   153
33.7241   169
33.7341   170
33.7441   166
33.7541   174
33.7641   178
33.7741   156
33.7841   155
33.7941   162
33.8041   168
33.8141   180
33.8241   164
33.8341   171
33.8441   177
33.8541   170
33.8641   185
33.8741   155
33.8841   155
33.8941   160
33.9041   148
33.9141   143
33.9241   156
33.9341   178
33.9441   174
33.9541   135
33.9641   138
33.9741   156
33.9841   152
33.9941   155
34.0041   156
34.0141   147
34.0241   157
34.0341   151
34.0441   156
34.0541   145
34.0641   154
34.0741   164
34.0841   156
34.0941   149
34.1041   156
34.1141   169
34.1241   163
34.1341   153
34.1441   142
34.1541   161
34.1641   170
34.1741   167
34.1841   155
34.1941   136
34.2041   172
34.2141   146
34.2241   172
34.2341   150
34.2441   147
34.2541   143
34.2641   131
34.2741   160
34.2841   132
34.2941   159
34.3041   158
34.3141   181
34.3241   150
34.3341   156
34.3441   126
34.3541   132
34.3641   159
34.3741   169
34.3841   136
34.3941   137
34.4041   141
34.4141   146
34.4241   138
34.4341   143
34.4441   148
34.4541   147
34.4641   128
34.4741   134
34.4841   134
34.4941   162
34.5041   151
34.5141   142
34.5241   153
34.5341   134
34.5441   162
34.5541   128
34.5641   139
34.5741   125
34.5841   122
34.5941   148
34.6041   142
34.6141   133
34.6241   134
34.6341   135
34.6441   120
34.6541   131
34.6641   134
34.6741   134
34.6841   110
34.6941   110
34.7041   122
34.7141   136
34.7241   137
34.7341   111
34.7441   151
34.7541   141
34.7641   151
34.7741   141
34.7841   164
34.7941   163
34.8041   138
34.8141   127
34.8241   137
34.8341   132
34.8441   121
34.8541   134
34.8641   127
34.8741   125
34.8841   140
34.8941   135
34.9041   131
34.9141   142
34.9241   123
34.9341   138
34.9441   131
34.9541   141
34.9641   118
34.9741   105
34.9841   133
34.9941   136
35.0041   136
35.0141   126
35.0241   135
35.0341   123
35.0441   124
35.0541   136
35.0641   117
35.0741   116
35.0841   124
35.0941   105
35.1041   127
35.1141   119
35.1241   131
35.1341   130
35.1441   125
35.1541   127
35.1641   119
35.1741   128
35.1841   110
35.1941   107
35.2041   116
35.2141   139
35.2241   119
35.2341   137
35.2441   121
35.2541   120
35.2641   123
35.2741   115
35.2841   120
35.2941   117
35.3041   124
35.3141   122
35.3241   131
35.3341   126
35.3441   125
35.3541   118
35.3641   127
35.3741   119
35.3841   123
35.3941   123
35.4041   120
35.4141   133
35.4241   120
35.4341   134
35.4441   114
35.4541    96
35.4641   112
35.4741   115
35.4841   116
35.4941   120
35.5041   114
35.5141   111
35.5241   122
35.5341   120
35.5441   125
35.5541   117
35.5641   127
35.5741   112
35.5841   120
35.5941   111
35.6041    87
35.6141    96
35.6241   113
35.6341   111
35.6441   116
35.6541    97
35.6641   113
35.6741   120
35.6841   109
35.6941   117
35.7041   116
35.7141   115
35.7241   114
35.7341   112
35.7441   125
35.7541   118
35.7641   109
35.7741   120
35.7841   102
35.7941   115
35.8041   113
35.8141   116
35.8241   112
35.8341   128
35.8441   116
35.8541   115
35.8641   102
35.8741   106
35.8841   109
35.8941   104
35.9041   116
35.9141   122
35.9241   108
35.9341   106
35.9441   102
35.9541    87
35.9641   106
35.9741   119
35.9841   106
35.9941   109
36.0041   100
36.0141   102
36.0241   109
36.0341   114
36.0441   111
36.0541    97
36.0641    99
36.0741    96
36.0841   108
36.0941    94
36.1041   106
36.1141    97
36.1241   100
36.1341   106
36.1441   113
36.1541    93
36.1641   107
36.1741    88
36.1841   107
36.1941    93
36.2041   108
36.2141   113
36.2241   108
36.2341    97
36.2441   102
36.2541   113
36.2641    96
36.2741   107
36.2841   116
36.2941   107
36.3041   108
36.3141   102
36.3241   101
36.3341   118
36.3441   111
36.3541   115
36.3641    82
36.3741   109
36.3841    89
36.3941   103
36.4041    99
36.4141    88
36.4241    92
36.4341   107
36.4441    96
36.4541    96
36.4641    95
36.4741    97
36.4841    99
36.4941    92
36.5041   106
36.5141   105
36.5241   104
36.5341    87
36.5441    94
36.5541   100
36.5641    95
36.5741    88
36.5841    96
36.5941    92
36.6041    89
36.6141    84
36.6241    99
36.6341    88
36.6441    87
36.6541    98
36.6641    96
36.6741    76
36.6841    88
36.6941    85
36.7041    85
36.7141    98
36.7241    90
36.7341    82
36.7441    98
36.7541    89
36.7641    81
36.7741    88
36.7841    77
36.7941    99
36.8041    83
36.8141    91
36.8241    94
36.8341    97
36.8441    81
36.8541    94
36.8641    76
36.8741   101
36.8841    69
36.8941    78
36.9041    69
36.9141    84
36.9241    82
36.9341    76
36.9441    86
36.9541    71
36.9641    75
36.9741    76
36.9841    86
36.9941    79
37.0041    63
37.0141    87
37.0241    89
37.0341    90
37.0441    81
37.0541    92
37.0641    91
37.0741    82
37.0841    78
37.0941    78
37.1041    81
37.1141    75
37.1241    85
37.1341    84
37.1441    91
37.1541    88
37.1641    74
37.1741    86
37.1841    83
37.1941    68
37.2041    66
37.2141    75
37.2241    70
37.2341    65
37.2441    84
37.2541    76
37.2641    81
37.2741    91
37.2841    77
37.2941    72
37.3041    77
37.3141    74
37.3241    72
37.3341    88
37.3441    80
37.3541    66
37.3641    79
37.3741    71
37.3841    80
37.3941    73
37.4041    71
37.4141    72
37.4241    67
37.4341    78
37.4441    81
37.4541    82
37.4641    67
37.4741    63
37.4841    78
37.4941    71
37.5041    88
37.5141    71
37.5241    66
37.5341    74
37.5441    72
37.5541    82
37.5641    60
37.5741    89
37.5841    63
37.5941    82
37.6041    74
37.6141    80
37.6241    77
37.6341    60
37.6441    73
37.6541    85
37.6641    66
37.6741    54
37.6841    82
37.6941    62
37.7041    82
37.7141    66
37.7241    64
37.7341    67
37.7441    79
37.7541    61
37.7641    56
37.7741    66
37.7841    63
37.7941    78
37.8041    56
37.8141    70
37.8241    82
37.8341    65
37.8441    65
37.8541    63
37.8641    67
37.8741    69
37.8841    68
37.8941    60
37.9041    57
37.9141    58
37.9241    62
37.9341    67
37.9441    75
37.9541    61
37.9641    64
37.9741    61
37.9841    59
37.9941    65
38.0041    63
38.0141    64
38.0241    70
38.0341    73
38.0441    67
38.0541    72
38.0641    57
38.0741    60
38.0841    63
38.0941    63
38.1041    58
38.1141    78
38.1241    58
38.1341    65
38.1441    73
38.1541    78
38.1641    73
38.1741    55
38.1841    64
38.1941    60
38.2041    77
38.2141    59
38.2241    61
38.2341    55
38.2441    79
38.2541    64
38.2641    63
38.2741    59
38.2841    53
38.2941    64
38.3041    53
38.3141    58
38.3241    62
38.3341    65
38.3441    53
38.3541    61
38.3641    59
38.3741    51
38.3841    60
38.3941    61
38.4041    65
38.4141    56
38.4241    58
38.4341    47
38.4441    50
38.4541    47
38.4641    49
38.4741    61
38.4841    53
38.4941    48
38.5041    59
38.5141    66
38.5241    51
38.5341    57
38.5441    58
38.5541    57
38.5641    53
38.5741    46
38.5841    49
38.5941    56
38.6041    50
38.6141    57
38.6241    62
38.6341    57
38.6441    57
38.6541    56
38.6641    42
38.6741    52
38.6841    46
38.6941    41
38.7041    38
38.7141    40
38.7241    50
38.7341    37
38.7441    38
38.7541    49
38.7641    40
38.7741    44
38.7841    48
38.7941    47
38.8041    51
38.8141    44
38.8241    38
38.8341    37
38.8441    44
38.8541    53
38.8641    47
38.8741    46
38.8841    56
38.8941    49
38.9041    52
38.9141    43
38.9241    44
38.9341    48
38.9441    51
38.9541    60
38.9641    44
38.9741    48
38.9841    50
38.9941    43
39.0041    38
39.0141    45
39.0241    41
39.0341    45
39.0441    39
39.0541    50
39.0641    42
39.0741    53
39.0841    50
39.0941    57
39.1041    40
39.1141    39
39.1241    56
39.1341    53
39.1441    41
39.1541    44
39.1641    35
39.1741    46
39.1841    37
39.1941    50
39.2041    44
39.2141    32
39.2241    39
39.2341    45
39.2441    46
39.2541    43
39.2641    40
39.2741    49
39.2841    61
39.2941    47
39.3041    40
39.3141    41
39.3241    45
39.3341    41
39.3441    37
39.3541    48
39.3641    43
39.3741    56
39.3841    59
39.3941    34
39.4041    35
39.4141    57
39.4241    36
39.4341    53
39.4441    45
39.4541    40
39.4641    62
39.4741    48
39.4841    32
39.4941    45
39.5041    43
39.5141    38
39.5241    43
39.5341    39
39.5441    51
39.5541    47
39.5641    48
39.5741    40
39.5841    35
39.5941    28
39.6041    48
39.6141    38
39.6241    41
39.6341    47
39.6441    40
39.6541    34
39.6641    34
39.6741    35
39.6841    42
39.6941    42
39.7041    51
39.7141    46
39.7241    43
39.7341    39
39.7441    32
39.7541    33
39.7641    41
39.7741    42
39.7841    37
39.7941    30
39.8041    32
39.8141    28
39.8241    39
39.8341    35
39.8441    42
39.8541    36
39.8641    43
39.8741    28
39.8841    26
39.8941    22
39.9041    41
39.9141    34
39.9241    28
39.9341    35
39.9441    24
39.9541    37
39.9641    46
39.9741    30
39.9841    32
