Bruker Nano GmbH Berlin, Germany
Esprit 1.9

Date: 4/1/2021 4:05:18 PM
Real time: 17195
Life time: 15849
Pulse density: 115818


Detector type: XFlash 430
Window type: Custom type
Detector thickness: 0.45
Si dead layer:0.029

Calibration, lin.: 10
Calibration, abs.: -955.9
Mn FWHM: 137.05
Fano factor: 0.121
Channels: 4095

Energy Counts
-0.9559     0
-0.9459     0
-0.9359     0
-0.9259     0
-0.9159     0
-0.9059     0
-0.8959     0
-0.8859     0
-0.8759     0
-0.8659     0
-0.8559     0
-0.8459     0
-0.8359     0
-0.8259     0
-0.8159     0
-0.8059     0
-0.7959     0
-0.7859     0
-0.7759     0
-0.7659     0
-0.7559     0
-0.7459     0
-0.7359     0
-0.7259     0
-0.7159     0
-0.7059     0
-0.6959     0
-0.6859     0
-0.6759     0
-0.6659     0
-0.6559     0
-0.6459     0
-0.6359     0
-0.6259     0
-0.6159     0
-0.6059     0
-0.5959     0
-0.5859     0
-0.5759     0
-0.5659     0
-0.5559     0
-0.5459     0
-0.5359     0
-0.5259     0
-0.5159     0
-0.5059     0
-0.4959     0
-0.4859     0
-0.4759     0
-0.4659     0
-0.4559     0
-0.4459     0
-0.4359     0
-0.4259     0
-0.4159     0
-0.4059     0
-0.3959     0
-0.3859     0
-0.3759     0
-0.3659     0
-0.3559     0
-0.3459     0
-0.3359     0
-0.3259     0
-0.3159     0
-0.3059     0
-0.2959     0
-0.2859     0
-0.2759     0
-0.2659     0
-0.2559     0
-0.2459     0
-0.2359     0
-0.2259     0
-0.2159     0
-0.2059     0
-0.1959     0
-0.1859     0
-0.1759     0
-0.1659     0
-0.1559     0
-0.1459     0
-0.1359     0
-0.1259     1
-0.1159     2
-0.1059     6
-0.0959    37
-0.0859   172
-0.0759   646
-0.0659  1782
-0.0559  4642
-0.0459  9972
-0.0359 18754
-0.0259 30409
-0.0159 41010
-0.0059 48447
 0.0041 48820
 0.0141 42090
 0.0241 31292
 0.0341 19613
 0.0441 10899
 0.0541  4972
 0.0641  2059
 0.0741   721
 0.0841   235
 0.0941    63
 0.1041    22
 0.1141    15
 0.1241     7
 0.1341     5
 0.1441    11
 0.1541     6
 0.1641     6
 0.1741     0
 0.1841   163
 0.1941   310
 0.2041   283
 0.2141   273
 0.2241   293
 0.2341   279
 0.2441   278
 0.2541   280
 0.2641   279
 0.2741   281
 0.2841   275
 0.2941   289
 0.3041   289
 0.3141   283
 0.3241   264
 0.3341   273
 0.3441   260
 0.3541   233
 0.3641   273
 0.3741   282
 0.3841   257
 0.3941   254
 0.4041   251
 0.4141   262
 0.4241   258
 0.4341   256
 0.4441   239
 0.4541   232
 0.4641   245
 0.4741   254
 0.4841   245
 0.4941   244
 0.5041   228
 0.5141   224
 0.5241   244
 0.5341   231
 0.5441   218
 0.5541   224
 0.5641   216
 0.5741   222
 0.5841   239
 0.5941   227
 0.6041   224
 0.6141   228
 0.6241   227
 0.6341   214
 0.6441   224
 0.6541   233
 0.6641   224
 0.6741   214
 0.6841   220
 0.6941   216
 0.7041   198
 0.7141   200
 0.7241   213
 0.7341   216
 0.7441   211
 0.7541   194
 0.7641   192
 0.7741   203
 0.7841   206
 0.7941   195
 0.8041   203
 0.8141   189
 0.8241   179
 0.8341   189
 0.8441   201
 0.8541   200
 0.8641   199
 0.8741   189
 0.8841   180
 0.8941   196
 0.9041   222
 0.9141   208
 0.9241   188
 0.9341   191
 0.9441   181
 0.9541   199
 0.9641   185
 0.9741   182
 0.9841   190
 0.9941   193
 1.0041   189
 1.0141   198
 1.0241   190
 1.0341   180
 1.0441   165
 1.0541   189
 1.0641   181
 1.0741   176
 1.0841   177
 1.0941   168
 1.1041   172
 1.1141   170
 1.1241   190
 1.1341   176
 1.1441   159
 1.1541   175
 1.1641   173
 1.1741   174
 1.1841   173
 1.1941   172
 1.2041   151
 1.2141   170
 1.2241   179
 1.2341   170
 1.2441   182
 1.2541   156
 1.2641   165
 1.2741   157
 1.2841   176
 1.2941   165
 1.3041   154
 1.3141   205
 1.3241   169
 1.3341   168
 1.3441   182
 1.3541   179
 1.3641   152
 1.3741   163
 1.3841   172
 1.3941   181
 1.4041   161
 1.4141   154
 1.4241   171
 1.4341   162
 1.4441   149
 1.4541   160
 1.4641   154
 1.4741   168
 1.4841   166
 1.4941   176
 1.5041   165
 1.5141   159
 1.5241   168
 1.5341   177
 1.5441   173
 1.5541   165
 1.5641   156
 1.5741   153
 1.5841   144
 1.5941   142
 1.6041   164
 1.6141   168
 1.6241   162
 1.6341   152
 1.6441   158
 1.6541   193
 1.6641   200
 1.6741   293
 1.6841   316
 1.6941   388
 1.7041   466
 1.7141   562
 1.7241   614
 1.7341   660
 1.7441   640
 1.7541   637
 1.7641   543
 1.7741   511
 1.7841   387
 1.7941   333
 1.8041   279
 1.8141   243
 1.8241   205
 1.8341   206
 1.8441   194
 1.8541   175
 1.8641   171
 1.8741   171
 1.8841   160
 1.8941   164
 1.9041   174
 1.9141   191
 1.9241   170
 1.9341   188
 1.9441   175
 1.9541   180
 1.9641   170
 1.9741   182
 1.9841   167
 1.9941   187
 2.0041   214
 2.0141   200
 2.0241   221
 2.0341   184
 2.0441   184
 2.0541   170
 2.0641   159
 2.0741   155
 2.0841   159
 2.0941   160
 2.1041   136
 2.1141   165
 2.1241   155
 2.1341   160
 2.1441   165
 2.1541   144
 2.1641   143
 2.1741   130
 2.1841   140
 2.1941   151
 2.2041   165
 2.2141   135
 2.2241   135
 2.2341   142
 2.2441   146
 2.2541   144
 2.2641   141
 2.2741   153
 2.2841   129
 2.2941   151
 2.3041   131
 2.3141   138
 2.3241   121
 2.3341   136
 2.3441   131
 2.3541   140
 2.3641   147
 2.3741   132
 2.3841   129
 2.3941   104
 2.4041   142
 2.4141   134
 2.4241   129
 2.4341   129
 2.4441   135
 2.4541   132
 2.4641   119
 2.4741   132
 2.4841   121
 2.4941   113
 2.5041   137
 2.5141   137
 2.5241   131
 2.5341   131
 2.5441   125
 2.5541   113
 2.5641   122
 2.5741   122
 2.5841   123
 2.5941   122
 2.6041   132
 2.6141   124
 2.6241   143
 2.6341   131
 2.6441   132
 2.6541   130
 2.6641   129
 2.6741   128
 2.6841   109
 2.6941   118
 2.7041   128
 2.7141   141
 2.7241   134
 2.7341   120
 2.7441   121
 2.7541   109
 2.7641   120
 2.7741   143
 2.7841   114
 2.7941   120
 2.8041   125
 2.8141   110
 2.8241   120
 2.8341   109
 2.8441   126
 2.8541   132
 2.8641   110
 2.8741   108
 2.8841   128
 2.8941   126
 2.9041   107
 2.9141   111
 2.9241    82
 2.9341   111
 2.9441   128
 2.9541   110
 2.9641   114
 2.9741   129
 2.9841   104
 2.9941   110
 3.0041   121
 3.0141   129
 3.0241    83
 3.0341   121
 3.0441    92
 3.0541   115
 3.0641   101
 3.0741   121
 3.0841   101
 3.0941   105
 3.1041   103
 3.1141    91
 3.1241   106
 3.1341   110
 3.1441   106
 3.1541   105
 3.1641    92
 3.1741    93
 3.1841   107
 3.1941    95
 3.2041    98
 3.2141   119
 3.2241   111
 3.2341   140
 3.2441   149
 3.2541   145
 3.2641   181
 3.2741   194
 3.2841   225
 3.2941   227
 3.3041   208
 3.3141   239
 3.3241   250
 3.3341   240
 3.3441   228
 3.3541   188
 3.3641   155
 3.3741   165
 3.3841   154
 3.3941   110
 3.4041   103
 3.4141   109
 3.4241   100
 3.4341    74
 3.4441    94
 3.4541    94
 3.4641    84
 3.4741    87
 3.4841    86
 3.4941    75
 3.5041   109
 3.5141   106
 3.5241   107
 3.5341   125
 3.5441   135
 3.5541   133
 3.5641   158
 3.5741   172
 3.5841   212
 3.5941   263
 3.6041   312
 3.6141   372
 3.6241   425
 3.6341   534
 3.6441   701
 3.6541   729
 3.6641   852
 3.6741   905
 3.6841   936
 3.6941   934
 3.7041   908
 3.7141   904
 3.7241   747
 3.7341   644
 3.7441   527
 3.7541   409
 3.7641   327
 3.7741   256
 3.7841   189
 3.7941   133
 3.8041   123
 3.8141   100
 3.8241    94
 3.8341    85
 3.8441    81
 3.8541    92
 3.8641    70
 3.8741    83
 3.8841    81
 3.8941    76
 3.9041    97
 3.9141    92
 3.9241    91
 3.9341   114
 3.9441   118
 3.9541   124
 3.9641   168
 3.9741   162
 3.9841   162
 3.9941   169
 4.0041   176
 4.0141   185
 4.0241   179
 4.0341   195
 4.0441   176
 4.0541   161
 4.0641   150
 4.0741   134
 4.0841   107
 4.0941   106
 4.1041   100
 4.1141    90
 4.1241    81
 4.1341    76
 4.1441    90
 4.1541    83
 4.1641    74
 4.1741    47
 4.1841    72
 4.1941    76
 4.2041    75
 4.2141    69
 4.2241    71
 4.2341    66
 4.2441    59
 4.2541    74
 4.2641    59
 4.2741    64
 4.2841    69
 4.2941    76
 4.3041    60
 4.3141    64
 4.3241    69
 4.3341    65
 4.3441    87
 4.3541    91
 4.3641    93
 4.3741   113
 4.3841   110
 4.3941   148
 4.4041   173
 4.4141   223
 4.4241   281
 4.4341   354
 4.4441   406
 4.4541   545
 4.4641   546
 4.4741   642
 4.4841   742
 4.4941   770
 4.5041   770
 4.5141   737
 4.5241   742
 4.5341   707
 4.5441   586
 4.5541   561
 4.5641   502
 4.5741   396
 4.5841   318
 4.5941   245
 4.6041   192
 4.6141   164
 4.6241   134
 4.6341    97
 4.6441    92
 4.6541   101
 4.6641   102
 4.6741    86
 4.6841    70
 4.6941    83
 4.7041    92
 4.7141    79
 4.7241   102
 4.7341    91
 4.7441    80
 4.7541    76
 4.7641    81
 4.7741    82
 4.7841   108
 4.7941    99
 4.8041   100
 4.8141   114
 4.8241   118
 4.8341   110
 4.8441   145
 4.8541   152
 4.8641   150
 4.8741   183
 4.8841   194
 4.8941   207
 4.9041   202
 4.9141   212
 4.9241   227
 4.9341   240
 4.9441   226
 4.9541   225
 4.9641   216
 4.9741   214
 4.9841   185
 4.9941   161
 5.0041   126
 5.0141   136
 5.0241   133
 5.0341   124
 5.0441   103
 5.0541   106
 5.0641    81
 5.0741    94
 5.0841    88
 5.0941    81
 5.1041    90
 5.1141    76
 5.1241    82
 5.1341    76
 5.1441    89
 5.1541    88
 5.1641   103
 5.1741   101
 5.1841    82
 5.1941    84
 5.2041    84
 5.2141    79
 5.2241    90
 5.2341    75
 5.2441    93
 5.2541    79
 5.2641   102
 5.2741    92
 5.2841   106
 5.2941   101
 5.3041   142
 5.3141   117
 5.3241   120
 5.3341   118
 5.3441   152
 5.3541   138
 5.3641   157
 5.3741   181
 5.3841   175
 5.3941   171
 5.4041   220
 5.4141   188
 5.4241   193
 5.4341   167
 5.4441   168
 5.4541   158
 5.4641   152
 5.4741   140
 5.4841   147
 5.4941   115
 5.5041   114
 5.5141   107
 5.5241   108
 5.5341    98
 5.5441    99
 5.5541    84
 5.5641   115
 5.5741    77
 5.5841    98
 5.5941   107
 5.6041    81
 5.6141    94
 5.6241    90
 5.6341    92
 5.6441   108
 5.6541   101
 5.6641    92
 5.6741    97
 5.6841    92
 5.6941    86
 5.7041   110
 5.7141    91
 5.7241   107
 5.7341   117
 5.7441   124
 5.7541   143
 5.7641   167
 5.7741   194
 5.7841   242
 5.7941   276
 5.8041   328
 5.8141   426
 5.8241   505
 5.8341   559
 5.8441   688
 5.8541   756
 5.8641   797
 5.8741   842
 5.8841   895
 5.8941   916
 5.9041   927
 5.9141   848
 5.9241   804
 5.9341   729
 5.9441   663
 5.9541   590
 5.9641   529
 5.9741   398
 5.9841   342
 5.9941   280
 6.0041   246
 6.0141   204
 6.0241   204
 6.0341   148
 6.0441   136
 6.0541   132
 6.0641   153
 6.0741   166
 6.0841   156
 6.0941   145
 6.1041   130
 6.1141   146
 6.1241   153
 6.1341   141
 6.1441   171
 6.1541   193
 6.1641   192
 6.1741   211
 6.1841   256
 6.1941   325
 6.2041   428
 6.2141   523
 6.2241   700
 6.2341   961
 6.2441  1439
 6.2541  1871
 6.2641  2626
 6.2741  3560
 6.2841  4978
 6.2941  6524
 6.3041  8330
 6.3141 10550
 6.3241 13080
 6.3341 15873
 6.3441 18405
 6.3541 20780
 6.3641 23326
 6.3741 25525
 6.3841 26525
 6.3941 27093
 6.4041 27289
 6.4141 26157
 6.4241 24755
 6.4341 22592
 6.4441 20137
 6.4541 17693
 6.4641 14755
 6.4741 12192
 6.4841  9761
 6.4941  7688
 6.5041  5795
 6.5141  4335
 6.5241  3200
 6.5341  2267
 6.5441  1619
 6.5541  1134
 6.5641   815
 6.5741   579
 6.5841   427
 6.5941   313
 6.6041   240
 6.6141   216
 6.6241   187
 6.6341   197
 6.6441   176
 6.6541   184
 6.6641   182
 6.6741   158
 6.6841   172
 6.6941   167
 6.7041   168
 6.7141   147
 6.7241   167
 6.7341   186
 6.7441   161
 6.7541   169
 6.7641   197
 6.7741   209
 6.7841   197
 6.7941   186
 6.8041   214
 6.8141   233
 6.8241   249
 6.8341   248
 6.8441   265
 6.8541   313
 6.8641   328
 6.8741   368
 6.8841   415
 6.8941   511
 6.9041   574
 6.9141   733
 6.9241   864
 6.9341  1121
 6.9441  1350
 6.9541  1629
 6.9641  1970
 6.9741  2354
 6.9841  2771
 6.9941  3227
 7.0041  3531
 7.0141  3922
 7.0241  4262
 7.0341  4595
 7.0441  4625
 7.0541  4679
 7.0641  4618
 7.0741  4447
 7.0841  4141
 7.0941  3760
 7.1041  3392
 7.1141  2997
 7.1241  2587
 7.1341  2130
 7.1441  1734
 7.1541  1316
 7.1641  1135
 7.1741   903
 7.1841   684
 7.1941   561
 7.2041   448
 7.2141   351
 7.2241   291
 7.2341   216
 7.2441   220
 7.2541   208
 7.2641   201
 7.2741   192
 7.2841   182
 7.2941   175
 7.3041   194
 7.3141   207
 7.3241   239
 7.3341   217
 7.3441   242
 7.3541   261
 7.3641   278
 7.3741   299
 7.3841   306
 7.3941   332
 7.4041   312
 7.4141   369
 7.4241   344
 7.4341   358
 7.4441   369
 7.4541   366
 7.4641   365
 7.4741   355
 7.4841   322
 7.4941   365
 7.5041   312
 7.5141   292
 7.5241   314
 7.5341   281
 7.5441   268
 7.5541   251
 7.5641   216
 7.5741   228
 7.5841   249
 7.5941   216
 7.6041   190
 7.6141   211
 7.6241   209
 7.6341   171
 7.6441   185
 7.6541   185
 7.6641   191
 7.6741   194
 7.6841   216
 7.6941   185
 7.7041   174
 7.7141   213
 7.7241   208
 7.7341   223
 7.7441   241
 7.7541   215
 7.7641   203
 7.7741   216
 7.7841   224
 7.7941   220
 7.8041   201
 7.8141   242
 7.8241   247
 7.8341   242
 7.8441   266
 7.8541   244
 7.8641   255
 7.8741   281
 7.8841   272
 7.8941   283
 7.9041   318
 7.9141   330
 7.9241   338
 7.9341   338
 7.9441   381
 7.9541   381
 7.9641   394
 7.9741   489
 7.9841   483
 7.9941   510
 8.0041   599
 8.0141   616
 8.0241   633
 8.0341   674
 8.0441   710
 8.0541   750
 8.0641   824
 8.0741   841
 8.0841   901
 8.0941  1016
 8.1041  1048
 8.1141  1063
 8.1241  1078
 8.1341  1158
 8.1441  1186
 8.1541  1252
 8.1641  1185
 8.1741  1256
 8.1841  1273
 8.1941  1318
 8.2041  1284
 8.2141  1308
 8.2241  1318
 8.2341  1320
 8.2441  1449
 8.2541  1467
 8.2641  1530
 8.2741  1598
 8.2841  1749
 8.2941  1851
 8.3041  2061
 8.3141  2180
 8.3241  2278
 8.3341  2476
 8.3441  2708
 8.3541  2796
 8.3641  2847
 8.3741  3021
 8.3841  3040
 8.3941  2923
 8.4041  2915
 8.4141  2787
 8.4241  2597
 8.4341  2465
 8.4441  2212
 8.4541  1975
 8.4641  1827
 8.4741  1541
 8.4841  1372
 8.4941  1119
 8.5041   922
 8.5141   827
 8.5241   689
 8.5341   623
 8.5441   530
 8.5541   500
 8.5641   465
 8.5741   452
 8.5841   465
 8.5941   461
 8.6041   424
 8.6141   464
 8.6241   442
 8.6341   483
 8.6441   411
 8.6541   399
 8.6641   428
 8.6741   423
 8.6841   405
 8.6941   376
 8.7041   392
 8.7141   371
 8.7241   362
 8.7341   377
 8.7441   341
 8.7541   349
 8.7641   308
 8.7741   308
 8.7841   288
 8.7941   277
 8.8041   289
 8.8141   278
 8.8241   280
 8.8341   274
 8.8441   276
 8.8541   284
 8.8641   305
 8.8741   314
 8.8841   334
 8.8941   332
 8.9041   293
 8.9141   324
 8.9241   308
 8.9341   321
 8.9441   318
 8.9541   334
 8.9641   315
 8.9741   336
 8.9841   326
 8.9941   308
 9.0041   330
 9.0141   329
 9.0241   356
 9.0341   350
 9.0441   359
 9.0541   369
 9.0641   398
 9.0741   400
 9.0841   414
 9.0941   449
 9.1041   428
 9.1141   453
 9.1241   468
 9.1341   467
 9.1441   505
 9.1541   492
 9.1641   497
 9.1741   580
 9.1841   581
 9.1941   619
 9.2041   660
 9.2141   707
 9.2241   722
 9.2341   776
 9.2441   785
 9.2541   847
 9.2641   879
 9.2741   847
 9.2841   964
 9.2941   988
 9.3041   998
 9.3141  1066
 9.3241  1053
 9.3341  1091
 9.3441  1095
 9.3541  1180
 9.3641  1201
 9.3741  1251
 9.3841  1265
 9.3941  1249
 9.4041  1308
 9.4141  1354
 9.4241  1339
 9.4341  1347
 9.4441  1399
 9.4541  1378
 9.4641  1381
 9.4741  1399
 9.4841  1415
 9.4941  1503
 9.5041  1542
 9.5141  1565
 9.5241  1598
 9.5341  1648
 9.5441  1777
 9.5541  1859
 9.5641  1906
 9.5741  2042
 9.5841  2088
 9.5941  2326
 9.6041  2452
 9.6141  2476
 9.6241  2574
 9.6341  2761
 9.6441  2790
 9.6541  2899
 9.6641  2896
 9.6741  2861
 9.6841  2794
 9.6941  2746
 9.7041  2621
 9.7141  2484
 9.7241  2348
 9.7341  2184
 9.7441  2106
 9.7541  1858
 9.7641  1660
 9.7741  1629
 9.7841  1500
 9.7941  1388
 9.8041  1301
 9.8141  1273
 9.8241  1170
 9.8341  1102
 9.8441  1166
 9.8541  1156
 9.8641  1098
 9.8741  1155
 9.8841  1140
 9.8941  1210
 9.9041  1294
 9.9141  1245
 9.9241  1239
 9.9341  1297
 9.9441  1305
 9.9541  1303
 9.9641  1280
 9.9741  1226
 9.9841  1204
 9.9941  1107
10.0041  1066
10.0141  1009
10.0241   881
10.0341   825
10.0441   755
10.0541   683
10.0641   611
10.0741   552
10.0841   479
10.0941   446
10.1041   412
10.1141   351
10.1241   343
10.1341   309
10.1441   285
10.1541   293
10.1641   282
10.1741   240
10.1841   239
10.1941   235
10.2041   232
10.2141   208
10.2241   205
10.2341   176
10.2441   200
10.2541   182
10.2641   193
10.2741   174
10.2841   169
10.2941   185
10.3041   191
10.3141   168
10.3241   174
10.3341   168
10.3441   154
10.3541   150
10.3641   148
10.3741   165
10.3841   154
10.3941   166
10.4041   172
10.4141   175
10.4241   146
10.4341   178
10.4441   175
10.4541   182
10.4641   167
10.4741   183
10.4841   172
10.4941   188
10.5041   184
10.5141   180
10.5241   180
10.5341   190
10.5441   173
10.5541   181
10.5641   199
10.5741   204
10.5841   186
10.5941   198
10.6041   185
10.6141   196
10.6241   202
10.6341   205
10.6441   210
10.6541   197
10.6641   213
10.6741   211
10.6841   204
10.6941   213
10.7041   210
10.7141   206
10.7241   213
10.7341   216
10.7441   231
10.7541   238
10.7641   236
10.7741   238
10.7841   247
10.7941   242
10.8041   261
10.8141   263
10.8241   251
10.8341   251
10.8441   287
10.8541   277
10.8641   275
10.8741   285
10.8841   316
10.8941   297
10.9041   301
10.9141   292
10.9241   288
10.9341   288
10.9441   303
10.9541   307
10.9641   310
10.9741   295
10.9841   312
10.9941   305
11.0041   287
11.0141   278
11.0241   276
11.0341   268
11.0441   264
11.0541   271
11.0641   251
11.0741   233
11.0841   259
11.0941   264
11.1041   255
11.1141   245
11.1241   240
11.1341   248
11.1441   264
11.1541   282
11.1641   273
11.1741   287
11.1841   305
11.1941   313
11.2041   310
11.2141   361
11.2241   365
11.2341   380
11.2441   410
11.2541   411
11.2641   406
11.2741   387
11.2841   406
11.2941   418
11.3041   392
11.3141   405
11.3241   373
11.3341   378
11.3441   331
11.3541   300
11.3641   285
11.3741   295
11.3841   293
11.3941   301
11.4041   276
11.4141   267
11.4241   266
11.4341   234
11.4441   225
11.4541   224
11.4641   205
11.4741   204
11.4841   215
11.4941   210
11.5041   195
11.5141   211
11.5241   211
11.5341   194
11.5441   198
11.5541   203
11.5641   205
11.5741   189
11.5841   196
11.5941   215
11.6041   218
11.6141   225
11.6241   211
11.6341   214
11.6441   210
11.6541   199
11.6641   208
11.6741   210
11.6841   194
11.6941   195
11.7041   188
11.7141   180
11.7241   181
11.7341   193
11.7441   193
11.7541   174
11.7641   181
11.7741   161
11.7841   169
11.7941   174
11.8041   173
11.8141   148
11.8241   152
11.8341   161
11.8441   161
11.8541   157
11.8641   166
11.8741   176
11.8841   165
11.8941   160
11.9041   161
11.9141   162
11.9241   155
11.9341   162
11.9441   161
11.9541   156
11.9641   175
11.9741   176
11.9841   166
11.9941   168
12.0041   167
12.0141   169
12.0241   158
12.0341   167
12.0441   167
12.0541   165
12.0641   172
12.0741   152
12.0841   160
12.0941   166
12.1041   158
12.1141   157
12.1241   153
12.1341   150
12.1441   147
12.1541   154
12.1641   146
12.1741   152
12.1841   151
12.1941   143
12.2041   156
12.2141   157
12.2241   151
12.2341   147
12.2441   144
12.2541   155
12.2641   150
12.2741   149
12.2841   152
12.2941   150
12.3041   171
12.3141   162
12.3241   147
12.3341   151
12.3441   167
12.3541   166
12.3641   148
12.3741   140
12.3841   150
12.3941   181
12.4041   173
12.4141   148
12.4241   151
12.4341   166
12.4441   171
12.4541   176
12.4641   176
12.4741   172
12.4841   163
12.4941   163
12.5041   170
12.5141   165
12.5241   164
12.5341   158
12.5441   170
12.5541   184
12.5641   172
12.5741   176
12.5841   160
12.5941   150
12.6041   161
12.6141   172
12.6241   166
12.6341   161
12.6441   161
12.6541   162
12.6641   162
12.6741   160
12.6841   164
12.6941   170
12.7041   174
12.7141   176
12.7241   174
12.7341   167
12.7441   168
12.7541   180
12.7641   186
12.7741   182
12.7841   179
12.7941   185
12.8041   189
12.8141   184
12.8241   176
12.8341   178
12.8441   184
12.8541   187
12.8641   187
12.8741   188
12.8841   186
12.8941   180
12.9041   177
12.9141   178
12.9241   175
12.9341   175
12.9441   183
12.9541   188
12.9641   194
12.9741   198
12.9841   200
12.9941   188
13.0041   181
13.0141   183
13.0241   187
13.0341   190
13.0441   191
13.0541   177
13.0641   182
13.0741   188
13.0841   193
13.0941   193
13.1041   178
13.1141   184
13.1241   188
13.1341   197
13.1441   207
13.1541   206
13.1641   204
13.1741   186
13.1841   186
13.1941   205
13.2041   217
13.2141   214
13.2241   238
13.2341   243
13.2441   226
13.2541   256
13.2641   270
13.2741   262
13.2841   297
13.2941   306
13.3041   307
13.3141   322
13.3241   314
13.3341   314
13.3441   322
13.3541   333
13.3641   337
13.3741   318
13.3841   305
13.3941   314
13.4041   327
13.4141   335
13.4241   335
13.4341   328
13.4441   322
13.4541   313
13.4641   302
13.4741   300
13.4841   297
13.4941   286
13.5041   269
13.5141   251
13.5241   241
13.5341   238
13.5441   232
13.5541   221
13.5641   211
13.5741   213
13.5841   219
13.5941   219
13.6041   219
13.6141   223
13.6241   228
13.6341   227
13.6441   221
13.6541   216
13.6641   214
13.6741   215
13.6841   217
13.6941   215
13.7041   221
13.7141   220
13.7241   200
13.7341   214
13.7441   245
13.7541   246
13.7641   239
13.7741   231
13.7841   204
13.7941   202
13.8041   230
13.8141   229
13.8241   213
13.8341   224
13.8441   227
13.8541   218
13.8641   221
13.8741   228
13.8841   231
13.8941   233
13.9041   250
13.9141   233
13.9241   233
13.9341   260
13.9441   248
13.9541   248
13.9641   255
13.9741   248
13.9841   257
13.9941   264
14.0041   265
14.0141   267
14.0241   267
14.0341   290
14.0441   299
14.0541   296
14.0641   298
14.0741   299
14.0841   313
14.0941   325
14.1041   320
14.1141   310
14.1241   322
14.1341   332
14.1441   334
14.1541   339
14.1641   361
14.1741   362
14.1841   338
14.1941   327
14.2041   320
14.2141   317
14.2241   326
14.2341   332
14.2441   305
14.2541   282
14.2641   278
14.2741   266
14.2841   273
14.2941   306
14.3041   280
14.3141   262
14.3241   268
14.3341   256
14.3441   257
14.3541   277
14.3641   270
14.3741   252
14.3841   274
14.3941   284
14.4041   272
14.4141   269
14.4241   279
14.4341   272
14.4441   253
14.4541   263
14.4641   288
14.4741   276
14.4841   247
14.4941   235
14.5041   254
14.5141   266
14.5241   258
14.5341   267
14.5441   282
14.5541   286
14.5641   280
14.5741   278
14.5841   273
14.5941   275
14.6041   277
14.6141   267
14.6241   260
14.6341   271
14.6441   284
14.6541   279
14.6641   270
14.6741   269
14.6841   287
14.6941   281
14.7041   265
14.7141   266
14.7241   283
14.7341   284
14.7441   283
14.7541   306
14.7641   315
14.7741   306
14.7841   284
14.7941   301
14.8041   324
14.8141   302
14.8241   316
14.8341   338
14.8441   340
14.8541   349
14.8641   358
14.8741   350
14.8841   370
14.8941   385
14.9041   377
14.9141   369
14.9241   355
14.9341   346
14.9441   364
14.9541   361
14.9641   358
14.9741   358
14.9841   352
14.9941   345
15.0041   336
15.0141   335
15.0241   342
15.0341   326
15.0441   325
15.0541   345
15.0641   347
15.0741   332
15.0841   316
15.0941   304
15.1041   329
15.1141   351
15.1241   338
15.1341   332
15.1441   306
15.1541   301
15.1641   306
15.1741   315
15.1841   323
15.1941   334
15.2041   339
15.2141   322
15.2241   318
15.2341   318
15.2441   319
15.2541   321
15.2641   315
15.2741   309
15.2841   312
15.2941   303
15.3041   287
15.3141   285
15.3241   313
15.3341   323
15.3441   314
15.3541   318
15.3641   330
15.3741   314
15.3841   328
15.3941   330
15.4041   322
15.4141   302
15.4241   314
15.4341   323
15.4441   335
15.4541   340
15.4641   332
15.4741   337
15.4841   352
15.4941   343
15.5041   353
15.5141   347
15.5241   362
15.5341   427
15.5441   410
15.5541   383
15.5641   419
15.5741   444
15.5841   467
15.5941   476
15.6041   507
15.6141   517
15.6241   538
15.6341   567
15.6441   621
15.6541   638
15.6641   654
15.6741   686
15.6841   717
15.6941   720
15.7041   747
15.7141   755
15.7241   784
15.7341   801
15.7441   768
15.7541   797
15.7641   819
15.7741   813
15.7841   811
15.7941   788
15.8041   771
15.8141   728
15.8241   703
15.8341   700
15.8441   656
15.8541   624
15.8641   579
15.8741   577
15.8841   568
15.8941   503
15.9041   481
15.9141   473
15.9241   474
15.9341   446
15.9441   425
15.9541   415
15.9641   381
15.9741   368
15.9841   347
15.9941   365
16.0041   370
16.0141   371
16.0241   381
16.0341   376
16.0441   352
16.0541   365
16.0641   374
16.0741   357
16.0841   355
16.0941   366
16.1041   403
16.1141   399
16.1241   389
16.1341   386
16.1441   381
16.1541   369
16.1641   392
16.1741   392
16.1841   376
16.1941   373
16.2041   386
16.2141   383
16.2241   358
16.2341   388
16.2441   381
16.2541   378
16.2641   387
16.2741   392
16.2841   373
16.2941   383
16.3041   409
16.3141   386
16.3241   377
16.3341   408
16.3441   388
16.3541   386
16.3641   380
16.3741   389
16.3841   375
16.3941   371
16.4041   400
16.4141   410
16.4241   414
16.4341   389
16.4441   383
16.4541   366
16.4641   386
16.4741   406
16.4841   383
16.4941   407
16.5041   423
16.5141   391
16.5241   406
16.5341   420
16.5441   423
16.5541   423
16.5641   434
16.5741   420
16.5841   435
16.5941   419
16.6041   412
16.6141   427
16.6241   442
16.6341   427
16.6441   427
16.6541   453
16.6641   443
16.6741   421
16.6841   423
16.6941   438
16.7041   422
16.7141   412
16.7241   423
16.7341   431
16.7441   424
16.7541   425
16.7641   412
16.7741   413
16.7841   418
16.7941   427
16.8041   440
16.8141   444
16.8241   429
16.8341   450
16.8441   447
16.8541   439
16.8641   450
16.8741   434
16.8841   436
16.8941   425
16.9041   434
16.9141   428
16.9241   460
16.9341   439
16.9441   424
16.9541   440
16.9641   443
16.9741   447
16.9841   424
16.9941   425
17.0041   433
17.0141   441
17.0241   437
17.0341   433
17.0441   436
17.0541   433
17.0641   407
17.0741   399
17.0841   430
17.0941   426
17.1041   434
17.1141   436
17.1241   428
17.1341   438
17.1441   463
17.1541   448
17.1641   417
17.1741   415
17.1841   452
17.1941   461
17.2041   438
17.2141   431
17.2241   431
17.2341   428
17.2441   418
17.2541   436
17.2641   453
17.2741   459
17.2841   487
17.2941   448
17.3041   469
17.3141   454
17.3241   425
17.3341   446
17.3441   458
17.3541   452
17.3641   454
17.3741   447
17.3841   457
17.3941   457
17.4041   455
17.4141   489
17.4241   478
17.4341   464
17.4441   463
17.4541   478
17.4641   461
17.4741   486
17.4841   447
17.4941   468
17.5041   482
17.5141   497
17.5241   512
17.5341   504
17.5441   543
17.5541   511
17.5641   519
17.5741   501
17.5841   529
17.5941   512
17.6041   517
17.6141   553
17.6241   536
17.6341   537
17.6441   567
17.6541   567
17.6641   555
17.6741   561
17.6841   559
17.6941   526
17.7041   531
17.7141   531
17.7241   520
17.7341   494
17.7441   539
17.7541   506
17.7641   507
17.7741   539
17.7841   505
17.7941   492
17.8041   512
17.8141   474
17.8241   484
17.8341   503
17.8441   516
17.8541   520
17.8641   507
17.8741   491
17.8841   502
17.8941   483
17.9041   475
17.9141   501
17.9241   484
17.9341   494
17.9441   490
17.9541   488
17.9641   513
17.9741   486
17.9841   487
17.9941   505
18.0041   501
18.0141   488
18.0241   513
18.0341   506
18.0441   515
18.0541   485
18.0641   492
18.0741   503
18.0841   505
18.0941   521
18.1041   526
18.1141   493
18.1241   473
18.1341   501
18.1441   527
18.1541   517
18.1641   487
18.1741   497
18.1841   505
18.1941   479
18.2041   476
18.2141   488
18.2241   497
18.2341   494
18.2441   516
18.2541   516
18.2641   512
18.2741   503
18.2841   512
18.2941   504
18.3041   472
18.3141   512
18.3241   510
18.3341   498
18.3441   491
18.3541   468
18.3641   448
18.3741   511
18.3841   517
18.3941   517
18.4041   509
18.4141   489
18.4241   506
18.4341   531
18.4441   531
18.4541   501
18.4641   509
18.4741   542
18.4841   517
18.4941   502
18.5041   512
18.5141   531
18.5241   515
18.5341   516
18.5441   523
18.5541   511
18.5641   506
18.5741   533
18.5841   499
18.5941   513
18.6041   530
18.6141   504
18.6241   538
18.6341   556
18.6441   517
18.6541   538
18.6641   554
18.6741   515
18.6841   521
18.6941   539
18.7041   534
18.7141   554
18.7241   534
18.7341   529
18.7441   522
18.7541   500
18.7641   563
18.7741   554
18.7841   512
18.7941   537
18.8041   520
18.8141   512
18.8241   504
18.8341   499
18.8441   499
18.8541   506
18.8641   545
18.8741   531
18.8841   548
18.8941   547
18.9041   530
18.9141   532
18.9241   539
18.9341   515
18.9441   512
18.9541   538
18.9641   562
18.9741   558
18.9841   535
18.9941   524
19.0041   547
19.0141   522
19.0241   542
19.0341   514
19.0441   505
19.0541   560
19.0641   525
19.0741   557
19.0841   544
19.0941   519
19.1041   541
19.1141   542
19.1241   546
19.1341   528
19.1441   521
19.1541   534
19.1641   523
19.1741   525
19.1841   537
19.1941   542
19.2041   552
19.2141   507
19.2241   523
19.2341   526
19.2441   547
19.2541   556
19.2641   538
19.2741   556
19.2841   572
19.2941   566
19.3041   524
19.3141   518
19.3241   531
19.3341   538
19.3441   552
19.3541   549
19.3641   548
19.3741   531
19.3841   581
19.3941   554
19.4041   529
19.4141   544
19.4241   539
19.4341   538
19.4441   554
19.4541   528
19.4641   540
19.4741   566
19.4841   523
19.4941   507
19.5041   563
19.5141   537
19.5241   565
19.5341   602
19.5441   555
19.5541   536
19.5641   534
19.5741   551
19.5841   561
19.5941   556
19.6041   541
19.6141   554
19.6241   600
19.6341   555
19.6441   576
19.6541   575
19.6641   518
19.6741   540
19.6841   576
19.6941   572
19.7041   554
19.7141   530
19.7241   571
19.7341   568
19.7441   564
19.7541   561
19.7641   577
19.7741   552
19.7841   579
19.7941   623
19.8041   550
19.8141   564
19.8241   549
19.8341   540
19.8441   567
19.8541   533
19.8641   555
19.8741   556
19.8841   544
19.8941   568
19.9041   533
19.9141   551
19.9241   567
19.9341   547
19.9441   567
19.9541   583
19.9641   587
19.9741   561
19.9841   573
19.9941   591
20.0041   553
20.0141   566
20.0241   596
20.0341   541
20.0441   566
20.0541   546
20.0641   575
20.0741   534
20.0841   577
20.0941   585
20.1041   609
20.1141   545
20.1241   548
20.1341   548
20.1441   553
20.1541   586
20.1641   550
20.1741   562
20.1841   560
20.1941   564
20.2041   589
20.2141   581
20.2241   581
20.2341   611
20.2441   553
20.2541   568
20.2641   580
20.2741   577
20.2841   576
20.2941   546
20.3041   568
20.3141   588
20.3241   571
20.3341   586
20.3441   573
20.3541   559
20.3641   567
20.3741   551
20.3841   542
20.3941   567
20.4041   556
20.4141   581
20.4241   599
20.4341   524
20.4441   524
20.4541   548
20.4641   560
20.4741   573
20.4841   560
20.4941   550
20.5041   528
20.5141   537
20.5241   576
20.5341   600
20.5441   567
20.5541   600
20.5641   542
20.5741   625
20.5841   628
20.5941   567
20.6041   516
20.6141   546
20.6241   555
20.6341   553
20.6441   520
20.6541   567
20.6641   557
20.6741   627
20.6841   573
20.6941   576
20.7041   591
20.7141   586
20.7241   596
20.7341   601
20.7441   574
20.7541   578
20.7641   564
20.7741   556
20.7841   596
20.7941   585
20.8041   590
20.8141   564
20.8241   593
20.8341   642
20.8441   572
20.8541   596
20.8641   645
20.8741   629
20.8841   615
20.8941   636
20.9041   678
20.9141   659
20.9241   673
20.9341   686
20.9441   712
20.9541   694
20.9641   699
20.9741   682
20.9841   741
20.9941   775
21.0041   765
21.0141   791
21.0241   797
21.0341   767
21.0441   780
21.0541   807
21.0641   800
21.0741   801
21.0841   850
21.0941   818
21.1041   816
21.1141   855
21.1241   856
21.1341   851
21.1441   825
21.1541   783
21.1641   847
21.1741   829
21.1841   845
21.1941   855
21.2041   844
21.2141   798
21.2241   767
21.2341   769
21.2441   748
21.2541   763
21.2641   701
21.2741   708
21.2841   674
21.2941   687
21.3041   712
21.3141   639
21.3241   642
21.3341   624
21.3441   604
21.3541   615
21.3641   607
21.3741   602
21.3841   604
21.3941   596
21.4041   603
21.4141   627
21.4241   570
21.4341   568
21.4441   564
21.4541   579
21.4641   572
21.4741   542
21.4841   568
21.4941   562
21.5041   560
21.5141   581
21.5241   583
21.5341   554
21.5441   542
21.5541   533
21.5641   596
21.5741   565
21.5841   560
21.5941   545
21.6041   574
21.6141   561
21.6241   555
21.6341   567
21.6441   563
21.6541   554
21.6641   580
21.6741   564
21.6841   566
21.6941   551
21.7041   534
21.7141   555
21.7241   590
21.7341   588
21.7441   579
21.7541   566
21.7641   536
21.7741   564
21.7841   567
21.7941   556
21.8041   552
21.8141   574
21.8241   576
21.8341   614
21.8441   577
21.8541   589
21.8641   561
21.8741   561
21.8841   595
21.8941   571
21.9041   579
21.9141   597
21.9241   539
21.9341   593
21.9441   567
21.9541   535
21.9641   550
21.9741   545
21.9841   546
21.9941   578
22.0041   604
22.0141   581
22.0241   566
22.0341   575
22.0441   563
22.0541   594
22.0641   601
22.0741   546
22.0841   542
22.0941   563
22.1041   558
22.1141   600
22.1241   571
22.1341   620
22.1441   557
22.1541   569
22.1641   607
22.1741   576
22.1841   550
22.1941   560
22.2041   561
22.2141   494
22.2241   571
22.2341   552
22.2441   533
22.2541   568
22.2641   584
22.2741   550
22.2841   592
22.2941   532
22.3041   590
22.3141   568
22.3241   524
22.3341   574
22.3441   551
22.3541   561
22.3641   578
22.3741   584
22.3841   542
22.3941   585
22.4041   599
22.4141   586
22.4241   541
22.4341   589
22.4441   515
22.4541   577
22.4641   563
22.4741   526
22.4841   543
22.4941   566
22.5041   509
22.5141   540
22.5241   567
22.5341   557
22.5441   544
22.5541   520
22.5641   508
22.5741   548
22.5841   536
22.5941   580
22.6041   545
22.6141   579
22.6241   553
22.6341   577
22.6441   534
22.6541   543
22.6641   509
22.6741   502
22.6841   523
22.6941   548
22.7041   538
22.7141   564
22.7241   586
22.7341   562
22.7441   537
22.7541   515
22.7641   514
22.7741   540
22.7841   542
22.7941   537
22.8041   549
22.8141   559
22.8241   551
22.8341   556
22.8441   537
22.8541   583
22.8641   540
22.8741   522
22.8841   516
22.8941   543
22.9041   580
22.9141   570
22.9241   541
22.9341   515
22.9441   526
22.9541   567
22.9641   549
22.9741   522
22.9841   550
22.9941   499
23.0041   553
23.0141   550
23.0241   536
23.0341   531
23.0441   542
23.0541   524
23.0641   521
23.0741   524
23.0841   551
23.0941   575
23.1041   533
23.1141   564
23.1241   528
23.1341   586
23.1441   535
23.1541   529
23.1641   501
23.1741   494
23.1841   525
23.1941   504
23.2041   518
23.2141   462
23.2241   564
23.2341   526
23.2441   566
23.2541   575
23.2641   518
23.2741   574
23.2841   551
23.2941   547
23.3041   558
23.3141   568
23.3241   533
23.3341   565
23.3441   550
23.3541   534
23.3641   531
23.3741   569
23.3841   548
23.3941   543
23.4041   549
23.4141   542
23.4241   520
23.4341   511
23.4441   528
23.4541   524
23.4641   515
23.4741   532
23.4841   496
23.4941   489
23.5041   532
23.5141   523
23.5241   563
23.5341   486
23.5441   568
23.5541   513
23.5641   546
23.5741   500
23.5841   525
23.5941   542
23.6041   555
23.6141   511
23.6241   516
23.6341   495
23.6441   526
23.6541   540
23.6641   558
23.6741   538
23.6841   540
23.6941   579
23.7041   545
23.7141   504
23.7241   573
23.7341   593
23.7441   551
23.7541   594
23.7641   575
23.7741   599
23.7841   543
23.7941   538
23.8041   539
23.8141   554
23.8241   576
23.8341   525
23.8441   562
23.8541   578
23.8641   548
23.8741   558
23.8841   518
23.8941   493
23.9041   526
23.9141   582
23.9241   558
23.9341   550
23.9441   540
23.9541   540
23.9641   512
23.9741   538
23.9841   521
23.9941   541
24.0041   563
24.0141   527
24.0241   505
24.0341   530
24.0441   538
24.0541   478
24.0641   505
24.0741   503
24.0841   524
24.0941   490
24.1041   513
24.1141   515
24.1241   479
24.1341   505
24.1441   525
24.1541   500
24.1641   477
24.1741   463
24.1841   517
24.1941   521
24.2041   503
24.2141   510
24.2241   552
24.2341   547
24.2441   487
24.2541   490
24.2641   475
24.2741   525
24.2841   544
24.2941   484
24.3041   526
24.3141   489
24.3241   522
24.3341   480
24.3441   496
24.3541   504
24.3641   533
24.3741   499
24.3841   523
24.3941   560
24.4041   481
24.4141   493
24.4241   498
24.4341   502
24.4441   520
24.4541   470
24.4641   530
24.4741   469
24.4841   459
24.4941   533
24.5041   468
24.5141   448
24.5241   469
24.5341   463
24.5441   506
24.5541   505
24.5641   454
24.5741   499
24.5841   553
24.5941   503
24.6041   450
24.6141   490
24.6241   487
24.6341   509
24.6441   436
24.6541   441
24.6641   441
24.6741   491
24.6841   484
24.6941   486
24.7041   469
24.7141   456
24.7241   498
24.7341   483
24.7441   500
24.7541   475
24.7641   468
24.7741   473
24.7841   480
24.7941   505
24.8041   492
24.8141   475
24.8241   455
24.8341   484
24.8441   462
24.8541   476
24.8641   460
24.8741   475
24.8841   457
24.8941   501
24.9041   490
24.9141   488
24.9241   514
24.9341   472
24.9441   493
24.9541   499
24.9641   488
24.9741   474
24.9841   501
24.9941   531
25.0041   483
25.0141   485
25.0241   471
25.0341   499
25.0441   490
25.0541   499
25.0641   495
25.0741   457
25.0841   461
25.0941   491
25.1041   461
25.1141   496
25.1241   453
25.1341   516
25.1441   478
25.1541   490
25.1641   469
25.1741   471
25.1841   454
25.1941   456
25.2041   469
25.2141   479
25.2241   499
25.2341   454
25.2441   485
25.2541   466
25.2641   424
25.2741   440
25.2841   460
25.2941   483
25.3041   498
25.3141   486
25.3241   492
25.3341   476
25.3441   469
25.3541   443
25.3641   463
25.3741   502
25.3841   493
25.3941   471
25.4041   471
25.4141   460
25.4241   464
25.4341   445
25.4441   439
25.4541   480
25.4641   490
25.4741   491
25.4841   474
25.4941   457
25.5041   472
25.5141   466
25.5241   454
25.5341   462
25.5441   432
25.5541   447
25.5641   440
25.5741   441
25.5841   420
25.5941   418
25.6041   471
25.6141   448
25.6241   469
25.6341   425
25.6441   445
25.6541   462
25.6641   449
25.6741   433
25.6841   448
25.6941   489
25.7041   448
25.7141   425
25.7241   449
25.7341   430
25.7441   437
25.7541   444
25.7641   435
25.7741   447
25.7841   466
25.7941   447
25.8041   455
25.8141   448
25.8241   431
25.8341   423
25.8441   470
25.8541   462
25.8641   415
25.8741   441
25.8841   455
25.8941   423
25.9041   442
25.9141   453
25.9241   423
25.9341   432
25.9441   444
25.9541   434
25.9641   470
25.9741   463
25.9841   444
25.9941   433
26.0041   412
26.0141   389
26.0241   435
26.0341   450
26.0441   435
26.0541   390
26.0641   418
26.0741   444
26.0841   428
26.0941   425
26.1041   407
26.1141   443
26.1241   426
26.1341   442
26.1441   445
26.1541   419
26.1641   407
26.1741   454
26.1841   420
26.1941   440
26.2041   444
26.2141   426
26.2241   423
26.2341   403
26.2441   383
26.2541   435
26.2641   369
26.2741   397
26.2841   410
26.2941   419
26.3041   411
26.3141   456
26.3241   392
26.3341   444
26.3441   399
26.3541   453
26.3641   431
26.3741   394
26.3841   381
26.3941   408
26.4041   454
26.4141   431
26.4241   408
26.4341   425
26.4441   408
26.4541   367
26.4641   412
26.4741   420
26.4841   399
26.4941   416
26.5041   435
26.5141   422
26.5241   391
26.5341   387
26.5441   390
26.5541   400
26.5641   407
26.5741   383
26.5841   419
26.5941   402
26.6041   374
26.6141   409
26.6241   400
26.6341   401
26.6441   436
26.6541   411
26.6641   393
26.6741   419
26.6841   393
26.6941   416
26.7041   390
26.7141   416
26.7241   373
26.7341   386
26.7441   397
26.7541   408
26.7641   427
26.7741   427
26.7841   396
26.7941   408
26.8041   390
26.8141   422
26.8241   416
26.8341   389
26.8441   406
26.8541   395
26.8641   383
26.8741   374
26.8841   373
26.8941   391
26.9041   398
26.9141   398
26.9241   397
26.9341   389
26.9441   397
26.9541   411
26.9641   374
26.9741   409
26.9841   371
26.9941   388
27.0041   374
27.0141   362
27.0241   394
27.0341   408
27.0441   376
27.0541   405
27.0641   364
27.0741   427
27.0841   354
27.0941   355
27.1041   393
27.1141   365
27.1241   407
27.1341   414
27.1441   384
27.1541   386
27.1641   369
27.1741   366
27.1841   392
27.1941   412
27.2041   365
27.2141   360
27.2241   407
27.2341   362
27.2441   359
27.2541   392
27.2641   414
27.2741   404
27.2841   384
27.2941   388
27.3041   381
27.3141   356
27.3241   364
27.3341   395
27.3441   371
27.3541   362
27.3641   356
27.3741   358
27.3841   398
27.3941   377
27.4041   406
27.4141   384
27.4241   367
27.4341   353
27.4441   385
27.4541   380
27.4641   394
27.4741   417
27.4841   373
27.4941   351
27.5041   348
27.5141   362
27.5241   359
27.5341   398
27.5441   371
27.5541   354
27.5641   365
27.5741   368
27.5841   380
27.5941   392
27.6041   368
27.6141   374
27.6241   395
27.6341   382
27.6441   380
27.6541   366
27.6641   366
27.6741   363
27.6841   345
27.6941   356
27.7041   368
27.7141   359
27.7241   336
27.7341   346
27.7441   387
27.7541   372
27.7641   363
27.7741   379
27.7841   354
27.7941   354
27.8041   343
27.8141   330
27.8241   374
27.8341   345
27.8441   353
27.8541   344
27.8641   374
27.8741   388
27.8841   362
27.8941   380
27.9041   379
27.9141   373
27.9241   353
27.9341   358
27.9441   357
27.9541   349
27.9641   337
27.9741   326
27.9841   345
27.9941   335
28.0041   321
28.0141   341
28.0241   323
28.0341   329
28.0441   368
28.0541   353
28.0641   330
28.0741   332
28.0841   338
28.0941   302
28.1041   346
28.1141   288
28.1241   375
28.1341   365
28.1441   323
28.1541   333
28.1641   332
28.1741   329
28.1841   352
28.1941   361
28.2041   296
28.2141   323
28.2241   333
28.2341   335
28.2441   348
28.2541   332
28.2641   339
28.2741   338
28.2841   335
28.2941   348
28.3041   353
28.3141   305
28.3241   314
28.3341   338
28.3441   343
28.3541   309
28.3641   331
28.3741   327
28.3841   364
28.3941   314
28.4041   338
28.4141   332
28.4241   348
28.4341   323
28.4441   329
28.4541   336
28.4641   303
28.4741   347
28.4841   349
28.4941   325
28.5041   341
28.5141   339
28.5241   350
28.5341   335
28.5441   319
28.5541   320
28.5641   338
28.5741   319
28.5841   319
28.5941   321
28.6041   317
28.6141   325
28.6241   310
28.6341   332
28.6441   329
28.6541   306
28.6641   327
28.6741   296
28.6841   314
28.6941   343
28.7041   333
28.7141   309
28.7241   322
28.7341   331
28.7441   298
28.7541   302
28.7641   296
28.7741   336
28.7841   337
28.7941   324
28.8041   320
28.8141   284
28.8241   314
28.8341   308
28.8441   292
28.8541   308
28.8641   322
28.8741   314
28.8841   321
28.8941   311
28.9041   299
28.9141   326
28.9241   308
28.9341   316
28.9441   298
28.9541   318
28.9641   307
28.9741   290
28.9841   316
28.9941   326
29.0041   279
29.0141   312
29.0241   318
29.0341   285
29.0441   342
29.0541   285
29.0641   291
29.0741   285
29.0841   320
29.0941   291
29.1041   310
29.1141   292
29.1241   287
29.1341   306
29.1441   277
29.1541   299
29.1641   297
29.1741   300
29.1841   313
29.1941   301
29.2041   293
29.2141   296
29.2241   283
29.2341   300
29.2441   319
29.2541   284
29.2641   313
29.2741   288
29.2841   273
29.2941   287
29.3041   300
29.3141   258
29.3241   252
29.3341   282
29.3441   290
29.3541   309
29.3641   283
29.3741   277
29.3841   301
29.3941   283
29.4041   279
29.4141   283
29.4241   278
29.4341   309
29.4441   288
29.4541   275
29.4641   280
29.4741   271
29.4841   279
29.4941   311
29.5041   267
29.5141   289
29.5241   292
29.5341   265
29.5441   279
29.5541   286
29.5641   280
29.5741   286
29.5841   257
29.5941   285
29.6041   292
29.6141   303
29.6241   266
29.6341   287
29.6441   276
29.6541   290
29.6641   260
29.6741   271
29.6841   294
29.6941   268
29.7041   285
29.7141   293
29.7241   286
29.7341   259
29.7441   267
29.7541   260
29.7641   258
29.7741   282
29.7841   283
29.7941   277
29.8041   255
29.8141   273
29.8241   267
29.8341   259
29.8441   304
29.8541   258
29.8641   258
29.8741   257
29.8841   250
29.8941   265
29.9041   273
29.9141   260
29.9241   265
29.9341   274
29.9441   271
29.9541   261
29.9641   259
29.9741   258
29.9841   255
29.9941   264
30.0041   263
30.0141   279
30.0241   279
30.0341   257
30.0441   265
30.0541   249
30.0641   269
30.0741   268
30.0841   225
30.0941   277
30.1041   255
30.1141   241
30.1241   284
30.1341   248
30.1441   244
30.1541   240
30.1641   261
30.1741   280
30.1841   246
30.1941   256
30.2041   255
30.2141   246
30.2241   243
30.2341   236
30.2441   243
30.2541   257
30.2641   251
30.2741   238
30.2841   243
30.2941   230
30.3041   228
30.3141   256
30.3241   254
30.3341   261
30.3441   254
30.3541   274
30.3641   244
30.3741   244
30.3841   239
30.3941   241
30.4041   260
30.4141   255
30.4241   272
30.4341   249
30.4441   258
30.4541   260
30.4641   232
30.4741   221
30.4841   234
30.4941   242
30.5041   235
30.5141   223
30.5241   250
30.5341   258
30.5441   225
30.5541   209
30.5641   281
30.5741   273
30.5841   238
30.5941   247
30.6041   231
30.6141   230
30.6241   230
30.6341   247
30.6441   249
30.6541   237
30.6641   245
30.6741   202
30.6841   227
30.6941   245
30.7041   228
30.7141   224
30.7241   233
30.7341   249
30.7441   227
30.7541   223
30.7641   214
30.7741   234
30.7841   221
30.7941   224
30.8041   209
30.8141   205
30.8241   216
30.8341   248
30.8441   240
30.8541   243
30.8641   238
30.8741   218
30.8841   202
30.8941   252
30.9041   257
30.9141   219
30.9241   212
30.9341   235
30.9441   241
30.9541   234
30.9641   223
30.9741   225
30.9841   217
30.9941   214
31.0041   250
31.0141   243
31.0241   230
31.0341   245
31.0441   211
31.0541   258
31.0641   212
31.0741   227
31.0841   238
31.0941   221
31.1041   229
31.1141   242
31.1241   230
31.1341   216
31.1441   200
31.1541   201
31.1641   198
31.1741   206
31.1841   218
31.1941   238
31.2041   218
31.2141   208
31.2241   207
31.2341   226
31.2441   222
31.2541   230
31.2641   242
31.2741   218
31.2841   231
31.2941   210
31.3041   211
31.3141   192
31.3241   193
31.3341   206
31.3441   217
31.3541   227
31.3641   214
31.3741   219
31.3841   201
31.3941   219
31.4041   217
31.4141   230
31.4241   230
31.4341   187
31.4441   236
31.4541   223
31.4641   220
31.4741   200
31.4841   206
31.4941   214
31.5041   214
31.5141   189
31.5241   212
31.5341   196
31.5441   197
31.5541   219
31.5641   212
31.5741   228
31.5841   227
31.5941   224
31.6041   212
31.6141   207
31.6241   203
31.6341   181
31.6441   216
31.6541   194
31.6641   190
31.6741   192
31.6841   188
31.6941   207
31.7041   224
31.7141   185
31.7241   202
31.7341   212
31.7441   221
31.7541   197
31.7641   197
31.7741   201
31.7841   198
31.7941   217
31.8041   202
31.8141   214
31.8241   197
31.8341   200
31.8441   225
31.8541   185
31.8641   201
31.8741   220
31.8841   189
31.8941   194
31.9041   182
31.9141   195
31.9241   210
31.9341   188
31.9441   205
31.9541   190
31.9641   202
31.9741   197
31.9841   172
31.9941   183
32.0041   202
32.0141   208
32.0241   222
32.0341   195
32.0441   191
32.0541   181
32.0641   216
32.0741   186
32.0841   197
32.0941   187
32.1041   210
32.1141   204
32.1241   193
32.1341   188
32.1441   190
32.1541   192
32.1641   193
32.1741   212
32.1841   193
32.1941   193
32.2041   200
32.2141   193
32.2241   207
32.2341   168
32.2441   155
32.2541   214
32.2641   194
32.2741   201
32.2841   197
32.2941   195
32.3041   185
32.3141   186
32.3241   196
32.3341   198
32.3441   229
32.3541   180
32.3641   195
32.3741   181
32.3841   188
32.3941   180
32.4041   195
32.4141   180
32.4241   172
32.4341   168
32.4441   160
32.4541   173
32.4641   162
32.4741   181
32.4841   173
32.4941   169
32.5041   179
32.5141   175
32.5241   163
32.5341   172
32.5441   174
32.5541   196
32.5641   176
32.5741   161
32.5841   151
32.5941   168
32.6041   165
32.6141   167
32.6241   165
32.6341   142
32.6441   179
32.6541   190
32.6641   161
32.6741   172
32.6841   180
32.6941   197
32.7041   181
32.7141   170
32.7241   164
32.7341   172
32.7441   145
32.7541   166
32.7641   157
32.7741   153
32.7841   154
32.7941   168
32.8041   153
32.8141   152
32.8241   184
32.8341   153
32.8441   161
32.8541   164
32.8641   154
32.8741   169
32.8841   170
32.8941   144
32.9041   164
32.9141   168
32.9241   170
32.9341   161
32.9441   159
32.9541   165
32.9641   168
32.9741   173
32.9841   170
32.9941   150
33.0041   161
33.0141   178
33.0241   142
33.0341   157
33.0441   168
33.0541   172
33.0641   159
33.0741   162
33.0841   159
33.0941   152
33.1041   157
33.1141   171
33.1241   137
33.1341   159
33.1441   150
33.1541   159
33.1641   168
33.1741   148
33.1841   160
33.1941   165
33.2041   168
33.2141   161
33.2241   167
33.2341   158
33.2441   169
33.2541   144
33.2641   160
33.2741   173
33.2841   163
33.2941   189
33.3041   146
33.3141   157
33.3241   137
33.3341   151
33.3441   153
33.3541   175
33.3641   153
33.3741   139
33.3841   155
33.3941   149
33.4041   147
33.4141   166
33.4241   136
33.4341   155
33.4441   163
33.4541   148
33.4641   125
33.4741   153
33.4841   135
33.4941   148
33.5041   166
33.5141   148
33.5241   154
33.5341   159
33.5441   135
33.5541   148
33.5641   144
33.5741   165
33.5841   156
33.5941   142
33.6041   149
33.6141   157
33.6241   147
33.6341   134
33.6441   136
33.6541   139
33.6641   142
33.6741   123
33.6841   137
33.6941   135
33.7041   153
33.7141   139
33.7241   165
33.7341   129
33.7441   133
33.7541   128
33.7641   112
33.7741   140
33.7841   136
33.7941   143
33.8041   158
33.8141   148
33.8241   141
33.8341   126
33.8441   137
33.8541   123
33.8641   125
33.8741   142
33.8841   121
33.8941   115
33.9041   145
33.9141   155
33.9241   127
33.9341   154
33.9441   124
33.9541   144
33.9641   129
33.9741   129
33.9841   118
33.9941   134
34.0041   122
34.0141   128
34.0241   124
34.0341   130
34.0441   136
34.0541   133
34.0641   125
34.0741   141
34.0841   144
34.0941   136
34.1041   143
34.1141   139
34.1241   134
34.1341   130
34.1441   114
34.1541   129
34.1641   122
34.1741   127
34.1841   131
34.1941   138
34.2041   122
34.2141   113
34.2241   119
34.2341   135
34.2441   127
34.2541   126
34.2641   147
34.2741   136
34.2841   132
34.2941   129
34.3041   134
34.3141   127
34.3241   135
34.3341   132
34.3441   126
34.3541   142
34.3641   125
34.3741   126
34.3841   114
34.3941   121
34.4041   123
34.4141   138
34.4241   116
34.4341   120
34.4441   122
34.4541   131
34.4641   123
34.4741   142
34.4841   122
34.4941   112
34.5041   109
34.5141   158
34.5241   131
34.5341   108
34.5441   113
34.5541   118
34.5641   109
34.5741   129
34.5841   116
34.5941   118
34.6041   107
34.6141   107
34.6241    99
34.6341   113
34.6441   120
34.6541   115
34.6641   109
34.6741   115
34.6841   114
34.6941   130
34.7041   109
34.7141   114
34.7241   110
34.7341   123
34.7441   118
34.7541   124
34.7641   117
34.7741   132
34.7841   132
34.7941   128
34.8041   110
34.8141   104
34.8241   134
34.8341   112
34.8441   132
34.8541   113
34.8641   112
34.8741   101
34.8841    99
34.8941    90
34.9041   112
34.9141   113
34.9241   109
34.9341   116
34.9441   111
34.9541   114
34.9641   120
34.9741   107
34.9841   110
34.9941   108
35.0041   121
35.0141   103
35.0241   128
35.0341   120
35.0441   105
35.0541   113
35.0641   106
35.0741   121
35.0841    97
35.0941   117
35.1041   111
35.1141   105
35.1241   111
35.1341   108
35.1441   110
35.1541   112
35.1641   103
35.1741   116
35.1841   106
35.1941    93
35.2041   111
35.2141   119
35.2241   112
35.2341   100
35.2441    93
35.2541    87
35.2641   106
35.2741   128
35.2841   112
35.2941    95
35.3041   106
35.3141    91
35.3241   106
35.3341    89
35.3441   100
35.3541    89
35.3641   109
35.3741    96
35.3841   101
35.3941   101
35.4041   108
35.4141    98
35.4241   106
35.4341   114
35.4441    99
35.4541   115
35.4641   108
35.4741   113
35.4841    89
35.4941   108
35.5041    84
35.5141    99
35.5241   103
35.5341    94
35.5441    88
35.5541    89
35.5641    88
35.5741    97
35.5841   104
35.5941    82
35.6041    89
35.6141    88
35.6241    94
35.6341    88
35.6441    99
35.6541    90
35.6641   118
35.6741    93
35.6841    81
35.6941    90
35.7041    98
35.7141    83
35.7241   116
35.7341    79
35.7441    91
35.7541    97
35.7641    98
35.7741    94
35.7841   103
35.7941    96
35.8041    75
35.8141    88
35.8241    92
35.8341    92
35.8441    88
35.8541    98
35.8641   107
35.8741    83
35.8841    81
35.8941    88
35.9041    91
35.9141    86
35.9241    78
35.9341    81
35.9441    95
35.9541    86
35.9641    86
35.9741    89
35.9841    79
35.9941    80
36.0041    98
36.0141    97
36.0241    83
36.0341    92
36.0441    76
36.0541    89
36.0641    88
36.0741    70
36.0841    79
36.0941    84
36.1041    94
36.1141    81
36.1241    80
36.1341    90
36.1441    93
36.1541    85
36.1641    95
36.1741    81
36.1841   101
36.1941    71
36.2041    71
36.2141    89
36.2241    97
36.2341    74
36.2441    76
36.2541    89
36.2641    71
36.2741    81
36.2841    85
36.2941    81
36.3041    70
36.3141    77
36.3241    80
36.3341    95
36.3441    87
36.3541    75
36.3641    76
36.3741    78
36.3841    91
36.3941    81
36.4041    92
36.4141    73
36.4241    71
36.4341    90
36.4441    74
36.4541    79
36.4641    78
36.4741    86
36.4841    79
36.4941    79
36.5041    85
36.5141    77
36.5241    65
36.5341   104
36.5441    76
36.5541    64
36.5641    68
36.5741    65
36.5841    78
36.5941    80
36.6041    75
36.6141    85
36.6241    75
36.6341    72
36.6441    78
36.6541   104
36.6641    90
36.6741    75
36.6841    90
36.6941    74
36.7041    66
36.7141    77
36.7241    78
36.7341    89
36.7441    76
36.7541    82
36.7641    76
36.7741    77
36.7841    54
36.7941    65
36.8041    82
36.8141    78
36.8241    81
36.8341    65
36.8441    86
36.8541    83
36.8641    59
36.8741    59
36.8841    70
36.8941    56
36.9041    75
36.9141    68
36.9241    77
36.9341    84
36.9441    70
36.9541    71
36.9641    75
36.9741    68
36.9841    62
36.9941    74
37.0041    62
37.0141    68
37.0241    49
37.0341    89
37.0441    72
37.0541    68
37.0641    72
37.0741    71
37.0841    71
37.0941    72
37.1041    59
37.1141    62
37.1241    83
37.1341    57
37.1441    63
37.1541    68
37.1641    74
37.1741    60
37.1841    56
37.1941    67
37.2041    72
37.2141    67
37.2241    65
37.2341    76
37.2441    71
37.2541    71
37.2641    70
37.2741    54
37.2841    64
37.2941    55
37.3041    61
37.3141    57
37.3241    69
37.3341    80
37.3441    56
37.3541    55
37.3641    61
37.3741    70
37.3841    60
37.3941    57
37.4041    52
37.4141    52
37.4241    75
37.4341    61
37.4441    56
37.4541    56
37.4641    66
37.4741    59
37.4841    59
37.4941    66
37.5041    60
37.5141    60
37.5241    50
37.5341    60
37.5441    71
37.5541    46
37.5641    49
37.5741    55
37.5841    75
37.5941    60
37.6041    72
37.6141    56
37.6241    60
37.6341    56
37.6441    67
37.6541    71
37.6641    67
37.6741    61
37.6841    62
37.6941    60
37.7041    58
37.7141    61
37.7241    58
37.7341    63
37.7441    56
37.7541    59
37.7641    57
37.7741    56
37.7841    62
37.7941    53
37.8041    65
37.8141    55
37.8241    56
37.8341    70
37.8441    41
37.8541    46
37.8641    60
37.8741    61
37.8841    63
37.8941    55
37.9041    52
37.9141    54
37.9241    70
37.9341    52
37.9441    40
37.9541    52
37.9641    58
37.9741    57
37.9841    53
37.9941    59
38.0041    64
38.0141    50
38.0241    33
38.0341    61
38.0441    46
38.0541    41
38.0641    65
38.0741    49
38.0841    56
38.0941    50
38.1041    44
38.1141    51
38.1241    44
38.1341    56
38.1441    52
38.1541    45
38.1641    51
38.1741    42
38.1841    50
38.1941    64
38.2041    48
38.2141    56
38.2241    41
38.2341    49
38.2441    46
38.2541    50
38.2641    61
38.2741    52
38.2841    45
38.2941    52
38.3041    50
38.3141    39
38.3241    56
38.3341    47
38.3441    43
38.3541    44
38.3641    59
38.3741    38
38.3841    38
38.3941    37
38.4041    50
38.4141    44
38.4241    40
38.4341    45
38.4441    47
38.4541    41
38.4641    53
38.4741    35
38.4841    52
38.4941    48
38.5041    52
38.5141    41
38.5241    43
38.5341    42
38.5441    48
38.5541    43
38.5641    42
38.5741    43
38.5841    55
38.5941    50
38.6041    43
38.6141    43
38.6241    44
38.6341    42
38.6441    50
38.6541    44
38.6641    35
38.6741    53
38.6841    40
38.6941    46
38.7041    40
38.7141    36
38.7241    39
38.7341    45
38.7441    49
38.7541    40
38.7641    41
38.7741    41
38.7841    44
38.7941    29
38.8041    44
38.8141    42
38.8241    41
38.8341    41
38.8441    47
38.8541    53
38.8641    46
38.8741    43
38.8841    37
38.8941    36
38.9041    45
38.9141    38
38.9241    46
38.9341    49
38.9441    42
38.9541    35
38.9641    39
38.9741    39
38.9841    36
38.9941    37
39.0041    48
39.0141    34
39.0241    40
39.0341    39
39.0441    37
39.0541    43
39.0641    37
39.0741    39
39.0841    40
39.0941    44
39.1041    27
39.1141    42
39.1241    33
39.1341    41
39.1441    38
39.1541    43
39.1641    35
39.1741    38
39.1841    34
39.1941    38
39.2041    45
39.2141    41
39.2241    29
39.2341    36
39.2441    35
39.2541    42
39.2641    33
39.2741    33
39.2841    36
39.2941    43
39.3041    49
39.3141    42
39.3241    33
39.3341    43
39.3441    41
39.3541    37
39.3641    30
39.3741    27
39.3841    36
39.3941    49
39.4041    39
39.4141    40
39.4241    35
39.4341    30
39.4441    41
39.4541    37
39.4641    37
39.4741    27
39.4841    26
39.4941    48
39.5041    36
39.5141    38
39.5241    29
39.5341    34
39.5441    25
39.5541    26
39.5641    29
39.5741    26
39.5841    30
39.5941    30
39.6041    25
39.6141    28
39.6241    25
39.6341    24
39.6441    31
39.6541    25
39.6641    24
39.6741    34
39.6841    27
39.6941    26
39.7041    28
39.7141    33
39.7241    33
39.7341    26
39.7441    41
39.7541    30
39.7641    27
39.7741    25
39.7841    35
39.7941    26
39.8041    40
39.8141    37
39.8241    20
39.8341    27
39.8441    22
39.8541    34
39.8641    27
39.8741    23
39.8841    37
39.8941    30
39.9041    26
39.9141    28
39.9241    28
39.9341    26
39.9441    21
39.9541    31
39.9641    21
39.9741    31
39.9841    28
