Bruker Nano GmbH Berlin, Germany
Esprit 1.9

Date: 4/1/2021 4:49:36 PM
Real time: 31558
Life time: 29763
Pulse density: 82111


Detector type: XFlash 430
Window type: Custom type
Detector thickness: 0.45
Si dead layer:0.029

Calibration, lin.: 10
Calibration, abs.: -955.9
Mn FWHM: 137.05
Fano factor: 0.121
Channels: 4096

Energy Counts
-0.9559     0
-0.9459     0
-0.9359     0
-0.9259     0
-0.9159     0
-0.9059     0
-0.8959     0
-0.8859     0
-0.8759     0
-0.8659     0
-0.8559     0
-0.8459     0
-0.8359     0
-0.8259     0
-0.8159     0
-0.8059     0
-0.7959     0
-0.7859     0
-0.7759     0
-0.7659     0
-0.7559     0
-0.7459     0
-0.7359     0
-0.7259     0
-0.7159     0
-0.7059     0
-0.6959     0
-0.6859     0
-0.6759     0
-0.6659     0
-0.6559     0
-0.6459     0
-0.6359     0
-0.6259     0
-0.6159     0
-0.6059     0
-0.5959     0
-0.5859     0
-0.5759     0
-0.5659     0
-0.5559     0
-0.5459     0
-0.5359     0
-0.5259     0
-0.5159     0
-0.5059     0
-0.4959     0
-0.4859     0
-0.4759     0
-0.4659     0
-0.4559     0
-0.4459     0
-0.4359     0
-0.4259     0
-0.4159     0
-0.4059     0
-0.3959     0
-0.3859     0
-0.3759     0
-0.3659     0
-0.3559     0
-0.3459     0
-0.3359     0
-0.3259     0
-0.3159     0
-0.3059     0
-0.2959     0
-0.2859     0
-0.2759     0
-0.2659     0
-0.2559     0
-0.2459     0
-0.2359     0
-0.2259     0
-0.2159     0
-0.2059     0
-0.1959     0
-0.1859     0
-0.1759     0
-0.1659     0
-0.1559     0
-0.1459     1
-0.1359     0
-0.1259     2
-0.1159     2
-0.1059    23
-0.0959    72
-0.0859   285
-0.0759  1200
-0.0659  3402
-0.0559  8703
-0.0459 18893
-0.0359 35363
-0.0259 56259
-0.0159 78027
-0.0059 91715
 0.0041 91837
 0.0141 78849
 0.0241 58078
 0.0341 36805
 0.0441 20114
 0.0541  9234
 0.0641  3686
 0.0741  1309
 0.0841   387
 0.0941   110
 0.1041    43
 0.1141    15
 0.1241    14
 0.1341     9
 0.1441    11
 0.1541     8
 0.1641     3
 0.1741    37
 0.1841   259
 0.1941   538
 0.2041   517
 0.2141   501
 0.2241   478
 0.2341   478
 0.2441   497
 0.2541   448
 0.2641   501
 0.2741   524
 0.2841   485
 0.2941   497
 0.3041   484
 0.3141   462
 0.3241   477
 0.3341   473
 0.3441   456
 0.3541   465
 0.3641   459
 0.3741   474
 0.3841   455
 0.3941   446
 0.4041   425
 0.4141   452
 0.4241   437
 0.4341   444
 0.4441   438
 0.4541   462
 0.4641   448
 0.4741   419
 0.4841   425
 0.4941   419
 0.5041   404
 0.5141   401
 0.5241   419
 0.5341   425
 0.5441   408
 0.5541   404
 0.5641   412
 0.5741   419
 0.5841   410
 0.5941   389
 0.6041   385
 0.6141   402
 0.6241   414
 0.6341   397
 0.6441   373
 0.6541   373
 0.6641   392
 0.6741   378
 0.6841   375
 0.6941   390
 0.7041   383
 0.7141   375
 0.7241   357
 0.7341   337
 0.7441   355
 0.7541   387
 0.7641   369
 0.7741   355
 0.7841   359
 0.7941   368
 0.8041   360
 0.8141   358
 0.8241   344
 0.8341   336
 0.8441   312
 0.8541   319
 0.8641   353
 0.8741   360
 0.8841   359
 0.8941   323
 0.9041   333
 0.9141   323
 0.9241   307
 0.9341   347
 0.9441   329
 0.9541   330
 0.9641   337
 0.9741   361
 0.9841   347
 0.9941   341
 1.0041   356
 1.0141   325
 1.0241   303
 1.0341   349
 1.0441   328
 1.0541   327
 1.0641   297
 1.0741   302
 1.0841   309
 1.0941   339
 1.1041   308
 1.1141   299
 1.1241   307
 1.1341   320
 1.1441   329
 1.1541   275
 1.1641   315
 1.1741   291
 1.1841   300
 1.1941   307
 1.2041   293
 1.2141   304
 1.2241   283
 1.2341   270
 1.2441   312
 1.2541   304
 1.2641   295
 1.2741   281
 1.2841   323
 1.2941   303
 1.3041   320
 1.3141   299
 1.3241   277
 1.3341   292
 1.3441   288
 1.3541   277
 1.3641   279
 1.3741   296
 1.3841   304
 1.3941   288
 1.4041   288
 1.4141   319
 1.4241   298
 1.4341   309
 1.4441   293
 1.4541   308
 1.4641   297
 1.4741   339
 1.4841   283
 1.4941   281
 1.5041   310
 1.5141   305
 1.5241   289
 1.5341   269
 1.5441   285
 1.5541   289
 1.5641   289
 1.5741   257
 1.5841   284
 1.5941   285
 1.6041   279
 1.6141   285
 1.6241   277
 1.6341   280
 1.6441   331
 1.6541   345
 1.6641   407
 1.6741   486
 1.6841   617
 1.6941   654
 1.7041   891
 1.7141   971
 1.7241  1084
 1.7341  1142
 1.7441  1154
 1.7541  1031
 1.7641   984
 1.7741   843
 1.7841   717
 1.7941   618
 1.8041   501
 1.8141   446
 1.8241   410
 1.8341   375
 1.8441   368
 1.8541   331
 1.8641   326
 1.8741   308
 1.8841   318
 1.8941   315
 1.9041   273
 1.9141   292
 1.9241   324
 1.9341   306
 1.9441   310
 1.9541   309
 1.9641   335
 1.9741   315
 1.9841   362
 1.9941   330
 2.0041   315
 2.0141   319
 2.0241   336
 2.0341   366
 2.0441   340
 2.0541   292
 2.0641   280
 2.0741   310
 2.0841   282
 2.0941   265
 2.1041   247
 2.1141   236
 2.1241   242
 2.1341   256
 2.1441   227
 2.1541   221
 2.1641   254
 2.1741   253
 2.1841   240
 2.1941   229
 2.2041   233
 2.2141   253
 2.2241   209
 2.2341   230
 2.2441   254
 2.2541   232
 2.2641   231
 2.2741   222
 2.2841   220
 2.2941   244
 2.3041   266
 2.3141   224
 2.3241   218
 2.3341   251
 2.3441   217
 2.3541   229
 2.3641   234
 2.3741   217
 2.3841   235
 2.3941   232
 2.4041   208
 2.4141   219
 2.4241   213
 2.4341   190
 2.4441   204
 2.4541   210
 2.4641   268
 2.4741   225
 2.4841   217
 2.4941   233
 2.5041   213
 2.5141   201
 2.5241   212
 2.5341   228
 2.5441   213
 2.5541   235
 2.5641   184
 2.5741   209
 2.5841   206
 2.5941   211
 2.6041   248
 2.6141   220
 2.6241   205
 2.6341   212
 2.6441   220
 2.6541   197
 2.6641   221
 2.6741   196
 2.6841   209
 2.6941   183
 2.7041   194
 2.7141   208
 2.7241   191
 2.7341   204
 2.7441   221
 2.7541   214
 2.7641   223
 2.7741   205
 2.7841   213
 2.7941   197
 2.8041   197
 2.8141   211
 2.8241   214
 2.8341   210
 2.8441   225
 2.8541   223
 2.8641   213
 2.8741   217
 2.8841   213
 2.8941   189
 2.9041   196
 2.9141   175
 2.9241   199
 2.9341   185
 2.9441   189
 2.9541   188
 2.9641   193
 2.9741   201
 2.9841   187
 2.9941   179
 3.0041   200
 3.0141   177
 3.0241   182
 3.0341   161
 3.0441   186
 3.0541   174
 3.0641   167
 3.0741   206
 3.0841   178
 3.0941   192
 3.1041   190
 3.1141   171
 3.1241   178
 3.1341   180
 3.1441   171
 3.1541   184
 3.1641   174
 3.1741   175
 3.1841   175
 3.1941   184
 3.2041   149
 3.2141   173
 3.2241   180
 3.2341   166
 3.2441   161
 3.2541   165
 3.2641   161
 3.2741   182
 3.2841   162
 3.2941   200
 3.3041   175
 3.3141   168
 3.3241   166
 3.3341   182
 3.3441   161
 3.3541   150
 3.3641   179
 3.3741   178
 3.3841   151
 3.3941   147
 3.4041   130
 3.4141   157
 3.4241   141
 3.4341   152
 3.4441   149
 3.4541   158
 3.4641   170
 3.4741   148
 3.4841   178
 3.4941   163
 3.5041   154
 3.5141   165
 3.5241   148
 3.5341   169
 3.5441   167
 3.5541   177
 3.5641   197
 3.5741   209
 3.5841   288
 3.5941   332
 3.6041   452
 3.6141   557
 3.6241   719
 3.6341   890
 3.6441  1041
 3.6541  1263
 3.6641  1373
 3.6741  1431
 3.6841  1534
 3.6941  1525
 3.7041  1431
 3.7141  1346
 3.7241  1219
 3.7341  1045
 3.7441   907
 3.7541   719
 3.7641   571
 3.7741   437
 3.7841   359
 3.7941   262
 3.8041   227
 3.8141   188
 3.8241   153
 3.8341   151
 3.8441   137
 3.8541   150
 3.8641   133
 3.8741   122
 3.8841   129
 3.8941   139
 3.9041   136
 3.9141   163
 3.9241   177
 3.9341   199
 3.9441   196
 3.9541   213
 3.9641   215
 3.9741   241
 3.9841   263
 3.9941   305
 4.0041   319
 4.0141   302
 4.0241   290
 4.0341   277
 4.0441   273
 4.0541   234
 4.0641   241
 4.0741   207
 4.0841   198
 4.0941   141
 4.1041   177
 4.1141   158
 4.1241   145
 4.1341   128
 4.1441   139
 4.1541   147
 4.1641   121
 4.1741   122
 4.1841   116
 4.1941   106
 4.2041   110
 4.2141   116
 4.2241   116
 4.2341   113
 4.2441    97
 4.2541   120
 4.2641   126
 4.2741   118
 4.2841   133
 4.2941   118
 4.3041   110
 4.3141   121
 4.3241   120
 4.3341   118
 4.3441   130
 4.3541   106
 4.3641   123
 4.3741   126
 4.3841   141
 4.3941   145
 4.4041   138
 4.4141   146
 4.4241   170
 4.4341   210
 4.4441   208
 4.4541   207
 4.4641   271
 4.4741   275
 4.4841   317
 4.4941   333
 4.5041   312
 4.5141   299
 4.5241   298
 4.5341   284
 4.5441   245
 4.5541   258
 4.5641   248
 4.5741   194
 4.5841   173
 4.5941   178
 4.6041   164
 4.6141   142
 4.6241   144
 4.6341   154
 4.6441   137
 4.6541   131
 4.6641   135
 4.6741   117
 4.6841   104
 4.6941   132
 4.7041   112
 4.7141   118
 4.7241   126
 4.7341   115
 4.7441   116
 4.7541   115
 4.7641   103
 4.7741   101
 4.7841   125
 4.7941   131
 4.8041   123
 4.8141   111
 4.8241   126
 4.8341   124
 4.8441   123
 4.8541   133
 4.8641   138
 4.8741   147
 4.8841   142
 4.8941   141
 4.9041   182
 4.9141   157
 4.9241   137
 4.9341   146
 4.9441   152
 4.9541   154
 4.9641   166
 4.9741   155
 4.9841   144
 4.9941   143
 5.0041   160
 5.0141   140
 5.0241   148
 5.0341   132
 5.0441   135
 5.0541   146
 5.0641   120
 5.0741   127
 5.0841   135
 5.0941   139
 5.1041   137
 5.1141   155
 5.1241   150
 5.1341   129
 5.1441   128
 5.1541   112
 5.1641   126
 5.1741   113
 5.1841   117
 5.1941   112
 5.2041   149
 5.2141   138
 5.2241   100
 5.2341   146
 5.2441   130
 5.2541   137
 5.2641   123
 5.2741   143
 5.2841   129
 5.2941   136
 5.3041   125
 5.3141   117
 5.3241   137
 5.3341   138
 5.3441   131
 5.3541   125
 5.3641   141
 5.3741   149
 5.3841   161
 5.3941   143
 5.4041   163
 5.4141   162
 5.4241   151
 5.4341   150
 5.4441   145
 5.4541   144
 5.4641   161
 5.4741   124
 5.4841   136
 5.4941   148
 5.5041   144
 5.5141   128
 5.5241   141
 5.5341   142
 5.5441   120
 5.5541   138
 5.5641   132
 5.5741   146
 5.5841   137
 5.5941   145
 5.6041   122
 5.6141   131
 5.6241   130
 5.6341   120
 5.6441   138
 5.6541   148
 5.6641   139
 5.6741   147
 5.6841   146
 5.6941   137
 5.7041   149
 5.7141   145
 5.7241   124
 5.7341   157
 5.7441   127
 5.7541   166
 5.7641   161
 5.7741   164
 5.7841   158
 5.7941   168
 5.8041   192
 5.8141   166
 5.8241   176
 5.8341   180
 5.8441   189
 5.8541   180
 5.8641   207
 5.8741   198
 5.8841   184
 5.8941   204
 5.9041   198
 5.9141   217
 5.9241   213
 5.9341   187
 5.9441   198
 5.9541   204
 5.9641   179
 5.9741   171
 5.9841   177
 5.9941   174
 6.0041   163
 6.0141   162
 6.0241   198
 6.0341   149
 6.0441   163
 6.0541   144
 6.0641   180
 6.0741   197
 6.0841   187
 6.0941   149
 6.1041   187
 6.1141   178
 6.1241   197
 6.1341   176
 6.1441   210
 6.1541   165
 6.1641   192
 6.1741   197
 6.1841   183
 6.1941   226
 6.2041   234
 6.2141   261
 6.2241   337
 6.2341   429
 6.2441   530
 6.2541   693
 6.2641   966
 6.2741  1205
 6.2841  1646
 6.2941  2150
 6.3041  2732
 6.3141  3383
 6.3241  4102
 6.3341  5099
 6.3441  5718
 6.3541  6714
 6.3641  7285
 6.3741  8047
 6.3841  8382
 6.3941  8662
 6.4041  8656
 6.4141  8068
 6.4241  7897
 6.4341  7039
 6.4441  6514
 6.4541  5595
 6.4641  4801
 6.4741  4028
 6.4841  3095
 6.4941  2412
 6.5041  1958
 6.5141  1480
 6.5241  1107
 6.5341   833
 6.5441   618
 6.5541   507
 6.5641   362
 6.5741   325
 6.5841   265
 6.5941   267
 6.6041   212
 6.6141   237
 6.6241   223
 6.6341   184
 6.6441   177
 6.6541   199
 6.6641   210
 6.6741   239
 6.6841   179
 6.6941   200
 6.7041   211
 6.7141   203
 6.7241   204
 6.7341   227
 6.7441   196
 6.7541   246
 6.7641   203
 6.7741   211
 6.7841   217
 6.7941   215
 6.8041   226
 6.8141   230
 6.8241   213
 6.8341   228
 6.8441   211
 6.8541   241
 6.8641   251
 6.8741   270
 6.8841   266
 6.8941   292
 6.9041   340
 6.9141   358
 6.9241   409
 6.9341   453
 6.9441   525
 6.9541   618
 6.9641   791
 6.9741   767
 6.9841   962
 6.9941  1033
 7.0041  1188
 7.0141  1366
 7.0241  1385
 7.0341  1466
 7.0441  1535
 7.0541  1482
 7.0641  1543
 7.0741  1504
 7.0841  1419
 7.0941  1314
 7.1041  1187
 7.1141  1058
 7.1241   935
 7.1341   770
 7.1441   695
 7.1541   646
 7.1641   557
 7.1741   504
 7.1841   451
 7.1941   386
 7.2041   374
 7.2141   347
 7.2241   325
 7.2341   307
 7.2441   310
 7.2541   313
 7.2641   317
 7.2741   319
 7.2841   341
 7.2941   329
 7.3041   356
 7.3141   342
 7.3241   325
 7.3341   412
 7.3441   403
 7.3541   401
 7.3641   423
 7.3741   414
 7.3841   490
 7.3941   419
 7.4041   421
 7.4141   446
 7.4241   404
 7.4341   376
 7.4441   403
 7.4541   364
 7.4641   386
 7.4741   344
 7.4841   336
 7.4941   351
 7.5041   304
 7.5141   341
 7.5241   319
 7.5341   313
 7.5441   302
 7.5541   336
 7.5641   303
 7.5741   308
 7.5841   339
 7.5941   328
 7.6041   314
 7.6141   303
 7.6241   324
 7.6341   301
 7.6441   310
 7.6541   323
 7.6641   344
 7.6741   348
 7.6841   342
 7.6941   355
 7.7041   341
 7.7141   351
 7.7241   391
 7.7341   366
 7.7441   399
 7.7541   401
 7.7641   409
 7.7741   414
 7.7841   432
 7.7941   391
 7.8041   481
 7.8141   453
 7.8241   484
 7.8341   467
 7.8441   470
 7.8541   496
 7.8641   542
 7.8741   501
 7.8841   510
 7.8941   575
 7.9041   595
 7.9141   619
 7.9241   614
 7.9341   673
 7.9441   703
 7.9541   732
 7.9641   732
 7.9741   823
 7.9841   820
 7.9941   929
 8.0041   952
 8.0141  1063
 8.0241  1106
 8.0341  1263
 8.0441  1308
 8.0541  1386
 8.0641  1404
 8.0741  1576
 8.0841  1653
 8.0941  1712
 8.1041  1884
 8.1141  1993
 8.1241  1971
 8.1341  2113
 8.1441  2143
 8.1541  2208
 8.1641  2175
 8.1741  2264
 8.1841  2324
 8.1941  2306
 8.2041  2386
 8.2141  2410
 8.2241  2448
 8.2341  2491
 8.2441  2491
 8.2541  2624
 8.2641  2850
 8.2741  2935
 8.2841  3207
 8.2941  3296
 8.3041  3623
 8.3141  3831
 8.3241  4187
 8.3341  4420
 8.3441  4664
 8.3541  4900
 8.3641  5154
 8.3741  5213
 8.3841  5323
 8.3941  5259
 8.4041  5164
 8.4141  4916
 8.4241  4497
 8.4341  4270
 8.4441  3925
 8.4541  3468
 8.4641  3012
 8.4741  2652
 8.4841  2263
 8.4941  1935
 8.5041  1572
 8.5141  1374
 8.5241  1164
 8.5341  1027
 8.5441   845
 8.5541   764
 8.5641   721
 8.5741   638
 8.5841   555
 8.5941   543
 8.6041   555
 8.6141   524
 8.6241   563
 8.6341   564
 8.6441   550
 8.6541   513
 8.6641   552
 8.6741   572
 8.6841   589
 8.6941   625
 8.7041   605
 8.7141   605
 8.7241   597
 8.7341   578
 8.7441   617
 8.7541   637
 8.7641   621
 8.7741   639
 8.7841   625
 8.7941   611
 8.8041   599
 8.8141   618
 8.8241   617
 8.8341   617
 8.8441   567
 8.8541   552
 8.8641   586
 8.8741   619
 8.8841   608
 8.8941   541
 8.9041   592
 8.9141   627
 8.9241   582
 8.9341   622
 8.9441   636
 8.9541   592
 8.9641   599
 8.9741   628
 8.9841   613
 8.9941   658
 9.0041   646
 9.0141   647
 9.0241   656
 9.0341   693
 9.0441   691
 9.0541   693
 9.0641   747
 9.0741   765
 9.0841   783
 9.0941   757
 9.1041   749
 9.1141   818
 9.1241   899
 9.1341   913
 9.1441   921
 9.1541  1005
 9.1641   981
 9.1741  1066
 9.1841  1095
 9.1941  1160
 9.2041  1206
 9.2141  1313
 9.2241  1369
 9.2341  1433
 9.2441  1458
 9.2541  1530
 9.2641  1598
 9.2741  1723
 9.2841  1803
 9.2941  1809
 9.3041  1874
 9.3141  1915
 9.3241  2022
 9.3341  2120
 9.3441  2095
 9.3541  2237
 9.3641  2219
 9.3741  2328
 9.3841  2317
 9.3941  2365
 9.4041  2350
 9.4141  2392
 9.4241  2440
 9.4341  2464
 9.4441  2435
 9.4541  2537
 9.4641  2575
 9.4741  2617
 9.4841  2674
 9.4941  2667
 9.5041  2724
 9.5141  2803
 9.5241  2932
 9.5341  3021
 9.5441  3054
 9.5541  3164
 9.5641  3427
 9.5741  3623
 9.5841  3813
 9.5941  3994
 9.6041  4251
 9.6141  4634
 9.6241  4722
 9.6341  4798
 9.6441  5012
 9.6541  5103
 9.6641  5206
 9.6741  5053
 9.6841  5096
 9.6941  4951
 9.7041  4669
 9.7141  4528
 9.7241  4287
 9.7341  4016
 9.7441  3666
 9.7541  3482
 9.7641  3268
 9.7741  2937
 9.7841  2818
 9.7941  2603
 9.8041  2433
 9.8141  2379
 9.8241  2316
 9.8341  2251
 9.8441  2288
 9.8541  2276
 9.8641  2253
 9.8741  2287
 9.8841  2374
 9.8941  2421
 9.9041  2421
 9.9141  2489
 9.9241  2658
 9.9341  2614
 9.9441  2559
 9.9541  2598
 9.9641  2544
 9.9741  2416
 9.9841  2376
 9.9941  2290
10.0041  2117
10.0141  2009
10.0241  1802
10.0341  1703
10.0441  1547
10.0541  1370
10.0641  1201
10.0741  1067
10.0841   966
10.0941   867
10.1041   812
10.1141   743
10.1241   678
10.1341   613
10.1441   569
10.1541   497
10.1641   505
10.1741   445
10.1841   443
10.1941   445
10.2041   398
10.2141   412
10.2241   407
10.2341   387
10.2441   362
10.2541   364
10.2641   353
10.2741   364
10.2841   338
10.2941   333
10.3041   330
10.3141   309
10.3241   311
10.3341   335
10.3441   297
10.3541   309
10.3641   309
10.3741   324
10.3841   314
10.3941   322
10.4041   298
10.4141   296
10.4241   313
10.4341   310
10.4441   289
10.4541   299
10.4641   320
10.4741   318
10.4841   323
10.4941   335
10.5041   302
10.5141   313
10.5241   305
10.5341   307
10.5441   343
10.5541   329
10.5641   327
10.5741   352
10.5841   343
10.5941   342
10.6041   364
10.6141   363
10.6241   346
10.6341   353
10.6441   345
10.6541   353
10.6641   362
10.6741   379
10.6841   387
10.6941   403
10.7041   398
10.7141   423
10.7241   422
10.7341   425
10.7441   443
10.7541   441
10.7641   462
10.7741   491
10.7841   474
10.7941   482
10.8041   520
10.8141   541
10.8241   553
10.8341   542
10.8441   535
10.8541   544
10.8641   570
10.8741   547
10.8841   538
10.8941   552
10.9041   576
10.9141   558
10.9241   554
10.9341   564
10.9441   529
10.9541   566
10.9641   562
10.9741   532
10.9841   546
10.9941   545
11.0041   587
11.0141   549
11.0241   526
11.0341   491
11.0441   477
11.0541   479
11.0641   478
11.0741   467
11.0841   476
11.0941   509
11.1041   477
11.1141   446
11.1241   483
11.1341   499
11.1441   490
11.1541   497
11.1641   519
11.1741   531
11.1841   559
11.1941   539
11.2041   580
11.2141   629
11.2241   661
11.2341   695
11.2441   692
11.2541   681
11.2641   695
11.2741   726
11.2841   720
11.2941   695
11.3041   703
11.3141   680
11.3241   692
11.3341   650
11.3441   597
11.3541   600
11.3641   605
11.3741   550
11.3841   529
11.3941   505
11.4041   466
11.4141   456
11.4241   442
11.4341   426
11.4441   453
11.4541   429
11.4641   390
11.4741   391
11.4841   391
11.4941   367
11.5041   355
11.5141   369
11.5241   379
11.5341   408
11.5441   403
11.5541   393
11.5641   365
11.5741   363
11.5841   409
11.5941   416
11.6041   447
11.6141   441
11.6241   425
11.6341   399
11.6441   406
11.6541   412
11.6641   395
11.6741   377
11.6841   376
11.6941   379
11.7041   396
11.7141   399
11.7241   384
11.7341   356
11.7441   355
11.7541   336
11.7641   328
11.7741   331
11.7841   327
11.7941   304
11.8041   301
11.8141   309
11.8241   316
11.8341   312
11.8441   286
11.8541   297
11.8641   296
11.8741   270
11.8841   292
11.8941   291
11.9041   271
11.9141   304
11.9241   308
11.9341   276
11.9441   301
11.9541   294
11.9641   307
11.9741   306
11.9841   307
11.9941   279
12.0041   279
12.0141   288
12.0241   293
12.0341   314
12.0441   324
12.0541   313
12.0641   302
12.0741   302
12.0841   303
12.0941   318
12.1041   306
12.1141   289
12.1241   289
12.1341   275
12.1441   299
12.1541   301
12.1641   284
12.1741   264
12.1841   274
12.1941   275
12.2041   293
12.2141   292
12.2241   280
12.2341   276
12.2441   266
12.2541   274
12.2641   279
12.2741   286
12.2841   267
12.2941   265
12.3041   276
12.3141   262
12.3241   263
12.3341   286
12.3441   289
12.3541   301
12.3641   299
12.3741   286
12.3841   278
12.3941   278
12.4041   277
12.4141   286
12.4241   301
12.4341   285
12.4441   262
12.4541   279
12.4641   279
12.4741   272
12.4841   282
12.4941   291
12.5041   298
12.5141   289
12.5241   304
12.5341   300
12.5441   283
12.5541   284
12.5641   276
12.5741   279
12.5841   289
12.5941   277
12.6041   289
12.6141   297
12.6241   308
12.6341   312
12.6441   295
12.6541   294
12.6641   310
12.6741   304
12.6841   309
12.6941   298
12.7041   308
12.7141   332
12.7241   307
12.7341   305
12.7441   312
12.7541   318
12.7641   311
12.7741   314
12.7841   324
12.7941   313
12.8041   304
12.8141   312
12.8241   316
12.8341   325
12.8441   327
12.8541   303
12.8641   321
12.8741   353
12.8841   326
12.8941   306
12.9041   317
12.9141   320
12.9241   328
12.9341   329
12.9441   323
12.9541   321
12.9641   330
12.9741   340
12.9841   346
12.9941   354
13.0041   344
13.0141   332
13.0241   338
13.0341   337
13.0441   357
13.0541   360
13.0641   339
13.0741   326
13.0841   335
13.0941   356
13.1041   349
13.1141   338
13.1241   333
13.1341   350
13.1441   358
13.1541   356
13.1641   341
13.1741   334
13.1841   356
13.1941   375
13.2041   384
13.2141   365
13.2241   357
13.2341   362
13.2441   351
13.2541   344
13.2641   356
13.2741   368
13.2841   376
13.2941   365
13.3041   359
13.3141   372
13.3241   382
13.3341   393
13.3441   398
13.3541   400
13.3641   388
13.3741   396
13.3841   400
13.3941   404
13.4041   400
13.4141   390
13.4241   377
13.4341   405
13.4441   392
13.4541   387
13.4641   402
13.4741   397
13.4841   392
13.4941   397
13.5041   411
13.5141   398
13.5241   389
13.5341   388
13.5441   398
13.5541   407
13.5641   394
13.5741   390
13.5841   413
13.5941   405
13.6041   403
13.6141   421
13.6241   416
13.6341   411
13.6441   417
13.6541   404
13.6641   391
13.6741   379
13.6841   371
13.6941   384
13.7041   387
13.7141   415
13.7241   437
13.7341   418
13.7441   411
13.7541   422
13.7641   424
13.7741   411
13.7841   409
13.7941   403
13.8041   405
13.8141   439
13.8241   443
13.8341   441
13.8441   447
13.8541   423
13.8641   401
13.8741   408
13.8841   417
13.8941   429
13.9041   450
13.9141   450
13.9241   429
13.9341   413
13.9441   438
13.9541   460
13.9641   444
13.9741   425
13.9841   437
13.9941   457
14.0041   459
14.0141   472
14.0241   472
14.0341   450
14.0441   432
14.0541   442
14.0641   453
14.0741   454
14.0841   442
14.0941   454
14.1041   487
14.1141   477
14.1241   484
14.1341   478
14.1441   453
14.1541   451
14.1641   457
14.1741   469
14.1841   483
14.1941   497
14.2041   495
14.2141   486
14.2241   468
14.2341   468
14.2441   489
14.2541   487
14.2641   474
14.2741   468
14.2841   466
14.2941   460
14.3041   477
14.3141   487
14.3241   466
14.3341   483
14.3441   501
14.3541   480
14.3641   484
14.3741   500
14.3841   483
14.3941   488
14.4041   480
14.4141   458
14.4241   497
14.4341   538
14.4441   499
14.4541   485
14.4641   489
14.4741   507
14.4841   496
14.4941   487
14.5041   511
14.5141   502
14.5241   487
14.5341   480
14.5441   488
14.5541   494
14.5641   470
14.5741   484
14.5841   515
14.5941   511
14.6041   493
14.6141   510
14.6241   537
14.6341   544
14.6441   518
14.6541   500
14.6641   507
14.6741   519
14.6841   539
14.6941   542
14.7041   545
14.7141   548
14.7241   520
14.7341   513
14.7441   518
14.7541   507
14.7641   506
14.7741   518
14.7841   527
14.7941   540
14.8041   531
14.8141   495
14.8241   505
14.8341   522
14.8441   523
14.8541   522
14.8641   543
14.8741   549
14.8841   541
14.8941   522
14.9041   525
14.9141   555
14.9241   547
14.9341   518
14.9441   533
14.9541   559
14.9641   544
14.9741   537
14.9841   551
14.9941   556
15.0041   551
15.0141   546
15.0241   538
15.0341   576
15.0441   575
15.0541   555
15.0641   557
15.0741   523
15.0841   548
15.0941   558
15.1041   538
15.1141   540
15.1241   536
15.1341   559
15.1441   572
15.1541   542
15.1641   532
15.1741   531
15.1841   555
15.1941   597
15.2041   584
15.2141   563
15.2241   559
15.2341   545
15.2441   549
15.2541   535
15.2641   566
15.2741   591
15.2841   595
15.2941   609
15.3041   612
15.3141   595
15.3241   575
15.3341   565
15.3441   568
15.3541   534
15.3641   519
15.3741   543
15.3841   577
15.3941   581
15.4041   569
15.4141   578
15.4241   577
15.4341   589
15.4441   577
15.4541   588
15.4641   592
15.4741   565
15.4841   583
15.4941   586
15.5041   611
15.5141   596
15.5241   597
15.5341   616
15.5441   640
15.5541   616
15.5641   606
15.5741   654
15.5841   675
15.5941   636
15.6041   637
15.6141   649
15.6241   660
15.6341   668
15.6441   683
15.6541   721
15.6641   712
15.6741   718
15.6841   730
15.6941   717
15.7041   720
15.7141   724
15.7241   718
15.7341   729
15.7441   730
15.7541   715
15.7641   734
15.7741   745
15.7841   747
15.7941   731
15.8041   716
15.8141   711
15.8241   736
15.8341   742
15.8441   721
15.8541   732
15.8641   700
15.8741   669
15.8841   706
15.8941   662
15.9041   634
15.9141   654
15.9241   660
15.9341   688
15.9441   665
15.9541   632
15.9641   629
15.9741   643
15.9841   656
15.9941   686
16.0041   676
16.0141   680
16.0241   676
16.0341   628
16.0441   672
16.0541   683
16.0641   682
16.0741   668
16.0841   652
16.0941   667
16.1041   662
16.1141   655
16.1241   680
16.1341   693
16.1441   710
16.1541   651
16.1641   644
16.1741   667
16.1841   681
16.1941   669
16.2041   660
16.2141   675
16.2241   680
16.2341   687
16.2441   689
16.2541   666
16.2641   673
16.2741   661
16.2841   658
16.2941   649
16.3041   694
16.3141   696
16.3241   674
16.3341   689
16.3441   670
16.3541   643
16.3641   666
16.3741   686
16.3841   681
16.3941   698
16.4041   706
16.4141   681
16.4241   693
16.4341   702
16.4441   713
16.4541   707
16.4641   715
16.4741   719
16.4841   704
16.4941   696
16.5041   684
16.5141   666
16.5241   711
16.5341   728
16.5441   735
16.5541   733
16.5641   729
16.5741   703
16.5841   707
16.5941   712
16.6041   703
16.6141   716
16.6241   713
16.6341   709
16.6441   743
16.6541   749
16.6641   748
16.6741   715
16.6841   697
16.6941   733
16.7041   750
16.7141   762
16.7241   736
16.7341   694
16.7441   714
16.7541   752
16.7641   772
16.7741   755
16.7841   750
16.7941   781
16.8041   755
16.8141   740
16.8241   722
16.8341   732
16.8441   758
16.8541   764
16.8641   766
16.8741   766
16.8841   752
16.8941   742
16.9041   738
16.9141   744
16.9241   781
16.9341   747
16.9441   748
16.9541   760
16.9641   777
16.9741   774
16.9841   753
16.9941   760
17.0041   757
17.0141   785
17.0241   792
17.0341   777
17.0441   767
17.0541   802
17.0641   781
17.0741   767
17.0841   757
17.0941   768
17.1041   775
17.1141   764
17.1241   798
17.1341   813
17.1441   794
17.1541   778
17.1641   804
17.1741   789
17.1841   837
17.1941   833
17.2041   807
17.2141   795
17.2241   801
17.2341   799
17.2441   813
17.2541   809
17.2641   854
17.2741   805
17.2841   745
17.2941   783
17.3041   779
17.3141   798
17.3241   811
17.3341   785
17.3441   789
17.3541   767
17.3641   779
17.3741   807
17.3841   804
17.3941   814
17.4041   801
17.4141   802
17.4241   844
17.4341   881
17.4441   858
17.4541   836
17.4641   815
17.4741   846
17.4841   847
17.4941   810
17.5041   828
17.5141   823
17.5241   852
17.5341   826
17.5441   854
17.5541   851
17.5641   833
17.5741   860
17.5841   852
17.5941   855
17.6041   847
17.6141   848
17.6241   899
17.6341   885
17.6441   863
17.6541   881
17.6641   860
17.6741   873
17.6841   874
17.6941   848
17.7041   877
17.7141   859
17.7241   820
17.7341   882
17.7441   875
17.7541   847
17.7641   851
17.7741   857
17.7841   901
17.7941   882
17.8041   847
17.8141   869
17.8241   865
17.8341   868
17.8441   846
17.8541   829
17.8641   814
17.8741   853
17.8841   867
17.8941   929
17.9041   886
17.9141   912
17.9241   908
17.9341   899
17.9441   893
17.9541   886
17.9641   824
17.9741   844
17.9841   860
17.9941   903
18.0041   916
18.0141   905
18.0241   885
18.0341   913
18.0441   876
18.0541   887
18.0641   928
18.0741   895
18.0841   847
18.0941   861
18.1041   888
18.1141   870
18.1241   890
18.1341   860
18.1441   838
18.1541   876
18.1641   867
18.1741   900
18.1841   914
18.1941   913
18.2041   905
18.2141   921
18.2241   907
18.2341   900
18.2441   917
18.2541   831
18.2641   927
18.2741   938
18.2841   883
18.2941   906
18.3041   928
18.3141   902
18.3241   911
18.3341   860
18.3441   868
18.3541   933
18.3641   949
18.3741   907
18.3841   896
18.3941   933
18.4041   900
18.4141   925
18.4241   936
18.4341   886
18.4441   909
18.4541   927
18.4641   899
18.4741   864
18.4841   887
18.4941   918
18.5041   926
18.5141   904
18.5241   925
18.5341   918
18.5441   884
18.5541   887
18.5641   956
18.5741   909
18.5841   909
18.5941   880
18.6041   944
18.6141   967
18.6241   926
18.6341   867
18.6441   906
18.6541   913
18.6641   923
18.6741   951
18.6841   965
18.6941   916
18.7041   925
18.7141   957
18.7241   946
18.7341   963
18.7441   907
18.7541   918
18.7641   903
18.7741   899
18.7841   911
18.7941   919
18.8041   949
18.8141   916
18.8241   883
18.8341   924
18.8441   959
18.8541   941
18.8641  1004
18.8741   970
18.8841   949
18.8941   949
18.9041   938
18.9141   969
18.9241   989
18.9341   961
18.9441   971
18.9541   930
18.9641   960
18.9741   930
18.9841   934
18.9941   963
19.0041   951
19.0141   964
19.0241   924
19.0341   965
19.0441   972
19.0541  1004
19.0641   962
19.0741   929
19.0841   969
19.0941   959
19.1041   963
19.1141   901
19.1241  1001
19.1341   984
19.1441   953
19.1541   990
19.1641  1005
19.1741   950
19.1841   998
19.1941   959
19.2041   929
19.2141   943
19.2241  1006
19.2341   914
19.2441   932
19.2541   953
19.2641   965
19.2741   971
19.2841   989
19.2941   991
19.3041   963
19.3141   973
19.3241   969
19.3341   953
19.3441   965
19.3541   968
19.3641   977
19.3741   972
19.3841   961
19.3941   966
19.4041   966
19.4141   976
19.4241   983
19.4341   988
19.4441   996
19.4541   979
19.4641   955
19.4741   969
19.4841  1009
19.4941   997
19.5041  1006
19.5141   922
19.5241   973
19.5341   966
19.5441   917
19.5541   965
19.5641   937
19.5741   966
19.5841   990
19.5941   970
19.6041  1015
19.6141   974
19.6241   976
19.6341   961
19.6441   975
19.6541  1018
19.6641  1017
19.6741  1014
19.6841  1016
19.6941   971
19.7041   924
19.7141  1009
19.7241  1004
19.7341   991
19.7441  1008
19.7541  1047
19.7641  1018
19.7741   975
19.7841  1000
19.7941   966
19.8041  1003
19.8141   959
19.8241   999
19.8341  1004
19.8441   996
19.8541  1015
19.8641   972
19.8741  1006
19.8841  1014
19.8941  1013
19.9041   998
19.9141   997
19.9241  1022
19.9341  1017
19.9441   968
19.9541   985
19.9641  1056
19.9741   959
19.9841  1000
19.9941  1043
20.0041  1032
20.0141  1029
20.0241  1002
20.0341   962
20.0441   962
20.0541  1019
20.0641  1024
20.0741  1026
20.0841  1015
20.0941   986
20.1041  1006
20.1141   994
20.1241  1000
20.1341  1029
20.1441  1008
20.1541  1019
20.1641  1034
20.1741   998
20.1841  1004
20.1941  1001
20.2041   998
20.2141  1015
20.2241  1009
20.2341  1010
20.2441   966
20.2541   974
20.2641  1072
20.2741   991
20.2841  1008
20.2941  1041
20.3041  1049
20.3141  1044
20.3241  1004
20.3341  1006
20.3441   968
20.3541  1022
20.3641   974
20.3741  1037
20.3841  1047
20.3941   978
20.4041  1006
20.4141  1001
20.4241  1049
20.4341   995
20.4441   998
20.4541  1020
20.4641  1020
20.4741  1012
20.4841  1023
20.4941   988
20.5041  1011
20.5141   980
20.5241  1017
20.5341  1006
20.5441  1018
20.5541   998
20.5641  1039
20.5741  1020
20.5841   985
20.5941   977
20.6041  1011
20.6141  1021
20.6241  1029
20.6341  1026
20.6441  1013
20.6541   978
20.6641  1029
20.6741   964
20.6841   976
20.6941  1011
20.7041  1001
20.7141  1058
20.7241  1060
20.7341  1010
20.7441  1006
20.7541  1050
20.7641  1063
20.7741   981
20.7841  1072
20.7941  1030
20.8041  1086
20.8141  1042
20.8241  1056
20.8341  1020
20.8441  1030
20.8541  1092
20.8641  1150
20.8741  1113
20.8841  1066
20.8941  1147
20.9041  1177
20.9141  1131
20.9241  1159
20.9341  1175
20.9441  1149
20.9541  1245
20.9641  1292
20.9741  1263
20.9841  1324
20.9941  1331
21.0041  1305
21.0141  1353
21.0241  1346
21.0341  1357
21.0441  1442
21.0541  1440
21.0641  1421
21.0741  1434
21.0841  1431
21.0941  1438
21.1041  1491
21.1141  1474
21.1241  1424
21.1341  1377
21.1441  1525
21.1541  1550
21.1641  1427
21.1741  1445
21.1841  1468
21.1941  1386
21.2041  1439
21.2141  1374
21.2241  1345
21.2341  1316
21.2441  1310
21.2541  1264
21.2641  1259
21.2741  1222
21.2841  1202
21.2941  1171
21.3041  1108
21.3141  1152
21.3241  1207
21.3341  1123
21.3441  1123
21.3541  1128
21.3641  1104
21.3741  1078
21.3841  1073
21.3941  1072
21.4041  1059
21.4141  1011
21.4241  1041
21.4341  1007
21.4441  1006
21.4541   997
21.4641  1019
21.4741  1063
21.4841   948
21.4941  1012
21.5041   998
21.5141  1016
21.5241   948
21.5341  1046
21.5441  1012
21.5541  1001
21.5641   979
21.5741  1014
21.5841  1040
21.5941  1006
21.6041  1028
21.6141  1054
21.6241   985
21.6341  1031
21.6441  1003
21.6541   964
21.6641  1019
21.6741   974
21.6841  1015
21.6941  1014
21.7041   987
21.7141  1019
21.7241   973
21.7341   980
21.7441   994
21.7541   984
21.7641   999
21.7741  1054
21.7841   974
21.7941  1071
21.8041   996
21.8141   964
21.8241   986
21.8341   990
21.8441   940
21.8541  1007
21.8641  1071
21.8741  1047
21.8841  1026
21.8941  1050
21.9041   993
21.9141   970
21.9241  1022
21.9341   937
21.9441   968
21.9541   970
21.9641   939
21.9741  1010
21.9841  1061
21.9941  1029
22.0041  1018
22.0141  1018
22.0241  1000
22.0341  1022
22.0441  1026
22.0541  1009
22.0641   992
22.0741   940
22.0841  1005
22.0941  1021
22.1041  1015
22.1141  1026
22.1241   967
22.1341   910
22.1441  1043
22.1541   984
22.1641  1001
22.1741  1013
22.1841   979
22.1941  1027
22.2041  1011
22.2141  1019
22.2241   997
22.2341   983
22.2441  1015
22.2541  1020
22.2641   995
22.2741   960
22.2841   969
22.2941  1024
22.3041  1032
22.3141   992
22.3241   977
22.3341   963
22.3441   972
22.3541  1025
22.3641   990
22.3741   987
22.3841   975
22.3941   982
22.4041   982
22.4141   981
22.4241  1014
22.4341   997
22.4441  1009
22.4541   994
22.4641   981
22.4741   956
22.4841   930
22.4941   949
22.5041  1016
22.5141  1016
22.5241   972
22.5341   981
22.5441   990
22.5541   941
22.5641   924
22.5741   971
22.5841   973
22.5941  1013
22.6041   957
22.6141   961
22.6241  1019
22.6341   997
22.6441  1013
22.6541   955
22.6641   942
22.6741   980
22.6841   944
22.6941   961
22.7041   944
22.7141   951
22.7241   975
22.7341  1010
22.7441  1017
22.7541   956
22.7641   960
22.7741   971
22.7841   974
22.7941   925
22.8041   907
22.8141   947
22.8241   990
22.8341   998
22.8441   966
22.8541   982
22.8641  1002
22.8741  1001
22.8841  1025
22.8941   951
22.9041   967
22.9141   917
22.9241  1002
22.9341   993
22.9441   938
22.9541   945
22.9641   949
22.9741   918
22.9841   998
22.9941   939
23.0041   938
23.0141  1025
23.0241   993
23.0341   946
23.0441  1017
23.0541  1004
23.0641   954
23.0741   946
23.0841   883
23.0941   974
23.1041   972
23.1141   949
23.1241   959
23.1341   923
23.1441   979
23.1541   963
23.1641   953
23.1741   959
23.1841   930
23.1941   974
23.2041   942
23.2141   963
23.2241   980
23.2341   955
23.2441   973
23.2541   918
23.2641   941
23.2741   963
23.2841   953
23.2941   945
23.3041   952
23.3141   863
23.3241   945
23.3341   968
23.3441   966
23.3541   938
23.3641   924
23.3741   913
23.3841   956
23.3941   946
23.4041   944
23.4141   905
23.4241   968
23.4341   967
23.4441   903
23.4541   937
23.4641   916
23.4741   931
23.4841   888
23.4941   889
23.5041   939
23.5141   980
23.5241   920
23.5341   948
23.5441   926
23.5541   966
23.5641   933
23.5741   952
23.5841   962
23.5941   922
23.6041   919
23.6141   959
23.6241   961
23.6341   969
23.6441   952
23.6541   934
23.6641   946
23.6741   991
23.6841   932
23.6941   968
23.7041   942
23.7141   932
23.7241   999
23.7341  1025
23.7441   958
23.7541   956
23.7641   982
23.7741   984
23.7841   993
23.7941  1020
23.8041  1018
23.8141   942
23.8241   895
23.8341  1031
23.8441  1011
23.8541  1003
23.8641  1034
23.8741   965
23.8841   957
23.8941   958
23.9041   915
23.9141   925
23.9241   961
23.9341   930
23.9441   905
23.9541   941
23.9641   990
23.9741   943
23.9841   929
23.9941   912
24.0041   959
24.0141   900
24.0241   959
24.0341   884
24.0441   916
24.0541   889
24.0641   867
24.0741   926
24.0841   888
24.0941   860
24.1041   865
24.1141   930
24.1241   868
24.1341   884
24.1441   864
24.1541   868
24.1641   927
24.1741   884
24.1841   887
24.1941   885
24.2041   842
24.2141   880
24.2241   921
24.2341   902
24.2441   872
24.2541   903
24.2641   895
24.2741   835
24.2841   932
24.2941   995
24.3041   887
24.3141   862
24.3241   894
24.3341   891
24.3441   836
24.3541   894
24.3641   899
24.3741   843
24.3841   844
24.3941   904
24.4041   903
24.4141   814
24.4241   925
24.4341   896
24.4441   850
24.4541   895
24.4641   898
24.4741   910
24.4841   910
24.4941   847
24.5041   900
24.5141   859
24.5241   875
24.5341   895
24.5441   790
24.5541   889
24.5641   868
24.5741   873
24.5841   823
24.5941   839
24.6041   825
24.6141   843
24.6241   874
24.6341   856
24.6441   836
24.6541   839
24.6641   868
24.6741   892
24.6841   855
24.6941   854
24.7041   804
24.7141   822
24.7241   852
24.7341   830
24.7441   865
24.7541   883
24.7641   912
24.7741   859
24.7841   841
24.7941   836
24.8041   874
24.8141   902
24.8241   895
24.8341   922
24.8441   855
24.8541   860
24.8641   842
24.8741   874
24.8841   839
24.8941   873
24.9041   850
24.9141   879
24.9241   827
24.9341   846
24.9441   840
24.9541   836
24.9641   850
24.9741   884
24.9841   841
24.9941   837
25.0041   882
25.0141   863
25.0241   865
25.0341   827
25.0441   881
25.0541   817
25.0641   870
25.0741   836
25.0841   851
25.0941   900
25.1041   820
25.1141   837
25.1241   881
25.1341   819
25.1441   847
25.1541   806
25.1641   877
25.1741   814
25.1841   850
25.1941   844
25.2041   842
25.2141   836
25.2241   806
25.2341   830
25.2441   862
25.2541   822
25.2641   844
25.2741   818
25.2841   795
25.2941   872
25.3041   855
25.3141   881
25.3241   842
25.3341   871
25.3441   839
25.3541   824
25.3641   843
25.3741   843
25.3841   836
25.3941   879
25.4041   776
25.4141   834
25.4241   841
25.4341   790
25.4441   810
25.4541   814
25.4641   784
25.4741   760
25.4841   810
25.4941   796
25.5041   782
25.5141   815
25.5241   761
25.5341   785
25.5441   793
25.5541   817
25.5641   850
25.5741   805
25.5841   798
25.5941   820
25.6041   787
25.6141   771
25.6241   774
25.6341   757
25.6441   790
25.6541   770
25.6641   831
25.6741   746
25.6841   796
25.6941   799
25.7041   756
25.7141   774
25.7241   810
25.7341   762
25.7441   724
25.7541   806
25.7641   789
25.7741   746
25.7841   823
25.7941   796
25.8041   788
25.8141   766
25.8241   761
25.8341   813
25.8441   769
25.8541   807
25.8641   749
25.8741   731
25.8841   780
25.8941   767
25.9041   787
25.9141   756
25.9241   767
25.9341   725
25.9441   808
25.9541   780
25.9641   727
25.9741   753
25.9841   740
25.9941   792
26.0041   796
26.0141   725
26.0241   758
26.0341   722
26.0441   759
26.0541   756
26.0641   752
26.0741   752
26.0841   734
26.0941   731
26.1041   732
26.1141   742
26.1241   759
26.1341   738
26.1441   772
26.1541   755
26.1641   721
26.1741   739
26.1841   748
26.1941   698
26.2041   743
26.2141   736
26.2241   763
26.2341   730
26.2441   765
26.2541   739
26.2641   750
26.2741   710
26.2841   731
26.2941   753
26.3041   738
26.3141   752
26.3241   744
26.3341   745
26.3441   743
26.3541   740
26.3641   727
26.3741   750
26.3841   730
26.3941   720
26.4041   718
26.4141   747
26.4241   738
26.4341   680
26.4441   702
26.4541   742
26.4641   744
26.4741   770
26.4841   739
26.4941   704
26.5041   716
26.5141   754
26.5241   722
26.5341   711
26.5441   727
26.5541   691
26.5641   747
26.5741   747
26.5841   694
26.5941   703
26.6041   706
26.6141   703
26.6241   760
26.6341   694
26.6441   738
26.6541   701
26.6641   672
26.6741   726
26.6841   726
26.6941   692
26.7041   661
26.7141   684
26.7241   712
26.7341   701
26.7441   719
26.7541   689
26.7641   701
26.7741   658
26.7841   674
26.7941   712
26.8041   712
26.8141   682
26.8241   707
26.8341   690
26.8441   741
26.8541   706
26.8641   677
26.8741   687
26.8841   670
26.8941   662
26.9041   659
26.9141   679
26.9241   703
26.9341   690
26.9441   666
26.9541   725
26.9641   691
26.9741   655
26.9841   666
26.9941   697
27.0041   727
27.0141   644
27.0241   681
27.0341   640
27.0441   661
27.0541   698
27.0641   659
27.0741   661
27.0841   683
27.0941   685
27.1041   673
27.1141   644
27.1241   654
27.1341   644
27.1441   620
27.1541   643
27.1641   673
27.1741   655
27.1841   680
27.1941   663
27.2041   683
27.2141   680
27.2241   656
27.2341   658
27.2441   644
27.2541   669
27.2641   671
27.2741   678
27.2841   663
27.2941   705
27.3041   642
27.3141   685
27.3241   648
27.3341   693
27.3441   690
27.3541   722
27.3641   649
27.3741   643
27.3841   673
27.3941   652
27.4041   624
27.4141   646
27.4241   667
27.4341   659
27.4441   684
27.4541   635
27.4641   614
27.4741   669
27.4841   647
27.4941   662
27.5041   660
27.5141   637
27.5241   663
27.5341   633
27.5441   693
27.5541   633
27.5641   665
27.5741   676
27.5841   652
27.5941   641
27.6041   674
27.6141   671
27.6241   651
27.6341   615
27.6441   647
27.6541   604
27.6641   583
27.6741   662
27.6841   600
27.6941   625
27.7041   622
27.7141   638
27.7241   638
27.7341   643
27.7441   649
27.7541   609
27.7641   644
27.7741   625
27.7841   604
27.7941   589
27.8041   650
27.8141   640
27.8241   644
27.8341   554
27.8441   545
27.8541   609
27.8641   591
27.8741   628
27.8841   592
27.8941   657
27.9041   595
27.9141   611
27.9241   600
27.9341   614
27.9441   606
27.9541   580
27.9641   625
27.9741   636
27.9841   592
27.9941   613
28.0041   580
28.0141   634
28.0241   587
28.0341   617
28.0441   614
28.0541   613
28.0641   654
28.0741   627
28.0841   561
28.0941   622
28.1041   627
28.1141   592
28.1241   567
28.1341   590
28.1441   580
28.1541   610
28.1641   553
28.1741   576
28.1841   591
28.1941   572
28.2041   567
28.2141   583
28.2241   581
28.2341   571
28.2441   578
28.2541   593
28.2641   620
28.2741   578
28.2841   581
28.2941   584
28.3041   581
28.3141   564
28.3241   563
28.3341   557
28.3441   580
28.3541   591
28.3641   552
28.3741   557
28.3841   604
28.3941   546
28.4041   584
28.4141   546
28.4241   587
28.4341   564
28.4441   601
28.4541   613
28.4641   557
28.4741   585
28.4841   591
28.4941   610
28.5041   576
28.5141   590
28.5241   534
28.5341   588
28.5441   558
28.5541   576
28.5641   607
28.5741   568
28.5841   588
28.5941   585
28.6041   528
28.6141   510
28.6241   530
28.6341   585
28.6441   563
28.6541   528
28.6641   550
28.6741   554
28.6841   583
28.6941   550
28.7041   544
28.7141   547
28.7241   514
28.7341   529
28.7441   553
28.7541   530
28.7641   545
28.7741   547
28.7841   554
28.7941   561
28.8041   536
28.8141   526
28.8241   544
28.8341   567
28.8441   536
28.8541   540
28.8641   553
28.8741   579
28.8841   557
28.8941   573
28.9041   530
28.9141   545
28.9241   535
28.9341   542
28.9441   517
28.9541   519
28.9641   519
28.9741   529
28.9841   539
28.9941   520
29.0041   535
29.0141   543
29.0241   522
29.0341   517
29.0441   521
29.0541   514
29.0641   529
29.0741   510
29.0841   536
29.0941   534
29.1041   518
29.1141   523
29.1241   527
29.1341   516
29.1441   489
29.1541   521
29.1641   497
29.1741   508
29.1841   503
29.1941   509
29.2041   530
29.2141   502
29.2241   536
29.2341   504
29.2441   499
29.2541   488
29.2641   481
29.2741   479
29.2841   483
29.2941   521
29.3041   498
29.3141   479
29.3241   503
29.3341   512
29.3441   534
29.3541   509
29.3641   519
29.3741   505
29.3841   484
29.3941   474
29.4041   491
29.4141   499
29.4241   553
29.4341   483
29.4441   491
29.4541   493
29.4641   498
29.4741   446
29.4841   456
29.4941   505
29.5041   492
29.5141   501
29.5241   509
29.5341   511
29.5441   476
29.5541   508
29.5641   460
29.5741   484
29.5841   476
29.5941   504
29.6041   475
29.6141   492
29.6241   476
29.6341   470
29.6441   517
29.6541   495
29.6641   475
29.6741   487
29.6841   473
29.6941   476
29.7041   489
29.7141   464
29.7241   435
29.7341   467
29.7441   498
29.7541   467
29.7641   503
29.7741   486
29.7841   508
29.7941   490
29.8041   477
29.8141   483
29.8241   476
29.8341   479
29.8441   466
29.8541   481
29.8641   444
29.8741   453
29.8841   499
29.8941   477
29.9041   465
29.9141   456
29.9241   508
29.9341   459
29.9441   479
29.9541   466
29.9641   482
29.9741   467
29.9841   433
29.9941   421
30.0041   501
30.0141   447
30.0241   461
30.0341   497
30.0441   478
30.0541   442
30.0641   458
30.0741   463
30.0841   444
30.0941   421
30.1041   473
30.1141   459
30.1241   446
30.1341   462
30.1441   453
30.1541   439
30.1641   448
30.1741   440
30.1841   444
30.1941   427
30.2041   453
30.2141   444
30.2241   416
30.2341   423
30.2441   424
30.2541   467
30.2641   421
30.2741   446
30.2841   436
30.2941   441
30.3041   452
30.3141   428
30.3241   448
30.3341   459
30.3441   428
30.3541   443
30.3641   418
30.3741   465
30.3841   434
30.3941   411
30.4041   418
30.4141   434
30.4241   431
30.4341   414
30.4441   432
30.4541   460
30.4641   423
30.4741   443
30.4841   420
30.4941   435
30.5041   441
30.5141   402
30.5241   406
30.5341   442
30.5441   413
30.5541   438
30.5641   388
30.5741   422
30.5841   412
30.5941   434
30.6041   437
30.6141   440
30.6241   413
30.6341   445
30.6441   392
30.6541   438
30.6641   414
30.6741   454
30.6841   413
30.6941   407
30.7041   396
30.7141   367
30.7241   431
30.7341   402
30.7441   437
30.7541   435
30.7641   375
30.7741   414
30.7841   406
30.7941   415
30.8041   427
30.8141   412
30.8241   423
30.8341   384
30.8441   422
30.8541   421
30.8641   363
30.8741   399
30.8841   433
30.8941   383
30.9041   398
30.9141   410
30.9241   372
30.9341   394
30.9441   407
30.9541   426
30.9641   401
30.9741   377
30.9841   374
30.9941   416
31.0041   412
31.0141   385
31.0241   422
31.0341   355
31.0441   403
31.0541   360
31.0641   390
31.0741   400
31.0841   379
31.0941   387
31.1041   417
31.1141   426
31.1241   380
31.1341   345
31.1441   407
31.1541   388
31.1641   394
31.1741   405
31.1841   379
31.1941   413
31.2041   403
31.2141   384
31.2241   368
31.2341   342
31.2441   369
31.2541   404
31.2641   390
31.2741   384
31.2841   377
31.2941   372
31.3041   370
31.3141   369
31.3241   392
31.3341   369
31.3441   342
31.3541   387
31.3641   392
31.3741   371
31.3841   348
31.3941   374
31.4041   384
31.4141   369
31.4241   374
31.4341   374
31.4441   355
31.4541   341
31.4641   370
31.4741   383
31.4841   396
31.4941   358
31.5041   358
31.5141   363
31.5241   388
31.5341   367
31.5441   370
31.5541   403
31.5641   398
31.5741   343
31.5841   353
31.5941   330
31.6041   360
31.6141   384
31.6241   374
31.6341   377
31.6441   362
31.6541   355
31.6641   368
31.6741   347
31.6841   360
31.6941   363
31.7041   320
31.7141   365
31.7241   372
31.7341   346
31.7441   343
31.7541   329
31.7641   355
31.7741   332
31.7841   350
31.7941   361
31.8041   362
31.8141   333
31.8241   328
31.8341   332
31.8441   316
31.8541   344
31.8641   356
31.8741   343
31.8841   337
31.8941   343
31.9041   329
31.9141   349
31.9241   357
31.9341   309
31.9441   282
31.9541   330
31.9641   330
31.9741   309
31.9841   311
31.9941   364
32.0041   335
32.0141   340
32.0241   339
32.0341   334
32.0441   315
32.0541   362
32.0641   309
32.0741   312
32.0841   321
32.0941   305
32.1041   320
32.1141   331
32.1241   344
32.1341   324
32.1441   325
32.1541   324
32.1641   330
32.1741   306
32.1841   320
32.1941   349
32.2041   333
32.2141   305
32.2241   314
32.2341   313
32.2441   303
32.2541   329
32.2641   329
32.2741   319
32.2841   314
32.2941   331
32.3041   316
32.3141   310
32.3241   296
32.3341   352
32.3441   292
32.3541   312
32.3641   303
32.3741   317
32.3841   301
32.3941   297
32.4041   318
32.4141   327
32.4241   329
32.4341   357
32.4441   313
32.4541   303
32.4641   314
32.4741   290
32.4841   296
32.4941   323
32.5041   304
32.5141   315
32.5241   297
32.5341   325
32.5441   286
32.5541   278
32.5641   293
32.5741   282
32.5841   300
32.5941   287
32.6041   300
32.6141   296
32.6241   308
32.6341   304
32.6441   284
32.6541   304
32.6641   312
32.6741   295
32.6841   283
32.6941   290
32.7041   307
32.7141   322
32.7241   317
32.7341   291
32.7441   290
32.7541   295
32.7641   292
32.7741   283
32.7841   299
32.7941   287
32.8041   328
32.8141   285
32.8241   289
32.8341   297
32.8441   277
32.8541   282
32.8641   306
32.8741   295
32.8841   279
32.8941   321
32.9041   277
32.9141   287
32.9241   312
32.9341   300
32.9441   298
32.9541   280
32.9641   294
32.9741   259
32.9841   303
32.9941   301
33.0041   255
33.0141   258
33.0241   267
33.0341   263
33.0441   278
33.0541   265
33.0641   286
33.0741   307
33.0841   317
33.0941   289
33.1041   291
33.1141   279
33.1241   282
33.1341   292
33.1441   277
33.1541   316
33.1641   263
33.1741   262
33.1841   255
33.1941   288
33.2041   257
33.2141   250
33.2241   285
33.2341   238
33.2441   249
33.2541   256
33.2641   291
33.2741   260
33.2841   255
33.2941   273
33.3041   285
33.3141   264
33.3241   266
33.3341   247
33.3441   264
33.3541   270
33.3641   271
33.3741   277
33.3841   259
33.3941   239
33.4041   258
33.4141   275
33.4241   245
33.4341   231
33.4441   238
33.4541   257
33.4641   250
33.4741   258
33.4841   271
33.4941   231
33.5041   283
33.5141   265
33.5241   231
33.5341   254
33.5441   252
33.5541   255
33.5641   239
33.5741   227
33.5841   274
33.5941   277
33.6041   251
33.6141   217
33.6241   262
33.6341   258
33.6441   248
33.6541   236
33.6641   245
33.6741   259
33.6841   261
33.6941   265
33.7041   247
33.7141   244
33.7241   237
33.7341   268
33.7441   268
33.7541   262
33.7641   261
33.7741   250
33.7841   241
33.7941   234
33.8041   259
33.8141   263
33.8241   257
33.8341   255
33.8441   239
33.8541   260
33.8641   240
33.8741   224
33.8841   224
33.8941   256
33.9041   240
33.9141   228
33.9241   233
33.9341   231
33.9441   229
33.9541   235
33.9641   202
33.9741   237
33.9841   232
33.9941   227
34.0041   236
34.0141   235
34.0241   220
34.0341   225
34.0441   235
34.0541   246
34.0641   241
34.0741   221
34.0841   233
34.0941   243
34.1041   251
34.1141   220
34.1241   210
34.1341   252
34.1441   230
34.1541   215
34.1641   248
34.1741   246
34.1841   216
34.1941   242
34.2041   220
34.2141   228
34.2241   242
34.2341   202
34.2441   237
34.2541   224
34.2641   215
34.2741   221
34.2841   218
34.2941   231
34.3041   215
34.3141   238
34.3241   192
34.3341   218
34.3441   199
34.3541   206
34.3641   204
34.3741   227
34.3841   221
34.3941   207
34.4041   220
34.4141   207
34.4241   208
34.4341   220
34.4441   217
34.4541   203
34.4641   198
34.4741   196
34.4841   209
34.4941   217
34.5041   227
34.5141   200
34.5241   188
34.5341   189
34.5441   213
34.5541   219
34.5641   227
34.5741   239
34.5841   189
34.5941   204
34.6041   227
34.6141   211
34.6241   231
34.6341   207
34.6441   203
34.6541   229
34.6641   187
34.6741   206
34.6841   192
34.6941   191
34.7041   229
34.7141   182
34.7241   228
34.7341   204
34.7441   203
34.7541   213
34.7641   223
34.7741   187
34.7841   185
34.7941   201
34.8041   206
34.8141   200
34.8241   178
34.8341   230
34.8441   211
34.8541   218
34.8641   192
34.8741   163
34.8841   195
34.8941   198
34.9041   198
34.9141   185
34.9241   200
34.9341   195
34.9441   196
34.9541   196
34.9641   178
34.9741   206
34.9841   199
34.9941   199
35.0041   172
35.0141   186
35.0241   193
35.0341   177
35.0441   202
35.0541   217
35.0641   190
35.0741   184
35.0841   187
35.0941   173
35.1041   188
35.1141   203
35.1241   175
35.1341   192
35.1441   179
35.1541   182
35.1641   175
35.1741   181
35.1841   169
35.1941   173
35.2041   187
35.2141   194
35.2241   175
35.2341   169
35.2441   170
35.2541   209
35.2641   167
35.2741   164
35.2841   179
35.2941   189
35.3041   197
35.3141   176
35.3241   171
35.3341   212
35.3441   171
35.3541   178
35.3641   196
35.3741   194
35.3841   182
35.3941   181
35.4041   184
35.4141   171
35.4241   173
35.4341   173
35.4441   170
35.4541   185
35.4641   192
35.4741   160
35.4841   183
35.4941   171
35.5041   163
35.5141   172
35.5241   170
35.5341   175
35.5441   172
35.5541   178
35.5641   171
35.5741   180
35.5841   181
35.5941   173
35.6041   155
35.6141   161
35.6241   183
35.6341   167
35.6441   148
35.6541   162
35.6641   170
35.6741   189
35.6841   174
35.6941   182
35.7041   177
35.7141   184
35.7241   202
35.7341   180
35.7441   153
35.7541   168
35.7641   163
35.7741   153
35.7841   166
35.7941   156
35.8041   172
35.8141   166
35.8241   174
35.8341   150
35.8441   141
35.8541   166
35.8641   155
35.8741   156
35.8841   163
35.8941   156
35.9041   169
35.9141   137
35.9241   147
35.9341   157
35.9441   155
35.9541   154
35.9641   161
35.9741   159
35.9841   171
35.9941   183
36.0041   153
36.0141   150
36.0241   154
36.0341   167
36.0441   152
36.0541   149
36.0641   149
36.0741   159
36.0841   172
36.0941   160
36.1041   159
36.1141   144
36.1241   180
36.1341   144
36.1441   143
36.1541   128
36.1641   161
36.1741   167
36.1841   146
36.1941   148
36.2041   150
36.2141   121
36.2241   162
36.2341   159
36.2441   151
36.2541   135
36.2641   151
36.2741   159
36.2841   151
36.2941   138
36.3041   129
36.3141   143
36.3241   135
36.3341   159
36.3441   130
36.3541   131
36.3641   156
36.3741   146
36.3841   158
36.3941   126
36.4041   149
36.4141   139
36.4241   128
36.4341   135
36.4441   136
36.4541   147
36.4641   130
36.4741   148
36.4841   149
36.4941   141
36.5041   128
36.5141   134
36.5241   133
36.5341   143
36.5441   142
36.5541   113
36.5641   125
36.5741   121
36.5841   152
36.5941   137
36.6041   138
36.6141   144
36.6241   141
36.6341   143
36.6441   138
36.6541   141
36.6641   141
36.6741   129
36.6841   136
36.6941   136
36.7041   135
36.7141   127
36.7241   129
36.7341   141
36.7441   145
36.7541   138
36.7641   135
36.7741   120
36.7841   149
36.7941   126
36.8041   138
36.8141   127
36.8241   119
36.8341   151
36.8441   145
36.8541   128
36.8641   127
36.8741   132
36.8841   124
36.8941   116
36.9041   137
36.9141   150
36.9241   147
36.9341   121
36.9441   138
36.9541   147
36.9641   136
36.9741   129
36.9841   116
36.9941   123
37.0041    93
37.0141   107
37.0241   136
37.0341   110
37.0441   123
37.0541   126
37.0641   135
37.0741   132
37.0841   140
37.0941   126
37.1041   122
37.1141   119
37.1241   121
37.1341   142
37.1441   121
37.1541   112
37.1641   109
37.1741   116
37.1841   109
37.1941   103
37.2041   112
37.2141   117
37.2241   133
37.2341   150
37.2441   116
37.2541   116
37.2641   128
37.2741   121
37.2841   109
37.2941   122
37.3041   122
37.3141   123
37.3241   115
37.3341   103
37.3441   114
37.3541    99
37.3641   130
37.3741    91
37.3841   132
37.3941   117
37.4041   115
37.4141   132
37.4241   136
37.4341   109
37.4441   119
37.4541   114
37.4641   122
37.4741   110
37.4841    93
37.4941   117
37.5041   105
37.5141   121
37.5241   107
37.5341   111
37.5441   111
37.5541   114
37.5641   113
37.5741   109
37.5841   125
37.5941   118
37.6041    96
37.6141   106
37.6241   116
37.6341   107
37.6441    97
37.6541    88
37.6641   118
37.6741    95
37.6841    95
37.6941   105
37.7041   102
37.7141    95
37.7241   101
37.7341   119
37.7441   112
37.7541    98
37.7641   127
37.7741   116
37.7841   100
37.7941    96
37.8041   107
37.8141    99
37.8241   101
37.8341    88
37.8441   101
37.8541    93
37.8641   121
37.8741   110
37.8841    90
37.8941   100
37.9041    77
37.9141    82
37.9241    85
37.9341    86
37.9441    85
37.9541   111
37.9641    87
37.9741   100
37.9841   104
37.9941   115
38.0041   106
38.0141   109
38.0241    92
38.0341   102
38.0441   113
38.0541    96
38.0641    92
38.0741    92
38.0841    95
38.0941    94
38.1041    88
38.1141    86
38.1241   102
38.1341    94
38.1441    81
38.1541    83
38.1641    72
38.1741    59
38.1841    87
38.1941    81
38.2041    98
38.2141    94
38.2241    89
38.2341   100
38.2441    99
38.2541    90
38.2641   109
38.2741    88
38.2841    86
38.2941    95
38.3041    98
38.3141   101
38.3241    87
38.3341    83
38.3441    89
38.3541    71
38.3641    92
38.3741    85
38.3841    90
38.3941    86
38.4041    85
38.4141    84
38.4241    84
38.4341    75
38.4441    88
38.4541    95
38.4641    98
38.4741    79
38.4841    83
38.4941    74
38.5041    72
38.5141    84
38.5241    90
38.5341    80
38.5441    83
38.5541    79
38.5641    91
38.5741    76
38.5841    82
38.5941    84
38.6041    96
38.6141    68
38.6241    63
38.6341    75
38.6441    74
38.6541    83
38.6641    67
38.6741    81
38.6841    73
38.6941    72
38.7041    64
38.7141    71
38.7241    83
38.7341    83
38.7441    76
38.7541    71
38.7641    75
38.7741    66
38.7841    81
38.7941    89
38.8041    69
38.8141    80
38.8241    67
38.8341    83
38.8441    91
38.8541    76
38.8641    67
38.8741    74
38.8841    72
38.8941    80
38.9041    75
38.9141    80
38.9241    76
38.9341    67
38.9441    75
38.9541    70
38.9641    69
38.9741    73
38.9841    74
38.9941    68
39.0041    62
39.0141    61
39.0241    85
39.0341    85
39.0441    63
39.0541    71
39.0641    79
39.0741    58
39.0841    62
39.0941    80
39.1041    63
39.1141    79
39.1241    79
39.1341    79
39.1441    76
39.1541    56
39.1641    84
39.1741    57
39.1841    80
39.1941    68
39.2041    75
39.2141    74
39.2241    67
39.2341    54
39.2441    61
39.2541    60
39.2641    66
39.2741    48
39.2841    72
39.2941    64
39.3041    68
39.3141    82
39.3241    54
39.3341    45
39.3441    78
39.3541    69
39.3641    77
39.3741    79
39.3841    71
39.3941    64
39.4041    47
39.4141    57
39.4241    75
39.4341    66
39.4441    65
39.4541    66
39.4641    60
39.4741    68
39.4841    50
39.4941    64
39.5041    72
39.5141    60
39.5241    60
39.5341    53
39.5441    56
39.5541    54
39.5641    64
39.5741    61
39.5841    54
39.5941    59
39.6041    49
39.6141    62
39.6241    57
39.6341    56
39.6441    61
39.6541    54
39.6641    50
39.6741    61
39.6841    54
39.6941    79
39.7041    56
39.7141    64
39.7241    56
39.7341    54
39.7441    57
39.7541    58
39.7641    53
39.7741    47
39.7841    63
39.7941    57
39.8041    57
39.8141    47
39.8241    54
39.8341    62
39.8441    67
39.8541    41
39.8641    43
39.8741    49
39.8841    59
39.8941    64
39.9041    43
39.9141    62
39.9241    57
39.9341    55
39.9441    42
39.9541    47
39.9641    41
39.9741    47
39.9841    58
39.9941    51
