Bruker Nano GmbH Berlin, Germany
Esprit 1.9

Date: 4/1/2021 4:51:17 PM
Real time: 15988
Life time: 14884
Pulse density: 104472


Detector type: XFlash 430
Window type: Custom type
Detector thickness: 0.45
Si dead layer:0.029

Calibration, lin.: 10
Calibration, abs.: -955.9
Mn FWHM: 137.05
Fano factor: 0.121
Channels: 4095

Energy Counts
-0.9559     0
-0.9459     0
-0.9359     0
-0.9259     0
-0.9159     0
-0.9059     0
-0.8959     0
-0.8859     0
-0.8759     0
-0.8659     0
-0.8559     0
-0.8459     0
-0.8359     0
-0.8259     0
-0.8159     0
-0.8059     0
-0.7959     0
-0.7859     0
-0.7759     0
-0.7659     0
-0.7559     0
-0.7459     0
-0.7359     0
-0.7259     0
-0.7159     0
-0.7059     0
-0.6959     0
-0.6859     0
-0.6759     0
-0.6659     0
-0.6559     0
-0.6459     0
-0.6359     0
-0.6259     0
-0.6159     0
-0.6059     0
-0.5959     0
-0.5859     0
-0.5759     0
-0.5659     0
-0.5559     0
-0.5459     0
-0.5359     0
-0.5259     0
-0.5159     0
-0.5059     0
-0.4959     0
-0.4859     0
-0.4759     0
-0.4659     0
-0.4559     0
-0.4459     0
-0.4359     0
-0.4259     0
-0.4159     0
-0.4059     0
-0.3959     0
-0.3859     0
-0.3759     0
-0.3659     0
-0.3559     0
-0.3459     0
-0.3359     0
-0.3259     0
-0.3159     0
-0.3059     0
-0.2959     0
-0.2859     0
-0.2759     0
-0.2659     0
-0.2559     0
-0.2459     0
-0.2359     0
-0.2259     0
-0.2159     0
-0.2059     0
-0.1959     0
-0.1859     0
-0.1759     0
-0.1659     0
-0.1559     0
-0.1459     0
-0.1359     0
-0.1259     0
-0.1159     6
-0.1059     6
-0.0959    39
-0.0859   166
-0.0759   577
-0.0659  1730
-0.0559  4264
-0.0459  9510
-0.0359 17723
-0.0259 28464
-0.0159 38816
-0.0059 45551
 0.0041 45841
 0.0141 39741
 0.0241 29172
 0.0341 18369
 0.0441  9985
 0.0541  4524
 0.0641  1908
 0.0741   669
 0.0841   180
 0.0941    52
 0.1041    13
 0.1141     6
 0.1241     8
 0.1341     6
 0.1441     6
 0.1541     5
 0.1641     4
 0.1741     1
 0.1841   111
 0.1941   228
 0.2041   233
 0.2141   210
 0.2241   230
 0.2341   223
 0.2441   207
 0.2541   228
 0.2641   232
 0.2741   231
 0.2841   223
 0.2941   222
 0.3041   231
 0.3141   224
 0.3241   203
 0.3341   210
 0.3441   201
 0.3541   216
 0.3641   214
 0.3741   203
 0.3841   194
 0.3941   191
 0.4041   205
 0.4141   205
 0.4241   195
 0.4341   223
 0.4441   225
 0.4541   209
 0.4641   198
 0.4741   192
 0.4841   184
 0.4941   186
 0.5041   195
 0.5141   201
 0.5241   199
 0.5341   178
 0.5441   177
 0.5541   185
 0.5641   192
 0.5741   198
 0.5841   188
 0.5941   172
 0.6041   171
 0.6141   186
 0.6241   191
 0.6341   188
 0.6441   184
 0.6541   172
 0.6641   179
 0.6741   191
 0.6841   184
 0.6941   180
 0.7041   176
 0.7141   164
 0.7241   172
 0.7341   167
 0.7441   163
 0.7541   164
 0.7641   158
 0.7741   170
 0.7841   161
 0.7941   143
 0.8041   145
 0.8141   162
 0.8241   160
 0.8341   163
 0.8441   168
 0.8541   159
 0.8641   152
 0.8741   152
 0.8841   154
 0.8941   146
 0.9041   147
 0.9141   156
 0.9241   161
 0.9341   156
 0.9441   151
 0.9541   165
 0.9641   154
 0.9741   154
 0.9841   164
 0.9941   136
 1.0041   146
 1.0141   139
 1.0241   147
 1.0341   145
 1.0441   129
 1.0541   151
 1.0641   136
 1.0741   129
 1.0841   132
 1.0941   157
 1.1041   146
 1.1141   133
 1.1241   140
 1.1341   140
 1.1441   143
 1.1541   148
 1.1641   142
 1.1741   131
 1.1841   142
 1.1941   140
 1.2041   148
 1.2141   152
 1.2241   146
 1.2341   152
 1.2441   141
 1.2541   140
 1.2641   132
 1.2741   150
 1.2841   123
 1.2941   128
 1.3041   121
 1.3141   126
 1.3241   120
 1.3341   146
 1.3441   164
 1.3541   141
 1.3641   134
 1.3741   128
 1.3841   140
 1.3941   129
 1.4041   110
 1.4141   124
 1.4241   133
 1.4341   126
 1.4441   136
 1.4541   135
 1.4641   140
 1.4741   127
 1.4841   136
 1.4941   126
 1.5041   128
 1.5141   162
 1.5241   109
 1.5341   111
 1.5441   139
 1.5541   121
 1.5641   125
 1.5741   133
 1.5841   142
 1.5941   123
 1.6041   132
 1.6141   137
 1.6241   153
 1.6341   132
 1.6441   147
 1.6541   166
 1.6641   209
 1.6741   253
 1.6841   292
 1.6941   354
 1.7041   446
 1.7141   516
 1.7241   566
 1.7341   618
 1.7441   615
 1.7541   589
 1.7641   510
 1.7741   411
 1.7841   361
 1.7941   319
 1.8041   264
 1.8141   198
 1.8241   211
 1.8341   187
 1.8441   185
 1.8541   157
 1.8641   148
 1.8741   151
 1.8841   149
 1.8941   141
 1.9041   120
 1.9141   124
 1.9241   129
 1.9341   139
 1.9441   132
 1.9541   153
 1.9641   131
 1.9741   156
 1.9841   138
 1.9941   164
 2.0041   178
 2.0141   171
 2.0241   171
 2.0341   158
 2.0441   155
 2.0541   154
 2.0641   154
 2.0741   123
 2.0841   124
 2.0941   129
 2.1041   126
 2.1141   123
 2.1241   140
 2.1341   125
 2.1441   129
 2.1541   134
 2.1641    98
 2.1741   125
 2.1841   140
 2.1941   134
 2.2041   131
 2.2141   129
 2.2241   128
 2.2341   115
 2.2441   103
 2.2541   122
 2.2641   117
 2.2741   122
 2.2841   120
 2.2941   120
 2.3041   115
 2.3141   120
 2.3241   138
 2.3341   119
 2.3441   126
 2.3541   118
 2.3641   123
 2.3741    99
 2.3841   120
 2.3941   112
 2.4041   122
 2.4141   113
 2.4241   108
 2.4341   114
 2.4441   119
 2.4541   108
 2.4641   128
 2.4741   111
 2.4841   116
 2.4941   124
 2.5041   115
 2.5141   102
 2.5241    97
 2.5341   110
 2.5441   106
 2.5541   107
 2.5641   101
 2.5741   120
 2.5841    91
 2.5941   126
 2.6041   118
 2.6141    97
 2.6241   108
 2.6341   112
 2.6441   124
 2.6541   113
 2.6641   104
 2.6741   128
 2.6841   108
 2.6941   106
 2.7041   113
 2.7141   110
 2.7241    94
 2.7341   104
 2.7441    96
 2.7541   101
 2.7641   107
 2.7741   118
 2.7841    93
 2.7941   121
 2.8041   106
 2.8141   104
 2.8241   107
 2.8341   119
 2.8441   134
 2.8541   121
 2.8641   122
 2.8741   117
 2.8841   108
 2.8941    98
 2.9041   101
 2.9141   115
 2.9241    88
 2.9341    85
 2.9441    95
 2.9541   102
 2.9641   105
 2.9741   101
 2.9841   117
 2.9941   101
 3.0041    91
 3.0141   111
 3.0241    87
 3.0341   106
 3.0441   108
 3.0541   112
 3.0641   112
 3.0741    77
 3.0841   103
 3.0941    81
 3.1041    85
 3.1141   102
 3.1241    76
 3.1341    97
 3.1441    85
 3.1541   105
 3.1641    96
 3.1741    80
 3.1841   105
 3.1941    86
 3.2041   109
 3.2141    77
 3.2241    98
 3.2341   112
 3.2441   110
 3.2541   112
 3.2641   149
 3.2741   116
 3.2841   144
 3.2941   150
 3.3041   159
 3.3141   146
 3.3241   145
 3.3341   152
 3.3441   123
 3.3541   155
 3.3641   131
 3.3741   115
 3.3841   105
 3.3941    97
 3.4041   100
 3.4141    76
 3.4241    85
 3.4341    95
 3.4441    79
 3.4541    90
 3.4641    95
 3.4741    92
 3.4841    88
 3.4941    87
 3.5041    92
 3.5141   100
 3.5241   107
 3.5341   106
 3.5441   103
 3.5541   151
 3.5641   166
 3.5741   217
 3.5841   285
 3.5941   368
 3.6041   470
 3.6141   621
 3.6241   765
 3.6341   960
 3.6441  1187
 3.6541  1356
 3.6641  1558
 3.6741  1654
 3.6841  1748
 3.6941  1857
 3.7041  1730
 3.7141  1614
 3.7241  1396
 3.7341  1254
 3.7441   965
 3.7541   826
 3.7641   589
 3.7741   449
 3.7841   348
 3.7941   261
 3.8041   183
 3.8141   124
 3.8241   108
 3.8341   101
 3.8441    79
 3.8541   103
 3.8641    89
 3.8741    80
 3.8841    82
 3.8941   101
 3.9041   128
 3.9141   125
 3.9241   146
 3.9341   174
 3.9441   202
 3.9541   214
 3.9641   247
 3.9741   287
 3.9841   319
 3.9941   357
 4.0041   371
 4.0141   369
 4.0241   331
 4.0341   349
 4.0441   325
 4.0541   273
 4.0641   223
 4.0741   223
 4.0841   196
 4.0941   162
 4.1041   132
 4.1141   109
 4.1241    90
 4.1341    63
 4.1441    85
 4.1541    79
 4.1641    77
 4.1741    79
 4.1841    75
 4.1941    70
 4.2041    54
 4.2141    57
 4.2241    79
 4.2341    56
 4.2441    68
 4.2541    64
 4.2641    62
 4.2741    62
 4.2841    55
 4.2941    60
 4.3041    51
 4.3141    73
 4.3241    84
 4.3341    81
 4.3441    68
 4.3541    69
 4.3641    93
 4.3741    92
 4.3841   122
 4.3941   141
 4.4041   150
 4.4141   191
 4.4241   270
 4.4341   306
 4.4441   389
 4.4541   461
 4.4641   504
 4.4741   611
 4.4841   652
 4.4941   684
 4.5041   725
 4.5141   707
 4.5241   725
 4.5341   615
 4.5441   554
 4.5541   483
 4.5641   417
 4.5741   359
 4.5841   298
 4.5941   226
 4.6041   189
 4.6141   163
 4.6241   133
 4.6341   111
 4.6441   124
 4.6541   104
 4.6641    75
 4.6741    90
 4.6841    88
 4.6941    69
 4.7041    89
 4.7141    87
 4.7241    85
 4.7341    75
 4.7441    84
 4.7541    83
 4.7641    71
 4.7741    85
 4.7841    88
 4.7941    82
 4.8041    87
 4.8141   111
 4.8241    88
 4.8341   123
 4.8441   129
 4.8541   141
 4.8641   151
 4.8741   174
 4.8841   189
 4.8941   198
 4.9041   180
 4.9141   236
 4.9241   201
 4.9341   205
 4.9441   248
 4.9541   223
 4.9641   196
 4.9741   204
 4.9841   175
 4.9941   174
 5.0041   158
 5.0141   123
 5.0241   112
 5.0341   101
 5.0441   119
 5.0541    90
 5.0641    94
 5.0741    74
 5.0841    94
 5.0941    98
 5.1041    78
 5.1141    67
 5.1241    78
 5.1341    73
 5.1441    73
 5.1541    75
 5.1641    65
 5.1741    72
 5.1841    86
 5.1941    81
 5.2041   102
 5.2141    90
 5.2241    88
 5.2341    76
 5.2441    92
 5.2541    89
 5.2641    90
 5.2741   104
 5.2841   113
 5.2941   124
 5.3041   126
 5.3141   205
 5.3241   193
 5.3341   221
 5.3441   281
 5.3541   317
 5.3641   349
 5.3741   403
 5.3841   419
 5.3941   468
 5.4041   424
 5.4141   460
 5.4241   494
 5.4341   452
 5.4441   388
 5.4541   393
 5.4641   326
 5.4741   284
 5.4841   232
 5.4941   190
 5.5041   179
 5.5141   163
 5.5241   126
 5.5341   129
 5.5441   113
 5.5541    95
 5.5641    93
 5.5741    88
 5.5841    99
 5.5941    86
 5.6041    78
 5.6141    87
 5.6241    86
 5.6341    89
 5.6441    88
 5.6541    97
 5.6641    81
 5.6741    89
 5.6841    85
 5.6941    93
 5.7041    86
 5.7141    88
 5.7241    83
 5.7341    97
 5.7441   105
 5.7541   125
 5.7641   130
 5.7741   155
 5.7841   157
 5.7941   195
 5.8041   194
 5.8141   244
 5.8241   328
 5.8341   335
 5.8441   419
 5.8541   391
 5.8641   482
 5.8741   517
 5.8841   558
 5.8941   526
 5.9041   550
 5.9141   545
 5.9241   492
 5.9341   479
 5.9441   452
 5.9541   388
 5.9641   362
 5.9741   296
 5.9841   276
 5.9941   255
 6.0041   215
 6.0141   171
 6.0241   159
 6.0341   184
 6.0441   131
 6.0541   135
 6.0641   123
 6.0741   126
 6.0841   132
 6.0941   137
 6.1041   142
 6.1141   145
 6.1241   158
 6.1341   150
 6.1441   177
 6.1541   217
 6.1641   223
 6.1741   223
 6.1841   294
 6.1941   352
 6.2041   427
 6.2141   573
 6.2241   842
 6.2341  1099
 6.2441  1596
 6.2541  2124
 6.2641  3042
 6.2741  4135
 6.2841  5687
 6.2941  7546
 6.3041  9835
 6.3141 12169
 6.3241 15043
 6.3341 18139
 6.3441 21469
 6.3541 24217
 6.3641 26885
 6.3741 29060
 6.3841 30935
 6.3941 31559
 6.4041 31296
 6.4141 30488
 6.4241 28551
 6.4341 26147
 6.4441 23752
 6.4541 20393
 6.4641 17108
 6.4741 13931
 6.4841 11367
 6.4941  8735
 6.5041  6565
 6.5141  4900
 6.5241  3640
 6.5341  2543
 6.5441  1760
 6.5541  1243
 6.5641   827
 6.5741   571
 6.5841   425
 6.5941   294
 6.6041   245
 6.6141   214
 6.6241   166
 6.6341   181
 6.6441   187
 6.6541   170
 6.6641   155
 6.6741   162
 6.6841   152
 6.6941   158
 6.7041   153
 6.7141   170
 6.7241   180
 6.7341   171
 6.7441   150
 6.7541   164
 6.7641   166
 6.7741   183
 6.7841   175
 6.7941   208
 6.8041   209
 6.8141   195
 6.8241   239
 6.8341   221
 6.8441   216
 6.8541   307
 6.8641   337
 6.8741   344
 6.8841   406
 6.8941   493
 6.9041   616
 6.9141   788
 6.9241   932
 6.9341  1189
 6.9441  1506
 6.9541  1851
 6.9641  2249
 6.9741  2737
 6.9841  3132
 6.9941  3597
 7.0041  3913
 7.0141  4595
 7.0241  4904
 7.0341  5153
 7.0441  5353
 7.0541  5451
 7.0641  5346
 7.0741  5178
 7.0841  4978
 7.0941  4435
 7.1041  3893
 7.1141  3321
 7.1241  2958
 7.1341  2416
 7.1441  2045
 7.1541  1599
 7.1641  1284
 7.1741  1010
 7.1841   751
 7.1941   567
 7.2041   461
 7.2141   328
 7.2241   302
 7.2341   228
 7.2441   201
 7.2541   186
 7.2641   167
 7.2741   190
 7.2841   178
 7.2941   154
 7.3041   174
 7.3141   196
 7.3241   212
 7.3341   201
 7.3441   212
 7.3541   215
 7.3641   226
 7.3741   244
 7.3841   234
 7.3941   237
 7.4041   239
 7.4141   260
 7.4241   262
 7.4341   291
 7.4441   273
 7.4541   300
 7.4641   278
 7.4741   256
 7.4841   263
 7.4941   244
 7.5041   270
 7.5141   245
 7.5241   214
 7.5341   218
 7.5441   208
 7.5541   201
 7.5641   198
 7.5741   173
 7.5841   156
 7.5941   154
 7.6041   149
 7.6141   146
 7.6241   138
 7.6341   168
 7.6441   139
 7.6541   135
 7.6641   173
 7.6741   162
 7.6841   173
 7.6941   164
 7.7041   148
 7.7141   175
 7.7241   163
 7.7341   182
 7.7441   184
 7.7541   159
 7.7641   164
 7.7741   177
 7.7841   185
 7.7941   180
 7.8041   184
 7.8141   183
 7.8241   201
 7.8341   193
 7.8441   216
 7.8541   195
 7.8641   193
 7.8741   198
 7.8841   252
 7.8941   255
 7.9041   240
 7.9141   289
 7.9241   249
 7.9341   322
 7.9441   312
 7.9541   310
 7.9641   368
 7.9741   388
 7.9841   356
 7.9941   405
 8.0041   443
 8.0141   487
 8.0241   505
 8.0341   563
 8.0441   608
 8.0541   646
 8.0641   632
 8.0741   709
 8.0841   783
 8.0941   811
 8.1041   850
 8.1141   844
 8.1241   878
 8.1341   927
 8.1441  1011
 8.1541  1057
 8.1641  1025
 8.1741  1045
 8.1841  1066
 8.1941  1049
 8.2041  1028
 8.2141  1066
 8.2241  1091
 8.2341  1086
 8.2441  1201
 8.2541  1186
 8.2641  1254
 8.2741  1399
 8.2841  1410
 8.2941  1582
 8.3041  1724
 8.3141  1769
 8.3241  1990
 8.3341  2157
 8.3441  2236
 8.3541  2410
 8.3641  2623
 8.3741  2649
 8.3841  2678
 8.3941  2562
 8.4041  2571
 8.4141  2582
 8.4241  2335
 8.4341  2208
 8.4441  2039
 8.4541  1839
 8.4641  1632
 8.4741  1474
 8.4841  1201
 8.4941  1012
 8.5041   859
 8.5141   744
 8.5241   642
 8.5341   535
 8.5441   499
 8.5541   430
 8.5641   363
 8.5741   345
 8.5841   348
 8.5941   304
 8.6041   326
 8.6141   311
 8.6241   300
 8.6341   317
 8.6441   316
 8.6541   312
 8.6641   280
 8.6741   297
 8.6841   301
 8.6941   284
 8.7041   268
 8.7141   282
 8.7241   266
 8.7341   259
 8.7441   265
 8.7541   270
 8.7641   253
 8.7741   240
 8.7841   212
 8.7941   236
 8.8041   255
 8.8141   254
 8.8241   247
 8.8341   228
 8.8441   211
 8.8541   246
 8.8641   234
 8.8741   236
 8.8841   219
 8.8941   250
 8.9041   216
 8.9141   258
 8.9241   249
 8.9341   253
 8.9441   242
 8.9541   240
 8.9641   246
 8.9741   240
 8.9841   255
 8.9941   245
 9.0041   235
 9.0141   273
 9.0241   294
 9.0341   301
 9.0441   294
 9.0541   264
 9.0641   324
 9.0741   333
 9.0841   324
 9.0941   330
 9.1041   374
 9.1141   351
 9.1241   383
 9.1341   388
 9.1441   380
 9.1541   411
 9.1641   428
 9.1741   450
 9.1841   451
 9.1941   499
 9.2041   513
 9.2141   554
 9.2241   544
 9.2341   555
 9.2441   617
 9.2541   663
 9.2641   673
 9.2741   719
 9.2841   756
 9.2941   797
 9.3041   839
 9.3141   847
 9.3241   882
 9.3341   891
 9.3441   871
 9.3541   874
 9.3641   936
 9.3741   996
 9.3841   982
 9.3941   967
 9.4041  1021
 9.4141   985
 9.4241  1032
 9.4341  1034
 9.4441  1038
 9.4541  1011
 9.4641  1072
 9.4741  1109
 9.4841  1119
 9.4941  1138
 9.5041  1182
 9.5141  1133
 9.5241  1247
 9.5341  1298
 9.5441  1278
 9.5541  1375
 9.5641  1474
 9.5741  1554
 9.5841  1707
 9.5941  1820
 9.6041  1834
 9.6141  1849
 9.6241  1975
 9.6341  2076
 9.6441  2159
 9.6541  2246
 9.6641  2165
 9.6741  2098
 9.6841  2152
 9.6941  2143
 9.7041  2043
 9.7141  1920
 9.7241  1825
 9.7341  1726
 9.7441  1551
 9.7541  1448
 9.7641  1313
 9.7741  1231
 9.7841  1146
 9.7941  1010
 9.8041   972
 9.8141   913
 9.8241   910
 9.8341   835
 9.8441   874
 9.8541   866
 9.8641   863
 9.8741   854
 9.8841   858
 9.8941   888
 9.9041   893
 9.9141   955
 9.9241   971
 9.9341   933
 9.9441   934
 9.9541   956
 9.9641   945
 9.9741   892
 9.9841   855
 9.9941   808
10.0041   812
10.0141   765
10.0241   660
10.0341   639
10.0441   559
10.0541   507
10.0641   466
10.0741   417
10.0841   372
10.0941   314
10.1041   293
10.1141   251
10.1241   262
10.1341   252
10.1441   223
10.1541   215
10.1641   192
10.1741   182
10.1841   195
10.1941   174
10.2041   184
10.2141   178
10.2241   172
10.2341   149
10.2441   135
10.2541   143
10.2641   144
10.2741   144
10.2841   132
10.2941   144
10.3041   125
10.3141   120
10.3241   115
10.3341   121
10.3441   123
10.3541   118
10.3641   114
10.3741   124
10.3841   129
10.3941   122
10.4041   112
10.4141   114
10.4241   141
10.4341   138
10.4441   135
10.4541   116
10.4641   112
10.4741   124
10.4841   132
10.4941   125
10.5041   134
10.5141   145
10.5241   124
10.5341   112
10.5441   131
10.5541   134
10.5641   128
10.5741   138
10.5841   128
10.5941   132
10.6041   142
10.6141   149
10.6241   155
10.6341   139
10.6441   136
10.6541   132
10.6641   138
10.6741   141
10.6841   146
10.6941   146
10.7041   161
10.7141   176
10.7241   147
10.7341   146
10.7441   160
10.7541   156
10.7641   151
10.7741   150
10.7841   159
10.7941   193
10.8041   178
10.8141   177
10.8241   183
10.8341   192
10.8441   214
10.8541   217
10.8641   213
10.8741   197
10.8841   194
10.8941   206
10.9041   223
10.9141   224
10.9241   206
10.9341   197
10.9441   213
10.9541   206
10.9641   216
10.9741   215
10.9841   207
10.9941   201
11.0041   190
11.0141   199
11.0241   210
11.0341   208
11.0441   189
11.0541   186
11.0641   186
11.0741   186
11.0841   179
11.0941   189
11.1041   180
11.1141   183
11.1241   192
11.1341   196
11.1441   217
11.1541   210
11.1641   217
11.1741   238
11.1841   257
11.1941   267
11.2041   246
11.2141   245
11.2241   256
11.2341   274
11.2441   277
11.2541   297
11.2641   318
11.2741   307
11.2841   291
11.2941   315
11.3041   310
11.3141   311
11.3241   288
11.3341   272
11.3441   256
11.3541   248
11.3641   241
11.3741   247
11.3841   223
11.3941   222
11.4041   205
11.4141   183
11.4241   167
11.4341   152
11.4441   177
11.4541   172
11.4641   169
11.4741   163
11.4841   149
11.4941   169
11.5041   175
11.5141   145
11.5241   147
11.5341   158
11.5441   165
11.5541   144
11.5641   157
11.5741   156
11.5841   150
11.5941   139
11.6041   160
11.6141   163
11.6241   174
11.6341   176
11.6441   173
11.6541   158
11.6641   162
11.6741   178
11.6841   170
11.6941   169
11.7041   169
11.7141   148
11.7241   136
11.7341   135
11.7441   107
11.7541   129
11.7641   139
11.7741   116
11.7841   129
11.7941   128
11.8041   114
11.8141   116
11.8241   119
11.8341   114
11.8441   111
11.8541   102
11.8641   110
11.8741   101
11.8841    98
11.8941    95
11.9041    95
11.9141   105
11.9241   108
11.9341   105
11.9441   109
11.9541    94
11.9641    90
11.9741   107
11.9841   110
11.9941   103
12.0041   103
12.0141   113
12.0241   105
12.0341   110
12.0441   119
12.0541   116
12.0641   127
12.0741   113
12.0841    97
12.0941   108
12.1041   121
12.1141   117
12.1241   111
12.1341   116
12.1441   111
12.1541    98
12.1641   115
12.1741   124
12.1841   105
12.1941   115
12.2041   127
12.2141   117
12.2241   116
12.2341   121
12.2441   120
12.2541   105
12.2641   105
12.2741   106
12.2841   103
12.2941   103
12.3041    99
12.3141    95
12.3241   100
12.3341   100
12.3441   107
12.3541   106
12.3641   107
12.3741   101
12.3841   106
12.3941   107
12.4041   106
12.4141   110
12.4241   115
12.4341   117
12.4441   116
12.4541   108
12.4641   105
12.4741   108
12.4841   114
12.4941   105
12.5041   111
12.5141   113
12.5241   106
12.5341   106
12.5441   109
12.5541   115
12.5641   116
12.5741   104
12.5841   100
12.5941    92
12.6041    94
12.6141    99
12.6241   103
12.6341   104
12.6441   100
12.6541    98
12.6641    98
12.6741    98
12.6841    99
12.6941   103
12.7041   109
12.7141   112
12.7241   109
12.7341   108
12.7441   116
12.7541   123
12.7641   123
12.7741   118
12.7841   115
12.7941   111
12.8041   111
12.8141   116
12.8241   120
12.8341   119
12.8441   118
12.8541   122
12.8641   129
12.8741   127
12.8841   121
12.8941   120
12.9041   120
12.9141   116
12.9241   122
12.9341   134
12.9441   136
12.9541   129
12.9641   124
12.9741   127
12.9841   133
12.9941   128
13.0041   117
13.0141   114
13.0241   111
13.0341   116
13.0441   127
13.0541   134
13.0641   120
13.0741   117
13.0841   109
13.0941   117
13.1041   115
13.1141   117
13.1241   125
13.1341   122
13.1441   122
13.1541   118
13.1641   136
13.1741   138
13.1841   125
13.1941   122
13.2041   125
13.2141   131
13.2241   124
13.2341   131
13.2441   144
13.2541   145
13.2641   137
13.2741   136
13.2841   142
13.2941   145
13.3041   145
13.3141   136
13.3241   133
13.3341   144
13.3441   153
13.3541   159
13.3641   170
13.3741   177
13.3841   177
13.3941   174
13.4041   169
13.4141   164
13.4241   162
13.4341   157
13.4441   149
13.4541   147
13.4641   156
13.4741   163
13.4841   160
13.4941   155
13.5041   156
13.5141   159
13.5241   156
13.5341   149
13.5441   147
13.5541   140
13.5641   131
13.5741   138
13.5841   149
13.5941   144
13.6041   135
13.6141   133
13.6241   138
13.6341   143
13.6441   137
13.6541   135
13.6641   136
13.6741   144
13.6841   151
13.6941   133
13.7041   131
13.7141   151
13.7241   148
13.7341   141
13.7441   143
13.7541   148
13.7641   156
13.7741   148
13.7841   145
13.7941   150
13.8041   144
13.8141   141
13.8241   145
13.8341   156
13.8441   170
13.8541   175
13.8641   172
13.8741   172
13.8841   180
13.8941   187
13.9041   190
13.9141   197
13.9241   208
13.9341   219
13.9441   231
13.9541   248
13.9641   272
13.9741   301
13.9841   337
13.9941   377
14.0041   412
14.0141   440
14.0241   479
14.0341   527
14.0441   575
14.0541   629
14.0641   691
14.0741   751
14.0841   806
14.0941   853
14.1041   887
14.1141   907
14.1241   918
14.1341   923
14.1441   931
14.1541   944
14.1641   933
14.1741   895
14.1841   853
14.1941   807
14.2041   767
14.2141   734
14.2241   688
14.2341   634
14.2441   583
14.2541   527
14.2641   469
14.2741   425
14.2841   386
14.2941   344
14.3041   310
14.3141   295
14.3241   270
14.3341   231
14.3441   208
14.3541   197
14.3641   185
14.3741   179
14.3841   178
14.3941   177
14.4041   184
14.4141   180
14.4241   166
14.4341   163
14.4441   159
14.4541   148
14.4641   159
14.4741   156
14.4841   143
14.4941   140
14.5041   138
14.5141   151
14.5241   164
14.5341   157
14.5441   145
14.5541   149
14.5641   152
14.5741   159
14.5841   163
14.5941   155
14.6041   155
14.6141   154
14.6241   145
14.6341   149
14.6441   165
14.6541   183
14.6641   168
14.6741   159
14.6841   163
14.6941   161
14.7041   164
14.7141   155
14.7241   152
14.7341   153
14.7441   163
14.7541   168
14.7641   171
14.7741   184
14.7841   176
14.7941   166
14.8041   173
14.8141   172
14.8241   182
14.8341   173
14.8441   178
14.8541   181
14.8641   176
14.8741   166
14.8841   173
14.8941   183
14.9041   188
14.9141   188
14.9241   187
14.9341   189
14.9441   200
14.9541   193
14.9641   207
14.9741   212
14.9841   204
14.9941   211
15.0041   188
15.0141   177
15.0241   178
15.0341   177
15.0441   196
15.0541   194
15.0641   184
15.0741   179
15.0841   162
15.0941   162
15.1041   168
15.1141   175
15.1241   187
15.1341   185
15.1441   180
15.1541   173
15.1641   171
15.1741   159
15.1841   158
15.1941   177
15.2041   175
15.2141   160
15.2241   166
15.2341   170
15.2441   181
15.2541   182
15.2641   170
15.2741   162
15.2841   169
15.2941   179
15.3041   169
15.3141   150
15.3241   169
15.3341   163
15.3441   169
15.3541   191
15.3641   174
15.3741   168
15.3841   168
15.3941   170
15.4041   164
15.4141   165
15.4241   164
15.4341   164
15.4441   180
15.4541   186
15.4641   175
15.4741   186
15.4841   189
15.4941   177
15.5041   179
15.5141   172
15.5241   182
15.5341   201
15.5441   202
15.5541   189
15.5641   212
15.5741   233
15.5841   233
15.5941   244
15.6041   246
15.6141   267
15.6241   275
15.6341   270
15.6441   291
15.6541   311
15.6641   322
15.6741   343
15.6841   358
15.6941   377
15.7041   382
15.7141   388
15.7241   395
15.7341   424
15.7441   413
15.7541   399
15.7641   422
15.7741   456
15.7841   475
15.7941   472
15.8041   458
15.8141   458
15.8241   446
15.8341   431
15.8441   425
15.8541   409
15.8641   365
15.8741   374
15.8841   381
15.8941   358
15.9041   325
15.9141   324
15.9241   312
15.9341   287
15.9441   289
15.9541   273
15.9641   258
15.9741   259
15.9841   240
15.9941   220
16.0041   217
16.0141   231
16.0241   230
16.0341   215
16.0441   208
16.0541   204
16.0641   214
16.0741   229
16.0841   217
16.0941   209
16.1041   230
16.1141   215
16.1241   204
16.1341   197
16.1441   194
16.1541   194
16.1641   193
16.1741   189
16.1841   195
16.1941   197
16.2041   193
16.2141   183
16.2241   182
16.2341   188
16.2441   185
16.2541   199
16.2641   218
16.2741   190
16.2841   176
16.2941   181
16.3041   197
16.3141   212
16.3241   202
16.3341   191
16.3441   193
16.3541   182
16.3641   192
16.3741   205
16.3841   186
16.3941   190
16.4041   186
16.4141   189
16.4241   214
16.4341   189
16.4441   206
16.4541   206
16.4641   204
16.4741   184
16.4841   204
16.4941   210
16.5041   195
16.5141   208
16.5241   203
16.5341   198
16.5441   210
16.5541   200
16.5641   191
16.5741   204
16.5841   227
16.5941   214
16.6041   198
16.6141   209
16.6241   226
16.6341   205
16.6441   221
16.6541   212
16.6641   213
16.6741   221
16.6841   226
16.6941   210
16.7041   220
16.7141   229
16.7241   217
16.7341   213
16.7441   213
16.7541   211
16.7641   211
16.7741   205
16.7841   213
16.7941   211
16.8041   198
16.8141   209
16.8241   213
16.8341   203
16.8441   200
16.8541   210
16.8641   215
16.8741   206
16.8841   210
16.8941   202
16.9041   205
16.9141   200
16.9241   182
16.9341   194
16.9441   216
16.9541   217
16.9641   209
16.9741   204
16.9841   214
16.9941   213
17.0041   213
17.0141   191
17.0241   207
17.0341   225
17.0441   208
17.0541   192
17.0641   203
17.0741   210
17.0841   197
17.0941   210
17.1041   222
17.1141   206
17.1241   223
17.1341   218
17.1441   195
17.1541   225
17.1641   207
17.1741   224
17.1841   218
17.1941   212
17.2041   203
17.2141   221
17.2241   229
17.2341   214
17.2441   206
17.2541   218
17.2641   224
17.2741   223
17.2841   228
17.2941   225
17.3041   219
17.3141   223
17.3241   245
17.3341   228
17.3441   229
17.3541   230
17.3641   205
17.3741   233
17.3841   238
17.3941   239
17.4041   235
17.4141   226
17.4241   232
17.4341   232
17.4441   217
17.4541   228
17.4641   212
17.4741   224
17.4841   229
17.4941   226
17.5041   219
17.5141   225
17.5241   244
17.5341   255
17.5441   243
17.5541   234
17.5641   248
17.5741   258
17.5841   252
17.5941   274
17.6041   272
17.6141   247
17.6241   250
17.6341   268
17.6441   260
17.6541   267
17.6641   250
17.6741   261
17.6841   263
17.6941   258
17.7041   272
17.7141   276
17.7241   244
17.7341   228
17.7441   249
17.7541   248
17.7641   254
17.7741   244
17.7841   254
17.7941   263
17.8041   253
17.8141   235
17.8241   237
17.8341   244
17.8441   257
17.8541   256
17.8641   228
17.8741   234
17.8841   216
17.8941   221
17.9041   240
17.9141   245
17.9241   256
17.9341   231
17.9441   246
17.9541   226
17.9641   238
17.9741   259
17.9841   247
17.9941   260
18.0041   248
18.0141   250
18.0241   259
18.0341   274
18.0441   260
18.0541   227
18.0641   254
18.0741   244
18.0841   268
18.0941   243
18.1041   245
18.1141   231
18.1241   253
18.1341   256
18.1441   235
18.1541   242
18.1641   249
18.1741   233
18.1841   227
18.1941   246
18.2041   236
18.2141   227
18.2241   242
18.2341   254
18.2441   237
18.2541   259
18.2641   249
18.2741   261
18.2841   261
18.2941   255
18.3041   243
18.3141   225
18.3241   234
18.3341   258
18.3441   244
18.3541   237
18.3641   256
18.3741   272
18.3841   256
18.3941   253
18.4041   237
18.4141   244
18.4241   246
18.4341   256
18.4441   241
18.4541   242
18.4641   266
18.4741   237
18.4841   234
18.4941   272
18.5041   243
18.5141   241
18.5241   233
18.5341   261
18.5441   242
18.5541   257
18.5641   296
18.5741   275
18.5841   277
18.5941   258
18.6041   249
18.6141   270
18.6241   263
18.6341   272
18.6441   274
18.6541   254
18.6641   263
18.6741   277
18.6841   278
18.6941   241
18.7041   260
18.7141   262
18.7241   255
18.7341   257
18.7441   284
18.7541   283
18.7641   274
18.7741   283
18.7841   279
18.7941   250
18.8041   285
18.8141   280
18.8241   264
18.8341   272
18.8441   229
18.8541   236
18.8641   255
18.8741   259
18.8841   240
18.8941   261
18.9041   277
18.9141   285
18.9241   274
18.9341   259
18.9441   261
18.9541   287
18.9641   262
18.9741   270
18.9841   261
18.9941   271
19.0041   266
19.0141   267
19.0241   240
19.0341   226
19.0441   261
19.0541   288
19.0641   277
19.0741   279
19.0841   265
19.0941   263
19.1041   272
19.1141   294
19.1241   276
19.1341   275
19.1441   281
19.1541   280
19.1641   267
19.1741   271
19.1841   259
19.1941   295
19.2041   274
19.2141   246
19.2241   284
19.2341   274
19.2441   251
19.2541   273
19.2641   291
19.2741   271
19.2841   283
19.2941   301
19.3041   311
19.3141   295
19.3241   287
19.3341   283
19.3441   282
19.3541   301
19.3641   288
19.3741   285
19.3841   301
19.3941   258
19.4041   274
19.4141   294
19.4241   260
19.4341   255
19.4441   283
19.4541   283
19.4641   256
19.4741   285
19.4841   284
19.4941   282
19.5041   290
19.5141   296
19.5241   274
19.5341   274
19.5441   285
19.5541   302
19.5641   287
19.5741   298
19.5841   273
19.5941   288
19.6041   272
19.6141   283
19.6241   314
19.6341   305
19.6441   263
19.6541   272
19.6641   293
19.6741   306
19.6841   283
19.6941   282
19.7041   270
19.7141   301
19.7241   303
19.7341   292
19.7441   263
19.7541   294
19.7641   280
19.7741   298
19.7841   289
19.7941   303
19.8041   259
19.8141   270
19.8241   297
19.8341   306
19.8441   314
19.8541   286
19.8641   284
19.8741   321
19.8841   318
19.8941   298
19.9041   297
19.9141   293
19.9241   302
19.9341   266
19.9441   321
19.9541   298
19.9641   303
19.9741   291
19.9841   289
19.9941   297
20.0041   290
20.0141   267
20.0241   294
20.0341   289
20.0441   289
20.0541   304
20.0641   311
20.0741   305
20.0841   311
20.0941   296
20.1041   296
20.1141   328
20.1241   294
20.1341   300
20.1441   265
20.1541   280
20.1641   293
20.1741   295
20.1841   294
20.1941   301
20.2041   303
20.2141   290
20.2241   280
20.2341   292
20.2441   293
20.2541   295
20.2641   306
20.2741   309
20.2841   292
20.2941   297
20.3041   295
20.3141   297
20.3241   325
20.3341   315
20.3441   296
20.3541   281
20.3641   317
20.3741   325
20.3841   311
20.3941   313
20.4041   316
20.4141   291
20.4241   321
20.4341   307
20.4441   306
20.4541   314
20.4641   329
20.4741   312
20.4841   310
20.4941   301
20.5041   310
20.5141   302
20.5241   323
20.5341   268
20.5441   286
20.5541   298
20.5641   302
20.5741   322
20.5841   302
20.5941   313
20.6041   307
20.6141   308
20.6241   300
20.6341   319
20.6441   327
20.6541   295
20.6641   299
20.6741   319
20.6841   310
20.6941   326
20.7041   322
20.7141   347
20.7241   332
20.7341   295
20.7441   314
20.7541   308
20.7641   294
20.7741   343
20.7841   330
20.7941   309
20.8041   340
20.8141   344
20.8241   347
20.8341   344
20.8441   340
20.8541   358
20.8641   337
20.8741   375
20.8841   399
20.8941   390
20.9041   388
20.9141   377
20.9241   442
20.9341   422
20.9441   411
20.9541   432
20.9641   447
20.9741   455
20.9841   450
20.9941   443
21.0041   481
21.0141   445
21.0241   494
21.0341   513
21.0441   495
21.0541   520
21.0641   523
21.0741   544
21.0841   565
21.0941   542
21.1041   525
21.1141   521
21.1241   568
21.1341   560
21.1441   550
21.1541   562
21.1641   568
21.1741   527
21.1841   571
21.1941   494
21.2041   525
21.2141   528
21.2241   526
21.2341   523
21.2441   475
21.2541   437
21.2641   449
21.2741   420
21.2841   445
21.2941   425
21.3041   425
21.3141   395
21.3241   389
21.3341   373
21.3441   394
21.3541   398
21.3641   365
21.3741   348
21.3841   359
21.3941   330
21.4041   309
21.4141   326
21.4241   356
21.4341   346
21.4441   338
21.4541   332
21.4641   320
21.4741   333
21.4841   322
21.4941   335
21.5041   350
21.5141   312
21.5241   322
21.5341   323
21.5441   313
21.5541   296
21.5641   330
21.5741   331
21.5841   340
21.5941   366
21.6041   315
21.6141   333
21.6241   322
21.6341   325
21.6441   312
21.6541   344
21.6641   343
21.6741   310
21.6841   359
21.6941   305
21.7041   329
21.7141   315
21.7241   338
21.7341   343
21.7441   337
21.7541   323
21.7641   351
21.7741   333
21.7841   304
21.7941   345
21.8041   319
21.8141   322
21.8241   306
21.8341   330
21.8441   336
21.8541   345
21.8641   328
21.8741   362
21.8841   347
21.8941   333
21.9041   330
21.9141   320
21.9241   320
21.9341   340
21.9441   352
21.9541   347
21.9641   339
21.9741   364
21.9841   334
21.9941   335
22.0041   344
22.0141   341
22.0241   327
22.0341   318
22.0441   358
22.0541   338
22.0641   344
22.0741   346
22.0841   316
22.0941   338
22.1041   330
22.1141   362
22.1241   349
22.1341   346
22.1441   364
22.1541   332
22.1641   339
22.1741   361
22.1841   392
22.1941   341
22.2041   312
22.2141   306
22.2241   301
22.2341   321
22.2441   369
22.2541   333
22.2641   344
22.2741   363
22.2841   346
22.2941   349
22.3041   352
22.3141   361
22.3241   380
22.3341   325
22.3441   327
22.3541   323
22.3641   318
22.3741   356
22.3841   370
22.3941   366
22.4041   326
22.4141   353
22.4241   319
22.4341   327
22.4441   309
22.4541   347
22.4641   346
22.4741   329
22.4841   330
22.4941   356
22.5041   304
22.5141   318
22.5241   339
22.5341   331
22.5441   325
22.5541   340
22.5641   357
22.5741   357
22.5841   339
22.5941   343
22.6041   314
22.6141   321
22.6241   362
22.6341   361
22.6441   320
22.6541   362
22.6641   310
22.6741   309
22.6841   318
22.6941   323
22.7041   358
22.7141   327
22.7241   352
22.7341   349
22.7441   347
22.7541   370
22.7641   329
22.7741   332
22.7841   350
22.7941   343
22.8041   356
22.8141   313
22.8241   332
22.8341   336
22.8441   324
22.8541   341
22.8641   359
22.8741   345
22.8841   350
22.8941   336
22.9041   360
22.9141   375
22.9241   370
22.9341   316
22.9441   328
22.9541   329
22.9641   347
22.9741   327
22.9841   383
22.9941   338
23.0041   351
23.0141   343
23.0241   350
23.0341   364
23.0441   344
23.0541   353
23.0641   332
23.0741   324
23.0841   331
23.0941   330
23.1041   319
23.1141   318
23.1241   339
23.1341   362
23.1441   338
23.1541   372
23.1641   305
23.1741   358
23.1841   365
23.1941   370
23.2041   356
23.2141   295
23.2241   306
23.2341   356
23.2441   362
23.2541   359
23.2641   333
23.2741   349
23.2841   324
23.2941   354
23.3041   331
23.3141   374
23.3241   351
23.3341   342
23.3441   322
23.3541   334
23.3641   327
23.3741   284
23.3841   357
23.3941   331
23.4041   328
23.4141   327
23.4241   339
23.4341   370
23.4441   359
23.4541   350
23.4641   347
23.4741   310
23.4841   334
23.4941   332
23.5041   339
23.5141   326
23.5241   337
23.5341   346
23.5441   352
23.5541   337
23.5641   348
23.5741   333
23.5841   336
23.5941   367
23.6041   388
23.6141   351
23.6241   357
23.6341   362
23.6441   359
23.6541   357
23.6641   372
23.6741   380
23.6841   366
23.6941   367
23.7041   368
23.7141   345
23.7241   353
23.7341   321
23.7441   388
23.7541   351
23.7641   372
23.7741   362
23.7841   394
23.7941   381
23.8041   390
23.8141   409
23.8241   382
23.8341   377
23.8441   375
23.8541   377
23.8641   361
23.8741   378
23.8841   360
23.8941   323
23.9041   379
23.9141   396
23.9241   352
23.9341   351
23.9441   353
23.9541   340
23.9641   317
23.9741   339
23.9841   353
23.9941   353
24.0041   308
24.0141   346
24.0241   343
24.0341   337
24.0441   353
24.0541   383
24.0641   359
24.0741   357
24.0841   330
24.0941   339
24.1041   336
24.1141   340
24.1241   346
24.1341   363
24.1441   327
24.1541   357
24.1641   333
24.1741   345
24.1841   373
24.1941   354
24.2041   324
24.2141   354
24.2241   336
24.2341   338
24.2441   355
24.2541   358
24.2641   320
24.2741   337
24.2841   393
24.2941   343
24.3041   351
24.3141   366
24.3241   347
24.3341   349
24.3441   320
24.3541   349
24.3641   320
24.3741   346
24.3841   352
24.3941   358
24.4041   352
24.4141   364
24.4241   362
24.4341   320
24.4441   348
24.4541   343
24.4641   403
24.4741   332
24.4841   355
24.4941   339
24.5041   340
24.5141   332
24.5241   346
24.5341   332
24.5441   330
24.5541   348
24.5641   351
24.5741   344
24.5841   319
24.5941   346
24.6041   364
24.6141   345
24.6241   347
24.6341   331
24.6441   341
24.6541   320
24.6641   321
24.6741   348
24.6841   339
24.6941   330
24.7041   339
24.7141   341
24.7241   352
24.7341   332
24.7441   335
24.7541   326
24.7641   341
24.7741   321
24.7841   346
24.7941   319
24.8041   309
24.8141   357
24.8241   315
24.8341   362
24.8441   332
24.8541   335
24.8641   323
24.8741   347
24.8841   338
24.8941   329
24.9041   351
24.9141   363
24.9241   331
24.9341   339
24.9441   339
24.9541   338
24.9641   344
24.9741   346
24.9841   346
24.9941   322
25.0041   340
25.0141   322
25.0241   372
25.0341   336
25.0441   342
25.0541   340
25.0641   322
25.0741   356
25.0841   327
25.0941   347
25.1041   374
25.1141   346
25.1241   331
25.1341   321
25.1441   332
25.1541   323
25.1641   311
25.1741   354
25.1841   333
25.1941   327
25.2041   306
25.2141   333
25.2241   346
25.2341   328
25.2441   354
25.2541   362
25.2641   371
25.2741   363
25.2841   335
25.2941   297
25.3041   334
25.3141   356
25.3241   356
25.3341   332
25.3441   318
25.3541   343
25.3641   328
25.3741   328
25.3841   345
25.3941   364
25.4041   330
25.4141   327
25.4241   347
25.4341   341
25.4441   356
25.4541   317
25.4641   336
25.4741   328
25.4841   345
25.4941   304
25.5041   303
25.5141   306
25.5241   309
25.5341   320
25.5441   332
25.5541   308
25.5641   339
25.5741   314
25.5841   344
25.5941   344
25.6041   295
25.6141   342
25.6241   345
25.6341   313
25.6441   300
25.6541   314
25.6641   320
25.6741   353
25.6841   324
25.6941   338
25.7041   322
25.7141   327
25.7241   303
25.7341   305
25.7441   318
25.7541   321
25.7641   319
25.7741   325
25.7841   348
25.7941   297
25.8041   317
25.8141   323
25.8241   327
25.8341   325
25.8441   334
25.8541   311
25.8641   327
25.8741   335
25.8841   335
25.8941   329
25.9041   328
25.9141   315
25.9241   333
25.9341   327
25.9441   293
25.9541   316
25.9641   339
25.9741   322
25.9841   320
25.9941   302
26.0041   326
26.0141   305
26.0241   305
26.0341   282
26.0441   290
26.0541   294
26.0641   326
26.0741   333
26.0841   315
26.0941   332
26.1041   319
26.1141   306
26.1241   319
26.1341   302
26.1441   315
26.1541   286
26.1641   292
26.1741   293
26.1841   301
26.1941   301
26.2041   311
26.2141   294
26.2241   310
26.2341   291
26.2441   309
26.2541   262
26.2641   322
26.2741   319
26.2841   311
26.2941   309
26.3041   327
26.3141   284
26.3241   280
26.3341   310
26.3441   322
26.3541   290
26.3641   303
26.3741   284
26.3841   319
26.3941   289
26.4041   284
26.4141   320
26.4241   300
26.4341   318
26.4441   323
26.4541   340
26.4641   319
26.4741   336
26.4841   329
26.4941   281
26.5041   305
26.5141   308
26.5241   290
26.5341   292
26.5441   289
26.5541   305
26.5641   298
26.5741   322
26.5841   304
26.5941   284
26.6041   307
26.6141   332
26.6241   332
26.6341   322
26.6441   321
26.6541   293
26.6641   311
26.6741   299
26.6841   292
26.6941   320
26.7041   333
26.7141   306
26.7241   281
26.7341   316
26.7441   309
26.7541   303
26.7641   278
26.7741   272
26.7841   311
26.7941   293
26.8041   300
26.8141   301
26.8241   323
26.8341   297
26.8441   304
26.8541   296
26.8641   289
26.8741   292
26.8841   295
26.8941   280
26.9041   294
26.9141   326
26.9241   281
26.9341   266
26.9441   284
26.9541   315
26.9641   293
26.9741   285
26.9841   316
26.9941   300
27.0041   275
27.0141   289
27.0241   271
27.0341   289
27.0441   274
27.0541   287
27.0641   283
27.0741   306
27.0841   289
27.0941   303
27.1041   298
27.1141   293
27.1241   305
27.1341   277
27.1441   280
27.1541   298
27.1641   290
27.1741   291
27.1841   307
27.1941   314
27.2041   318
27.2141   286
27.2241   283
27.2341   272
27.2441   268
27.2541   257
27.2641   300
27.2741   296
27.2841   294
27.2941   308
27.3041   295
27.3141   304
27.3241   271
27.3341   286
27.3441   284
27.3541   291
27.3641   269
27.3741   280
27.3841   283
27.3941   300
27.4041   286
27.4141   287
27.4241   295
27.4341   274
27.4441   304
27.4541   273
27.4641   291
27.4741   294
27.4841   300
27.4941   274
27.5041   309
27.5141   287
27.5241   307
27.5341   301
27.5441   284
27.5541   273
27.5641   251
27.5741   279
27.5841   298
27.5941   309
27.6041   280
27.6141   277
27.6241   285
27.6341   232
27.6441   285
27.6541   288
27.6641   296
27.6741   277
27.6841   302
27.6941   290
27.7041   281
27.7141   267
27.7241   283
27.7341   284
27.7441   265
27.7541   251
27.7641   297
27.7741   239
27.7841   270
27.7941   264
27.8041   300
27.8141   288
27.8241   269
27.8341   274
27.8441   278
27.8541   277
27.8641   266
27.8741   292
27.8841   293
27.8941   292
27.9041   280
27.9141   276
27.9241   271
27.9341   286
27.9441   307
27.9541   263
27.9641   287
27.9741   270
27.9841   273
27.9941   286
28.0041   251
28.0141   266
28.0241   255
28.0341   262
28.0441   261
28.0541   297
28.0641   269
28.0741   253
28.0841   272
28.0941   306
28.1041   257
28.1141   283
28.1241   269
28.1341   275
28.1441   301
28.1541   279
28.1641   232
28.1741   241
28.1841   271
28.1941   289
28.2041   270
28.2141   276
28.2241   251
28.2341   277
28.2441   248
28.2541   279
28.2641   277
28.2741   259
28.2841   265
28.2941   245
28.3041   268
28.3141   257
28.3241   261
28.3341   278
28.3441   290
28.3541   242
28.3641   278
28.3741   282
28.3841   270
28.3941   256
28.4041   263
28.4141   274
28.4241   263
28.4341   276
28.4441   262
28.4541   273
28.4641   276
28.4741   248
28.4841   276
28.4941   289
28.5041   278
28.5141   261
28.5241   243
28.5341   284
28.5441   272
28.5541   280
28.5641   268
28.5741   277
28.5841   258
28.5941   263
28.6041   246
28.6141   272
28.6241   247
28.6341   238
28.6441   256
28.6541   245
28.6641   243
28.6741   245
28.6841   243
28.6941   265
28.7041   229
28.7141   262
28.7241   231
28.7341   254
28.7441   255
28.7541   243
28.7641   247
28.7741   245
28.7841   264
28.7941   254
28.8041   239
28.8141   272
28.8241   230
28.8341   261
28.8441   232
28.8541   251
28.8641   254
28.8741   242
28.8841   231
28.8941   258
28.9041   253
28.9141   256
28.9241   245
28.9341   263
28.9441   265
28.9541   242
28.9641   264
28.9741   253
28.9841   245
28.9941   239
29.0041   247
29.0141   263
29.0241   232
29.0341   250
29.0441   253
29.0541   262
29.0641   243
29.0741   217
29.0841   255
29.0941   238
29.1041   242
29.1141   249
29.1241   251
29.1341   238
29.1441   245
29.1541   243
29.1641   255
29.1741   223
29.1841   243
29.1941   251
29.2041   248
29.2141   271
29.2241   229
29.2341   233
29.2441   230
29.2541   228
29.2641   231
29.2741   260
29.2841   254
29.2941   235
29.3041   235
29.3141   225
29.3241   217
29.3341   227
29.3441   248
29.3541   242
29.3641   231
29.3741   238
29.3841   234
29.3941   229
29.4041   234
29.4141   215
29.4241   242
29.4341   248
29.4441   249
29.4541   232
29.4641   231
29.4741   239
29.4841   228
29.4941   239
29.5041   229
29.5141   236
29.5241   224
29.5341   226
29.5441   237
29.5541   222
29.5641   245
29.5741   223
29.5841   224
29.5941   234
29.6041   249
29.6141   216
29.6241   217
29.6341   217
29.6441   219
29.6541   245
29.6641   237
29.6741   220
29.6841   227
29.6941   240
29.7041   237
29.7141   244
29.7241   240
29.7341   249
29.7441   243
29.7541   236
29.7641   252
29.7741   238
29.7841   220
29.7941   236
29.8041   223
29.8141   180
29.8241   190
29.8341   227
29.8441   221
29.8541   237
29.8641   228
29.8741   220
29.8841   219
29.8941   226
29.9041   232
29.9141   248
29.9241   224
29.9341   218
29.9441   220
29.9541   213
29.9641   220
29.9741   225
29.9841   205
29.9941   213
30.0041   216
30.0141   215
30.0241   224
30.0341   233
30.0441   241
30.0541   232
30.0641   231
30.0741   237
30.0841   227
30.0941   220
30.1041   220
30.1141   227
30.1241   226
30.1341   227
30.1441   200
30.1541   218
30.1641   230
30.1741   214
30.1841   228
30.1941   214
30.2041   224
30.2141   189
30.2241   229
30.2341   204
30.2441   197
30.2541   224
30.2641   200
30.2741   217
30.2841   211
30.2941   197
30.3041   215
30.3141   230
30.3241   238
30.3341   216
30.3441   211
30.3541   221
30.3641   197
30.3741   194
30.3841   203
30.3941   219
30.4041   199
30.4141   217
30.4241   191
30.4341   196
30.4441   241
30.4541   223
30.4641   217
30.4741   219
30.4841   203
30.4941   186
30.5041   204
30.5141   200
30.5241   234
30.5341   193
30.5441   202
30.5541   224
30.5641   230
30.5741   251
30.5841   226
30.5941   210
30.6041   243
30.6141   187
30.6241   221
30.6341   178
30.6441   208
30.6541   200
30.6641   209
30.6741   220
30.6841   207
30.6941   193
30.7041   203
30.7141   203
30.7241   197
30.7341   178
30.7441   186
30.7541   179
30.7641   236
30.7741   210
30.7841   213
30.7941   197
30.8041   176
30.8141   195
30.8241   199
30.8341   210
30.8441   207
30.8541   193
30.8641   208
30.8741   184
30.8841   182
30.8941   189
30.9041   210
30.9141   188
30.9241   204
30.9341   194
30.9441   190
30.9541   223
30.9641   198
30.9741   188
30.9841   173
30.9941   200
31.0041   205
31.0141   188
31.0241   177
31.0341   181
31.0441   214
31.0541   187
31.0641   196
31.0741   190
31.0841   200
31.0941   188
31.1041   184
31.1141   185
31.1241   184
31.1341   188
31.1441   173
31.1541   201
31.1641   207
31.1741   194
31.1841   176
31.1941   183
31.2041   198
31.2141   188
31.2241   193
31.2341   187
31.2441   180
31.2541   200
31.2641   203
31.2741   180
31.2841   199
31.2941   172
31.3041   185
31.3141   179
31.3241   192
31.3341   197
31.3441   178
31.3541   176
31.3641   178
31.3741   194
31.3841   194
31.3941   167
31.4041   173
31.4141   183
31.4241   177
31.4341   178
31.4441   181
31.4541   175
31.4641   183
31.4741   195
31.4841   186
31.4941   171
31.5041   183
31.5141   197
31.5241   173
31.5341   190
31.5441   163
31.5541   172
31.5641   190
31.5741   163
31.5841   171
31.5941   202
31.6041   158
31.6141   185
31.6241   146
31.6341   176
31.6441   180
31.6541   188
31.6641   183
31.6741   179
31.6841   188
31.6941   201
31.7041   178
31.7141   178
31.7241   177
31.7341   193
31.7441   172
31.7541   191
31.7641   204
31.7741   179
31.7841   178
31.7941   209
31.8041   188
31.8141   170
31.8241   178
31.8341   191
31.8441   184
31.8541   198
31.8641   188
31.8741   192
31.8841   178
31.8941   181
31.9041   187
31.9141   182
31.9241   195
31.9341   180
31.9441   189
31.9541   175
31.9641   188
31.9741   157
31.9841   190
31.9941   186
32.0041   183
32.0141   193
32.0241   210
32.0341   183
32.0441   172
32.0541   176
32.0641   173
32.0741   180
32.0841   196
32.0941   187
32.1041   194
32.1141   183
32.1241   190
32.1341   201
32.1441   185
32.1541   205
32.1641   177
32.1741   162
32.1841   183
32.1941   172
32.2041   174
32.2141   164
32.2241   173
32.2341   174
32.2441   173
32.2541   191
32.2641   188
32.2741   181
32.2841   185
32.2941   215
32.3041   204
32.3141   142
32.3241   198
32.3341   177
32.3441   183
32.3541   154
32.3641   176
32.3741   179
32.3841   160
32.3941   162
32.4041   175
32.4141   159
32.4241   170
32.4341   155
32.4441   156
32.4541   155
32.4641   150
32.4741   173
32.4841   150
32.4941   166
32.5041   154
32.5141   146
32.5241   143
32.5341   180
32.5441   155
32.5541   150
32.5641   163
32.5741   158
32.5841   178
32.5941   176
32.6041   163
32.6141   129
32.6241   158
32.6341   156
32.6441   148
32.6541   136
32.6641   135
32.6741   133
32.6841   162
32.6941   145
32.7041   138
32.7141   158
32.7241   160
32.7341   164
32.7441   156
32.7541   153
32.7641   141
32.7741   150
32.7841   170
32.7941   156
32.8041   150
32.8141   146
32.8241   151
32.8341   145
32.8441   140
32.8541   124
32.8641   127
32.8741   133
32.8841   138
32.8941   150
32.9041   142
32.9141   154
32.9241   146
32.9341   148
32.9441   147
32.9541   127
32.9641   165
32.9741   135
32.9841   150
32.9941   160
33.0041   162
33.0141   140
33.0241   158
33.0341   149
33.0441   143
33.0541   127
33.0641   157
33.0741   159
33.0841   129
33.0941   147
33.1041   146
33.1141   158
33.1241   152
33.1341   137
33.1441   132
33.1541   116
33.1641   154
33.1741   132
33.1841   146
33.1941   150
33.2041   130
33.2141   137
33.2241   122
33.2341   151
33.2441   146
33.2541   120
33.2641   114
33.2741   148
33.2841   144
33.2941   135
33.3041   126
33.3141   117
33.3241   136
33.3341   117
33.3441   140
33.3541   157
33.3641   141
33.3741   129
33.3841   135
33.3941   153
33.4041   139
33.4141   130
33.4241   159
33.4341   167
33.4441   129
33.4541   134
33.4641   147
33.4741   135
33.4841   130
33.4941   117
33.5041   132
33.5141   136
33.5241   126
33.5341   146
33.5441   137
33.5541   145
33.5641   137
33.5741   130
33.5841   134
33.5941   124
33.6041   141
33.6141   127
33.6241   123
33.6341   120
33.6441   114
33.6541   121
33.6641   131
33.6741   129
33.6841   129
33.6941   102
33.7041   132
33.7141   135
33.7241   161
33.7341   126
33.7441   122
33.7541   130
33.7641   123
33.7741   115
33.7841   114
33.7941   130
33.8041   132
33.8141   123
33.8241   124
33.8341   126
33.8441   105
33.8541   151
33.8641   145
33.8741   130
33.8841   126
33.8941   124
33.9041   119
33.9141   109
33.9241   121
33.9341   128
33.9441   128
33.9541   125
33.9641   140
33.9741   125
33.9841   136
33.9941   122
34.0041   103
34.0141   120
34.0241    88
34.0341   114
34.0441   115
34.0541   120
34.0641   120
34.0741   121
34.0841   120
34.0941   125
34.1041   124
34.1141   104
34.1241   117
34.1341   118
34.1441   116
34.1541   122
34.1641    97
34.1741    99
34.1841   106
34.1941   108
34.2041   137
34.2141   114
34.2241   136
34.2341   122
34.2441   106
34.2541    99
34.2641   118
34.2741   125
34.2841   130
34.2941   126
34.3041   109
34.3141   106
34.3241   101
34.3341   137
34.3441   121
34.3541   125
34.3641   123
34.3741   120
34.3841   118
34.3941   117
34.4041   105
34.4141   125
34.4241   112
34.4341   111
34.4441   107
34.4541   117
34.4641   111
34.4741    99
34.4841   139
34.4941   106
34.5041   113
34.5141   119
34.5241   119
34.5341   111
34.5441   121
34.5541   112
34.5641   111
34.5741   106
34.5841    87
34.5941   104
34.6041   111
34.6141    95
34.6241   115
34.6341   114
34.6441   105
34.6541    93
34.6641   116
34.6741   106
34.6841   100
34.6941   103
34.7041   129
34.7141   116
34.7241   124
34.7341   110
34.7441    94
34.7541   108
34.7641    95
34.7741   120
34.7841   112
34.7941   118
34.8041   112
34.8141   103
34.8241   103
34.8341   106
34.8441   132
34.8541   122
34.8641    86
34.8741   107
34.8841    96
34.8941   104
34.9041    98
34.9141   111
34.9241   103
34.9341   104
34.9441   116
34.9541   105
34.9641   110
34.9741    98
34.9841    93
34.9941    87
35.0041    96
35.0141   118
35.0241   109
35.0341   109
35.0441   105
35.0541   107
35.0641   100
35.0741   109
35.0841   113
35.0941    90
35.1041    93
35.1141    95
35.1241   109
35.1341    87
35.1441   110
35.1541    88
35.1641   117
35.1741    96
35.1841   110
35.1941    99
35.2041    97
35.2141    83
35.2241    89
35.2341    91
35.2441   105
35.2541    95
35.2641    88
35.2741   102
35.2841   109
35.2941   111
35.3041    94
35.3141    93
35.3241    85
35.3341    81
35.3441   106
35.3541    93
35.3641    86
35.3741   108
35.3841   102
35.3941   102
35.4041   115
35.4141   101
35.4241    89
35.4341    83
35.4441    99
35.4541   105
35.4641    98
35.4741    66
35.4841    81
35.4941    90
35.5041    93
35.5141    89
35.5241    85
35.5341    93
35.5441    95
35.5541    71
35.5641    83
35.5741    85
35.5841    87
35.5941    87
35.6041    83
35.6141   102
35.6241    88
35.6341    81
35.6441    89
35.6541   100
35.6641    87
35.6741    94
35.6841    84
35.6941    82
35.7041    98
35.7141    80
35.7241    74
35.7341    92
35.7441    81
35.7541   100
35.7641    98
35.7741    91
35.7841    92
35.7941    83
35.8041    76
35.8141    88
35.8241    75
35.8341    94
35.8441    90
35.8541    91
35.8641    88
35.8741    88
35.8841    77
35.8941    70
35.9041    83
35.9141    81
35.9241    85
35.9341    79
35.9441    83
35.9541    83
35.9641    99
35.9741    84
35.9841    75
35.9941    95
36.0041    81
36.0141    82
36.0241    93
36.0341    76
36.0441    73
36.0541    89
36.0641    77
36.0741    77
36.0841    84
36.0941    86
36.1041    88
36.1141    77
36.1241    93
36.1341    91
36.1441    81
36.1541    80
36.1641    84
36.1741    86
36.1841    78
36.1941    95
36.2041    85
36.2141    82
36.2241    87
36.2341    74
36.2441    67
36.2541    79
36.2641    90
36.2741    84
36.2841    86
36.2941    85
36.3041    92
36.3141    78
36.3241    61
36.3341    77
36.3441    80
36.3541    86
36.3641   101
36.3741    85
36.3841    86
36.3941    85
36.4041    70
36.4141    86
36.4241    78
36.4341    78
36.4441    91
36.4541    78
36.4641    71
36.4741    84
36.4841    77
36.4941    77
36.5041    80
36.5141    76
36.5241    73
36.5341    66
36.5441    68
36.5541    65
36.5641    78
36.5741    71
36.5841    73
36.5941    89
36.6041    71
36.6141    62
36.6241    78
36.6341    86
36.6441    86
36.6541    75
36.6641    65
36.6741    77
36.6841    63
36.6941    88
36.7041    65
36.7141    76
36.7241    74
36.7341    87
36.7441    73
36.7541    69
36.7641    68
36.7741    68
36.7841    61
36.7941    73
36.8041    71
36.8141    67
36.8241    71
36.8341    64
36.8441    75
36.8541    78
36.8641    66
36.8741    66
36.8841    76
36.8941    75
36.9041    68
36.9141    76
36.9241    68
36.9341    77
36.9441    67
36.9541    77
36.9641    62
36.9741    66
36.9841    68
36.9941    59
37.0041    68
37.0141    68
37.0241    82
37.0341    75
37.0441    78
37.0541    63
37.0641    63
37.0741    66
37.0841    56
37.0941    68
37.1041    58
37.1141    54
37.1241    79
37.1341    64
37.1441    70
37.1541    71
37.1641    63
37.1741    65
37.1841    74
37.1941    60
37.2041    77
37.2141    77
37.2241    54
37.2341    57
37.2441    74
37.2541    64
37.2641    79
37.2741    75
37.2841    63
37.2941    49
37.3041    56
37.3141    68
37.3241    54
37.3341    59
37.3441    73
37.3541    83
37.3641    60
37.3741    61
37.3841    59
37.3941    67
37.4041    57
37.4141    63
37.4241    56
37.4341    65
37.4441    73
37.4541    64
37.4641    61
37.4741    59
37.4841    59
37.4941    52
37.5041    56
37.5141    63
37.5241    56
37.5341    62
37.5441    55
37.5541    54
37.5641    75
37.5741    67
37.5841    60
37.5941    47
37.6041    47
37.6141    60
37.6241    63
37.6341    55
37.6441    61
37.6541    55
37.6641    57
37.6741    51
37.6841    37
37.6941    57
37.7041    49
37.7141    60
37.7241    63
37.7341    62
37.7441    61
37.7541    66
37.7641    51
37.7741    47
37.7841    53
37.7941    53
37.8041    58
37.8141    49
37.8241    70
37.8341    62
37.8441    57
37.8541    53
37.8641    59
37.8741    47
37.8841    42
37.8941    60
37.9041    59
37.9141    50
37.9241    52
37.9341    47
37.9441    47
37.9541    56
37.9641    52
37.9741    63
37.9841    60
37.9941    52
38.0041    59
38.0141    56
38.0241    62
38.0341    48
38.0441    41
38.0541    53
38.0641    51
38.0741    46
38.0841    54
38.0941    58
38.1041    53
38.1141    52
38.1241    53
38.1341    56
38.1441    56
38.1541    36
38.1641    53
38.1741    49
38.1841    54
38.1941    56
38.2041    53
38.2141    40
38.2241    35
38.2341    53
38.2441    50
38.2541    51
38.2641    41
38.2741    58
38.2841    47
38.2941    42
38.3041    48
38.3141    47
38.3241    50
38.3341    49
38.3441    47
38.3541    47
38.3641    44
38.3741    49
38.3841    49
38.3941    62
38.4041    55
38.4141    42
38.4241    52
38.4341    48
38.4441    46
38.4541    47
38.4641    33
38.4741    40
38.4841    56
38.4941    47
38.5041    51
38.5141    46
38.5241    48
38.5341    42
38.5441    38
38.5541    38
38.5641    35
38.5741    42
38.5841    26
38.5941    52
38.6041    38
38.6141    44
38.6241    46
38.6341    43
38.6441    44
38.6541    47
38.6641    45
38.6741    41
38.6841    43
38.6941    36
38.7041    43
38.7141    49
38.7241    52
38.7341    45
38.7441    46
38.7541    48
38.7641    38
38.7741    49
38.7841    44
38.7941    52
38.8041    47
38.8141    47
38.8241    34
38.8341    45
38.8441    34
38.8541    42
38.8641    49
38.8741    31
38.8841    35
38.8941    43
38.9041    38
38.9141    42
38.9241    37
38.9341    37
38.9441    45
38.9541    37
38.9641    28
38.9741    35
38.9841    31
38.9941    27
39.0041    44
39.0141    27
39.0241    28
39.0341    42
39.0441    33
39.0541    33
39.0641    49
39.0741    39
39.0841    35
39.0941    35
39.1041    40
39.1141    40
39.1241    45
39.1341    53
39.1441    35
39.1541    39
39.1641    33
39.1741    53
39.1841    40
39.1941    37
39.2041    41
39.2141    41
39.2241    33
39.2341    47
39.2441    42
39.2541    38
39.2641    34
39.2741    36
39.2841    34
39.2941    31
39.3041    32
39.3141    33
39.3241    26
39.3341    34
39.3441    43
39.3541    37
39.3641    33
39.3741    39
39.3841    22
39.3941    31
39.4041    29
39.4141    39
39.4241    33
39.4341    30
39.4441    23
39.4541    33
39.4641    34
39.4741    36
39.4841    37
39.4941    34
39.5041    44
39.5141    29
39.5241    31
39.5341    40
39.5441    32
39.5541    28
39.5641    36
39.5741    27
39.5841    29
39.5941    39
39.6041    22
39.6141    30
39.6241    37
39.6341    32
39.6441    30
39.6541    32
39.6641    40
39.6741    39
39.6841    26
39.6941    25
39.7041    36
39.7141    33
39.7241    35
39.7341    23
39.7441    22
39.7541    27
39.7641    24
39.7741    26
39.7841    33
39.7941    25
39.8041    19
39.8141    30
39.8241    22
39.8341    29
39.8441    33
39.8541    27
39.8641    29
39.8741    27
39.8841    32
39.8941    31
39.9041    23
39.9141    30
39.9241    29
39.9341    24
39.9441    29
39.9541    22
39.9641    27
39.9741    23
39.9841    31
