Bruker Nano GmbH Berlin, Germany
Esprit 1.9

Date: 5/14/2021 3:46:50 PM
Real time: 17704
Life time: 16606
Pulse density: 92105


Detector type: XFlash 430
Window type: Custom type
Detector thickness: 0.45
Si dead layer:0.029

Calibration, lin.: 10
Calibration, abs.: -955.9
Mn FWHM: 137.05
Fano factor: 0.121
Channels: 4095

Energy Counts
-0.9559     0
-0.9459     0
-0.9359     0
-0.9259     0
-0.9159     0
-0.9059     0
-0.8959     0
-0.8859     0
-0.8759     0
-0.8659     0
-0.8559     0
-0.8459     0
-0.8359     0
-0.8259     0
-0.8159     0
-0.8059     0
-0.7959     0
-0.7859     0
-0.7759     0
-0.7659     0
-0.7559     0
-0.7459     0
-0.7359     0
-0.7259     0
-0.7159     0
-0.7059     0
-0.6959     0
-0.6859     0
-0.6759     0
-0.6659     0
-0.6559     0
-0.6459     0
-0.6359     0
-0.6259     0
-0.6159     0
-0.6059     0
-0.5959     0
-0.5859     0
-0.5759     0
-0.5659     0
-0.5559     0
-0.5459     0
-0.5359     0
-0.5259     0
-0.5159     0
-0.5059     0
-0.4959     0
-0.4859     0
-0.4759     0
-0.4659     0
-0.4559     0
-0.4459     0
-0.4359     0
-0.4259     0
-0.4159     0
-0.4059     0
-0.3959     0
-0.3859     0
-0.3759     0
-0.3659     0
-0.3559     0
-0.3459     0
-0.3359     0
-0.3259     0
-0.3159     0
-0.3059     0
-0.2959     0
-0.2859     0
-0.2759     0
-0.2659     0
-0.2559     0
-0.2459     0
-0.2359     0
-0.2259     0
-0.2159     0
-0.2059     0
-0.1959     0
-0.1859     0
-0.1759     0
-0.1659     0
-0.1559     0
-0.1459     0
-0.1359     0
-0.1259     1
-0.1159     1
-0.1059    10
-0.0959    56
-0.0859   201
-0.0759   661
-0.0659  1911
-0.0559  4732
-0.0459 10681
-0.0359 19709
-0.0259 31537
-0.0159 43326
-0.0059 50650
 0.0041 51200
 0.0141 44027
 0.0241 32783
 0.0341 20570
 0.0441 11222
 0.0541  5262
 0.0641  2059
 0.0741   732
 0.0841   219
 0.0941    83
 0.1041    24
 0.1141     8
 0.1241     9
 0.1341     0
 0.1441     4
 0.1541     1
 0.1641     1
 0.1741    16
 0.1841   142
 0.1941   308
 0.2041   258
 0.2141   250
 0.2241   262
 0.2341   257
 0.2441   248
 0.2541   271
 0.2641   269
 0.2741   288
 0.2841   255
 0.2941   256
 0.3041   277
 0.3141   230
 0.3241   240
 0.3341   248
 0.3441   249
 0.3541   246
 0.3641   243
 0.3741   255
 0.3841   269
 0.3941   240
 0.4041   217
 0.4141   224
 0.4241   246
 0.4341   284
 0.4441   265
 0.4541   238
 0.4641   228
 0.4741   224
 0.4841   218
 0.4941   235
 0.5041   244
 0.5141   240
 0.5241   221
 0.5341   217
 0.5441   217
 0.5541   225
 0.5641   212
 0.5741   214
 0.5841   214
 0.5941   205
 0.6041   205
 0.6141   207
 0.6241   201
 0.6341   199
 0.6441   200
 0.6541   202
 0.6641   215
 0.6741   197
 0.6841   183
 0.6941   185
 0.7041   198
 0.7141   212
 0.7241   206
 0.7341   204
 0.7441   207
 0.7541   208
 0.7641   214
 0.7741   199
 0.7841   177
 0.7941   178
 0.8041   176
 0.8141   172
 0.8241   183
 0.8341   190
 0.8441   195
 0.8541   187
 0.8641   183
 0.8741   192
 0.8841   160
 0.8941   161
 0.9041   166
 0.9141   183
 0.9241   179
 0.9341   200
 0.9441   189
 0.9541   198
 0.9641   188
 0.9741   185
 0.9841   182
 0.9941   175
 1.0041   185
 1.0141   178
 1.0241   183
 1.0341   176
 1.0441   156
 1.0541   144
 1.0641   164
 1.0741   172
 1.0841   151
 1.0941   169
 1.1041   180
 1.1141   168
 1.1241   165
 1.1341   154
 1.1441   163
 1.1541   156
 1.1641   153
 1.1741   160
 1.1841   157
 1.1941   169
 1.2041   161
 1.2141   164
 1.2241   161
 1.2341   170
 1.2441   152
 1.2541   145
 1.2641   155
 1.2741   153
 1.2841   138
 1.2941   163
 1.3041   143
 1.3141   161
 1.3241   144
 1.3341   162
 1.3441   143
 1.3541   151
 1.3641   161
 1.3741   158
 1.3841   156
 1.3941   147
 1.4041   150
 1.4141   148
 1.4241   178
 1.4341   174
 1.4441   149
 1.4541   143
 1.4641   158
 1.4741   169
 1.4841   167
 1.4941   160
 1.5041   147
 1.5141   162
 1.5241   152
 1.5341   137
 1.5441   163
 1.5541   150
 1.5641   148
 1.5741   156
 1.5841   162
 1.5941   153
 1.6041   150
 1.6141   145
 1.6241   143
 1.6341   147
 1.6441   179
 1.6541   166
 1.6641   209
 1.6741   260
 1.6841   323
 1.6941   369
 1.7041   459
 1.7141   561
 1.7241   554
 1.7341   602
 1.7441   586
 1.7541   625
 1.7641   523
 1.7741   464
 1.7841   380
 1.7941   333
 1.8041   261
 1.8141   241
 1.8241   208
 1.8341   174
 1.8441   188
 1.8541   179
 1.8641   182
 1.8741   164
 1.8841   157
 1.8941   159
 1.9041   155
 1.9141   154
 1.9241   169
 1.9341   167
 1.9441   159
 1.9541   157
 1.9641   164
 1.9741   183
 1.9841   194
 1.9941   200
 2.0041   177
 2.0141   184
 2.0241   197
 2.0341   180
 2.0441   170
 2.0541   164
 2.0641   172
 2.0741   164
 2.0841   155
 2.0941   147
 2.1041   149
 2.1141   141
 2.1241   135
 2.1341   142
 2.1441   149
 2.1541   133
 2.1641   128
 2.1741   121
 2.1841   138
 2.1941   127
 2.2041   149
 2.2141   140
 2.2241   134
 2.2341   120
 2.2441   145
 2.2541   130
 2.2641   125
 2.2741   134
 2.2841   125
 2.2941   153
 2.3041   145
 2.3141   139
 2.3241   139
 2.3341   112
 2.3441   128
 2.3541   136
 2.3641   130
 2.3741   129
 2.3841   147
 2.3941   128
 2.4041   120
 2.4141   124
 2.4241   126
 2.4341   149
 2.4441   118
 2.4541   126
 2.4641   128
 2.4741   131
 2.4841   114
 2.4941   128
 2.5041   114
 2.5141   121
 2.5241   138
 2.5341   124
 2.5441   136
 2.5541   117
 2.5641   124
 2.5741   122
 2.5841   105
 2.5941   132
 2.6041   116
 2.6141   113
 2.6241   133
 2.6341   126
 2.6441   113
 2.6541   120
 2.6641   114
 2.6741   130
 2.6841   130
 2.6941   124
 2.7041   119
 2.7141   135
 2.7241   132
 2.7341   112
 2.7441    99
 2.7541   143
 2.7641   127
 2.7741   129
 2.7841   119
 2.7941   137
 2.8041   111
 2.8141   115
 2.8241   129
 2.8341   125
 2.8441   123
 2.8541   127
 2.8641   121
 2.8741   120
 2.8841   126
 2.8941   109
 2.9041   131
 2.9141   113
 2.9241   123
 2.9341   103
 2.9441   112
 2.9541   119
 2.9641   114
 2.9741    95
 2.9841   105
 2.9941   128
 3.0041   120
 3.0141   120
 3.0241   103
 3.0341   128
 3.0441   108
 3.0541   104
 3.0641   104
 3.0741    97
 3.0841   112
 3.0941    98
 3.1041   107
 3.1141   121
 3.1241   105
 3.1341    93
 3.1441    89
 3.1541   109
 3.1641    93
 3.1741   110
 3.1841   117
 3.1941   101
 3.2041   107
 3.2141   139
 3.2241   149
 3.2341   139
 3.2441   163
 3.2541   193
 3.2641   207
 3.2741   244
 3.2841   252
 3.2941   290
 3.3041   315
 3.3141   336
 3.3241   318
 3.3341   290
 3.3441   273
 3.3541   226
 3.3641   215
 3.3741   188
 3.3841   170
 3.3941   143
 3.4041   137
 3.4141   109
 3.4241    98
 3.4341    87
 3.4441    84
 3.4541   100
 3.4641   101
 3.4741    81
 3.4841   102
 3.4941    93
 3.5041   104
 3.5141   141
 3.5241   122
 3.5341   120
 3.5441   139
 3.5541   164
 3.5641   162
 3.5741   225
 3.5841   258
 3.5941   299
 3.6041   318
 3.6141   437
 3.6241   546
 3.6341   644
 3.6441   765
 3.6541   889
 3.6641  1031
 3.6741  1047
 3.6841  1108
 3.6941  1111
 3.7041  1113
 3.7141   983
 3.7241   838
 3.7341   757
 3.7441   645
 3.7541   540
 3.7641   366
 3.7741   312
 3.7841   225
 3.7941   185
 3.8041   155
 3.8141   116
 3.8241   111
 3.8341   101
 3.8441    90
 3.8541    78
 3.8641    79
 3.8741    96
 3.8841    96
 3.8941    93
 3.9041    91
 3.9141    95
 3.9241   120
 3.9341   132
 3.9441   131
 3.9541   140
 3.9641   174
 3.9741   179
 3.9841   192
 3.9941   215
 4.0041   238
 4.0141   216
 4.0241   211
 4.0341   188
 4.0441   179
 4.0541   191
 4.0641   143
 4.0741   144
 4.0841   141
 4.0941   116
 4.1041   101
 4.1141    86
 4.1241    83
 4.1341    78
 4.1441    92
 4.1541    96
 4.1641    51
 4.1741    76
 4.1841    68
 4.1941    69
 4.2041    72
 4.2141    76
 4.2241    75
 4.2341    62
 4.2441    72
 4.2541    69
 4.2641    55
 4.2741    77
 4.2841    64
 4.2941    72
 4.3041    73
 4.3141    62
 4.3241    59
 4.3341    68
 4.3441    67
 4.3541    73
 4.3641    69
 4.3741    88
 4.3841    92
 4.3941   105
 4.4041   141
 4.4141   162
 4.4241   173
 4.4341   217
 4.4441   248
 4.4541   306
 4.4641   355
 4.4741   366
 4.4841   422
 4.4941   472
 4.5041   428
 4.5141   455
 4.5241   425
 4.5341   405
 4.5441   338
 4.5541   351
 4.5641   300
 4.5741   232
 4.5841   211
 4.5941   180
 4.6041   175
 4.6141   109
 4.6241   117
 4.6341   125
 4.6441   115
 4.6541    90
 4.6641    77
 4.6741    85
 4.6841    81
 4.6941    64
 4.7041    75
 4.7141    91
 4.7241    75
 4.7341    86
 4.7441    82
 4.7541    76
 4.7641    75
 4.7741    72
 4.7841    88
 4.7941    83
 4.8041    92
 4.8141   113
 4.8241   109
 4.8341   108
 4.8441   140
 4.8541    95
 4.8641   121
 4.8741   133
 4.8841   130
 4.8941   142
 4.9041   136
 4.9141   156
 4.9241   161
 4.9341   175
 4.9441   173
 4.9541   184
 4.9641   139
 4.9741   156
 4.9841   133
 4.9941   120
 5.0041   102
 5.0141   121
 5.0241   112
 5.0341    90
 5.0441    82
 5.0541    80
 5.0641    79
 5.0741    85
 5.0841    75
 5.0941   104
 5.1041    95
 5.1141    89
 5.1241    98
 5.1341    92
 5.1441    94
 5.1541    79
 5.1641    76
 5.1741    80
 5.1841    94
 5.1941    81
 5.2041    87
 5.2141    78
 5.2241    84
 5.2341    89
 5.2441    77
 5.2541    79
 5.2641    92
 5.2741    88
 5.2841   103
 5.2941   111
 5.3041   123
 5.3141   136
 5.3241   155
 5.3341   169
 5.3441   182
 5.3541   196
 5.3641   225
 5.3741   249
 5.3841   256
 5.3941   286
 5.4041   306
 5.4141   281
 5.4241   282
 5.4341   279
 5.4441   227
 5.4541   263
 5.4641   212
 5.4741   191
 5.4841   168
 5.4941   140
 5.5041   139
 5.5141    97
 5.5241   121
 5.5341   110
 5.5441   109
 5.5541    88
 5.5641    95
 5.5741    77
 5.5841    88
 5.5941    95
 5.6041    85
 5.6141   102
 5.6241    85
 5.6341    90
 5.6441    85
 5.6541    76
 5.6641    83
 5.6741    72
 5.6841    89
 5.6941    89
 5.7041    75
 5.7141    95
 5.7241   101
 5.7341    90
 5.7441   101
 5.7541   112
 5.7641   119
 5.7741   121
 5.7841   164
 5.7941   142
 5.8041   178
 5.8141   190
 5.8241   196
 5.8341   260
 5.8441   268
 5.8541   314
 5.8641   342
 5.8741   352
 5.8841   362
 5.8941   344
 5.9041   345
 5.9141   341
 5.9241   345
 5.9341   303
 5.9441   330
 5.9541   252
 5.9641   241
 5.9741   240
 5.9841   186
 5.9941   161
 6.0041   142
 6.0141   161
 6.0241   142
 6.0341   127
 6.0441   145
 6.0541   133
 6.0641   122
 6.0741   120
 6.0841   126
 6.0941   110
 6.1041   137
 6.1141   128
 6.1241   137
 6.1341   133
 6.1441   129
 6.1541   164
 6.1641   157
 6.1741   166
 6.1841   212
 6.1941   261
 6.2041   321
 6.2141   419
 6.2241   569
 6.2341   757
 6.2441  1072
 6.2541  1449
 6.2641  2003
 6.2741  2727
 6.2841  3656
 6.2941  4912
 6.3041  6246
 6.3141  8060
 6.3241  9846
 6.3341 11920
 6.3441 13985
 6.3541 15706
 6.3641 17737
 6.3741 19167
 6.3841 20086
 6.3941 20948
 6.4041 20693
 6.4141 19980
 6.4241 18820
 6.4341 17383
 6.4441 15786
 6.4541 13430
 6.4641 11461
 6.4741  9402
 6.4841  7489
 6.4941  5910
 6.5041  4393
 6.5141  3292
 6.5241  2372
 6.5341  1773
 6.5441  1234
 6.5541   874
 6.5641   635
 6.5741   499
 6.5841   350
 6.5941   260
 6.6041   205
 6.6141   199
 6.6241   175
 6.6341   152
 6.6441   148
 6.6541   127
 6.6641   150
 6.6741   158
 6.6841   156
 6.6941   145
 6.7041   155
 6.7141   158
 6.7241   157
 6.7341   163
 6.7441   153
 6.7541   147
 6.7641   167
 6.7741   181
 6.7841   175
 6.7941   167
 6.8041   180
 6.8141   187
 6.8241   184
 6.8341   184
 6.8441   221
 6.8541   247
 6.8641   271
 6.8741   283
 6.8841   290
 6.8941   366
 6.9041   448
 6.9141   557
 6.9241   679
 6.9341   800
 6.9441  1015
 6.9541  1263
 6.9641  1443
 6.9741  1707
 6.9841  2162
 6.9941  2400
 7.0041  2694
 7.0141  2996
 7.0241  3295
 7.0341  3402
 7.0441  3505
 7.0541  3579
 7.0641  3470
 7.0741  3391
 7.0841  3171
 7.0941  2985
 7.1041  2717
 7.1141  2346
 7.1241  1938
 7.1341  1694
 7.1441  1391
 7.1541  1093
 7.1641   868
 7.1741   714
 7.1841   538
 7.1941   475
 7.2041   335
 7.2141   292
 7.2241   261
 7.2341   234
 7.2441   212
 7.2541   193
 7.2641   180
 7.2741   216
 7.2841   206
 7.2941   184
 7.3041   215
 7.3141   200
 7.3241   234
 7.3341   252
 7.3441   247
 7.3541   274
 7.3641   287
 7.3741   356
 7.3841   390
 7.3941   380
 7.4041   448
 7.4141   414
 7.4241   476
 7.4341   504
 7.4441   546
 7.4541   510
 7.4641   565
 7.4741   581
 7.4841   584
 7.4941   514
 7.5041   527
 7.5141   455
 7.5241   429
 7.5341   368
 7.5441   357
 7.5541   313
 7.5641   284
 7.5741   266
 7.5841   242
 7.5941   222
 7.6041   210
 7.6141   204
 7.6241   198
 7.6341   185
 7.6441   180
 7.6541   195
 7.6641   198
 7.6741   186
 7.6841   144
 7.6941   183
 7.7041   181
 7.7141   182
 7.7241   206
 7.7341   194
 7.7441   211
 7.7541   243
 7.7641   201
 7.7741   226
 7.7841   203
 7.7941   209
 7.8041   189
 7.8141   199
 7.8241   227
 7.8341   241
 7.8441   271
 7.8541   250
 7.8641   288
 7.8741   278
 7.8841   305
 7.8941   264
 7.9041   293
 7.9141   305
 7.9241   315
 7.9341   337
 7.9441   331
 7.9541   419
 7.9641   402
 7.9741   396
 7.9841   436
 7.9941   490
 8.0041   554
 8.0141   596
 8.0241   594
 8.0341   693
 8.0441   725
 8.0541   769
 8.0641   758
 8.0741   814
 8.0841   940
 8.0941   921
 8.1041   973
 8.1141   986
 8.1241  1092
 8.1341  1076
 8.1441  1117
 8.1541  1164
 8.1641  1197
 8.1741  1224
 8.1841  1262
 8.1941  1250
 8.2041  1345
 8.2141  1282
 8.2241  1336
 8.2341  1335
 8.2441  1383
 8.2541  1402
 8.2641  1483
 8.2741  1548
 8.2841  1607
 8.2941  1778
 8.3041  1954
 8.3141  2172
 8.3241  2142
 8.3341  2373
 8.3441  2458
 8.3541  2654
 8.3641  2835
 8.3741  2851
 8.3841  2879
 8.3941  2879
 8.4041  2873
 8.4141  2688
 8.4241  2513
 8.4341  2352
 8.4441  2202
 8.4541  1977
 8.4641  1787
 8.4741  1480
 8.4841  1310
 8.4941  1098
 8.5041  1008
 8.5141   812
 8.5241   682
 8.5341   597
 8.5441   477
 8.5541   430
 8.5641   387
 8.5741   349
 8.5841   326
 8.5941   342
 8.6041   360
 8.6141   329
 8.6241   357
 8.6341   310
 8.6441   319
 8.6541   306
 8.6641   336
 8.6741   307
 8.6841   302
 8.6941   291
 8.7041   301
 8.7141   303
 8.7241   301
 8.7341   294
 8.7441   304
 8.7541   335
 8.7641   315
 8.7741   275
 8.7841   289
 8.7941   263
 8.8041   268
 8.8141   264
 8.8241   276
 8.8341   260
 8.8441   266
 8.8541   286
 8.8641   278
 8.8741   282
 8.8841   229
 8.8941   271
 8.9041   277
 8.9141   274
 8.9241   286
 8.9341   274
 8.9441   297
 8.9541   287
 8.9641   291
 8.9741   306
 8.9841   320
 8.9941   304
 9.0041   300
 9.0141   329
 9.0241   322
 9.0341   337
 9.0441   320
 9.0541   329
 9.0641   374
 9.0741   375
 9.0841   404
 9.0941   415
 9.1041   400
 9.1141   407
 9.1241   429
 9.1341   513
 9.1441   497
 9.1541   540
 9.1641   512
 9.1741   546
 9.1841   578
 9.1941   633
 9.2041   633
 9.2141   672
 9.2241   682
 9.2341   707
 9.2441   741
 9.2541   762
 9.2641   870
 9.2741   870
 9.2841   917
 9.2941   942
 9.3041   971
 9.3141   966
 9.3241  1025
 9.3341  1062
 9.3441  1061
 9.3541  1147
 9.3641  1105
 9.3741  1157
 9.3841  1181
 9.3941  1156
 9.4041  1194
 9.4141  1184
 9.4241  1261
 9.4341  1259
 9.4441  1278
 9.4541  1243
 9.4641  1273
 9.4741  1300
 9.4841  1325
 9.4941  1321
 9.5041  1297
 9.5141  1382
 9.5241  1476
 9.5341  1534
 9.5441  1638
 9.5541  1672
 9.5641  1741
 9.5741  1806
 9.5841  2004
 9.5941  2148
 9.6041  2224
 9.6141  2341
 9.6241  2458
 9.6341  2532
 9.6441  2525
 9.6541  2629
 9.6641  2767
 9.6741  2698
 9.6841  2629
 9.6941  2534
 9.7041  2433
 9.7141  2369
 9.7241  2223
 9.7341  2048
 9.7441  1892
 9.7541  1806
 9.7641  1592
 9.7741  1548
 9.7841  1401
 9.7941  1293
 9.8041  1256
 9.8141  1225
 9.8241  1170
 9.8341  1132
 9.8441  1058
 9.8541  1087
 9.8641  1076
 9.8741  1049
 9.8841  1109
 9.8941  1152
 9.9041  1092
 9.9141  1179
 9.9241  1217
 9.9341  1258
 9.9441  1253
 9.9541  1247
 9.9641  1187
 9.9741  1089
 9.9841  1121
 9.9941  1081
10.0041  1005
10.0141   939
10.0241   849
10.0341   770
10.0441   695
10.0541   620
10.0641   572
10.0741   500
10.0841   438
10.0941   400
10.1041   361
10.1141   332
10.1241   297
10.1341   284
10.1441   290
10.1541   276
10.1641   249
10.1741   229
10.1841   213
10.1941   219
10.2041   198
10.2141   191
10.2241   186
10.2341   181
10.2441   173
10.2541   161
10.2641   160
10.2741   179
10.2841   164
10.2941   147
10.3041   157
10.3141   132
10.3241   144
10.3341   165
10.3441   155
10.3541   148
10.3641   147
10.3741   148
10.3841   152
10.3941   146
10.4041   169
10.4141   154
10.4241   169
10.4341   152
10.4441   167
10.4541   157
10.4641   157
10.4741   148
10.4841   153
10.4941   151
10.5041   177
10.5141   167
10.5241   156
10.5341   163
10.5441   173
10.5541   184
10.5641   176
10.5741   182
10.5841   173
10.5941   184
10.6041   197
10.6141   178
10.6241   165
10.6341   178
10.6441   177
10.6541   169
10.6641   165
10.6741   187
10.6841   191
10.6941   176
10.7041   215
10.7141   194
10.7241   194
10.7341   191
10.7441   194
10.7541   215
10.7641   217
10.7741   200
10.7841   205
10.7941   225
10.8041   209
10.8141   227
10.8241   218
10.8341   229
10.8441   238
10.8541   236
10.8641   247
10.8741   274
10.8841   250
10.8941   266
10.9041   257
10.9141   253
10.9241   252
10.9341   260
10.9441   271
10.9541   280
10.9641   266
10.9741   264
10.9841   254
10.9941   270
11.0041   280
11.0141   232
11.0241   228
11.0341   249
11.0441   259
11.0541   235
11.0641   224
11.0741   210
11.0841   211
11.0941   214
11.1041   245
11.1141   226
11.1241   224
11.1341   272
11.1441   241
11.1541   251
11.1641   260
11.1741   280
11.1841   315
11.1941   301
11.2041   289
11.2141   326
11.2241   337
11.2341   341
11.2441   349
11.2541   359
11.2641   349
11.2741   337
11.2841   380
11.2941   366
11.3041   352
11.3141   358
11.3241   338
11.3341   344
11.3441   347
11.3541   340
11.3641   329
11.3741   297
11.3841   257
11.3941   228
11.4041   225
11.4141   229
11.4241   219
11.4341   204
11.4441   192
11.4541   193
11.4641   187
11.4741   199
11.4841   202
11.4941   210
11.5041   206
11.5141   188
11.5241   187
11.5341   171
11.5441   170
11.5541   189
11.5641   205
11.5741   198
11.5841   197
11.5941   192
11.6041   184
11.6141   205
11.6241   208
11.6341   218
11.6441   203
11.6541   182
11.6641   193
11.6741   170
11.6841   167
11.6941   184
11.7041   180
11.7141   160
11.7241   171
11.7341   175
11.7441   167
11.7541   169
11.7641   160
11.7741   154
11.7841   150
11.7941   145
11.8041   143
11.8141   143
11.8241   143
11.8341   138
11.8441   138
11.8541   147
11.8641   136
11.8741   135
11.8841   140
11.8941   138
11.9041   136
11.9141   142
11.9241   136
11.9341   118
11.9441   135
11.9541   148
11.9641   146
11.9741   147
11.9841   141
11.9941   137
12.0041   155
12.0141   161
12.0241   146
12.0341   135
12.0441   139
12.0541   145
12.0641   131
12.0741   131
12.0841   131
12.0941   122
12.1041   117
12.1141   129
12.1241   134
12.1341   129
12.1441   139
12.1541   131
12.1641   146
12.1741   141
12.1841   130
12.1941   134
12.2041   134
12.2141   119
12.2241   123
12.2341   127
12.2441   133
12.2541   149
12.2641   130
12.2741   119
12.2841   130
12.2941   131
12.3041   139
12.3141   125
12.3241   134
12.3341   133
12.3441   141
12.3541   133
12.3641   135
12.3741   146
12.3841   126
12.3941   119
12.4041   131
12.4141   134
12.4241   137
12.4341   145
12.4441   146
12.4541   142
12.4641   124
12.4741   136
12.4841   141
12.4941   138
12.5041   141
12.5141   133
12.5241   138
12.5341   145
12.5441   147
12.5541   135
12.5641   144
12.5741   145
12.5841   151
12.5941   160
12.6041   152
12.6141   149
12.6241   151
12.6341   162
12.6441   172
12.6541   159
12.6641   140
12.6741   136
12.6841   168
12.6941   162
12.7041   146
12.7141   145
12.7241   150
12.7341   148
12.7441   153
12.7541   165
12.7641   165
12.7741   154
12.7841   144
12.7941   145
12.8041   142
12.8141   136
12.8241   141
12.8341   152
12.8441   154
12.8541   144
12.8641   140
12.8741   148
12.8841   155
12.8941   162
12.9041   167
12.9141   161
12.9241   155
12.9341   151
12.9441   139
12.9541   142
12.9641   154
12.9741   150
12.9841   151
12.9941   153
13.0041   149
13.0141   155
13.0241   155
13.0341   163
13.0441   160
13.0541   152
13.0641   150
13.0741   131
13.0841   136
13.0941   153
13.1041   154
13.1141   147
13.1241   151
13.1341   155
13.1441   147
13.1541   164
13.1641   168
13.1741   171
13.1841   175
13.1941   175
13.2041   183
13.2141   200
13.2241   214
13.2341   212
13.2441   209
13.2541   233
13.2641   230
13.2741   228
13.2841   230
13.2941   242
13.3041   270
13.3141   276
13.3241   290
13.3341   301
13.3441   317
13.3541   318
13.3641   318
13.3741   324
13.3841   327
13.3941   339
13.4041   324
13.4141   315
13.4241   298
13.4341   293
13.4441   292
13.4541   271
13.4641   263
13.4741   264
13.4841   256
13.4941   244
13.5041   225
13.5141   208
13.5241   199
13.5341   196
13.5441   197
13.5541   191
13.5641   182
13.5741   171
13.5841   160
13.5941   167
13.6041   184
13.6141   186
13.6241   181
13.6341   164
13.6441   175
13.6541   175
13.6641   148
13.6741   167
13.6841   179
13.6941   165
13.7041   166
13.7141   183
13.7241   199
13.7341   190
13.7441   177
13.7541   184
13.7641   191
13.7741   190
13.7841   179
13.7941   180
13.8041   179
13.8141   174
13.8241   182
13.8341   197
13.8441   183
13.8541   170
13.8641   183
13.8741   181
13.8841   178
13.8941   186
13.9041   196
13.9141   200
13.9241   196
13.9341   193
13.9441   200
13.9541   213
13.9641   222
13.9741   226
13.9841   226
13.9941   230
14.0041   243
14.0141   252
14.0241   264
14.0341   274
14.0441   286
14.0541   288
14.0641   299
14.0741   309
14.0841   319
14.0941   354
14.1041   358
14.1141   364
14.1241   374
14.1341   374
14.1441   366
14.1541   338
14.1641   342
14.1741   359
14.1841   346
14.1941   340
14.2041   342
14.2141   331
14.2241   311
14.2341   296
14.2441   276
14.2541   267
14.2641   280
14.2741   271
14.2841   240
14.2941   224
14.3041   230
14.3141   232
14.3241   228
14.3341   217
14.3441   205
14.3541   200
14.3641   205
14.3741   206
14.3841   204
14.3941   198
14.4041   211
14.4141   206
14.4241   194
14.4341   204
14.4441   198
14.4541   189
14.4641   172
14.4741   182
14.4841   201
14.4941   188
14.5041   179
14.5141   196
14.5241   208
14.5341   201
14.5441   200
14.5541   208
14.5641   201
14.5741   203
14.5841   202
14.5941   198
14.6041   188
14.6141   195
14.6241   195
14.6341   186
14.6441   184
14.6541   200
14.6641   206
14.6741   202
14.6841   207
14.6941   202
14.7041   211
14.7141   213
14.7241   210
14.7341   210
14.7441   215
14.7541   230
14.7641   236
14.7741   208
14.7841   199
14.7941   215
14.8041   222
14.8141   212
14.8241   221
14.8341   229
14.8441   239
14.8541   258
14.8641   252
14.8741   256
14.8841   245
14.8941   225
14.9041   246
14.9141   262
14.9241   270
14.9341   265
14.9441   261
14.9541   248
14.9641   234
14.9741   238
14.9841   246
14.9941   244
15.0041   249
15.0141   255
15.0241   254
15.0341   234
15.0441   242
15.0541   233
15.0641   216
15.0741   224
15.0841   230
15.0941   230
15.1041   234
15.1141   232
15.1241   218
15.1341   204
15.1441   218
15.1541   222
15.1641   212
15.1741   220
15.1841   227
15.1941   242
15.2041   219
15.2141   204
15.2241   210
15.2341   222
15.2441   218
15.2541   210
15.2641   205
15.2741   197
15.2841   210
15.2941   223
15.3041   236
15.3141   242
15.3241   223
15.3341   214
15.3441   231
15.3541   232
15.3641   222
15.3741   233
15.3841   223
15.3941   206
15.4041   210
15.4141   218
15.4241   211
15.4341   228
15.4441   235
15.4541   221
15.4641   212
15.4741   219
15.4841   221
15.4941   217
15.5041   228
15.5141   216
15.5241   227
15.5341   241
15.5441   221
15.5541   213
15.5641   247
15.5741   262
15.5841   266
15.5941   273
15.6041   268
15.6141   281
15.6241   284
15.6341   289
15.6441   301
15.6541   297
15.6641   299
15.6741   301
15.6841   310
15.6941   312
15.7041   324
15.7141   323
15.7241   333
15.7341   348
15.7441   353
15.7541   355
15.7641   366
15.7741   358
15.7841   354
15.7941   365
15.8041   371
15.8141   353
15.8241   352
15.8341   359
15.8441   369
15.8541   351
15.8641   341
15.8741   319
15.8841   294
15.8941   284
15.9041   280
15.9141   284
15.9241   274
15.9341   266
15.9441   259
15.9541   241
15.9641   252
15.9741   247
15.9841   241
15.9941   237
16.0041   258
16.0141   260
16.0241   239
16.0341   254
16.0441   275
16.0541   263
16.0641   250
16.0741   267
16.0841   257
16.0941   243
16.1041   262
16.1141   262
16.1241   266
16.1341   261
16.1441   234
16.1541   252
16.1641   256
16.1741   241
16.1841   254
16.1941   264
16.2041   255
16.2141   242
16.2241   246
16.2341   252
16.2441   257
16.2541   251
16.2641   257
16.2741   241
16.2841   254
16.2941   252
16.3041   263
16.3141   271
16.3241   265
16.3341   278
16.3441   283
16.3541   276
16.3641   258
16.3741   269
16.3841   268
16.3941   274
16.4041   269
16.4141   266
16.4241   273
16.4341   274
16.4441   270
16.4541   278
16.4641   257
16.4741   261
16.4841   240
16.4941   249
16.5041   266
16.5141   293
16.5241   292
16.5341   286
16.5441   274
16.5541   270
16.5641   284
16.5741   279
16.5841   267
16.5941   284
16.6041   277
16.6141   290
16.6241   274
16.6341   290
16.6441   287
16.6541   278
16.6641   270
16.6741   264
16.6841   278
16.6941   283
16.7041   260
16.7141   246
16.7241   261
16.7341   290
16.7441   299
16.7541   278
16.7641   306
16.7741   279
16.7841   269
16.7941   256
16.8041   284
16.8141   282
16.8241   276
16.8341   266
16.8441   288
16.8541   284
16.8641   287
16.8741   300
16.8841   297
16.8941   303
16.9041   276
16.9141   283
16.9241   295
16.9341   287
16.9441   286
16.9541   299
16.9641   295
16.9741   276
16.9841   289
16.9941   277
17.0041   295
17.0141   293
17.0241   279
17.0341   307
17.0441   291
17.0541   294
17.0641   284
17.0741   295
17.0841   306
17.0941   300
17.1041   302
17.1141   303
17.1241   301
17.1341   282
17.1441   268
17.1541   285
17.1641   296
17.1741   290
17.1841   289
17.1941   291
17.2041   282
17.2141   292
17.2241   299
17.2341   302
17.2441   271
17.2541   260
17.2641   268
17.2741   283
17.2841   288
17.2941   300
17.3041   316
17.3141   301
17.3241   296
17.3341   275
17.3441   292
17.3541   302
17.3641   294
17.3741   287
17.3841   294
17.3941   286
17.4041   311
17.4141   324
17.4241   333
17.4341   315
17.4441   295
17.4541   288
17.4641   312
17.4741   302
17.4841   296
17.4941   295
17.5041   288
17.5141   294
17.5241   284
17.5341   322
17.5441   332
17.5541   329
17.5641   334
17.5741   345
17.5841   324
17.5941   327
17.6041   342
17.6141   312
17.6241   324
17.6341   344
17.6441   346
17.6541   332
17.6641   341
17.6741   350
17.6841   344
17.6941   345
17.7041   343
17.7141   325
17.7241   319
17.7341   319
17.7441   300
17.7541   308
17.7641   328
17.7741   326
17.7841   323
17.7941   335
17.8041   312
17.8141   291
17.8241   330
17.8341   334
17.8441   324
17.8541   349
17.8641   339
17.8741   325
17.8841   330
17.8941   296
17.9041   319
17.9141   330
17.9241   336
17.9341   362
17.9441   339
17.9541   321
17.9641   315
17.9741   320
17.9841   316
17.9941   330
18.0041   345
18.0141   340
18.0241   343
18.0341   306
18.0441   324
18.0541   316
18.0641   313
18.0741   348
18.0841   305
18.0941   313
18.1041   331
18.1141   351
18.1241   343
18.1341   348
18.1441   333
18.1541   328
18.1641   316
18.1741   348
18.1841   348
18.1941   297
18.2041   351
18.2141   346
18.2241   306
18.2341   345
18.2441   361
18.2541   335
18.2641   334
18.2741   326
18.2841   336
18.2941   333
18.3041   353
18.3141   366
18.3241   353
18.3341   338
18.3441   349
18.3541   344
18.3641   342
18.3741   323
18.3841   335
18.3941   372
18.4041   356
18.4141   335
18.4241   345
18.4341   357
18.4441   332
18.4541   350
18.4641   335
18.4741   334
18.4841   323
18.4941   337
18.5041   359
18.5141   364
18.5241   373
18.5341   340
18.5441   338
18.5541   332
18.5641   347
18.5741   331
18.5841   353
18.5941   377
18.6041   359
18.6141   337
18.6241   352
18.6341   339
18.6441   320
18.6541   334
18.6641   376
18.6741   385
18.6841   370
18.6941   379
18.7041   390
18.7141   384
18.7241   357
18.7341   346
18.7441   370
18.7541   338
18.7641   341
18.7741   331
18.7841   362
18.7941   341
18.8041   346
18.8141   350
18.8241   384
18.8341   391
18.8441   397
18.8541   369
18.8641   375
18.8741   359
18.8841   361
18.8941   378
18.9041   356
18.9141   350
18.9241   350
18.9341   377
18.9441   376
18.9541   358
18.9641   351
18.9741   330
18.9841   373
18.9941   391
19.0041   380
19.0141   389
19.0241   403
19.0341   384
19.0441   364
19.0541   380
19.0641   353
19.0741   382
19.0841   384
19.0941   378
19.1041   369
19.1141   398
19.1241   361
19.1341   372
19.1441   360
19.1541   351
19.1641   340
19.1741   375
19.1841   368
19.1941   370
19.2041   371
19.2141   377
19.2241   359
19.2341   367
19.2441   377
19.2541   384
19.2641   372
19.2741   364
19.2841   369
19.2941   359
19.3041   392
19.3141   365
19.3241   371
19.3341   389
19.3441   379
19.3541   344
19.3641   352
19.3741   364
19.3841   380
19.3941   409
19.4041   387
19.4141   376
19.4241   378
19.4341   396
19.4441   383
19.4541   379
19.4641   411
19.4741   408
19.4841   383
19.4941   386
19.5041   367
19.5141   391
19.5241   361
19.5341   383
19.5441   391
19.5541   369
19.5641   371
19.5741   379
19.5841   370
19.5941   415
19.6041   389
19.6141   377
19.6241   380
19.6341   374
19.6441   412
19.6541   375
19.6641   413
19.6741   397
19.6841   374
19.6941   419
19.7041   383
19.7141   407
19.7241   396
19.7341   371
19.7441   418
19.7541   384
19.7641   354
19.7741   406
19.7841   387
19.7941   387
19.8041   381
19.8141   405
19.8241   418
19.8341   384
19.8441   369
19.8541   407
19.8641   402
19.8741   411
19.8841   390
19.8941   409
19.9041   373
19.9141   392
19.9241   392
19.9341   411
19.9441   415
19.9541   436
19.9641   394
19.9741   401
19.9841   389
19.9941   393
20.0041   371
20.0141   375
20.0241   397
20.0341   420
20.0441   396
20.0541   390
20.0641   422
20.0741   402
20.0841   393
20.0941   424
20.1041   386
20.1141   418
20.1241   387
20.1341   404
20.1441   404
20.1541   384
20.1641   396
20.1741   369
20.1841   399
20.1941   390
20.2041   384
20.2141   406
20.2241   417
20.2341   410
20.2441   437
20.2541   364
20.2641   380
20.2741   439
20.2841   384
20.2941   367
20.3041   403
20.3141   400
20.3241   406
20.3341   415
20.3441   451
20.3541   398
20.3641   391
20.3741   411
20.3841   416
20.3941   419
20.4041   417
20.4141   457
20.4241   436
20.4341   424
20.4441   428
20.4541   417
20.4641   409
20.4741   402
20.4841   425
20.4941   406
20.5041   425
20.5141   433
20.5241   405
20.5341   411
20.5441   413
20.5541   423
20.5641   408
20.5741   410
20.5841   416
20.5941   394
20.6041   413
20.6141   423
20.6241   453
20.6341   459
20.6441   423
20.6541   454
20.6641   440
20.6741   408
20.6841   427
20.6941   447
20.7041   438
20.7141   415
20.7241   399
20.7341   416
20.7441   423
20.7541   416
20.7641   431
20.7741   440
20.7841   413
20.7941   430
20.8041   409
20.8141   423
20.8241   415
20.8341   447
20.8441   457
20.8541   471
20.8641   455
20.8741   492
20.8841   483
20.8941   479
20.9041   520
20.9141   494
20.9241   492
20.9341   526
20.9441   557
20.9541   562
20.9641   585
20.9741   584
20.9841   574
20.9941   554
21.0041   610
21.0141   651
21.0241   632
21.0341   608
21.0441   637
21.0541   679
21.0641   723
21.0741   635
21.0841   647
21.0941   684
21.1041   699
21.1141   705
21.1241   695
21.1341   742
21.1441   721
21.1541   697
21.1641   701
21.1741   672
21.1841   693
21.1941   670
21.2041   678
21.2141   638
21.2241   628
21.2341   614
21.2441   629
21.2541   623
21.2641   624
21.2741   610
21.2841   572
21.2941   569
21.3041   579
21.3141   523
21.3241   510
21.3341   510
21.3441   452
21.3541   452
21.3641   465
21.3741   454
21.3841   426
21.3941   444
21.4041   454
21.4141   472
21.4241   437
21.4341   442
21.4441   423
21.4541   422
21.4641   450
21.4741   425
21.4841   442
21.4941   417
21.5041   393
21.5141   408
21.5241   404
21.5341   470
21.5441   434
21.5541   437
21.5641   431
21.5741   448
21.5841   433
21.5941   417
21.6041   452
21.6141   448
21.6241   439
21.6341   448
21.6441   416
21.6541   424
21.6641   404
21.6741   435
21.6841   429
21.6941   410
21.7041   450
21.7141   439
21.7241   432
21.7341   446
21.7441   452
21.7541   466
21.7641   444
21.7741   449
21.7841   395
21.7941   446
21.8041   432
21.8141   452
21.8241   444
21.8341   426
21.8441   417
21.8541   427
21.8641   408
21.8741   420
21.8841   444
21.8941   466
21.9041   439
21.9141   464
21.9241   418
21.9341   439
21.9441   484
21.9541   473
21.9641   438
21.9741   441
21.9841   449
21.9941   410
22.0041   434
22.0141   410
22.0241   450
22.0341   418
22.0441   445
22.0541   413
22.0641   438
22.0741   451
22.0841   418
22.0941   433
22.1041   443
22.1141   477
22.1241   456
22.1341   470
22.1441   454
22.1541   448
22.1641   468
22.1741   451
22.1841   447
22.1941   424
22.2041   434
22.2141   449
22.2241   451
22.2341   451
22.2441   471
22.2541   456
22.2641   454
22.2741   417
22.2841   461
22.2941   427
22.3041   460
22.3141   461
22.3241   484
22.3341   442
22.3441   430
22.3541   428
22.3641   447
22.3741   449
22.3841   472
22.3941   426
22.4041   441
22.4141   453
22.4241   426
22.4341   439
22.4441   433
22.4541   424
22.4641   411
22.4741   404
22.4841   432
22.4941   457
22.5041   479
22.5141   468
22.5241   451
22.5341   429
22.5441   411
22.5541   460
22.5641   486
22.5741   441
22.5841   443
22.5941   424
22.6041   421
22.6141   459
22.6241   459
22.6341   420
22.6441   435
22.6541   458
22.6641   455
22.6741   449
22.6841   412
22.6941   427
22.7041   470
22.7141   443
22.7241   411
22.7341   459
22.7441   449
22.7541   442
22.7641   449
22.7741   454
22.7841   439
22.7941   430
22.8041   437
22.8141   444
22.8241   402
22.8341   438
22.8441   459
22.8541   471
22.8641   437
22.8741   411
22.8841   423
22.8941   439
22.9041   427
22.9141   458
22.9241   453
22.9341   422
22.9441   431
22.9541   473
22.9641   444
22.9741   458
22.9841   455
22.9941   437
23.0041   447
23.0141   432
23.0241   427
23.0341   421
23.0441   435
23.0541   463
23.0641   422
23.0741   439
23.0841   439
23.0941   413
23.1041   419
23.1141   448
23.1241   407
23.1341   461
23.1441   447
23.1541   445
23.1641   460
23.1741   454
23.1841   455
23.1941   471
23.2041   470
23.2141   405
23.2241   456
23.2341   429
23.2441   449
23.2541   454
23.2641   470
23.2741   453
23.2841   453
23.2941   452
23.3041   441
23.3141   442
23.3241   424
23.3341   435
23.3441   440
23.3541   448
23.3641   448
23.3741   446
23.3841   476
23.3941   460
23.4041   451
23.4141   399
23.4241   397
23.4341   448
23.4441   425
23.4541   429
23.4641   442
23.4741   400
23.4841   429
23.4941   442
23.5041   438
23.5141   472
23.5241   458
23.5341   412
23.5441   423
23.5541   435
23.5641   456
23.5741   425
23.5841   447
23.5941   453
23.6041   454
23.6141   456
23.6241   461
23.6341   461
23.6441   439
23.6541   470
23.6641   471
23.6741   458
23.6841   505
23.6941   501
23.7041   462
23.7141   456
23.7241   471
23.7341   525
23.7441   483
23.7541   476
23.7641   494
23.7741   434
23.7841   465
23.7941   480
23.8041   481
23.8141   522
23.8241   469
23.8341   484
23.8441   488
23.8541   498
23.8641   469
23.8741   467
23.8841   474
23.8941   472
23.9041   487
23.9141   459
23.9241   461
23.9341   458
23.9441   447
23.9541   425
23.9641   452
23.9741   460
23.9841   415
23.9941   416
24.0041   462
24.0141   467
24.0241   444
24.0341   427
24.0441   448
24.0541   440
24.0641   434
24.0741   457
24.0841   446
24.0941   447
24.1041   433
24.1141   437
24.1241   455
24.1341   417
24.1441   435
24.1541   438
24.1641   458
24.1741   417
24.1841   392
24.1941   418
24.2041   468
24.2141   417
24.2241   430
24.2341   415
24.2441   454
24.2541   428
24.2641   429
24.2741   445
24.2841   452
24.2941   432
24.3041   409
24.3141   427
24.3241   457
24.3341   458
24.3441   425
24.3541   425
24.3641   430
24.3741   402
24.3841   389
24.3941   414
24.4041   422
24.4141   424
24.4241   441
24.4341   423
24.4441   422
24.4541   430
24.4641   421
24.4741   443
24.4841   452
24.4941   440
24.5041   425
24.5141   404
24.5241   492
24.5341   395
24.5441   399
24.5541   459
24.5641   417
24.5741   389
24.5841   416
24.5941   410
24.6041   462
24.6141   410
24.6241   456
24.6341   416
24.6441   435
24.6541   403
24.6641   385
24.6741   427
24.6841   445
24.6941   406
24.7041   374
24.7141   420
24.7241   425
24.7341   428
24.7441   408
24.7541   430
24.7641   405
24.7741   393
24.7841   425
24.7941   373
24.8041   389
24.8141   405
24.8241   456
24.8341   436
24.8441   407
24.8541   446
24.8641   424
24.8741   431
24.8841   432
24.8941   425
24.9041   430
24.9141   416
24.9241   426
24.9341   426
24.9441   403
24.9541   437
24.9641   450
24.9741   425
24.9841   393
24.9941   409
25.0041   432
25.0141   461
25.0241   432
25.0341   408
25.0441   412
25.0541   445
25.0641   446
25.0741   440
25.0841   409
25.0941   416
25.1041   422
25.1141   417
25.1241   436
25.1341   441
25.1441   437
25.1541   396
25.1641   416
25.1741   415
25.1841   414
25.1941   443
25.2041   436
25.2141   452
25.2241   433
25.2341   456
25.2441   409
25.2541   430
25.2641   419
25.2741   413
25.2841   406
25.2941   434
25.3041   420
25.3141   408
25.3241   406
25.3341   433
25.3441   438
25.3541   429
25.3641   420
25.3741   441
25.3841   403
25.3941   399
25.4041   396
25.4141   379
25.4241   413
25.4341   428
25.4441   399
25.4541   392
25.4641   398
25.4741   425
25.4841   391
25.4941   383
25.5041   390
25.5141   364
25.5241   431
25.5341   389
25.5441   393
25.5541   384
25.5641   401
25.5741   399
25.5841   366
25.5941   427
25.6041   411
25.6141   411
25.6241   401
25.6341   381
25.6441   399
25.6541   421
25.6641   432
25.6741   405
25.6841   385
25.6941   415
25.7041   403
25.7141   382
25.7241   372
25.7341   382
25.7441   393
25.7541   402
25.7641   391
25.7741   409
25.7841   406
25.7941   405
25.8041   385
25.8141   400
25.8241   391
25.8341   380
25.8441   400
25.8541   365
25.8641   379
25.8741   372
25.8841   366
25.8941   384
25.9041   397
25.9141   389
25.9241   391
25.9341   401
25.9441   395
25.9541   399
25.9641   409
25.9741   392
25.9841   372
25.9941   399
26.0041   403
26.0141   391
26.0241   391
26.0341   396
26.0441   413
26.0541   417
26.0641   368
26.0741   404
26.0841   416
26.0941   396
26.1041   397
26.1141   418
26.1241   405
26.1341   398
26.1441   388
26.1541   408
26.1641   402
26.1741   383
26.1841   391
26.1941   402
26.2041   406
26.2141   380
26.2241   406
26.2341   391
26.2441   375
26.2541   389
26.2641   402
26.2741   407
26.2841   374
26.2941   419
26.3041   374
26.3141   399
26.3241   386
26.3341   372
26.3441   385
26.3541   382
26.3641   418
26.3741   366
26.3841   416
26.3941   372
26.4041   386
26.4141   381
26.4241   366
26.4341   401
26.4441   391
26.4541   362
26.4641   370
26.4741   411
26.4841   386
26.4941   374
26.5041   384
26.5141   368
26.5241   371
26.5341   346
26.5441   376
26.5541   383
26.5641   393
26.5741   356
26.5841   363
26.5941   376
26.6041   392
26.6141   345
26.6241   363
26.6341   345
26.6441   366
26.6541   364
26.6641   384
26.6741   342
26.6841   369
26.6941   386
26.7041   357
26.7141   377
26.7241   385
26.7341   350
26.7441   384
26.7541   397
26.7641   383
26.7741   373
26.7841   370
26.7941   331
26.8041   375
26.8141   363
26.8241   385
26.8341   352
26.8441   329
26.8541   374
26.8641   382
26.8741   391
26.8841   324
26.8941   371
26.9041   347
26.9141   343
26.9241   391
26.9341   363
26.9441   375
26.9541   336
26.9641   384
26.9741   370
26.9841   374
26.9941   332
27.0041   358
27.0141   357
27.0241   386
27.0341   377
27.0441   353
27.0541   345
27.0641   350
27.0741   368
27.0841   348
27.0941   342
27.1041   349
27.1141   348
27.1241   365
27.1341   359
27.1441   368
27.1541   381
27.1641   338
27.1741   360
27.1841   362
27.1941   302
27.2041   319
27.2141   371
27.2241   352
27.2341   360
27.2441   360
27.2541   369
27.2641   389
27.2741   340
27.2841   340
27.2941   360
27.3041   365
27.3141   349
27.3241   349
27.3341   351
27.3441   373
27.3541   343
27.3641   342
27.3741   329
27.3841   362
27.3941   334
27.4041   357
27.4141   337
27.4241   373
27.4341   350
27.4441   353
27.4541   411
27.4641   349
27.4741   340
27.4841   377
27.4941   329
27.5041   353
27.5141   357
27.5241   378
27.5341   367
27.5441   361
27.5541   353
27.5641   368
27.5741   353
27.5841   325
27.5941   368
27.6041   328
27.6141   334
27.6241   351
27.6341   352
27.6441   352
27.6541   363
27.6641   338
27.6741   355
27.6841   333
27.6941   332
27.7041   340
27.7141   354
27.7241   331
27.7341   326
27.7441   317
27.7541   342
27.7641   354
27.7741   329
27.7841   335
27.7941   326
27.8041   337
27.8141   338
27.8241   327
27.8341   333
27.8441   319
27.8541   344
27.8641   336
27.8741   314
27.8841   313
27.8941   335
27.9041   325
27.9141   317
27.9241   326
27.9341   316
27.9441   343
27.9541   348
27.9641   300
27.9741   377
27.9841   340
27.9941   318
28.0041   317
28.0141   321
28.0241   315
28.0341   333
28.0441   361
28.0541   352
28.0641   321
28.0741   321
28.0841   341
28.0941   321
28.1041   322
28.1141   305
28.1241   282
28.1341   327
28.1441   336
28.1541   320
28.1641   321
28.1741   322
28.1841   337
28.1941   327
28.2041   316
28.2141   322
28.2241   314
28.2341   306
28.2441   307
28.2541   329
28.2641   321
28.2741   311
28.2841   313
28.2941   358
28.3041   312
28.3141   326
28.3241   327
28.3341   315
28.3441   322
28.3541   318
28.3641   333
28.3741   285
28.3841   332
28.3941   324
28.4041   310
28.4141   330
28.4241   344
28.4341   327
28.4441   309
28.4541   371
28.4641   308
28.4741   308
28.4841   323
28.4941   306
28.5041   303
28.5141   315
28.5241   308
28.5341   327
28.5441   309
28.5541   322
28.5641   311
28.5741   299
28.5841   297
28.5941   302
28.6041   316
28.6141   326
28.6241   299
28.6341   318
28.6441   318
28.6541   293
28.6641   330
28.6741   304
28.6841   302
28.6941   298
28.7041   283
28.7141   301
28.7241   303
28.7341   285
28.7441   328
28.7541   298
28.7641   309
28.7741   292
28.7841   291
28.7941   287
28.8041   270
28.8141   310
28.8241   338
28.8341   300
28.8441   293
28.8541   307
28.8641   286
28.8741   302
28.8841   288
28.8941   308
28.9041   295
28.9141   289
28.9241   309
28.9341   311
28.9441   300
28.9541   310
28.9641   291
28.9741   320
28.9841   298
28.9941   285
29.0041   294
29.0141   274
29.0241   290
29.0341   292
29.0441   303
29.0541   293
29.0641   291
29.0741   319
29.0841   308
29.0941   275
29.1041   287
29.1141   280
29.1241   276
29.1341   306
29.1441   295
29.1541   281
29.1641   309
29.1741   271
29.1841   290
29.1941   284
29.2041   293
29.2141   293
29.2241   270
29.2341   267
29.2441   288
29.2541   279
29.2641   275
29.2741   297
29.2841   289
29.2941   273
29.3041   269
29.3141   278
29.3241   298
29.3341   281
29.3441   309
29.3541   276
29.3641   283
29.3741   274
29.3841   277
29.3941   285
29.4041   285
29.4141   278
29.4241   312
29.4341   279
29.4441   280
29.4541   267
29.4641   297
29.4741   260
29.4841   270
29.4941   260
29.5041   282
29.5141   245
29.5241   280
29.5341   316
29.5441   281
29.5541   266
29.5641   246
29.5741   287
29.5841   274
29.5941   259
29.6041   252
29.6141   259
29.6241   273
29.6341   250
29.6441   267
29.6541   274
29.6641   297
29.6741   255
29.6841   273
29.6941   285
29.7041   252
29.7141   256
29.7241   277
29.7341   275
29.7441   270
29.7541   248
29.7641   246
29.7741   258
29.7841   271
29.7941   270
29.8041   264
29.8141   284
29.8241   268
29.8341   256
29.8441   247
29.8541   272
29.8641   264
29.8741   256
29.8841   277
29.8941   282
29.9041   261
29.9141   252
29.9241   251
29.9341   266
29.9441   254
29.9541   289
29.9641   232
29.9741   241
29.9841   232
29.9941   248
30.0041   247
30.0141   252
30.0241   266
30.0341   225
30.0441   247
30.0541   254
30.0641   262
30.0741   231
30.0841   250
30.0941   244
30.1041   261
30.1141   251
30.1241   248
30.1341   229
30.1441   259
30.1541   267
30.1641   262
30.1741   249
30.1841   282
30.1941   256
30.2041   238
30.2141   233
30.2241   245
30.2341   232
30.2441   223
30.2541   237
30.2641   247
30.2741   231
30.2841   260
30.2941   268
30.3041   254
30.3141   260
30.3241   231
30.3341   240
30.3441   260
30.3541   257
30.3641   252
30.3741   260
30.3841   248
30.3941   261
30.4041   244
30.4141   276
30.4241   251
30.4341   214
30.4441   223
30.4541   275
30.4641   265
30.4741   239
30.4841   241
30.4941   222
30.5041   214
30.5141   246
30.5241   253
30.5341   225
30.5441   231
30.5541   254
30.5641   248
30.5741   235
30.5841   248
30.5941   239
30.6041   248
30.6141   246
30.6241   243
30.6341   273
30.6441   237
30.6541   227
30.6641   227
30.6741   217
30.6841   199
30.6941   243
30.7041   256
30.7141   234
30.7241   237
30.7341   246
30.7441   224
30.7541   248
30.7641   224
30.7741   257
30.7841   258
30.7941   255
30.8041   245
30.8141   210
30.8241   195
30.8341   216
30.8441   246
30.8541   225
30.8641   230
30.8741   221
30.8841   254
30.8941   233
30.9041   226
30.9141   221
30.9241   241
30.9341   237
30.9441   239
30.9541   212
30.9641   236
30.9741   235
30.9841   225
30.9941   238
31.0041   235
31.0141   212
31.0241   208
31.0341   229
31.0441   221
31.0541   229
31.0641   232
31.0741   212
31.0841   231
31.0941   240
31.1041   214
31.1141   222
31.1241   222
31.1341   231
31.1441   222
31.1541   215
31.1641   212
31.1741   222
31.1841   236
31.1941   223
31.2041   222
31.2141   229
31.2241   226
31.2341   219
31.2441   235
31.2541   203
31.2641   210
31.2741   228
31.2841   211
31.2941   232
31.3041   214
31.3141   235
31.3241   200
31.3341   209
31.3441   189
31.3541   202
31.3641   190
31.3741   215
31.3841   211
31.3941   223
31.4041   212
31.4141   215
31.4241   233
31.4341   200
31.4441   212
31.4541   240
31.4641   218
31.4741   190
31.4841   203
31.4941   202
31.5041   211
31.5141   212
31.5241   191
31.5341   235
31.5441   240
31.5541   228
31.5641   196
31.5741   204
31.5841   206
31.5941   234
31.6041   222
31.6141   223
31.6241   205
31.6341   200
31.6441   210
31.6541   208
31.6641   213
31.6741   199
31.6841   218
31.6941   219
31.7041   218
31.7141   201
31.7241   218
31.7341   236
31.7441   213
31.7541   225
31.7641   198
31.7741   196
31.7841   214
31.7941   209
31.8041   208
31.8141   207
31.8241   227
31.8341   193
31.8441   217
31.8541   221
31.8641   210
31.8741   206
31.8841   198
31.8941   205
31.9041   214
31.9141   201
31.9241   199
31.9341   188
31.9441   224
31.9541   188
31.9641   203
31.9741   215
31.9841   182
31.9941   228
32.0041   213
32.0141   195
32.0241   220
32.0341   209
32.0441   196
32.0541   229
32.0641   228
32.0741   241
32.0841   227
32.0941   210
32.1041   193
32.1141   221
32.1241   225
32.1341   192
32.1441   211
32.1541   202
32.1641   228
32.1741   192
32.1841   217
32.1941   217
32.2041   209
32.2141   236
32.2241   196
32.2341   214
32.2441   190
32.2541   195
32.2641   197
32.2741   196
32.2841   198
32.2941   192
32.3041   197
32.3141   217
32.3241   205
32.3341   188
32.3441   177
32.3541   181
32.3641   184
32.3741   175
32.3841   197
32.3941   203
32.4041   174
32.4141   185
32.4241   178
32.4341   169
32.4441   180
32.4541   191
32.4641   193
32.4741   165
32.4841   177
32.4941   189
32.5041   201
32.5141   170
32.5241   191
32.5341   178
32.5441   198
32.5541   190
32.5641   179
32.5741   197
32.5841   200
32.5941   171
32.6041   180
32.6141   192
32.6241   171
32.6341   147
32.6441   163
32.6541   191
32.6641   190
32.6741   195
32.6841   183
32.6941   155
32.7041   168
32.7141   168
32.7241   177
32.7341   171
32.7441   163
32.7541   138
32.7641   158
32.7741   179
32.7841   180
32.7941   175
32.8041   186
32.8141   166
32.8241   182
32.8341   181
32.8441   193
32.8541   186
32.8641   169
32.8741   187
32.8841   168
32.8941   170
32.9041   163
32.9141   170
32.9241   164
32.9341   185
32.9441   166
32.9541   164
32.9641   149
32.9741   164
32.9841   163
32.9941   176
33.0041   164
33.0141   172
33.0241   162
33.0341   181
33.0441   153
33.0541   165
33.0641   164
33.0741   187
33.0841   160
33.0941   169
33.1041   165
33.1141   161
33.1241   159
33.1341   157
33.1441   174
33.1541   162
33.1641   159
33.1741   155
33.1841   163
33.1941   144
33.2041   178
33.2141   136
33.2241   173
33.2341   179
33.2441   169
33.2541   157
33.2641   170
33.2741   160
33.2841   160
33.2941   151
33.3041   144
33.3141   157
33.3241   148
33.3341   173
33.3441   165
33.3541   161
33.3641   180
33.3741   175
33.3841   156
33.3941   170
33.4041   174
33.4141   152
33.4241   176
33.4341   151
33.4441   147
33.4541   151
33.4641   153
33.4741   158
33.4841   164
33.4941   135
33.5041   156
33.5141   156
33.5241   140
33.5341   155
33.5441   153
33.5541   158
33.5641   156
33.5741   138
33.5841   136
33.5941   144
33.6041   154
33.6141   152
33.6241   150
33.6341   159
33.6441   160
33.6541   135
33.6641   156
33.6741   148
33.6841   149
33.6941   163
33.7041   160
33.7141   166
33.7241   160
33.7341   145
33.7441   167
33.7541   167
33.7641   148
33.7741   167
33.7841   132
33.7941   114
33.8041   140
33.8141   125
33.8241   136
33.8341   145
33.8441   140
33.8541   165
33.8641   154
33.8741   156
33.8841   148
33.8941   145
33.9041   128
33.9141   138
33.9241   160
33.9341   132
33.9441   149
33.9541   161
33.9641   154
33.9741   159
33.9841   140
33.9941   132
34.0041   130
34.0141   129
34.0241   128
34.0341   158
34.0441   159
34.0541   141
34.0641   133
34.0741   147
34.0841   136
34.0941   132
34.1041   147
34.1141   150
34.1241   145
34.1341   135
34.1441   136
34.1541   125
34.1641   159
34.1741   144
34.1841   142
34.1941   130
34.2041   118
34.2141   150
34.2241   149
34.2341   125
34.2441   134
34.2541   151
34.2641   132
34.2741   140
34.2841   137
34.2941   139
34.3041   129
34.3141   129
34.3241   131
34.3341   127
34.3441   139
34.3541   129
34.3641   143
34.3741   135
34.3841   124
34.3941   138
34.4041   126
34.4141   141
34.4241   135
34.4341   130
34.4441   123
34.4541   145
34.4641   135
34.4741   128
34.4841   127
34.4941   127
34.5041   130
34.5141   145
34.5241   137
34.5341   120
34.5441   132
34.5541   114
34.5641   125
34.5741   140
34.5841   135
34.5941   121
34.6041   136
34.6141   107
34.6241   119
34.6341   110
34.6441   125
34.6541   134
34.6641   112
34.6741   128
34.6841   131
34.6941   123
34.7041   113
34.7141   121
34.7241   118
34.7341   125
34.7441   136
34.7541   130
34.7641   109
34.7741   115
34.7841   107
34.7941   133
34.8041   111
34.8141   113
34.8241   121
34.8341   122
34.8441   107
34.8541   109
34.8641   138
34.8741   124
34.8841   111
34.8941   124
34.9041   124
34.9141   108
34.9241   110
34.9341   119
34.9441   115
34.9541   124
34.9641   130
34.9741   123
34.9841   123
34.9941   129
35.0041   107
35.0141   106
35.0241    97
35.0341   115
35.0441   107
35.0541   117
35.0641   111
35.0741   111
35.0841   126
35.0941   107
35.1041   106
35.1141   101
35.1241   123
35.1341   107
35.1441   121
35.1541   107
35.1641   136
35.1741   136
35.1841   107
35.1941   109
35.2041    98
35.2141    89
35.2241   105
35.2341   105
35.2441   105
35.2541   105
35.2641   107
35.2741   103
35.2841    98
35.2941   125
35.3041   109
35.3141   107
35.3241   103
35.3341    88
35.3441   117
35.3541   116
35.3641   107
35.3741    99
35.3841    94
35.3941   105
35.4041   120
35.4141   100
35.4241   104
35.4341   130
35.4441    99
35.4541   106
35.4641   108
35.4741    97
35.4841   114
35.4941   110
35.5041    94
35.5141    97
35.5241    98
35.5341   106
35.5441   105
35.5541   117
35.5641   108
35.5741    96
35.5841    84
35.5941   121
35.6041    88
35.6141    90
35.6241   103
35.6341   110
35.6441   109
35.6541    99
35.6641   119
35.6741    98
35.6841    92
35.6941    89
35.7041   103
35.7141   114
35.7241   101
35.7341   106
35.7441    94
35.7541   104
35.7641   118
35.7741   111
35.7841   118
35.7941   102
35.8041    99
35.8141   100
35.8241   114
35.8341    88
35.8441    91
35.8541   106
35.8641   102
35.8741    91
35.8841    99
35.8941   113
35.9041   115
35.9141    88
35.9241    90
35.9341    92
35.9441   111
35.9541    99
35.9641   106
35.9741    85
35.9841    91
35.9941    87
36.0041    94
36.0141   100
36.0241    88
36.0341    83
36.0441    90
36.0541    91
36.0641    96
36.0741    83
36.0841    94
36.0941    99
36.1041    95
36.1141    95
36.1241   100
36.1341    86
36.1441   112
36.1541    97
36.1641    99
36.1741   115
36.1841   100
36.1941   104
36.2041    67
36.2141    78
36.2241   100
36.2341   109
36.2441    75
36.2541    84
36.2641    93
36.2741   100
36.2841    97
36.2941    87
36.3041    89
36.3141    77
36.3241    88
36.3341    92
36.3441    94
36.3541   102
36.3641    86
36.3741    87
36.3841    97
36.3941    80
36.4041    90
36.4141    91
36.4241    77
36.4341    94
36.4441    82
36.4541    88
36.4641    79
36.4741    74
36.4841    82
36.4941    75
36.5041    90
36.5141    84
36.5241    92
36.5341    67
36.5441    85
36.5541    94
36.5641    83
36.5741    65
36.5841    72
36.5941    69
36.6041    89
36.6141    78
36.6241    96
36.6341    92
36.6441    78
36.6541    85
36.6641    65
36.6741    69
36.6841    73
36.6941    77
36.7041    65
36.7141    82
36.7241    79
36.7341    79
36.7441    76
36.7541    73
36.7641    83
36.7741    87
36.7841    93
36.7941    72
36.8041    78
36.8141    69
36.8241    78
36.8341    78
36.8441    69
36.8541    63
36.8641    88
36.8741    74
36.8841    84
36.8941    73
36.9041    74
36.9141    78
36.9241    79
36.9341    69
36.9441    81
36.9541    75
36.9641    72
36.9741    91
36.9841    80
36.9941    94
37.0041    74
37.0141    92
37.0241    85
37.0341    70
37.0441    67
37.0541    78
37.0641    79
37.0741    86
37.0841    72
37.0941    60
37.1041    74
37.1141    81
37.1241    64
37.1341    71
37.1441    73
37.1541    61
37.1641    70
37.1741    79
37.1841    88
37.1941    71
37.2041    67
37.2141    72
37.2241    56
37.2341    80
37.2441    73
37.2541    74
37.2641    84
37.2741    78
37.2841    75
37.2941    74
37.3041    73
37.3141    59
37.3241    80
37.3341    67
37.3441    74
37.3541    77
37.3641    70
37.3741    71
37.3841    60
37.3941    76
37.4041    74
37.4141    76
37.4241    63
37.4341    57
37.4441    58
37.4541    71
37.4641    58
37.4741    63
37.4841    65
37.4941    79
37.5041    67
37.5141    83
37.5241    50
37.5341    80
37.5441    72
37.5541    64
37.5641    68
37.5741    65
37.5841    65
37.5941    63
37.6041    59
37.6141    66
37.6241    67
37.6341    70
37.6441    58
37.6541    56
37.6641    45
37.6741    55
37.6841    61
37.6941    70
37.7041    62
37.7141    66
37.7241    58
37.7341    79
37.7441    52
37.7541    57
37.7641    55
37.7741    53
37.7841    52
37.7941    65
37.8041    62
37.8141    58
37.8241    63
37.8341    55
37.8441    65
37.8541    65
37.8641    66
37.8741    59
37.8841    67
37.8941    57
37.9041    54
37.9141    59
37.9241    67
37.9341    76
37.9441    69
37.9541    62
37.9641    59
37.9741    43
37.9841    64
37.9941    71
38.0041    55
38.0141    53
38.0241    46
38.0341    61
38.0441    62
38.0541    51
38.0641    56
38.0741    52
38.0841    50
38.0941    52
38.1041    53
38.1141    52
38.1241    53
38.1341    63
38.1441    51
38.1541    61
38.1641    55
38.1741    43
38.1841    70
38.1941    53
38.2041    58
38.2141    51
38.2241    48
38.2341    63
38.2441    50
38.2541    54
38.2641    60
38.2741    70
38.2841    42
38.2941    65
38.3041    56
38.3141    46
38.3241    50
38.3341    42
38.3441    56
38.3541    50
38.3641    46
38.3741    58
38.3841    56
38.3941    54
38.4041    53
38.4141    43
38.4241    49
38.4341    49
38.4441    53
38.4541    50
38.4641    43
38.4741    60
38.4841    39
38.4941    45
38.5041    37
38.5141    64
38.5241    51
38.5341    48
38.5441    48
38.5541    58
38.5641    44
38.5741    49
38.5841    55
38.5941    61
38.6041    50
38.6141    56
38.6241    41
38.6341    43
38.6441    50
38.6541    47
38.6641    43
38.6741    50
38.6841    58
38.6941    55
38.7041    55
38.7141    49
38.7241    49
38.7341    44
38.7441    48
38.7541    51
38.7641    54
38.7741    39
38.7841    50
38.7941    50
38.8041    45
38.8141    44
38.8241    51
38.8341    44
38.8441    60
38.8541    51
38.8641    38
38.8741    46
38.8841    46
38.8941    39
38.9041    36
38.9141    58
38.9241    48
38.9341    41
38.9441    46
38.9541    46
38.9641    37
38.9741    50
38.9841    41
38.9941    39
39.0041    46
39.0141    35
39.0241    37
39.0341    43
39.0441    39
39.0541    40
39.0641    38
39.0741    33
39.0841    40
39.0941    38
39.1041    47
39.1141    48
39.1241    44
39.1341    36
39.1441    43
39.1541    40
39.1641    52
39.1741    41
39.1841    43
39.1941    31
39.2041    40
39.2141    37
39.2241    34
39.2341    35
39.2441    29
39.2541    33
39.2641    46
39.2741    49
39.2841    27
39.2941    52
39.3041    37
39.3141    42
39.3241    32
39.3341    43
39.3441    44
39.3541    32
39.3641    35
39.3741    41
39.3841    36
39.3941    44
39.4041    45
39.4141    34
39.4241    29
39.4341    42
39.4441    47
39.4541    38
39.4641    48
39.4741    35
39.4841    44
39.4941    28
39.5041    31
39.5141    31
39.5241    43
39.5341    38
39.5441    38
39.5541    31
39.5641    45
39.5741    27
39.5841    30
39.5941    34
39.6041    40
39.6141    30
39.6241    45
39.6341    47
39.6441    44
39.6541    42
39.6641    30
39.6741    30
39.6841    40
39.6941    37
39.7041    36
39.7141    31
39.7241    36
39.7341    26
39.7441    37
39.7541    41
39.7641    37
39.7741    29
39.7841    23
39.7941    30
39.8041    32
39.8141    45
39.8241    33
39.8341    34
39.8441    30
39.8541    29
39.8641    33
39.8741    35
39.8841    33
39.8941    30
39.9041    24
39.9141    35
39.9241    27
39.9341    31
39.9441    31
39.9541    33
39.9641    33
39.9741    42
39.9841    31
