Bruker Nano GmbH Berlin, Germany
Esprit 1.9

Date: 4/1/2021 4:07:31 PM
Real time: 16613
Life time: 15396
Pulse density: 111546


Detector type: XFlash 430
Window type: Custom type
Detector thickness: 0.45
Si dead layer:0.029

Calibration, lin.: 10
Calibration, abs.: -955.9
Mn FWHM: 137.05
Fano factor: 0.121
Channels: 4095

Energy Counts
-0.9559     0
-0.9459     0
-0.9359     0
-0.9259     0
-0.9159     0
-0.9059     0
-0.8959     0
-0.8859     0
-0.8759     0
-0.8659     0
-0.8559     0
-0.8459     0
-0.8359     0
-0.8259     0
-0.8159     0
-0.8059     0
-0.7959     0
-0.7859     0
-0.7759     0
-0.7659     0
-0.7559     0
-0.7459     0
-0.7359     0
-0.7259     0
-0.7159     0
-0.7059     0
-0.6959     0
-0.6859     0
-0.6759     0
-0.6659     0
-0.6559     0
-0.6459     0
-0.6359     0
-0.6259     0
-0.6159     0
-0.6059     0
-0.5959     0
-0.5859     0
-0.5759     0
-0.5659     0
-0.5559     0
-0.5459     0
-0.5359     0
-0.5259     0
-0.5159     0
-0.5059     0
-0.4959     0
-0.4859     0
-0.4759     0
-0.4659     0
-0.4559     0
-0.4459     0
-0.4359     0
-0.4259     0
-0.4159     0
-0.4059     0
-0.3959     0
-0.3859     0
-0.3759     0
-0.3659     0
-0.3559     0
-0.3459     0
-0.3359     0
-0.3259     0
-0.3159     0
-0.3059     0
-0.2959     0
-0.2859     0
-0.2759     0
-0.2659     0
-0.2559     0
-0.2459     0
-0.2359     0
-0.2259     0
-0.2159     0
-0.2059     0
-0.1959     0
-0.1859     0
-0.1759     0
-0.1659     0
-0.1559     0
-0.1459     0
-0.1359     0
-0.1259     0
-0.1159     5
-0.1059     9
-0.0959    40
-0.0859   178
-0.0759   593
-0.0659  1744
-0.0559  4445
-0.0459  9723
-0.0359 18304
-0.0259 29223
-0.0159 40124
-0.0059 47307
 0.0041 47830
 0.0141 40955
 0.0241 30250
 0.0341 18828
 0.0441 10247
 0.0541  4801
 0.0641  1928
 0.0741   643
 0.0841   211
 0.0941    75
 0.1041    22
 0.1141    10
 0.1241     8
 0.1341     5
 0.1441     1
 0.1541     3
 0.1641     1
 0.1741    20
 0.1841   146
 0.1941   264
 0.2041   240
 0.2141   260
 0.2241   254
 0.2341   244
 0.2441   261
 0.2541   234
 0.2641   245
 0.2741   233
 0.2841   225
 0.2941   245
 0.3041   221
 0.3141   226
 0.3241   224
 0.3341   240
 0.3441   233
 0.3541   200
 0.3641   205
 0.3741   238
 0.3841   218
 0.3941   232
 0.4041   232
 0.4141   213
 0.4241   215
 0.4341   206
 0.4441   209
 0.4541   206
 0.4641   196
 0.4741   188
 0.4841   204
 0.4941   206
 0.5041   190
 0.5141   211
 0.5241   222
 0.5341   199
 0.5441   191
 0.5541   199
 0.5641   210
 0.5741   204
 0.5841   196
 0.5941   206
 0.6041   212
 0.6141   190
 0.6241   180
 0.6341   191
 0.6441   194
 0.6541   193
 0.6641   176
 0.6741   153
 0.6841   159
 0.6941   178
 0.7041   188
 0.7141   178
 0.7241   173
 0.7341   179
 0.7441   181
 0.7541   173
 0.7641   174
 0.7741   177
 0.7841   183
 0.7941   176
 0.8041   173
 0.8141   173
 0.8241   160
 0.8341   167
 0.8441   158
 0.8541   162
 0.8641   163
 0.8741   173
 0.8841   166
 0.8941   150
 0.9041   168
 0.9141   167
 0.9241   177
 0.9341   174
 0.9441   185
 0.9541   154
 0.9641   135
 0.9741   151
 0.9841   148
 0.9941   181
 1.0041   159
 1.0141   169
 1.0241   164
 1.0341   150
 1.0441   167
 1.0541   142
 1.0641   150
 1.0741   164
 1.0841   156
 1.0941   155
 1.1041   160
 1.1141   171
 1.1241   152
 1.1341   140
 1.1441   147
 1.1541   145
 1.1641   134
 1.1741   142
 1.1841   147
 1.1941   152
 1.2041   163
 1.2141   163
 1.2241   161
 1.2341   146
 1.2441   142
 1.2541   163
 1.2641   155
 1.2741   149
 1.2841   135
 1.2941   147
 1.3041   129
 1.3141   131
 1.3241   141
 1.3341   143
 1.3441   148
 1.3541   145
 1.3641   139
 1.3741   147
 1.3841   128
 1.3941   132
 1.4041   143
 1.4141   159
 1.4241   154
 1.4341   161
 1.4441   146
 1.4541   153
 1.4641   154
 1.4741   156
 1.4841   135
 1.4941   130
 1.5041   123
 1.5141   144
 1.5241   134
 1.5341   130
 1.5441   148
 1.5541   144
 1.5641   145
 1.5741   150
 1.5841   149
 1.5941   142
 1.6041   124
 1.6141   130
 1.6241   139
 1.6341   138
 1.6441   179
 1.6541   172
 1.6641   219
 1.6741   265
 1.6841   328
 1.6941   361
 1.7041   416
 1.7141   531
 1.7241   563
 1.7341   619
 1.7441   641
 1.7541   571
 1.7641   534
 1.7741   445
 1.7841   395
 1.7941   306
 1.8041   274
 1.8141   221
 1.8241   204
 1.8341   200
 1.8441   204
 1.8541   182
 1.8641   164
 1.8741   144
 1.8841   137
 1.8941   155
 1.9041   125
 1.9141   149
 1.9241   151
 1.9341   147
 1.9441   159
 1.9541   153
 1.9641   155
 1.9741   156
 1.9841   171
 1.9941   168
 2.0041   181
 2.0141   167
 2.0241   166
 2.0341   165
 2.0441   150
 2.0541   135
 2.0641   122
 2.0741   129
 2.0841   137
 2.0941   141
 2.1041   136
 2.1141   135
 2.1241   129
 2.1341   136
 2.1441   109
 2.1541   144
 2.1641   131
 2.1741   119
 2.1841   115
 2.1941   124
 2.2041   141
 2.2141   126
 2.2241   133
 2.2341   135
 2.2441   142
 2.2541   127
 2.2641   109
 2.2741   115
 2.2841   113
 2.2941   118
 2.3041   116
 2.3141   121
 2.3241   114
 2.3341   117
 2.3441   104
 2.3541   117
 2.3641   131
 2.3741   114
 2.3841   114
 2.3941   125
 2.4041   115
 2.4141   125
 2.4241   100
 2.4341   119
 2.4441   110
 2.4541    95
 2.4641   121
 2.4741   115
 2.4841   139
 2.4941   110
 2.5041   114
 2.5141   103
 2.5241   116
 2.5341   102
 2.5441   106
 2.5541   113
 2.5641   104
 2.5741   102
 2.5841   104
 2.5941   110
 2.6041   120
 2.6141   102
 2.6241   124
 2.6341    95
 2.6441    96
 2.6541    82
 2.6641    93
 2.6741   113
 2.6841   116
 2.6941    98
 2.7041   100
 2.7141    94
 2.7241   108
 2.7341   111
 2.7441   115
 2.7541   112
 2.7641    85
 2.7741   111
 2.7841   117
 2.7941   109
 2.8041   126
 2.8141   111
 2.8241   103
 2.8341   134
 2.8441    85
 2.8541    98
 2.8641   103
 2.8741   118
 2.8841    96
 2.8941    96
 2.9041   101
 2.9141    92
 2.9241    89
 2.9341   103
 2.9441   102
 2.9541   102
 2.9641   114
 2.9741    93
 2.9841   108
 2.9941    96
 3.0041    96
 3.0141   111
 3.0241   102
 3.0341    85
 3.0441    84
 3.0541   104
 3.0641    90
 3.0741    88
 3.0841    89
 3.0941    90
 3.1041    96
 3.1141    77
 3.1241    90
 3.1341    70
 3.1441    91
 3.1541    84
 3.1641    80
 3.1741    77
 3.1841    91
 3.1941    84
 3.2041   102
 3.2141   102
 3.2241    91
 3.2341   109
 3.2441   114
 3.2541   144
 3.2641   153
 3.2741   183
 3.2841   169
 3.2941   207
 3.3041   200
 3.3141   223
 3.3241   192
 3.3341   195
 3.3441   167
 3.3541   161
 3.3641   142
 3.3741   129
 3.3841   121
 3.3941   114
 3.4041    94
 3.4141    77
 3.4241    92
 3.4341    81
 3.4441    87
 3.4541    71
 3.4641    69
 3.4741    89
 3.4841    87
 3.4941    81
 3.5041    83
 3.5141   103
 3.5241    81
 3.5341   116
 3.5441   113
 3.5541   143
 3.5641   155
 3.5741   163
 3.5841   222
 3.5941   294
 3.6041   367
 3.6141   457
 3.6241   590
 3.6341   685
 3.6441   835
 3.6541  1028
 3.6641  1155
 3.6741  1210
 3.6841  1328
 3.6941  1283
 3.7041  1292
 3.7141  1163
 3.7241  1013
 3.7341   830
 3.7441   708
 3.7541   527
 3.7641   395
 3.7741   352
 3.7841   234
 3.7941   159
 3.8041   139
 3.8141    98
 3.8241    91
 3.8341    91
 3.8441    88
 3.8541    70
 3.8641    80
 3.8741    85
 3.8841    82
 3.8941    77
 3.9041    94
 3.9141    89
 3.9241   105
 3.9341   151
 3.9441   135
 3.9541   155
 3.9641   191
 3.9741   204
 3.9841   252
 3.9941   222
 4.0041   260
 4.0141   271
 4.0241   258
 4.0341   239
 4.0441   228
 4.0541   228
 4.0641   158
 4.0741   156
 4.0841   141
 4.0941   115
 4.1041   111
 4.1141    94
 4.1241    89
 4.1341    87
 4.1441    80
 4.1541    81
 4.1641    65
 4.1741    67
 4.1841    59
 4.1941    64
 4.2041    54
 4.2141    75
 4.2241    71
 4.2341    64
 4.2441    59
 4.2541    61
 4.2641    51
 4.2741    63
 4.2841    66
 4.2941    65
 4.3041    71
 4.3141    66
 4.3241    75
 4.3341    76
 4.3441    77
 4.3541    75
 4.3641    99
 4.3741   104
 4.3841   118
 4.3941   166
 4.4041   174
 4.4141   204
 4.4241   296
 4.4341   349
 4.4441   394
 4.4541   508
 4.4641   539
 4.4741   655
 4.4841   743
 4.4941   748
 4.5041   827
 4.5141   757
 4.5241   703
 4.5341   640
 4.5441   631
 4.5541   537
 4.5641   487
 4.5741   358
 4.5841   308
 4.5941   252
 4.6041   184
 4.6141   166
 4.6241   141
 4.6341   112
 4.6441    96
 4.6541    81
 4.6641    90
 4.6741    84
 4.6841    79
 4.6941    79
 4.7041    75
 4.7141    71
 4.7241    77
 4.7341    68
 4.7441    73
 4.7541    77
 4.7641    83
 4.7741   106
 4.7841    99
 4.7941    96
 4.8041   113
 4.8141    94
 4.8241   112
 4.8341   127
 4.8441   142
 4.8541   154
 4.8641   166
 4.8741   181
 4.8841   224
 4.8941   198
 4.9041   199
 4.9141   220
 4.9241   215
 4.9341   231
 4.9441   222
 4.9541   213
 4.9641   220
 4.9741   198
 4.9841   170
 4.9941   169
 5.0041   128
 5.0141   144
 5.0241   118
 5.0341   106
 5.0441    93
 5.0541   116
 5.0641   101
 5.0741    70
 5.0841    74
 5.0941    99
 5.1041    95
 5.1141    95
 5.1241    75
 5.1341    76
 5.1441    85
 5.1541    82
 5.1641    75
 5.1741    74
 5.1841    86
 5.1941   102
 5.2041    94
 5.2141    93
 5.2241    87
 5.2341    91
 5.2441    92
 5.2541    81
 5.2641   104
 5.2741    99
 5.2841   115
 5.2941   104
 5.3041   117
 5.3141   102
 5.3241   150
 5.3341   163
 5.3441   177
 5.3541   194
 5.3641   210
 5.3741   241
 5.3841   247
 5.3941   245
 5.4041   248
 5.4141   267
 5.4241   256
 5.4341   239
 5.4441   251
 5.4541   218
 5.4641   215
 5.4741   167
 5.4841   164
 5.4941   150
 5.5041   138
 5.5141   125
 5.5241   106
 5.5341    96
 5.5441   104
 5.5541    99
 5.5641    83
 5.5741    82
 5.5841    81
 5.5941    93
 5.6041    80
 5.6141    89
 5.6241    78
 5.6341    82
 5.6441    69
 5.6541    87
 5.6641    83
 5.6741    83
 5.6841    91
 5.6941    90
 5.7041    96
 5.7141   106
 5.7241   117
 5.7341   124
 5.7441   102
 5.7541   132
 5.7641   143
 5.7741   192
 5.7841   218
 5.7941   259
 5.8041   344
 5.8141   351
 5.8241   455
 5.8341   545
 5.8441   574
 5.8541   676
 5.8641   748
 5.8741   783
 5.8841   766
 5.8941   809
 5.9041   833
 5.9141   740
 5.9241   698
 5.9341   669
 5.9441   608
 5.9541   500
 5.9641   422
 5.9741   403
 5.9841   326
 5.9941   288
 6.0041   257
 6.0141   181
 6.0241   191
 6.0341   165
 6.0441   159
 6.0541   142
 6.0641   126
 6.0741   140
 6.0841   115
 6.0941   112
 6.1041   145
 6.1141   135
 6.1241   165
 6.1341   143
 6.1441   162
 6.1541   170
 6.1641   221
 6.1741   240
 6.1841   277
 6.1941   347
 6.2041   450
 6.2141   586
 6.2241   744
 6.2341  1061
 6.2441  1537
 6.2541  2098
 6.2641  3151
 6.2741  4210
 6.2841  5622
 6.2941  7437
 6.3041  9413
 6.3141 11798
 6.3241 14579
 6.3341 17876
 6.3441 20672
 6.3541 23605
 6.3641 25957
 6.3741 28204
 6.3841 29822
 6.3941 30311
 6.4041 30269
 6.4141 29182
 6.4241 27304
 6.4341 25178
 6.4441 22184
 6.4541 19569
 6.4641 16247
 6.4741 13384
 6.4841 10862
 6.4941  8440
 6.5041  6459
 6.5141  4688
 6.5241  3469
 6.5341  2430
 6.5441  1806
 6.5541  1189
 6.5641   865
 6.5741   595
 6.5841   391
 6.5941   341
 6.6041   236
 6.6141   217
 6.6241   195
 6.6341   189
 6.6441   178
 6.6541   145
 6.6641   155
 6.6741   143
 6.6841   159
 6.6941   138
 6.7041   169
 6.7141   166
 6.7241   169
 6.7341   174
 6.7441   160
 6.7541   173
 6.7641   162
 6.7741   196
 6.7841   179
 6.7941   200
 6.8041   194
 6.8141   227
 6.8241   221
 6.8341   218
 6.8441   266
 6.8541   303
 6.8641   323
 6.8741   372
 6.8841   460
 6.8941   555
 6.9041   623
 6.9141   730
 6.9241   947
 6.9341  1215
 6.9441  1475
 6.9541  1786
 6.9641  2184
 6.9741  2563
 6.9841  3002
 6.9941  3575
 7.0041  4068
 7.0141  4469
 7.0241  4691
 7.0341  4965
 7.0441  5172
 7.0541  5217
 7.0641  5138
 7.0741  4949
 7.0841  4760
 7.0941  4283
 7.1041  3717
 7.1141  3347
 7.1241  2710
 7.1341  2443
 7.1441  2037
 7.1541  1579
 7.1641  1276
 7.1741   922
 7.1841   775
 7.1941   552
 7.2041   426
 7.2141   355
 7.2241   276
 7.2341   250
 7.2441   201
 7.2541   212
 7.2641   208
 7.2741   190
 7.2841   175
 7.2941   188
 7.3041   202
 7.3141   219
 7.3241   213
 7.3341   234
 7.3441   228
 7.3541   286
 7.3641   258
 7.3741   312
 7.3841   357
 7.3941   365
 7.4041   381
 7.4141   408
 7.4241   435
 7.4341   449
 7.4441   459
 7.4541   470
 7.4641   473
 7.4741   475
 7.4841   449
 7.4941   443
 7.5041   419
 7.5141   416
 7.5241   354
 7.5341   363
 7.5441   306
 7.5541   273
 7.5641   269
 7.5741   255
 7.5841   228
 7.5941   179
 7.6041   188
 7.6141   169
 7.6241   197
 7.6341   146
 7.6441   164
 7.6541   183
 7.6641   181
 7.6741   159
 7.6841   181
 7.6941   166
 7.7041   180
 7.7141   168
 7.7241   157
 7.7341   171
 7.7441   169
 7.7541   209
 7.7641   213
 7.7741   211
 7.7841   195
 7.7941   229
 7.8041   212
 7.8141   201
 7.8241   200
 7.8341   231
 7.8441   223
 7.8541   220
 7.8641   221
 7.8741   248
 7.8841   258
 7.8941   253
 7.9041   280
 7.9141   279
 7.9241   293
 7.9341   329
 7.9441   354
 7.9541   367
 7.9641   391
 7.9741   405
 7.9841   431
 7.9941   413
 8.0041   471
 8.0141   538
 8.0241   599
 8.0341   630
 8.0441   649
 8.0541   720
 8.0641   706
 8.0741   745
 8.0841   863
 8.0941   919
 8.1041   911
 8.1141   973
 8.1241   922
 8.1341   949
 8.1441  1059
 8.1541  1042
 8.1641  1057
 8.1741  1156
 8.1841  1121
 8.1941  1173
 8.2041  1153
 8.2141  1174
 8.2241  1210
 8.2341  1264
 8.2441  1297
 8.2541  1326
 8.2641  1334
 8.2741  1353
 8.2841  1582
 8.2941  1564
 8.3041  1679
 8.3141  1813
 8.3241  1935
 8.3341  2071
 8.3441  2214
 8.3541  2271
 8.3641  2427
 8.3741  2538
 8.3841  2588
 8.3941  2511
 8.4041  2399
 8.4141  2458
 8.4241  2267
 8.4341  2021
 8.4441  1882
 8.4541  1698
 8.4641  1511
 8.4741  1362
 8.4841  1121
 8.4941   955
 8.5041   812
 8.5141   743
 8.5241   623
 8.5341   525
 8.5441   493
 8.5541   469
 8.5641   447
 8.5741   380
 8.5841   377
 8.5941   378
 8.6041   401
 8.6141   381
 8.6241   424
 8.6341   405
 8.6441   376
 8.6541   412
 8.6641   398
 8.6741   388
 8.6841   361
 8.6941   340
 8.7041   337
 8.7141   301
 8.7241   300
 8.7341   316
 8.7441   278
 8.7541   278
 8.7641   263
 8.7741   277
 8.7841   268
 8.7941   256
 8.8041   238
 8.8141   222
 8.8241   253
 8.8341   237
 8.8441   230
 8.8541   258
 8.8641   251
 8.8741   251
 8.8841   268
 8.8941   266
 8.9041   235
 8.9141   235
 8.9241   259
 8.9341   255
 8.9441   247
 8.9541   276
 8.9641   266
 8.9741   239
 8.9841   270
 8.9941   279
 9.0041   305
 9.0141   274
 9.0241   310
 9.0341   274
 9.0441   290
 9.0541   293
 9.0641   326
 9.0741   333
 9.0841   319
 9.0941   354
 9.1041   371
 9.1141   399
 9.1241   430
 9.1341   372
 9.1441   439
 9.1541   515
 9.1641   493
 9.1741   510
 9.1841   536
 9.1941   542
 9.2041   552
 9.2141   598
 9.2241   617
 9.2341   663
 9.2441   687
 9.2541   763
 9.2641   759
 9.2741   796
 9.2841   785
 9.2941   832
 9.3041   872
 9.3141   916
 9.3241   914
 9.3341   936
 9.3441  1004
 9.3541  1026
 9.3641  1024
 9.3741  1059
 9.3841  1027
 9.3941  1087
 9.4041  1082
 9.4141  1094
 9.4241  1094
 9.4341  1132
 9.4441  1135
 9.4541  1124
 9.4641  1206
 9.4741  1230
 9.4841  1236
 9.4941  1214
 9.5041  1227
 9.5141  1290
 9.5241  1400
 9.5341  1398
 9.5441  1436
 9.5541  1497
 9.5641  1551
 9.5741  1658
 9.5841  1707
 9.5941  1849
 9.6041  1886
 9.6141  2001
 9.6241  2160
 9.6341  2246
 9.6441  2277
 9.6541  2326
 9.6641  2241
 9.6741  2293
 9.6841  2272
 9.6941  2245
 9.7041  2075
 9.7141  1957
 9.7241  1896
 9.7341  1818
 9.7441  1634
 9.7541  1521
 9.7641  1414
 9.7741  1292
 9.7841  1161
 9.7941  1086
 9.8041  1028
 9.8141  1007
 9.8241   959
 9.8341   930
 9.8441   937
 9.8541   907
 9.8641   888
 9.8741   892
 9.8841   923
 9.8941   962
 9.9041   991
 9.9141   974
 9.9241   994
 9.9341  1033
 9.9441  1060
 9.9541  1055
 9.9641   985
 9.9741   975
 9.9841   923
 9.9941   855
10.0041   858
10.0141   762
10.0241   711
10.0341   675
10.0441   619
10.0541   534
10.0641   471
10.0741   442
10.0841   385
10.0941   365
10.1041   317
10.1141   298
10.1241   282
10.1341   259
10.1441   241
10.1541   210
10.1641   197
10.1741   207
10.1841   196
10.1941   180
10.2041   160
10.2141   173
10.2241   172
10.2341   170
10.2441   168
10.2541   169
10.2641   146
10.2741   129
10.2841   139
10.2941   135
10.3041   123
10.3141   122
10.3241   136
10.3341   147
10.3441   132
10.3541   130
10.3641   121
10.3741   127
10.3841   129
10.3941   125
10.4041   115
10.4141   105
10.4241   112
10.4341   122
10.4441   136
10.4541   130
10.4641   136
10.4741   134
10.4841   129
10.4941   156
10.5041   157
10.5141   143
10.5241   144
10.5341   158
10.5441   146
10.5541   161
10.5641   163
10.5741   168
10.5841   173
10.5941   154
10.6041   152
10.6141   152
10.6241   151
10.6341   156
10.6441   164
10.6541   154
10.6641   159
10.6741   168
10.6841   162
10.6941   170
10.7041   164
10.7141   153
10.7241   170
10.7341   166
10.7441   160
10.7541   196
10.7641   207
10.7741   207
10.7841   206
10.7941   201
10.8041   215
10.8141   217
10.8241   232
10.8341   229
10.8441   233
10.8541   235
10.8641   212
10.8741   208
10.8841   231
10.8941   252
10.9041   233
10.9141   238
10.9241   250
10.9341   254
10.9441   237
10.9541   231
10.9641   249
10.9741   244
10.9841   228
10.9941   228
11.0041   237
11.0141   239
11.0241   239
11.0341   226
11.0441   226
11.0541   226
11.0641   201
11.0741   189
11.0841   197
11.0941   211
11.1041   214
11.1141   210
11.1241   202
11.1341   198
11.1441   194
11.1541   232
11.1641   240
11.1741   234
11.1841   251
11.1941   274
11.2041   257
11.2141   281
11.2241   318
11.2341   286
11.2441   294
11.2541   319
11.2641   302
11.2741   312
11.2841   322
11.2941   341
11.3041   334
11.3141   302
11.3241   284
11.3341   290
11.3441   292
11.3541   265
11.3641   253
11.3741   251
11.3841   248
11.3941   220
11.4041   220
11.4141   206
11.4241   187
11.4341   198
11.4441   191
11.4541   174
11.4641   170
11.4741   156
11.4841   161
11.4941   180
11.5041   165
11.5141   155
11.5241   172
11.5341   176
11.5441   168
11.5541   172
11.5641   181
11.5741   191
11.5841   182
11.5941   179
11.6041   167
11.6141   171
11.6241   178
11.6341   182
11.6441   209
11.6541   198
11.6641   172
11.6741   163
11.6841   166
11.6941   167
11.7041   144
11.7141   135
11.7241   155
11.7341   146
11.7441   157
11.7541   152
11.7641   138
11.7741   140
11.7841   142
11.7941   149
11.8041   137
11.8141   156
11.8241   143
11.8341   134
11.8441   141
11.8541   133
11.8641   150
11.8741   150
11.8841   146
11.8941   140
11.9041   132
11.9141   121
11.9241   127
11.9341   128
11.9441   145
11.9541   146
11.9641   127
11.9741   126
11.9841   139
11.9941   153
12.0041   156
12.0141   139
12.0241   141
12.0341   152
12.0441   156
12.0541   147
12.0641   142
12.0741   134
12.0841   149
12.0941   131
12.1041   126
12.1141   140
12.1241   145
12.1341   117
12.1441   133
12.1541   146
12.1641   130
12.1741   133
12.1841   123
12.1941   122
12.2041   118
12.2141   118
12.2241   134
12.2341   133
12.2441   110
12.2541   119
12.2641   135
12.2741   137
12.2841   132
12.2941   123
12.3041   123
12.3141   120
12.3241   125
12.3341   136
12.3441   128
12.3541   117
12.3641   110
12.3741   120
12.3841   118
12.3941   133
12.4041   135
12.4141   129
12.4241   127
12.4341   124
12.4441   126
12.4541   127
12.4641   126
12.4741   126
12.4841   138
12.4941   140
12.5041   135
12.5141   145
12.5241   138
12.5341   137
12.5441   137
12.5541   128
12.5641   146
12.5741   155
12.5841   142
12.5941   136
12.6041   125
12.6141   134
12.6241   146
12.6341   136
12.6441   129
12.6541   131
12.6641   128
12.6741   127
12.6841   135
12.6941   140
12.7041   138
12.7141   135
12.7241   132
12.7341   131
12.7441   131
12.7541   134
12.7641   138
12.7741   146
12.7841   152
12.7941   150
12.8041   143
12.8141   142
12.8241   145
12.8341   150
12.8441   153
12.8541   144
12.8641   138
12.8741   145
12.8841   150
12.8941   151
12.9041   155
12.9141   157
12.9241   156
12.9341   163
12.9441   172
12.9541   172
12.9641   166
12.9741   158
12.9841   154
12.9941   154
13.0041   155
13.0141   166
13.0241   158
13.0341   148
13.0441   171
13.0541   179
13.0641   165
13.0741   159
13.0841   158
13.0941   148
13.1041   152
13.1141   160
13.1241   153
13.1341   156
13.1441   158
13.1541   160
13.1641   176
13.1741   160
13.1841   154
13.1941   172
13.2041   186
13.2141   179
13.2241   186
13.2341   215
13.2441   213
13.2541   203
13.2641   215
13.2741   215
13.2841   228
13.2941   227
13.3041   215
13.3141   221
13.3241   223
13.3341   228
13.3441   241
13.3541   245
13.3641   247
13.3741   256
13.3841   258
13.3941   248
13.4041   234
13.4141   235
13.4241   248
13.4341   250
13.4441   242
13.4541   236
13.4641   231
13.4741   223
13.4841   222
13.4941   220
13.5041   208
13.5141   195
13.5241   193
13.5341   195
13.5441   198
13.5541   200
13.5641   196
13.5741   189
13.5841   189
13.5941   193
13.6041   196
13.6141   189
13.6241   177
13.6341   178
13.6441   189
13.6541   198
13.6641   198
13.6741   197
13.6841   190
13.6941   194
13.7041   202
13.7141   194
13.7241   180
13.7341   202
13.7441   210
13.7541   195
13.7641   204
13.7741   202
13.7841   195
13.7941   189
13.8041   182
13.8141   192
13.8241   202
13.8341   204
13.8441   207
13.8541   214
13.8641   219
13.8741   217
13.8841   211
13.8941   212
13.9041   217
13.9141   217
13.9241   217
13.9341   227
13.9441   242
13.9541   248
13.9641   250
13.9741   266
13.9841   287
13.9941   299
14.0041   306
14.0141   321
14.0241   353
14.0341   384
14.0441   416
14.0541   444
14.0641   455
14.0741   456
14.0841   464
14.0941   485
14.1041   517
14.1141   553
14.1241   579
14.1341   587
14.1441   571
14.1541   548
14.1641   541
14.1741   541
14.1841   527
14.1941   508
14.2041   493
14.2141   470
14.2241   435
14.2341   401
14.2441   387
14.2541   386
14.2641   375
14.2741   354
14.2841   337
14.2941   303
14.3041   282
14.3141   292
14.3241   291
14.3341   270
14.3441   245
14.3541   237
14.3641   227
14.3741   222
14.3841   233
14.3941   240
14.4041   235
14.4141   226
14.4241   222
14.4341   241
14.4441   252
14.4541   233
14.4641   226
14.4741   219
14.4841   226
14.4941   228
14.5041   224
14.5141   222
14.5241   225
14.5341   232
14.5441   222
14.5541   226
14.5641   245
14.5741   235
14.5841   228
14.5941   233
14.6041   235
14.6141   229
14.6241   240
14.6341   248
14.6441   228
14.6541   226
14.6641   241
14.6741   239
14.6841   253
14.6941   265
14.7041   243
14.7141   236
14.7241   249
14.7341   246
14.7441   246
14.7541   262
14.7641   258
14.7741   253
14.7841   279
14.7941   292
14.8041   287
14.8141   280
14.8241   294
14.8341   290
14.8441   274
14.8541   291
14.8641   326
14.8741   328
14.8841   313
14.8941   308
14.9041   303
14.9141   300
14.9241   301
14.9341   292
14.9441   292
14.9541   318
14.9641   309
14.9741   320
14.9841   309
14.9941   293
15.0041   300
15.0141   300
15.0241   295
15.0341   289
15.0441   266
15.0541   273
15.0641   304
15.0741   302
15.0841   281
15.0941   277
15.1041   287
15.1141   257
15.1241   273
15.1341   292
15.1441   284
15.1541   284
15.1641   284
15.1741   279
15.1841   263
15.1941   254
15.2041   262
15.2141   259
15.2241   260
15.2341   265
15.2441   266
15.2541   279
15.2641   267
15.2741   271
15.2841   286
15.2941   286
15.3041   267
15.3141   288
15.3241   296
15.3341   283
15.3441   283
15.3541   275
15.3641   279
15.3741   299
15.3841   307
15.3941   306
15.4041   276
15.4141   285
15.4241   302
15.4341   278
15.4441   301
15.4541   311
15.4641   294
15.4741   300
15.4841   278
15.4941   279
15.5041   283
15.5141   286
15.5241   307
15.5341   307
15.5441   294
15.5541   316
15.5641   329
15.5741   355
15.5841   367
15.5941   387
15.6041   410
15.6141   420
15.6241   418
15.6341   389
15.6441   398
15.6541   432
15.6641   432
15.6741   464
15.6841   483
15.6941   517
15.7041   491
15.7141   504
15.7241   544
15.7341   557
15.7441   546
15.7541   554
15.7641   565
15.7741   547
15.7841   543
15.7941   563
15.8041   555
15.8141   520
15.8241   523
15.8341   494
15.8441   502
15.8541   484
15.8641   460
15.8741   430
15.8841   445
15.8941   429
15.9041   419
15.9141   400
15.9241   387
15.9341   401
15.9441   378
15.9541   362
15.9641   362
15.9741   344
15.9841   353
15.9941   360
16.0041   341
16.0141   325
16.0241   306
16.0341   313
16.0441   339
16.0541   347
16.0641   337
16.0741   322
16.0841   336
16.0941   334
16.1041   348
16.1141   341
16.1241   332
16.1341   320
16.1441   348
16.1541   343
16.1641   309
16.1741   310
16.1841   334
16.1941   344
16.2041   353
16.2141   342
16.2241   323
16.2341   335
16.2441   337
16.2541   348
16.2641   361
16.2741   346
16.2841   324
16.2941   333
16.3041   347
16.3141   345
16.3241   341
16.3341   341
16.3441   353
16.3541   369
16.3641   365
16.3741   335
16.3841   341
16.3941   357
16.4041   371
16.4141   355
16.4241   345
16.4341   359
16.4441   366
16.4541   363
16.4641   364
16.4741   359
16.4841   376
16.4941   347
16.5041   345
16.5141   369
16.5241   364
16.5341   330
16.5441   330
16.5541   361
16.5641   377
16.5741   395
16.5841   385
16.5941   365
16.6041   399
16.6141   404
16.6241   386
16.6341   372
16.6441   366
16.6541   387
16.6641   393
16.6741   395
16.6841   394
16.6941   397
16.7041   362
16.7141   359
16.7241   382
16.7341   386
16.7441   415
16.7541   398
16.7641   389
16.7741   393
16.7841   374
16.7941   369
16.8041   370
16.8141   375
16.8241   370
16.8341   374
16.8441   373
16.8541   380
16.8641   392
16.8741   374
16.8841   387
16.8941   388
16.9041   360
16.9141   376
16.9241   397
16.9341   408
16.9441   382
16.9541   376
16.9641   396
16.9741   374
16.9841   395
16.9941   388
17.0041   380
17.0141   373
17.0241   393
17.0341   419
17.0441   389
17.0541   372
17.0641   390
17.0741   397
17.0841   389
17.0941   386
17.1041   362
17.1141   389
17.1241   404
17.1341   410
17.1441   410
17.1541   396
17.1641   397
17.1741   414
17.1841   397
17.1941   411
17.2041   402
17.2141   407
17.2241   395
17.2341   400
17.2441   395
17.2541   403
17.2641   406
17.2741   391
17.2841   420
17.2941   425
17.3041   416
17.3141   400
17.3241   404
17.3341   407
17.3441   429
17.3541   414
17.3641   412
17.3741   432
17.3841   435
17.3941   430
17.4041   443
17.4141   448
17.4241   431
17.4341   439
17.4441   433
17.4541   432
17.4641   440
17.4741   421
17.4841   467
17.4941   448
17.5041   476
17.5141   487
17.5241   464
17.5341   434
17.5441   450
17.5541   416
17.5641   454
17.5741   475
17.5841   461
17.5941   463
17.6041   462
17.6141   443
17.6241   487
17.6341   491
17.6441   456
17.6541   445
17.6641   469
17.6741   471
17.6841   460
17.6941   468
17.7041   456
17.7141   429
17.7241   453
17.7341   464
17.7441   468
17.7541   437
17.7641   413
17.7741   458
17.7841   466
17.7941   406
17.8041   409
17.8141   434
17.8241   462
17.8341   439
17.8441   467
17.8541   469
17.8641   433
17.8741   452
17.8841   451
17.8941   438
17.9041   445
17.9141   454
17.9241   469
17.9341   443
17.9441   463
17.9541   479
17.9641   461
17.9741   448
17.9841   475
17.9941   448
18.0041   451
18.0141   468
18.0241   467
18.0341   420
18.0441   438
18.0541   418
18.0641   444
18.0741   453
18.0841   464
18.0941   464
18.1041   459
18.1141   432
18.1241   448
18.1341   451
18.1441   438
18.1541   438
18.1641   457
18.1741   450
18.1841   423
18.1941   430
18.2041   437
18.2141   452
18.2241   441
18.2341   436
18.2441   453
18.2541   478
18.2641   440
18.2741   456
18.2841   499
18.2941   461
18.3041   445
18.3141   451
18.3241   481
18.3341   471
18.3441   476
18.3541   468
18.3641   437
18.3741   459
18.3841   464
18.3941   466
18.4041   462
18.4141   481
18.4241   468
18.4341   460
18.4441   463
18.4541   448
18.4641   465
18.4741   462
18.4841   475
18.4941   459
18.5041   439
18.5141   454
18.5241   481
18.5341   480
18.5441   434
18.5541   470
18.5641   477
18.5741   483
18.5841   476
18.5941   478
18.6041   463
18.6141   470
18.6241   466
18.6341   446
18.6441   502
18.6541   476
18.6641   443
18.6741   478
18.6841   467
18.6941   476
18.7041   463
18.7141   459
18.7241   439
18.7341   483
18.7441   490
18.7541   470
18.7641   459
18.7741   455
18.7841   457
18.7941   455
18.8041   479
18.8141   510
18.8241   484
18.8341   478
18.8441   472
18.8541   481
18.8641   483
18.8741   474
18.8841   501
18.8941   509
18.9041   474
18.9141   506
18.9241   467
18.9341   492
18.9441   462
18.9541   457
18.9641   469
18.9741   482
18.9841   475
18.9941   494
19.0041   508
19.0141   470
19.0241   499
19.0341   472
19.0441   465
19.0541   508
19.0641   454
19.0741   466
19.0841   487
19.0941   465
19.1041   450
19.1141   486
19.1241   474
19.1341   467
19.1441   471
19.1541   504
19.1641   487
19.1741   494
19.1841   481
19.1941   475
19.2041   515
19.2141   472
19.2241   494
19.2341   501
19.2441   487
19.2541   456
19.2641   502
19.2741   498
19.2841   504
19.2941   477
19.3041   494
19.3141   480
19.3241   479
19.3341   498
19.3441   516
19.3541   492
19.3641   481
19.3741   518
19.3841   476
19.3941   482
19.4041   510
19.4141   535
19.4241   496
19.4341   487
19.4441   494
19.4541   490
19.4641   480
19.4741   467
19.4841   471
19.4941   501
19.5041   497
19.5141   542
19.5241   489
19.5341   505
19.5441   488
19.5541   541
19.5641   519
19.5741   487
19.5841   459
19.5941   471
19.6041   533
19.6141   514
19.6241   501
19.6341   502
19.6441   496
19.6541   475
19.6641   497
19.6741   497
19.6841   500
19.6941   525
19.7041   468
19.7141   492
19.7241   476
19.7341   508
19.7441   532
19.7541   466
19.7641   475
19.7741   532
19.7841   496
19.7941   471
19.8041   489
19.8141   521
19.8241   484
19.8341   490
19.8441   474
19.8541   496
19.8641   539
19.8741   514
19.8841   500
19.8941   507
19.9041   519
19.9141   527
19.9241   503
19.9341   494
19.9441   496
19.9541   484
19.9641   507
19.9741   484
19.9841   493
19.9941   495
20.0041   543
20.0141   520
20.0241   518
20.0341   488
20.0441   524
20.0541   492
20.0641   461
20.0741   454
20.0841   505
20.0941   504
20.1041   475
20.1141   470
20.1241   504
20.1341   514
20.1441   478
20.1541   482
20.1641   478
20.1741   501
20.1841   481
20.1941   490
20.2041   476
20.2141   491
20.2241   508
20.2341   506
20.2441   499
20.2541   521
20.2641   500
20.2741   467
20.2841   518
20.2941   512
20.3041   491
20.3141   521
20.3241   492
20.3341   493
20.3441   511
20.3541   469
20.3641   498
20.3741   488
20.3841   501
20.3941   517
20.4041   509
20.4141   513
20.4241   482
20.4341   510
20.4441   516
20.4541   488
20.4641   489
20.4741   478
20.4841   492
20.4941   511
20.5041   538
20.5141   515
20.5241   525
20.5341   490
20.5441   493
20.5541   491
20.5641   543
20.5741   482
20.5841   499
20.5941   505
20.6041   463
20.6141   483
20.6241   507
20.6341   522
20.6441   549
20.6541   528
20.6641   501
20.6741   532
20.6841   527
20.6941   543
20.7041   514
20.7141   507
20.7241   533
20.7341   497
20.7441   449
20.7541   505
20.7641   533
20.7741   519
20.7841   513
20.7941   509
20.8041   551
20.8141   537
20.8241   488
20.8341   530
20.8441   532
20.8541   516
20.8641   546
20.8741   554
20.8841   546
20.8941   522
20.9041   571
20.9141   557
20.9241   569
20.9341   571
20.9441   609
20.9541   615
20.9641   651
20.9741   630
20.9841   648
20.9941   589
21.0041   626
21.0141   648
21.0241   642
21.0341   672
21.0441   668
21.0541   693
21.0641   694
21.0741   720
21.0841   679
21.0941   698
21.1041   712
21.1141   759
21.1241   682
21.1341   680
21.1441   722
21.1541   720
21.1641   678
21.1741   714
21.1841   708
21.1941   707
21.2041   660
21.2141   679
21.2241   685
21.2341   678
21.2441   674
21.2541   652
21.2641   621
21.2741   605
21.2841   599
21.2941   605
21.3041   605
21.3141   584
21.3241   566
21.3341   556
21.3441   541
21.3541   540
21.3641   528
21.3741   536
21.3841   502
21.3941   526
21.4041   534
21.4141   521
21.4241   542
21.4341   531
21.4441   524
21.4541   505
21.4641   573
21.4741   511
21.4841   494
21.4941   485
21.5041   523
21.5141   473
21.5241   478
21.5341   505
21.5441   551
21.5541   511
21.5641   505
21.5741   505
21.5841   485
21.5941   486
21.6041   499
21.6141   508
21.6241   453
21.6341   487
21.6441   518
21.6541   553
21.6641   497
21.6741   482
21.6841   491
21.6941   501
21.7041   518
21.7141   517
21.7241   501
21.7341   486
21.7441   507
21.7541   541
21.7641   493
21.7741   472
21.7841   516
21.7941   514
21.8041   484
21.8141   514
21.8241   507
21.8341   510
21.8441   515
21.8541   508
21.8641   520
21.8741   493
21.8841   478
21.8941   508
21.9041   514
21.9141   490
21.9241   502
21.9341   483
21.9441   507
21.9541   490
21.9641   503
21.9741   482
21.9841   476
21.9941   473
22.0041   513
22.0141   514
22.0241   505
22.0341   483
22.0441   494
22.0541   484
22.0641   475
22.0741   490
22.0841   524
22.0941   516
22.1041   473
22.1141   489
22.1241   484
22.1341   469
22.1441   505
22.1541   468
22.1641   482
22.1741   460
22.1841   475
22.1941   499
22.2041   487
22.2141   486
22.2241   513
22.2341   508
22.2441   472
22.2541   496
22.2641   478
22.2741   525
22.2841   497
22.2941   520
22.3041   473
22.3141   485
22.3241   462
22.3341   483
22.3441   513
22.3541   509
22.3641   483
22.3741   513
22.3841   480
22.3941   473
22.4041   516
22.4141   524
22.4241   476
22.4341   503
22.4441   488
22.4541   480
22.4641   483
22.4741   466
22.4841   510
22.4941   489
22.5041   487
22.5141   499
22.5241   525
22.5341   453
22.5441   493
22.5541   472
22.5641   460
22.5741   460
22.5841   483
22.5941   483
22.6041   484
22.6141   491
22.6241   513
22.6341   478
22.6441   494
22.6541   436
22.6641   514
22.6741   477
22.6841   505
22.6941   491
22.7041   497
22.7141   497
22.7241   456
22.7341   478
22.7441   476
22.7541   470
22.7641   477
22.7741   492
22.7841   452
22.7941   481
22.8041   502
22.8141   507
22.8241   479
22.8341   442
22.8441   492
22.8541   481
22.8641   476
22.8741   457
22.8841   457
22.8941   450
22.9041   482
22.9141   465
22.9241   440
22.9341   472
22.9441   460
22.9541   465
22.9641   469
22.9741   463
22.9841   495
22.9941   453
23.0041   475
23.0141   490
23.0241   463
23.0341   507
23.0441   464
23.0541   467
23.0641   487
23.0741   495
23.0841   478
23.0941   439
23.1041   453
23.1141   456
23.1241   489
23.1341   460
23.1441   468
23.1541   448
23.1641   473
23.1741   466
23.1841   485
23.1941   427
23.2041   477
23.2141   493
23.2241   460
23.2341   508
23.2441   473
23.2541   522
23.2641   429
23.2741   462
23.2841   461
23.2941   442
23.3041   454
23.3141   438
23.3241   519
23.3341   490
23.3441   465
23.3541   465
23.3641   469
23.3741   464
23.3841   450
23.3941   463
23.4041   455
23.4141   468
23.4241   494
23.4341   486
23.4441   440
23.4541   430
23.4641   461
23.4741   438
23.4841   488
23.4941   467
23.5041   465
23.5141   458
23.5241   411
23.5341   448
23.5441   457
23.5541   444
23.5641   480
23.5741   434
23.5841   487
23.5941   440
23.6041   435
23.6141   458
23.6241   460
23.6341   480
23.6441   489
23.6541   494
23.6641   497
23.6741   528
23.6841   491
23.6941   485
23.7041   491
23.7141   472
23.7241   482
23.7341   498
23.7441   466
23.7541   481
23.7641   463
23.7741   453
23.7841   515
23.7941   456
23.8041   468
23.8141   460
23.8241   476
23.8341   496
23.8441   497
23.8541   447
23.8641   469
23.8741   474
23.8841   483
23.8941   474
23.9041   449
23.9141   429
23.9241   474
23.9341   486
23.9441   444
23.9541   468
23.9641   473
23.9741   508
23.9841   477
23.9941   456
24.0041   439
24.0141   483
24.0241   437
24.0341   475
24.0441   451
24.0541   432
24.0641   468
24.0741   450
24.0841   400
24.0941   439
24.1041   408
24.1141   435
24.1241   461
24.1341   467
24.1441   433
24.1541   436
24.1641   458
24.1741   397
24.1841   441
24.1941   442
24.2041   417
24.2141   420
24.2241   438
24.2341   458
24.2441   433
24.2541   483
24.2641   413
24.2741   442
24.2841   395
24.2941   441
24.3041   427
24.3141   482
24.3241   434
24.3341   445
24.3441   455
24.3541   450
24.3641   424
24.3741   407
24.3841   457
24.3941   447
24.4041   421
24.4141   450
24.4241   428
24.4341   441
24.4441   413
24.4541   422
24.4641   430
24.4741   454
24.4841   426
24.4941   453
24.5041   424
24.5141   423
24.5241   393
24.5341   416
24.5441   436
24.5541   451
24.5641   415
24.5741   409
24.5841   401
24.5941   395
24.6041   420
24.6141   406
24.6241   440
24.6341   433
24.6441   448
24.6541   438
24.6641   421
24.6741   439
24.6841   395
24.6941   384
24.7041   405
24.7141   432
24.7241   423
24.7341   384
24.7441   457
24.7541   418
24.7641   425
24.7741   418
24.7841   444
24.7941   388
24.8041   422
24.8141   413
24.8241   427
24.8341   449
24.8441   407
24.8541   417
24.8641   396
24.8741   433
24.8841   413
24.8941   404
24.9041   408
24.9141   392
24.9241   426
24.9341   435
24.9441   414
24.9541   414
24.9641   414
24.9741   415
24.9841   416
24.9941   410
25.0041   402
25.0141   433
25.0241   404
25.0341   411
25.0441   405
25.0541   397
25.0641   398
25.0741   416
25.0841   408
25.0941   405
25.1041   410
25.1141   402
25.1241   398
25.1341   398
25.1441   429
25.1541   408
25.1641   407
25.1741   375
25.1841   437
25.1941   426
25.2041   428
25.2141   412
25.2241   411
25.2341   374
25.2441   373
25.2541   400
25.2641   417
25.2741   436
25.2841   395
25.2941   382
25.3041   383
25.3141   377
25.3241   425
25.3341   397
25.3441   393
25.3541   398
25.3641   366
25.3741   398
25.3841   384
25.3941   367
25.4041   368
25.4141   399
25.4241   416
25.4341   388
25.4441   384
25.4541   378
25.4641   403
25.4741   399
25.4841   378
25.4941   365
25.5041   394
25.5141   358
25.5241   396
25.5341   400
25.5441   397
25.5541   388
25.5641   366
25.5741   374
25.5841   381
25.5941   356
25.6041   373
25.6141   379
25.6241   363
25.6341   381
25.6441   358
25.6541   349
25.6641   342
25.6741   377
25.6841   392
25.6941   396
25.7041   379
25.7141   390
25.7241   352
25.7341   356
25.7441   374
25.7541   367
25.7641   368
25.7741   416
25.7841   382
25.7941   356
25.8041   378
25.8141   369
25.8241   394
25.8341   401
25.8441   333
25.8541   390
25.8641   362
25.8741   384
25.8841   354
25.8941   352
25.9041   351
25.9141   351
25.9241   375
25.9341   360
25.9441   385
25.9541   349
25.9641   365
25.9741   380
25.9841   377
25.9941   354
26.0041   376
26.0141   358
26.0241   381
26.0341   376
26.0441   340
26.0541   358
26.0641   359
26.0741   340
26.0841   339
26.0941   349
26.1041   356
26.1141   367
26.1241   369
26.1341   382
26.1441   368
26.1541   358
26.1641   342
26.1741   373
26.1841   357
26.1941   385
26.2041   354
26.2141   351
26.2241   355
26.2341   350
26.2441   363
26.2541   341
26.2641   362
26.2741   357
26.2841   345
26.2941   370
26.3041   373
26.3141   375
26.3241   344
26.3341   339
26.3441   347
26.3541   356
26.3641   354
26.3741   349
26.3841   331
26.3941   336
26.4041   358
26.4141   352
26.4241   369
26.4341   347
26.4441   322
26.4541   377
26.4641   366
26.4741   357
26.4841   354
26.4941   328
26.5041   360
26.5141   347
26.5241   343
26.5341   345
26.5441   319
26.5541   347
26.5641   334
26.5741   351
26.5841   332
26.5941   348
26.6041   336
26.6141   344
26.6241   356
26.6341   359
26.6441   324
26.6541   317
26.6641   309
26.6741   349
26.6841   323
26.6941   326
26.7041   322
26.7141   355
26.7241   344
26.7341   359
26.7441   338
26.7541   324
26.7641   341
26.7741   304
26.7841   333
26.7941   321
26.8041   322
26.8141   348
26.8241   320
26.8341   338
26.8441   310
26.8541   323
26.8641   345
26.8741   350
26.8841   350
26.8941   309
26.9041   292
26.9141   300
26.9241   279
26.9341   320
26.9441   319
26.9541   348
26.9641   333
26.9741   342
26.9841   310
26.9941   317
27.0041   348
27.0141   362
27.0241   325
27.0341   342
27.0441   321
27.0541   310
27.0641   301
27.0741   322
27.0841   333
27.0941   311
27.1041   319
27.1141   331
27.1241   336
27.1341   334
27.1441   342
27.1541   334
27.1641   327
27.1741   321
27.1841   316
27.1941   320
27.2041   330
27.2141   321
27.2241   341
27.2341   310
27.2441   322
27.2541   326
27.2641   281
27.2741   317
27.2841   299
27.2941   305
27.3041   347
27.3141   323
27.3241   338
27.3341   339
27.3441   337
27.3541   305
27.3641   316
27.3741   327
27.3841   298
27.3941   309
27.4041   307
27.4141   321
27.4241   324
27.4341   332
27.4441   314
27.4541   294
27.4641   319
27.4741   291
27.4841   318
27.4941   288
27.5041   298
27.5141   296
27.5241   310
27.5341   325
27.5441   291
27.5541   315
27.5641   310
27.5741   307
27.5841   289
27.5941   301
27.6041   314
27.6141   264
27.6241   292
27.6341   305
27.6441   313
27.6541   303
27.6641   304
27.6741   289
27.6841   324
27.6941   297
27.7041   301
27.7141   313
27.7241   285
27.7341   322
27.7441   346
27.7541   289
27.7641   319
27.7741   318
27.7841   318
27.7941   286
27.8041   282
27.8141   306
27.8241   292
27.8341   288
27.8441   315
27.8541   283
27.8641   314
27.8741   282
27.8841   281
27.8941   261
27.9041   306
27.9141   301
27.9241   275
27.9341   298
27.9441   289
27.9541   280
27.9641   289
27.9741   288
27.9841   278
27.9941   275
28.0041   269
28.0141   308
28.0241   277
28.0341   281
28.0441   275
28.0541   266
28.0641   306
28.0741   297
28.0841   272
28.0941   246
28.1041   274
28.1141   311
28.1241   265
28.1341   271
28.1441   288
28.1541   265
28.1641   263
28.1741   297
28.1841   287
28.1941   287
28.2041   290
28.2141   249
28.2241   250
28.2341   277
28.2441   298
28.2541   303
28.2641   305
28.2741   269
28.2841   276
28.2941   294
28.3041   307
28.3141   272
28.3241   283
28.3341   263
28.3441   268
28.3541   242
28.3641   279
28.3741   279
28.3841   269
28.3941   253
28.4041   279
28.4141   286
28.4241   283
28.4341   284
28.4441   259
28.4541   284
28.4641   269
28.4741   291
28.4841   288
28.4941   279
28.5041   267
28.5141   265
28.5241   256
28.5341   285
28.5441   250
28.5541   264
28.5641   292
28.5741   288
28.5841   299
28.5941   259
28.6041   298
28.6141   271
28.6241   255
28.6341   249
28.6441   277
28.6541   267
28.6641   256
28.6741   253
28.6841   250
28.6941   238
28.7041   257
28.7141   265
28.7241   258
28.7341   269
28.7441   253
28.7541   264
28.7641   256
28.7741   242
28.7841   248
28.7941   256
28.8041   249
28.8141   277
28.8241   246
28.8341   255
28.8441   269
28.8541   245
28.8641   265
28.8741   276
28.8841   246
28.8941   245
28.9041   251
28.9141   222
28.9241   269
28.9341   242
28.9441   260
28.9541   241
28.9641   234
28.9741   264
28.9841   268
28.9941   248
29.0041   254
29.0141   248
29.0241   249
29.0341   216
29.0441   248
29.0541   237
29.0641   269
29.0741   241
29.0841   226
29.0941   240
29.1041   230
29.1141   260
29.1241   242
29.1341   250
29.1441   266
29.1541   241
29.1641   238
29.1741   249
29.1841   220
29.1941   252
29.2041   243
29.2141   221
29.2241   224
29.2341   240
29.2441   252
29.2541   229
29.2641   223
29.2741   246
29.2841   222
29.2941   233
29.3041   214
29.3141   221
29.3241   273
29.3341   249
29.3441   262
29.3541   255
29.3641   240
29.3741   214
29.3841   236
29.3941   217
29.4041   229
29.4141   227
29.4241   249
29.4341   231
29.4441   232
29.4541   241
29.4641   242
29.4741   247
29.4841   274
29.4941   219
29.5041   238
29.5141   236
29.5241   248
29.5341   231
29.5441   231
29.5541   231
29.5641   223
29.5741   233
29.5841   225
29.5941   237
29.6041   236
29.6141   212
29.6241   214
29.6341   248
29.6441   267
29.6541   240
29.6641   227
29.6741   216
29.6841   239
29.6941   232
29.7041   240
29.7141   220
29.7241   231
29.7341   204
29.7441   216
29.7541   239
29.7641   210
29.7741   213
29.7841   235
29.7941   223
29.8041   200
29.8141   212
29.8241   252
29.8341   190
29.8441   235
29.8541   231
29.8641   234
29.8741   216
29.8841   217
29.8941   208
29.9041   253
29.9141   247
29.9241   246
29.9341   210
29.9441   193
29.9541   214
29.9641   230
29.9741   208
29.9841   207
29.9941   196
30.0041   212
30.0141   226
30.0241   197
30.0341   223
30.0441   221
30.0541   242
30.0641   220
30.0741   222
30.0841   206
30.0941   224
30.1041   218
30.1141   207
30.1241   202
30.1341   227
30.1441   202
30.1541   211
30.1641   231
30.1741   203
30.1841   203
30.1941   215
30.2041   195
30.2141   204
30.2241   204
30.2341   199
30.2441   197
30.2541   222
30.2641   206
30.2741   213
30.2841   212
30.2941   197
30.3041   187
30.3141   228
30.3241   180
30.3341   227
30.3441   226
30.3541   190
30.3641   192
30.3741   219
30.3841   209
30.3941   208
30.4041   221
30.4141   217
30.4241   192
30.4341   199
30.4441   178
30.4541   202
30.4641   192
30.4741   185
30.4841   201
30.4941   219
30.5041   199
30.5141   212
30.5241   211
30.5341   180
30.5441   185
30.5541   211
30.5641   203
30.5741   174
30.5841   187
30.5941   214
30.6041   186
30.6141   179
30.6241   200
30.6341   211
30.6441   190
30.6541   181
30.6641   173
30.6741   174
30.6841   199
30.6941   186
30.7041   190
30.7141   165
30.7241   165
30.7341   203
30.7441   192
30.7541   198
30.7641   177
30.7741   192
30.7841   208
30.7941   181
30.8041   181
30.8141   179
30.8241   180
30.8341   181
30.8441   186
30.8541   201
30.8641   210
30.8741   186
30.8841   173
30.8941   204
30.9041   183
30.9141   177
30.9241   186
30.9341   192
30.9441   175
30.9541   181
30.9641   187
30.9741   185
30.9841   187
30.9941   200
31.0041   200
31.0141   196
31.0241   181
31.0341   202
31.0441   201
31.0541   192
31.0641   204
31.0741   186
31.0841   173
31.0941   197
31.1041   187
31.1141   196
31.1241   196
31.1341   176
31.1441   184
31.1541   191
31.1641   176
31.1741   180
31.1841   197
31.1941   196
31.2041   174
31.2141   199
31.2241   177
31.2341   169
31.2441   172
31.2541   169
31.2641   164
31.2741   179
31.2841   171
31.2941   165
31.3041   166
31.3141   167
31.3241   195
31.3341   180
31.3441   195
31.3541   176
31.3641   168
31.3741   176
31.3841   165
31.3941   176
31.4041   168
31.4141   178
31.4241   189
31.4341   190
31.4441   186
31.4541   195
31.4641   190
31.4741   183
31.4841   170
31.4941   169
31.5041   188
31.5141   173
31.5241   165
31.5341   169
31.5441   176
31.5541   179
31.5641   183
31.5741   177
31.5841   212
31.5941   169
31.6041   169
31.6141   158
31.6241   171
31.6341   176
31.6441   168
31.6541   183
31.6641   170
31.6741   174
31.6841   166
31.6941   174
31.7041   170
31.7141   172
31.7241   183
31.7341   173
31.7441   165
31.7541   161
31.7641   148
31.7741   156
31.7841   164
31.7941   182
31.8041   201
31.8141   166
31.8241   165
31.8341   167
31.8441   168
31.8541   159
31.8641   164
31.8741   197
31.8841   154
31.8941   161
31.9041   150
31.9141   169
31.9241   162
31.9341   177
31.9441   166
31.9541   154
31.9641   152
31.9741   159
31.9841   174
31.9941   167
32.0041   158
32.0141   157
32.0241   175
32.0341   159
32.0441   160
32.0541   175
32.0641   159
32.0741   176
32.0841   175
32.0941   155
32.1041   154
32.1141   182
32.1241   179
32.1341   148
32.1441   175
32.1541   162
32.1641   186
32.1741   167
32.1841   153
32.1941   148
32.2041   140
32.2141   150
32.2241   171
32.2341   173
32.2441   166
32.2541   164
32.2641   144
32.2741   144
32.2841   158
32.2941   158
32.3041   151
32.3141   153
32.3241   137
32.3341   166
32.3441   148
32.3541   139
32.3641   133
32.3741   151
32.3841   150
32.3941   145
32.4041   136
32.4141   140
32.4241   146
32.4341   182
32.4441   142
32.4541   142
32.4641   149
32.4741   155
32.4841   148
32.4941   140
32.5041   146
32.5141   168
32.5241   167
32.5341   131
32.5441   144
32.5541   151
32.5641   130
32.5741   136
32.5841   118
32.5941   148
32.6041   145
32.6141   125
32.6241   121
32.6341   152
32.6441   141
32.6541   161
32.6641   134
32.6741   139
32.6841   126
32.6941   134
32.7041   138
32.7141   153
32.7241   139
32.7341   144
32.7441   155
32.7541   145
32.7641   139
32.7741   136
32.7841   121
32.7941   122
32.8041   127
32.8141   133
32.8241   124
32.8341   150
32.8441   135
32.8541   129
32.8641   135
32.8741   124
32.8841   134
32.8941   126
32.9041   150
32.9141   130
32.9241   155
32.9341   145
32.9441   148
32.9541   127
32.9641   128
32.9741   137
32.9841   118
32.9941   124
33.0041   145
33.0141   135
33.0241   139
33.0341   141
33.0441   139
33.0541   129
33.0641   133
33.0741   151
33.0841   117
33.0941   156
33.1041   129
33.1141   126
33.1241   132
33.1341   112
33.1441   142
33.1541   131
33.1641   111
33.1741   137
33.1841   124
33.1941   117
33.2041   135
33.2141   152
33.2241   148
33.2341   121
33.2441   109
33.2541   130
33.2641   142
33.2741   141
33.2841   129
33.2941   128
33.3041   115
33.3141   127
33.3241   130
33.3341   102
33.3441   131
33.3541   136
33.3641   132
33.3741   138
33.3841   119
33.3941   141
33.4041   119
33.4141   126
33.4241   123
33.4341   127
33.4441   132
33.4541   142
33.4641   129
33.4741   136
33.4841   104
33.4941   124
33.5041   126
33.5141   105
33.5241   116
33.5341   109
33.5441   118
33.5541   105
33.5641   112
33.5741   107
33.5841   120
33.5941   123
33.6041   114
33.6141   127
33.6241   133
33.6341   111
33.6441   121
33.6541   116
33.6641   109
33.6741   121
33.6841   103
33.6941   117
33.7041    89
33.7141   101
33.7241   123
33.7341   118
33.7441   106
33.7541   106
33.7641   118
33.7741   105
33.7841   114
33.7941   114
33.8041   119
33.8141   117
33.8241    97
33.8341    97
33.8441   115
33.8541   133
33.8641   114
33.8741   112
33.8841   121
33.8941   109
33.9041   115
33.9141    90
33.9241   104
33.9341   120
33.9441   118
33.9541   113
33.9641   114
33.9741   117
33.9841    91
33.9941   108
34.0041   104
34.0141   117
34.0241    98
34.0341   116
34.0441   101
34.0541    98
34.0641   121
34.0741   108
34.0841   115
34.0941    97
34.1041    95
34.1141   104
34.1241   108
34.1341   115
34.1441    95
34.1541    84
34.1641   101
34.1741   128
34.1841    93
34.1941   101
34.2041   107
34.2141   106
34.2241   116
34.2341   111
34.2441   128
34.2541   104
34.2641    93
34.2741    92
34.2841    92
34.2941   115
34.3041   102
34.3141   102
34.3241   119
34.3341   104
34.3441    98
34.3541   108
34.3641   114
34.3741   117
34.3841   121
34.3941   101
34.4041   106
34.4141   113
34.4241    97
34.4341    93
34.4441    96
34.4541    94
34.4641    80
34.4741    83
34.4841   100
34.4941    97
34.5041   120
34.5141    93
34.5241    92
34.5341   104
34.5441    89
34.5541    83
34.5641    96
34.5741   102
34.5841    80
34.5941    91
34.6041    91
34.6141   102
34.6241    92
34.6341    93
34.6441   104
34.6541    97
34.6641   102
34.6741    90
34.6841    92
34.6941    90
34.7041   100
34.7141    82
34.7241    79
34.7341    89
34.7441    93
34.7541   119
34.7641    70
34.7741    93
34.7841    93
34.7941    94
34.8041    88
34.8141    87
34.8241    92
34.8341    97
34.8441    99
34.8541    91
34.8641   102
34.8741    83
34.8841    77
34.8941    91
34.9041    95
34.9141    89
34.9241   104
34.9341   107
34.9441    96
34.9541    85
34.9641    96
34.9741    77
34.9841    91
34.9941    86
35.0041    96
35.0141    81
35.0241    87
35.0341    84
35.0441    77
35.0541    89
35.0641    92
35.0741    81
35.0841    98
35.0941    88
35.1041    88
35.1141    93
35.1241    84
35.1341    96
35.1441    98
35.1541    79
35.1641    90
35.1741    72
35.1841    91
35.1941    91
35.2041    73
35.2141    88
35.2241   103
35.2341    70
35.2441    88
35.2541    89
35.2641    90
35.2741    81
35.2841    80
35.2941    81
35.3041    81
35.3141    82
35.3241    83
35.3341    94
35.3441    84
35.3541    72
35.3641    83
35.3741    71
35.3841    79
35.3941    75
35.4041    92
35.4141    74
35.4241    88
35.4341    75
35.4441    85
35.4541    60
35.4641    82
35.4741    73
35.4841    69
35.4941    94
35.5041    85
35.5141    75
35.5241    84
35.5341    89
35.5441    84
35.5541    76
35.5641    68
35.5741    77
35.5841    78
35.5941    87
35.6041    90
35.6141    88
35.6241    84
35.6341    89
35.6441    82
35.6541    68
35.6641    83
35.6741    80
35.6841    85
35.6941    75
35.7041    71
35.7141    64
35.7241    82
35.7341    62
35.7441    63
35.7541    72
35.7641    86
35.7741    75
35.7841    65
35.7941    77
35.8041    84
35.8141    73
35.8241    78
35.8341    71
35.8441    53
35.8541    67
35.8641    78
35.8741    68
35.8841    65
35.8941    80
35.9041    76
35.9141    79
35.9241    72
35.9341    69
35.9441    44
35.9541    59
35.9641    76
35.9741    72
35.9841    65
35.9941    60
36.0041    74
36.0141    57
36.0241    77
36.0341    55
36.0441    63
36.0541    63
36.0641    68
36.0741    76
36.0841    80
36.0941    89
36.1041    63
36.1141    71
36.1241    74
36.1341    76
36.1441    69
36.1541    76
36.1641    74
36.1741    82
36.1841    64
36.1941    72
36.2041    68
36.2141    74
36.2241    63
36.2341    70
36.2441    69
36.2541    79
36.2641    73
36.2741    79
36.2841    63
36.2941    70
36.3041    73
36.3141    60
36.3241    75
36.3341    67
36.3441    62
36.3541    69
36.3641    75
36.3741    76
36.3841    65
36.3941    59
36.4041    57
36.4141    98
36.4241    75
36.4341    70
36.4441    65
36.4541    65
36.4641    67
36.4741    44
36.4841    62
36.4941    62
36.5041    67
36.5141    58
36.5241    63
36.5341    65
36.5441    66
36.5541    63
36.5641    66
36.5741    64
36.5841    76
36.5941    94
36.6041    66
36.6141    48
36.6241    54
36.6341    49
36.6441    69
36.6541    54
36.6641    45
36.6741    65
36.6841    60
36.6941    60
36.7041    63
36.7141    52
36.7241    56
36.7341    65
36.7441    67
36.7541    47
36.7641    62
36.7741    61
36.7841    71
36.7941    49
36.8041    50
36.8141    60
36.8241    65
36.8341    47
36.8441    73
36.8541    63
36.8641    64
36.8741    65
36.8841    46
36.8941    51
36.9041    65
36.9141    61
36.9241    60
36.9341    47
36.9441    65
36.9541    71
36.9641    56
36.9741    51
36.9841    68
36.9941    60
37.0041    48
37.0141    64
37.0241    57
37.0341    59
37.0441    45
37.0541    53
37.0641    69
37.0741    61
37.0841    56
37.0941    43
37.1041    42
37.1141    54
37.1241    55
37.1341    51
37.1441    42
37.1541    53
37.1641    54
37.1741    59
37.1841    55
37.1941    53
37.2041    46
37.2141    62
37.2241    61
37.2341    51
37.2441    71
37.2541    54
37.2641    63
37.2741    61
37.2841    65
37.2941    47
37.3041    50
37.3141    45
37.3241    47
37.3341    56
37.3441    57
37.3541    58
37.3641    43
37.3741    61
37.3841    46
37.3941    47
37.4041    52
37.4141    58
37.4241    38
37.4341    56
37.4441    42
37.4541    40
37.4641    61
37.4741    44
37.4841    56
37.4941    58
37.5041    45
37.5141    53
37.5241    45
37.5341    49
37.5441    44
37.5541    49
37.5641    59
37.5741    42
37.5841    39
37.5941    58
37.6041    51
37.6141    67
37.6241    46
37.6341    58
37.6441    60
37.6541    55
37.6641    48
37.6741    57
37.6841    41
37.6941    56
37.7041    58
37.7141    53
37.7241    46
37.7341    49
37.7441    34
37.7541    34
37.7641    64
37.7741    57
37.7841    41
37.7941    42
37.8041    41
37.8141    47
37.8241    41
37.8341    67
37.8441    44
37.8541    44
37.8641    38
37.8741    50
37.8841    43
37.8941    45
37.9041    42
37.9141    40
37.9241    43
37.9341    45
37.9441    47
37.9541    52
37.9641    49
37.9741    43
37.9841    40
37.9941    49
38.0041    42
38.0141    35
38.0241    46
38.0341    39
38.0441    45
38.0541    35
38.0641    43
38.0741    39
38.0841    46
38.0941    42
38.1041    48
38.1141    42
38.1241    45
38.1341    43
38.1441    50
38.1541    41
38.1641    37
38.1741    34
38.1841    35
38.1941    36
38.2041    43
38.2141    28
38.2241    35
38.2341    41
38.2441    35
38.2541    42
38.2641    37
38.2741    33
38.2841    25
38.2941    50
38.3041    30
38.3141    45
38.3241    41
38.3341    38
38.3441    41
38.3541    44
38.3641    37
38.3741    41
38.3841    31
38.3941    35
38.4041    39
38.4141    50
38.4241    39
38.4341    35
38.4441    33
38.4541    42
38.4641    29
38.4741    34
38.4841    37
38.4941    42
38.5041    41
38.5141    37
38.5241    40
38.5341    40
38.5441    33
38.5541    52
38.5641    43
38.5741    40
38.5841    33
38.5941    37
38.6041    28
38.6141    33
38.6241    50
38.6341    35
38.6441    37
38.6541    40
38.6641    41
38.6741    37
38.6841    33
38.6941    31
38.7041    34
38.7141    37
38.7241    30
38.7341    39
38.7441    24
38.7541    39
38.7641    37
38.7741    31
38.7841    37
38.7941    39
38.8041    26
38.8141    39
38.8241    32
38.8341    34
38.8441    38
38.8541    30
38.8641    37
38.8741    38
38.8841    33
38.8941    36
38.9041    40
38.9141    37
38.9241    31
38.9341    28
38.9441    30
38.9541    28
38.9641    31
38.9741    26
38.9841    37
38.9941    27
39.0041    31
39.0141    31
39.0241    33
39.0341    28
39.0441    40
39.0541    23
39.0641    25
39.0741    34
39.0841    36
39.0941    24
39.1041    25
39.1141    30
39.1241    32
39.1341    29
39.1441    28
39.1541    33
39.1641    20
39.1741    32
39.1841    38
39.1941    30
39.2041    20
39.2141    35
39.2241    30
39.2341    24
39.2441    24
39.2541    38
39.2641    24
39.2741    29
39.2841    34
39.2941    23
39.3041    30
39.3141    21
39.3241    27
39.3341    34
39.3441    20
39.3541    27
39.3641    26
39.3741    30
39.3841    26
39.3941    26
39.4041    31
39.4141    38
39.4241    31
39.4341    23
39.4441    40
39.4541    27
39.4641    26
39.4741    29
39.4841    28
39.4941    23
39.5041    26
39.5141    27
39.5241    29
39.5341    37
39.5441    30
39.5541    32
39.5641    41
39.5741    20
39.5841    33
39.5941    33
39.6041    32
39.6141    35
39.6241    19
39.6341    25
39.6441    29
39.6541    19
39.6641    22
39.6741    24
39.6841    28
39.6941    19
39.7041    26
39.7141    20
39.7241    25
39.7341    19
39.7441    31
39.7541    26
39.7641    28
39.7741    18
39.7841    26
39.7941    28
39.8041    28
39.8141    28
39.8241    24
39.8341    27
39.8441    21
39.8541    33
39.8641    21
39.8741    14
39.8841    20
39.8941    16
39.9041    28
39.9141    15
39.9241    28
39.9341    26
39.9441    24
39.9541    21
39.9641    15
39.9741    18
39.9841    36
