Bruker Nano GmbH Berlin, Germany
Esprit 1.9

Date: 5/14/2021 3:44:02 PM
Real time: 19074
Life time: 17918
Pulse density: 87703


Detector type: XFlash 430
Window type: Custom type
Detector thickness: 0.45
Si dead layer:0.029

Calibration, lin.: 10
Calibration, abs.: -955.9
Mn FWHM: 137.05
Fano factor: 0.121
Channels: 4095

Energy Counts
-0.9559     0
-0.9459     0
-0.9359     0
-0.9259     0
-0.9159     0
-0.9059     0
-0.8959     0
-0.8859     0
-0.8759     0
-0.8659     0
-0.8559     0
-0.8459     0
-0.8359     0
-0.8259     0
-0.8159     0
-0.8059     0
-0.7959     0
-0.7859     0
-0.7759     0
-0.7659     0
-0.7559     0
-0.7459     0
-0.7359     0
-0.7259     0
-0.7159     0
-0.7059     0
-0.6959     0
-0.6859     0
-0.6759     0
-0.6659     0
-0.6559     0
-0.6459     0
-0.6359     0
-0.6259     0
-0.6159     0
-0.6059     0
-0.5959     0
-0.5859     0
-0.5759     0
-0.5659     0
-0.5559     0
-0.5459     0
-0.5359     0
-0.5259     0
-0.5159     0
-0.5059     0
-0.4959     0
-0.4859     0
-0.4759     0
-0.4659     0
-0.4559     0
-0.4459     0
-0.4359     0
-0.4259     0
-0.4159     0
-0.4059     0
-0.3959     0
-0.3859     0
-0.3759     0
-0.3659     0
-0.3559     0
-0.3459     0
-0.3359     0
-0.3259     0
-0.3159     0
-0.3059     0
-0.2959     0
-0.2859     0
-0.2759     0
-0.2659     0
-0.2559     0
-0.2459     0
-0.2359     0
-0.2259     0
-0.2159     0
-0.2059     0
-0.1959     0
-0.1859     0
-0.1759     0
-0.1659     0
-0.1559     0
-0.1459     0
-0.1359     0
-0.1259     0
-0.1159     2
-0.1059    19
-0.0959    42
-0.0859   222
-0.0759   697
-0.0659  2062
-0.0559  5424
-0.0459 11371
-0.0359 21077
-0.0259 34290
-0.0159 46849
-0.0059 54940
 0.0041 55010
 0.0141 47854
 0.0241 35088
 0.0341 22036
 0.0441 12062
 0.0541  5455
 0.0641  2256
 0.0741   747
 0.0841   252
 0.0941    73
 0.1041    18
 0.1141    10
 0.1241     6
 0.1341     5
 0.1441     4
 0.1541     5
 0.1641     4
 0.1741     0
 0.1841   132
 0.1941   319
 0.2041   277
 0.2141   253
 0.2241   295
 0.2341   287
 0.2441   297
 0.2541   286
 0.2641   278
 0.2741   259
 0.2841   280
 0.2941   264
 0.3041   272
 0.3141   243
 0.3241   246
 0.3341   239
 0.3441   274
 0.3541   238
 0.3641   238
 0.3741   251
 0.3841   259
 0.3941   237
 0.4041   250
 0.4141   225
 0.4241   239
 0.4341   233
 0.4441   248
 0.4541   246
 0.4641   224
 0.4741   212
 0.4841   236
 0.4941   262
 0.5041   232
 0.5141   209
 0.5241   215
 0.5341   233
 0.5441   244
 0.5541   238
 0.5641   233
 0.5741   239
 0.5841   234
 0.5941   226
 0.6041   215
 0.6141   214
 0.6241   213
 0.6341   223
 0.6441   216
 0.6541   215
 0.6641   213
 0.6741   203
 0.6841   202
 0.6941   209
 0.7041   205
 0.7141   220
 0.7241   224
 0.7341   220
 0.7441   204
 0.7541   207
 0.7641   205
 0.7741   193
 0.7841   213
 0.7941   224
 0.8041   205
 0.8141   206
 0.8241   205
 0.8341   203
 0.8441   207
 0.8541   203
 0.8641   204
 0.8741   207
 0.8841   187
 0.8941   172
 0.9041   194
 0.9141   202
 0.9241   190
 0.9341   197
 0.9441   191
 0.9541   185
 0.9641   192
 0.9741   173
 0.9841   181
 0.9941   191
 1.0041   179
 1.0141   157
 1.0241   193
 1.0341   194
 1.0441   183
 1.0541   185
 1.0641   185
 1.0741   181
 1.0841   168
 1.0941   169
 1.1041   171
 1.1141   168
 1.1241   172
 1.1341   157
 1.1441   163
 1.1541   190
 1.1641   182
 1.1741   151
 1.1841   185
 1.1941   166
 1.2041   186
 1.2141   166
 1.2241   165
 1.2341   187
 1.2441   164
 1.2541   179
 1.2641   162
 1.2741   172
 1.2841   156
 1.2941   182
 1.3041   160
 1.3141   142
 1.3241   151
 1.3341   173
 1.3441   170
 1.3541   175
 1.3641   161
 1.3741   163
 1.3841   173
 1.3941   146
 1.4041   172
 1.4141   163
 1.4241   154
 1.4341   147
 1.4441   174
 1.4541   156
 1.4641   147
 1.4741   157
 1.4841   154
 1.4941   168
 1.5041   165
 1.5141   175
 1.5241   149
 1.5341   136
 1.5441   167
 1.5541   154
 1.5641   144
 1.5741   143
 1.5841   133
 1.5941   139
 1.6041   142
 1.6141   155
 1.6241   164
 1.6341   152
 1.6441   223
 1.6541   221
 1.6641   251
 1.6741   310
 1.6841   377
 1.6941   442
 1.7041   531
 1.7141   628
 1.7241   682
 1.7341   726
 1.7441   698
 1.7541   650
 1.7641   595
 1.7741   544
 1.7841   441
 1.7941   388
 1.8041   299
 1.8141   224
 1.8241   245
 1.8341   230
 1.8441   195
 1.8541   193
 1.8641   168
 1.8741   182
 1.8841   152
 1.8941   163
 1.9041   145
 1.9141   150
 1.9241   155
 1.9341   182
 1.9441   185
 1.9541   172
 1.9641   165
 1.9741   195
 1.9841   187
 1.9941   188
 2.0041   191
 2.0141   219
 2.0241   188
 2.0341   178
 2.0441   197
 2.0541   211
 2.0641   181
 2.0741   165
 2.0841   152
 2.0941   155
 2.1041   132
 2.1141   161
 2.1241   132
 2.1341   146
 2.1441   149
 2.1541   132
 2.1641   165
 2.1741   119
 2.1841   157
 2.1941   137
 2.2041   125
 2.2141   104
 2.2241   156
 2.2341   122
 2.2441   129
 2.2541   142
 2.2641   136
 2.2741   133
 2.2841   132
 2.2941   148
 2.3041   137
 2.3141   131
 2.3241   131
 2.3341   128
 2.3441   134
 2.3541   147
 2.3641   131
 2.3741   122
 2.3841   148
 2.3941   133
 2.4041   148
 2.4141   134
 2.4241   122
 2.4341   130
 2.4441   123
 2.4541   125
 2.4641   130
 2.4741   113
 2.4841   105
 2.4941   114
 2.5041   127
 2.5141   121
 2.5241   134
 2.5341   133
 2.5441   122
 2.5541   126
 2.5641   119
 2.5741   131
 2.5841   141
 2.5941   123
 2.6041   112
 2.6141   124
 2.6241   147
 2.6341   134
 2.6441   113
 2.6541   124
 2.6641   116
 2.6741   110
 2.6841   106
 2.6941   127
 2.7041   109
 2.7141   118
 2.7241   109
 2.7341   111
 2.7441   114
 2.7541   124
 2.7641   114
 2.7741   110
 2.7841   110
 2.7941   108
 2.8041   138
 2.8141   123
 2.8241   114
 2.8341   114
 2.8441   123
 2.8541   121
 2.8641   144
 2.8741   125
 2.8841   108
 2.8941   106
 2.9041   107
 2.9141   115
 2.9241   102
 2.9341    97
 2.9441   116
 2.9541   112
 2.9641   127
 2.9741   118
 2.9841   107
 2.9941   107
 3.0041   106
 3.0141   116
 3.0241   101
 3.0341   118
 3.0441    86
 3.0541   118
 3.0641   105
 3.0741   110
 3.0841    96
 3.0941    95
 3.1041    87
 3.1141    83
 3.1241   101
 3.1341   104
 3.1441    81
 3.1541    93
 3.1641   102
 3.1741    96
 3.1841   108
 3.1941   104
 3.2041   109
 3.2141   116
 3.2241   121
 3.2341   138
 3.2441   141
 3.2541   160
 3.2641   196
 3.2741   229
 3.2841   220
 3.2941   227
 3.3041   236
 3.3141   274
 3.3241   259
 3.3341   268
 3.3441   229
 3.3541   183
 3.3641   181
 3.3741   157
 3.3841   141
 3.3941   107
 3.4041   105
 3.4141   109
 3.4241   100
 3.4341   116
 3.4441    99
 3.4541    91
 3.4641    92
 3.4741   100
 3.4841   105
 3.4941   114
 3.5041   111
 3.5141   109
 3.5241   111
 3.5341   117
 3.5441   139
 3.5541   140
 3.5641   147
 3.5741   169
 3.5841   221
 3.5941   257
 3.6041   322
 3.6141   396
 3.6241   487
 3.6341   587
 3.6441   710
 3.6541   801
 3.6641   879
 3.6741   927
 3.6841   943
 3.6941   989
 3.7041   988
 3.7141   891
 3.7241   794
 3.7341   720
 3.7441   584
 3.7541   426
 3.7641   351
 3.7741   262
 3.7841   218
 3.7941   168
 3.8041   142
 3.8141   105
 3.8241   110
 3.8341    92
 3.8441    92
 3.8541    95
 3.8641   101
 3.8741    85
 3.8841    82
 3.8941    84
 3.9041    91
 3.9141   104
 3.9241    85
 3.9341   111
 3.9441   122
 3.9541   139
 3.9641   139
 3.9741   161
 3.9841   186
 3.9941   198
 4.0041   179
 4.0141   214
 4.0241   174
 4.0341   193
 4.0441   195
 4.0541   151
 4.0641   139
 4.0741   120
 4.0841   125
 4.0941    98
 4.1041    99
 4.1141   102
 4.1241    94
 4.1341    72
 4.1441    83
 4.1541    66
 4.1641    67
 4.1741    71
 4.1841    73
 4.1941    64
 4.2041    67
 4.2141    75
 4.2241    63
 4.2341    82
 4.2441    72
 4.2541    69
 4.2641    87
 4.2741    71
 4.2841    62
 4.2941    58
 4.3041    63
 4.3141    63
 4.3241    74
 4.3341    78
 4.3441    93
 4.3541   100
 4.3641    72
 4.3741    84
 4.3841    92
 4.3941   107
 4.4041   100
 4.4141   139
 4.4241   181
 4.4341   193
 4.4441   234
 4.4541   264
 4.4641   298
 4.4741   298
 4.4841   352
 4.4941   366
 4.5041   389
 4.5141   390
 4.5241   377
 4.5341   345
 4.5441   322
 4.5541   262
 4.5641   254
 4.5741   185
 4.5841   161
 4.5941   126
 4.6041   136
 4.6141   112
 4.6241   118
 4.6341   116
 4.6441    75
 4.6541    96
 4.6641    86
 4.6741    94
 4.6841   113
 4.6941    80
 4.7041    81
 4.7141    78
 4.7241    82
 4.7341    79
 4.7441    75
 4.7541    82
 4.7641    94
 4.7741    87
 4.7841    85
 4.7941   113
 4.8041   118
 4.8141   118
 4.8241   114
 4.8341   112
 4.8441   117
 4.8541   137
 4.8641   119
 4.8741   111
 4.8841   129
 4.8941   146
 4.9041   165
 4.9141   142
 4.9241   158
 4.9341   154
 4.9441   146
 4.9541   130
 4.9641   131
 4.9741   137
 4.9841   122
 4.9941    99
 5.0041   109
 5.0141   105
 5.0241    84
 5.0341    89
 5.0441    96
 5.0541    93
 5.0641    82
 5.0741    83
 5.0841    62
 5.0941    97
 5.1041    87
 5.1141    79
 5.1241    89
 5.1341    74
 5.1441    96
 5.1541    93
 5.1641    96
 5.1741   104
 5.1841   100
 5.1941    85
 5.2041    94
 5.2141    93
 5.2241    76
 5.2341    76
 5.2441    88
 5.2541    78
 5.2641    89
 5.2741    93
 5.2841    94
 5.2941    90
 5.3041    98
 5.3141    86
 5.3241    81
 5.3341   101
 5.3441    95
 5.3541    96
 5.3641   100
 5.3741    98
 5.3841    96
 5.3941   114
 5.4041   114
 5.4141   102
 5.4241   112
 5.4341    95
 5.4441   101
 5.4541   108
 5.4641   100
 5.4741    99
 5.4841   100
 5.4941    98
 5.5041    85
 5.5141   103
 5.5241    92
 5.5341    81
 5.5441    93
 5.5541    90
 5.5641    78
 5.5741    94
 5.5841    91
 5.5941   106
 5.6041    84
 5.6141   106
 5.6241    94
 5.6341    83
 5.6441    92
 5.6541    88
 5.6641    93
 5.6741    80
 5.6841    90
 5.6941    84
 5.7041    88
 5.7141   101
 5.7241   103
 5.7341   113
 5.7441   119
 5.7541    98
 5.7641   109
 5.7741   117
 5.7841   122
 5.7941   124
 5.8041   116
 5.8141   145
 5.8241   172
 5.8341   183
 5.8441   163
 5.8541   178
 5.8641   192
 5.8741   211
 5.8841   225
 5.8941   208
 5.9041   179
 5.9141   211
 5.9241   205
 5.9341   190
 5.9441   203
 5.9541   169
 5.9641   157
 5.9741   140
 5.9841   149
 5.9941   123
 6.0041   112
 6.0141   118
 6.0241    98
 6.0341   101
 6.0441   127
 6.0541   137
 6.0641   113
 6.0741   109
 6.0841   116
 6.0941   106
 6.1041   143
 6.1141   115
 6.1241   149
 6.1341   138
 6.1441   129
 6.1541   144
 6.1641   148
 6.1741   149
 6.1841   200
 6.1941   229
 6.2041   273
 6.2141   331
 6.2241   441
 6.2341   556
 6.2441   804
 6.2541  1096
 6.2641  1466
 6.2741  2047
 6.2841  2665
 6.2941  3625
 6.3041  4548
 6.3141  5812
 6.3241  7186
 6.3341  8531
 6.3441 10134
 6.3541 11576
 6.3641 12831
 6.3741 13708
 6.3841 14516
 6.3941 15021
 6.4041 15014
 6.4141 14296
 6.4241 13713
 6.4341 12502
 6.4441 11232
 6.4541  9608
 6.4641  8284
 6.4741  6797
 6.4841  5439
 6.4941  4257
 6.5041  3202
 6.5141  2494
 6.5241  1784
 6.5341  1251
 6.5441   897
 6.5541   628
 6.5641   451
 6.5741   310
 6.5841   254
 6.5941   210
 6.6041   186
 6.6141   180
 6.6241   153
 6.6341   143
 6.6441   157
 6.6541   122
 6.6641   146
 6.6741   146
 6.6841   129
 6.6941   140
 6.7041   155
 6.7141   162
 6.7241   150
 6.7341   151
 6.7441   139
 6.7541   142
 6.7641   129
 6.7741   120
 6.7841   150
 6.7941   165
 6.8041   171
 6.8141   179
 6.8241   175
 6.8341   194
 6.8441   159
 6.8541   193
 6.8641   251
 6.8741   245
 6.8841   276
 6.8941   287
 6.9041   430
 6.9141   411
 6.9241   513
 6.9341   684
 6.9441   779
 6.9541   969
 6.9641  1126
 6.9741  1316
 6.9841  1522
 6.9941  1751
 7.0041  2000
 7.0141  2179
 7.0241  2336
 7.0341  2508
 7.0441  2468
 7.0541  2663
 7.0641  2562
 7.0741  2503
 7.0841  2297
 7.0941  2165
 7.1041  1938
 7.1141  1736
 7.1241  1527
 7.1341  1283
 7.1441  1050
 7.1541   892
 7.1641   763
 7.1741   596
 7.1841   447
 7.1941   384
 7.2041   306
 7.2141   265
 7.2241   238
 7.2341   230
 7.2441   208
 7.2541   225
 7.2641   180
 7.2741   209
 7.2841   183
 7.2941   186
 7.3041   201
 7.3141   236
 7.3241   208
 7.3341   194
 7.3441   238
 7.3541   269
 7.3641   233
 7.3741   252
 7.3841   244
 7.3941   267
 7.4041   268
 7.4141   233
 7.4241   228
 7.4341   228
 7.4441   273
 7.4541   246
 7.4641   245
 7.4741   207
 7.4841   230
 7.4941   241
 7.5041   215
 7.5141   222
 7.5241   172
 7.5341   185
 7.5441   191
 7.5541   187
 7.5641   184
 7.5741   210
 7.5841   188
 7.5941   160
 7.6041   178
 7.6141   184
 7.6241   186
 7.6341   189
 7.6441   199
 7.6541   179
 7.6641   218
 7.6741   193
 7.6841   208
 7.6941   205
 7.7041   218
 7.7141   248
 7.7241   246
 7.7341   223
 7.7441   233
 7.7541   219
 7.7641   233
 7.7741   252
 7.7841   245
 7.7941   270
 7.8041   253
 7.8141   272
 7.8241   295
 7.8341   272
 7.8441   284
 7.8541   276
 7.8641   291
 7.8741   316
 7.8841   322
 7.8941   321
 7.9041   357
 7.9141   329
 7.9241   366
 7.9341   385
 7.9441   390
 7.9541   437
 7.9641   442
 7.9741   503
 7.9841   493
 7.9941   544
 8.0041   574
 8.0141   622
 8.0241   628
 8.0341   689
 8.0441   817
 8.0541   811
 8.0641   883
 8.0741   925
 8.0841   930
 8.0941  1017
 8.1041  1062
 8.1141  1188
 8.1241  1160
 8.1341  1145
 8.1441  1264
 8.1541  1257
 8.1641  1298
 8.1741  1306
 8.1841  1334
 8.1941  1373
 8.2041  1330
 8.2141  1292
 8.2241  1399
 8.2341  1490
 8.2441  1530
 8.2541  1573
 8.2641  1625
 8.2741  1735
 8.2841  1784
 8.2941  1904
 8.3041  2096
 8.3141  2166
 8.3241  2441
 8.3341  2629
 8.3441  2811
 8.3541  2892
 8.3641  3044
 8.3741  3041
 8.3841  3140
 8.3941  3164
 8.4041  3020
 8.4141  2902
 8.4241  2793
 8.4341  2475
 8.4441  2294
 8.4541  2107
 8.4641  1818
 8.4741  1617
 8.4841  1429
 8.4941  1214
 8.5041  1012
 8.5141   867
 8.5241   715
 8.5341   631
 8.5441   551
 8.5541   497
 8.5641   473
 8.5741   410
 8.5841   370
 8.5941   366
 8.6041   377
 8.6141   342
 8.6241   374
 8.6341   362
 8.6441   383
 8.6541   353
 8.6641   340
 8.6741   309
 8.6841   355
 8.6941   325
 8.7041   320
 8.7141   324
 8.7241   337
 8.7341   302
 8.7441   302
 8.7541   317
 8.7641   331
 8.7741   323
 8.7841   294
 8.7941   269
 8.8041   294
 8.8141   282
 8.8241   292
 8.8341   271
 8.8441   286
 8.8541   308
 8.8641   287
 8.8741   312
 8.8841   310
 8.8941   281
 8.9041   316
 8.9141   319
 8.9241   330
 8.9341   305
 8.9441   328
 8.9541   311
 8.9641   346
 8.9741   333
 8.9841   350
 8.9941   356
 9.0041   356
 9.0141   373
 9.0241   382
 9.0341   363
 9.0441   410
 9.0541   411
 9.0641   405
 9.0741   417
 9.0841   437
 9.0941   485
 9.1041   485
 9.1141   500
 9.1241   550
 9.1341   560
 9.1441   538
 9.1541   554
 9.1641   604
 9.1741   636
 9.1841   665
 9.1941   700
 9.2041   747
 9.2141   746
 9.2241   784
 9.2341   890
 9.2441   861
 9.2541   936
 9.2641   954
 9.2741   965
 9.2841  1063
 9.2941  1089
 9.3041  1101
 9.3141  1173
 9.3241  1193
 9.3341  1178
 9.3441  1258
 9.3541  1224
 9.3641  1303
 9.3741  1333
 9.3841  1374
 9.3941  1335
 9.4041  1396
 9.4141  1464
 9.4241  1502
 9.4341  1463
 9.4441  1465
 9.4541  1510
 9.4641  1528
 9.4741  1567
 9.4841  1613
 9.4941  1653
 9.5041  1662
 9.5141  1654
 9.5241  1722
 9.5341  1754
 9.5441  1834
 9.5541  1893
 9.5641  2064
 9.5741  2236
 9.5841  2349
 9.5941  2457
 9.6041  2577
 9.6141  2686
 9.6241  2818
 9.6341  2922
 9.6441  2953
 9.6541  2988
 9.6641  3115
 9.6741  3043
 9.6841  3013
 9.6941  2934
 9.7041  2808
 9.7141  2775
 9.7241  2552
 9.7341  2368
 9.7441  2203
 9.7541  2010
 9.7641  1822
 9.7741  1721
 9.7841  1631
 9.7941  1488
 9.8041  1373
 9.8141  1335
 9.8241  1277
 9.8341  1293
 9.8441  1206
 9.8541  1205
 9.8641  1195
 9.8741  1207
 9.8841  1271
 9.8941  1271
 9.9041  1281
 9.9141  1364
 9.9241  1338
 9.9341  1358
 9.9441  1366
 9.9541  1359
 9.9641  1353
 9.9741  1258
 9.9841  1209
 9.9941  1161
10.0041  1108
10.0141  1045
10.0241   952
10.0341   881
10.0441   796
10.0541   677
10.0641   646
10.0741   621
10.0841   523
10.0941   466
10.1041   431
10.1141   440
10.1241   391
10.1341   334
10.1441   310
10.1541   298
10.1641   287
10.1741   276
10.1841   286
10.1941   242
10.2041   241
10.2141   248
10.2241   242
10.2341   243
10.2441   221
10.2541   197
10.2641   214
10.2741   193
10.2841   195
10.2941   206
10.3041   171
10.3141   187
10.3241   186
10.3341   158
10.3441   164
10.3541   154
10.3641   183
10.3741   183
10.3841   170
10.3941   178
10.4041   186
10.4141   197
10.4241   171
10.4341   163
10.4441   174
10.4541   165
10.4641   171
10.4741   178
10.4841   186
10.4941   179
10.5041   177
10.5141   187
10.5241   193
10.5341   187
10.5441   174
10.5541   192
10.5641   190
10.5741   206
10.5841   195
10.5941   208
10.6041   217
10.6141   213
10.6241   206
10.6341   205
10.6441   200
10.6541   206
10.6641   201
10.6741   213
10.6841   203
10.6941   201
10.7041   215
10.7141   215
10.7241   225
10.7341   240
10.7441   220
10.7541   233
10.7641   265
10.7741   256
10.7841   267
10.7941   258
10.8041   260
10.8141   270
10.8241   306
10.8341   302
10.8441   273
10.8541   283
10.8641   309
10.8741   324
10.8841   306
10.8941   293
10.9041   303
10.9141   300
10.9241   290
10.9341   315
10.9441   306
10.9541   301
10.9641   313
10.9741   322
10.9841   298
10.9941   272
11.0041   281
11.0141   287
11.0241   287
11.0341   295
11.0441   285
11.0541   274
11.0641   281
11.0741   264
11.0841   248
11.0941   251
11.1041   257
11.1141   269
11.1241   266
11.1341   273
11.1441   279
11.1541   297
11.1641   294
11.1741   307
11.1841   320
11.1941   344
11.2041   364
11.2141   367
11.2241   383
11.2341   388
11.2441   425
11.2541   425
11.2641   406
11.2741   424
11.2841   433
11.2941   428
11.3041   437
11.3141   426
11.3241   402
11.3341   385
11.3441   348
11.3541   348
11.3641   349
11.3741   307
11.3841   296
11.3941   293
11.4041   269
11.4141   244
11.4241   246
11.4341   229
11.4441   232
11.4541   210
11.4641   200
11.4741   204
11.4841   219
11.4941   223
11.5041   215
11.5141   218
11.5241   209
11.5341   231
11.5441   230
11.5541   236
11.5641   239
11.5741   246
11.5841   252
11.5941   252
11.6041   250
11.6141   215
11.6241   215
11.6341   229
11.6441   256
11.6541   245
11.6641   244
11.6741   230
11.6841   208
11.6941   217
11.7041   213
11.7141   207
11.7241   226
11.7341   197
11.7441   178
11.7541   193
11.7641   194
11.7741   186
11.7841   171
11.7941   165
11.8041   157
11.8141   152
11.8241   164
11.8341   177
11.8441   166
11.8541   173
11.8641   168
11.8741   168
11.8841   161
11.8941   164
11.9041   166
11.9141   163
11.9241   180
11.9341   158
11.9441   162
11.9541   170
11.9641   164
11.9741   169
11.9841   172
11.9941   172
12.0041   162
12.0141   173
12.0241   156
12.0341   163
12.0441   171
12.0541   184
12.0641   179
12.0741   154
12.0841   165
12.0941   164
12.1041   173
12.1141   183
12.1241   178
12.1341   166
12.1441   160
12.1541   158
12.1641   162
12.1741   170
12.1841   164
12.1941   162
12.2041   149
12.2141   148
12.2241   143
12.2341   161
12.2441   166
12.2541   158
12.2641   161
12.2741   158
12.2841   148
12.2941   155
12.3041   160
12.3141   158
12.3241   152
12.3341   155
12.3441   154
12.3541   160
12.3641   141
12.3741   157
12.3841   151
12.3941   140
12.4041   150
12.4141   163
12.4241   148
12.4341   155
12.4441   158
12.4541   167
12.4641   169
12.4741   164
12.4841   162
12.4941   170
12.5041   159
12.5141   168
12.5241   168
12.5341   160
12.5441   160
12.5541   161
12.5641   175
12.5741   175
12.5841   177
12.5941   183
12.6041   160
12.6141   176
12.6241   182
12.6341   173
12.6441   169
12.6541   170
12.6641   166
12.6741   165
12.6841   187
12.6941   174
12.7041   173
12.7141   185
12.7241   177
12.7341   165
12.7441   167
12.7541   174
12.7641   171
12.7741   169
12.7841   174
12.7941   176
12.8041   171
12.8141   167
12.8241   168
12.8341   166
12.8441   162
12.8541   163
12.8641   169
12.8741   174
12.8841   176
12.8941   176
12.9041   179
12.9141   181
12.9241   182
12.9341   183
12.9441   183
12.9541   182
12.9641   183
12.9741   187
12.9841   191
12.9941   191
13.0041   186
13.0141   185
13.0241   188
13.0341   190
13.0441   193
13.0541   191
13.0641   185
13.0741   187
13.0841   197
13.0941   202
13.1041   197
13.1141   190
13.1241   185
13.1341   190
13.1441   209
13.1541   218
13.1641   201
13.1741   200
13.1841   208
13.1941   220
13.2041   220
13.2141   226
13.2241   231
13.2341   238
13.2441   247
13.2541   236
13.2641   245
13.2741   259
13.2841   274
13.2941   278
13.3041   292
13.3141   319
13.3241   318
13.3341   314
13.3441   323
13.3541   329
13.3641   349
13.3741   350
13.3841   356
13.3941   356
13.4041   352
13.4141   354
13.4241   329
13.4341   333
13.4441   341
13.4541   314
13.4641   300
13.4741   291
13.4841   287
13.4941   271
13.5041   267
13.5141   252
13.5241   253
13.5341   275
13.5441   269
13.5541   244
13.5641   224
13.5741   239
13.5841   244
13.5941   231
13.6041   216
13.6141   205
13.6241   218
13.6341   230
13.6441   220
13.6541   212
13.6641   230
13.6741   246
13.6841   237
13.6941   230
13.7041   233
13.7141   229
13.7241   211
13.7341   206
13.7441   220
13.7541   227
13.7641   230
13.7741   227
13.7841   218
13.7941   220
13.8041   233
13.8141   230
13.8241   225
13.8341   223
13.8441   215
13.8541   235
13.8641   240
13.8741   234
13.8841   234
13.8941   240
13.9041   275
13.9141   272
13.9241   255
13.9341   269
13.9441   285
13.9541   302
13.9641   323
13.9741   345
13.9841   338
13.9941   368
14.0041   421
14.0141   445
14.0241   479
14.0341   509
14.0441   502
14.0541   518
14.0641   597
14.0741   652
14.0841   685
14.0941   712
14.1041   721
14.1141   728
14.1241   755
14.1341   773
14.1441   777
14.1541   796
14.1641   776
14.1741   724
14.1841   706
14.1941   693
14.2041   638
14.2141   602
14.2241   601
14.2341   574
14.2441   528
14.2541   491
14.2641   481
14.2741   458
14.2841   429
14.2941   414
14.3041   406
14.3141   369
14.3241   332
14.3341   303
14.3441   261
14.3541   265
14.3641   279
14.3741   271
14.3841   257
14.3941   262
14.4041   269
14.4141   267
14.4241   255
14.4341   254
14.4441   258
14.4541   247
14.4641   234
14.4741   255
14.4841   282
14.4941   270
14.5041   254
14.5141   263
14.5241   263
14.5341   253
14.5441   252
14.5541   263
14.5641   271
14.5741   262
14.5841   263
14.5941   251
14.6041   249
14.6141   257
14.6241   256
14.6341   270
14.6441   263
14.6541   264
14.6641   275
14.6741   280
14.6841   267
14.6941   274
14.7041   272
14.7141   259
14.7241   264
14.7341   252
14.7441   263
14.7541   289
14.7641   291
14.7741   276
14.7841   284
14.7941   293
14.8041   286
14.8141   282
14.8241   280
14.8341   290
14.8441   291
14.8541   301
14.8641   317
14.8741   311
14.8841   296
14.8941   296
14.9041   296
14.9141   288
14.9241   286
14.9341   299
14.9441   302
14.9541   322
14.9641   344
14.9741   322
14.9841   305
14.9941   314
15.0041   311
15.0141   301
15.0241   307
15.0341   317
15.0441   337
15.0541   331
15.0641   310
15.0741   311
15.0841   305
15.0941   283
15.1041   277
15.1141   292
15.1241   296
15.1341   312
15.1441   319
15.1541   295
15.1641   291
15.1741   279
15.1841   303
15.1941   324
15.2041   302
15.2141   307
15.2241   299
15.2341   279
15.2441   286
15.2541   299
15.2641   305
15.2741   297
15.2841   319
15.2941   310
15.3041   281
15.3141   276
15.3241   297
15.3341   328
15.3441   333
15.3541   305
15.3641   274
15.3741   279
15.3841   287
15.3941   294
15.4041   302
15.4141   305
15.4241   295
15.4341   305
15.4441   313
15.4541   310
15.4641   313
15.4741   305
15.4841   297
15.4941   340
15.5041   329
15.5141   313
15.5241   325
15.5341   336
15.5441   330
15.5541   327
15.5641   352
15.5741   398
15.5841   382
15.5941   380
15.6041   413
15.6141   409
15.6241   422
15.6341   420
15.6441   444
15.6541   482
15.6641   482
15.6741   470
15.6841   499
15.6941   524
15.7041   545
15.7141   565
15.7241   569
15.7341   579
15.7441   590
15.7541   596
15.7641   627
15.7741   605
15.7841   602
15.7941   595
15.8041   597
15.8141   605
15.8241   549
15.8341   545
15.8441   554
15.8541   554
15.8641   513
15.8741   475
15.8841   459
15.8941   460
15.9041   476
15.9141   474
15.9241   412
15.9341   408
15.9441   415
15.9541   399
15.9641   366
15.9741   354
15.9841   378
15.9941   360
16.0041   339
16.0141   345
16.0241   355
16.0341   353
16.0441   350
16.0541   319
16.0641   323
16.0741   351
16.0841   351
16.0941   354
16.1041   360
16.1141   353
16.1241   347
16.1341   348
16.1441   350
16.1541   354
16.1641   324
16.1741   343
16.1841   353
16.1941   366
16.2041   367
16.2141   346
16.2241   319
16.2341   330
16.2441   373
16.2541   361
16.2641   361
16.2741   339
16.2841   335
16.2941   327
16.3041   326
16.3141   350
16.3241   345
16.3341   366
16.3441   349
16.3541   340
16.3641   355
16.3741   354
16.3841   340
16.3941   336
16.4041   356
16.4141   380
16.4241   394
16.4341   382
16.4441   381
16.4541   366
16.4641   360
16.4741   365
16.4841   346
16.4941   369
16.5041   383
16.5141   365
16.5241   371
16.5341   362
16.5441   373
16.5541   375
16.5641   395
16.5741   394
16.5841   369
16.5941   374
16.6041   387
16.6141   402
16.6241   373
16.6341   350
16.6441   358
16.6541   367
16.6641   356
16.6741   378
16.6841   383
16.6941   383
16.7041   369
16.7141   390
16.7241   372
16.7341   362
16.7441   400
16.7541   376
16.7641   375
16.7741   365
16.7841   360
16.7941   377
16.8041   381
16.8141   404
16.8241   393
16.8341   370
16.8441   365
16.8541   358
16.8641   358
16.8741   382
16.8841   391
16.8941   385
16.9041   373
16.9141   402
16.9241   418
16.9341   384
16.9441   371
16.9541   374
16.9641   361
16.9741   371
16.9841   374
16.9941   406
17.0041   404
17.0141   388
17.0241   376
17.0341   405
17.0441   406
17.0541   385
17.0641   384
17.0741   393
17.0841   410
17.0941   437
17.1041   431
17.1141   413
17.1241   404
17.1341   406
17.1441   410
17.1541   423
17.1641   412
17.1741   378
17.1841   391
17.1941   396
17.2041   406
17.2141   424
17.2241   405
17.2341   384
17.2441   372
17.2541   428
17.2641   409
17.2741   421
17.2841   412
17.2941   407
17.3041   413
17.3141   405
17.3241   387
17.3341   413
17.3441   395
17.3541   401
17.3641   417
17.3741   411
17.3841   393
17.3941   420
17.4041   435
17.4141   425
17.4241   401
17.4341   416
17.4441   428
17.4541   398
17.4641   427
17.4741   423
17.4841   444
17.4941   461
17.5041   430
17.5141   433
17.5241   446
17.5341   415
17.5441   417
17.5541   423
17.5641   436
17.5741   471
17.5841   468
17.5941   443
17.6041   448
17.6141   457
17.6241   465
17.6341   454
17.6441   470
17.6541   443
17.6641   432
17.6741   452
17.6841   448
17.6941   453
17.7041   464
17.7141   438
17.7241   467
17.7341   465
17.7441   453
17.7541   455
17.7641   430
17.7741   438
17.7841   447
17.7941   475
17.8041   460
17.8141   461
17.8241   446
17.8341   429
17.8441   429
17.8541   432
17.8641   422
17.8741   464
17.8841   449
17.8941   449
17.9041   472
17.9141   465
17.9241   482
17.9341   464
17.9441   443
17.9541   442
17.9641   459
17.9741   447
17.9841   455
17.9941   442
18.0041   422
18.0141   439
18.0241   461
18.0341   432
18.0441   437
18.0541   415
18.0641   439
18.0741   426
18.0841   427
18.0941   425
18.1041   457
18.1141   432
18.1241   437
18.1341   479
18.1441   463
18.1541   450
18.1641   452
18.1741   482
18.1841   468
18.1941   479
18.2041   470
18.2141   442
18.2241   435
18.2341   472
18.2441   435
18.2541   469
18.2641   467
18.2741   463
18.2841   467
18.2941   436
18.3041   467
18.3141   474
18.3241   498
18.3341   503
18.3441   456
18.3541   435
18.3641   461
18.3741   461
18.3841   478
18.3941   455
18.4041   459
18.4141   434
18.4241   443
18.4341   430
18.4441   473
18.4541   518
18.4641   471
18.4741   457
18.4841   485
18.4941   490
18.5041   456
18.5141   470
18.5241   471
18.5341   480
18.5441   481
18.5541   479
18.5641   496
18.5741   519
18.5841   504
18.5941   479
18.6041   436
18.6141   487
18.6241   494
18.6341   484
18.6441   461
18.6541   483
18.6641   491
18.6741   464
18.6841   496
18.6941   509
18.7041   496
18.7141   464
18.7241   490
18.7341   467
18.7441   494
18.7541   449
18.7641   477
18.7741   460
18.7841   450
18.7941   486
18.8041   494
18.8141   482
18.8241   451
18.8341   486
18.8441   509
18.8541   501
18.8641   506
18.8741   512
18.8841   462
18.8941   500
18.9041   479
18.9141   503
18.9241   504
18.9341   477
18.9441   464
18.9541   455
18.9641   504
18.9741   497
18.9841   489
18.9941   493
19.0041   486
19.0141   487
19.0241   518
19.0341   518
19.0441   503
19.0541   506
19.0641   500
19.0741   492
19.0841   518
19.0941   510
19.1041   521
19.1141   479
19.1241   521
19.1341   510
19.1441   497
19.1541   497
19.1641   509
19.1741   509
19.1841   521
19.1941   487
19.2041   517
19.2141   466
19.2241   501
19.2341   524
19.2441   539
19.2541   500
19.2641   488
19.2741   499
19.2841   494
19.2941   481
19.3041   492
19.3141   501
19.3241   513
19.3341   551
19.3441   484
19.3541   508
19.3641   507
19.3741   487
19.3841   513
19.3941   544
19.4041   518
19.4141   503
19.4241   521
19.4341   510
19.4441   503
19.4541   493
19.4641   502
19.4741   505
19.4841   478
19.4941   496
19.5041   506
19.5141   502
19.5241   540
19.5341   534
19.5441   487
19.5541   498
19.5641   466
19.5741   493
19.5841   519
19.5941   494
19.6041   514
19.6141   512
19.6241   496
19.6341   501
19.6441   480
19.6541   493
19.6641   522
19.6741   513
19.6841   497
19.6941   512
19.7041   553
19.7141   546
19.7241   504
19.7341   489
19.7441   516
19.7541   517
19.7641   502
19.7741   516
19.7841   501
19.7941   522
19.8041   504
19.8141   534
19.8241   556
19.8341   516
19.8441   484
19.8541   505
19.8641   569
19.8741   495
19.8841   490
19.8941   512
19.9041   504
19.9141   521
19.9241   510
19.9341   503
19.9441   494
19.9541   536
19.9641   517
19.9741   511
19.9841   541
19.9941   519
20.0041   507
20.0141   484
20.0241   518
20.0341   511
20.0441   484
20.0541   524
20.0641   501
20.0741   505
20.0841   534
20.0941   516
20.1041   513
20.1141   515
20.1241   533
20.1341   525
20.1441   528
20.1541   505
20.1641   538
20.1741   536
20.1841   537
20.1941   528
20.2041   520
20.2141   516
20.2241   551
20.2341   490
20.2441   476
20.2541   529
20.2641   538
20.2741   502
20.2841   489
20.2941   550
20.3041   538
20.3141   506
20.3241   538
20.3341   545
20.3441   497
20.3541   479
20.3641   525
20.3741   531
20.3841   526
20.3941   513
20.4041   516
20.4141   516
20.4241   520
20.4341   550
20.4441   514
20.4541   495
20.4641   566
20.4741   555
20.4841   524
20.4941   519
20.5041   539
20.5141   541
20.5241   529
20.5341   524
20.5441   531
20.5541   519
20.5641   517
20.5741   533
20.5841   511
20.5941   521
20.6041   510
20.6141   514
20.6241   529
20.6341   537
20.6441   507
20.6541   526
20.6641   543
20.6741   493
20.6841   568
20.6941   545
20.7041   507
20.7141   543
20.7241   548
20.7341   522
20.7441   548
20.7541   524
20.7641   553
20.7741   549
20.7841   558
20.7941   552
20.8041   528
20.8141   591
20.8241   588
20.8341   562
20.8441   543
20.8541   550
20.8641   557
20.8741   541
20.8841   603
20.8941   609
20.9041   612
20.9141   617
20.9241   584
20.9341   625
20.9441   658
20.9541   648
20.9641   641
20.9741   637
20.9841   654
20.9941   690
21.0041   738
21.0141   717
21.0241   773
21.0341   710
21.0441   740
21.0541   699
21.0641   763
21.0741   795
21.0841   746
21.0941   818
21.1041   757
21.1141   787
21.1241   820
21.1341   786
21.1441   777
21.1541   803
21.1641   820
21.1741   719
21.1841   771
21.1941   744
21.2041   721
21.2141   735
21.2241   710
21.2341   762
21.2441   753
21.2541   694
21.2641   697
21.2741   685
21.2841   677
21.2941   671
21.3041   650
21.3141   627
21.3241   619
21.3341   614
21.3441   611
21.3541   596
21.3641   581
21.3741   557
21.3841   567
21.3941   513
21.4041   565
21.4141   544
21.4241   549
21.4341   550
21.4441   506
21.4541   512
21.4641   557
21.4741   502
21.4841   480
21.4941   477
21.5041   503
21.5141   537
21.5241   541
21.5341   534
21.5441   558
21.5541   535
21.5641   532
21.5741   526
21.5841   564
21.5941   568
21.6041   504
21.6141   572
21.6241   568
21.6341   516
21.6441   551
21.6541   513
21.6641   502
21.6741   536
21.6841   556
21.6941   515
21.7041   518
21.7141   524
21.7241   531
21.7341   530
21.7441   532
21.7541   543
21.7641   547
21.7741   513
21.7841   542
21.7941   551
21.8041   518
21.8141   526
21.8241   564
21.8341   513
21.8441   536
21.8541   523
21.8641   536
21.8741   507
21.8841   538
21.8941   524
21.9041   520
21.9141   484
21.9241   501
21.9341   541
21.9441   539
21.9541   549
21.9641   550
21.9741   518
21.9841   515
21.9941   508
22.0041   493
22.0141   563
22.0241   550
22.0341   489
22.0441   502
22.0541   531
22.0641   537
22.0741   551
22.0841   575
22.0941   527
22.1041   516
22.1141   510
22.1241   540
22.1341   557
22.1441   568
22.1541   533
22.1641   574
22.1741   539
22.1841   478
22.1941   565
22.2041   565
22.2141   483
22.2241   508
22.2341   546
22.2441   514
22.2541   532
22.2641   514
22.2741   535
22.2841   570
22.2941   552
22.3041   490
22.3141   554
22.3241   558
22.3341   550
22.3441   553
22.3541   532
22.3641   534
22.3741   560
22.3841   507
22.3941   532
22.4041   521
22.4141   505
22.4241   506
22.4341   535
22.4441   535
22.4541   532
22.4641   500
22.4741   534
22.4841   547
22.4941   546
22.5041   522
22.5141   540
22.5241   517
22.5341   523
22.5441   549
22.5541   527
22.5641   526
22.5741   560
22.5841   541
22.5941   513
22.6041   511
22.6141   538
22.6241   533
22.6341   542
22.6441   528
22.6541   576
22.6641   489
22.6741   469
22.6841   532
22.6941   544
22.7041   548
22.7141   516
22.7241   522
22.7341   504
22.7441   497
22.7541   527
22.7641   559
22.7741   527
22.7841   515
22.7941   494
22.8041   530
22.8141   523
22.8241   568
22.8341   507
22.8441   510
22.8541   533
22.8641   537
22.8741   543
22.8841   560
22.8941   506
22.9041   487
22.9141   503
22.9241   506
22.9341   509
22.9441   514
22.9541   531
22.9641   516
22.9741   511
22.9841   549
22.9941   535
23.0041   537
23.0141   473
23.0241   505
23.0341   522
23.0441   524
23.0541   470
23.0641   524
23.0741   564
23.0841   541
23.0941   534
23.1041   489
23.1141   540
23.1241   515
23.1341   505
23.1441   515
23.1541   526
23.1641   510
23.1741   555
23.1841   509
23.1941   460
23.2041   520
23.2141   538
23.2241   471
23.2341   510
23.2441   516
23.2541   522
23.2641   509
23.2741   498
23.2841   487
23.2941   505
23.3041   492
23.3141   524
23.3241   504
23.3341   508
23.3441   508
23.3541   503
23.3641   499
23.3741   484
23.3841   474
23.3941   563
23.4041   500
23.4141   545
23.4241   556
23.4341   505
23.4441   512
23.4541   526
23.4641   502
23.4741   517
23.4841   541
23.4941   526
23.5041   517
23.5141   476
23.5241   500
23.5341   520
23.5441   520
23.5541   513
23.5641   474
23.5741   498
23.5841   473
23.5941   520
23.6041   496
23.6141   483
23.6241   542
23.6341   504
23.6441   506
23.6541   517
23.6641   511
23.6741   543
23.6841   529
23.6941   546
23.7041   538
23.7141   515
23.7241   530
23.7341   552
23.7441   573
23.7541   530
23.7641   539
23.7741   523
23.7841   535
23.7941   527
23.8041   555
23.8141   536
23.8241   559
23.8341   552
23.8441   551
23.8541   575
23.8641   548
23.8741   538
23.8841   534
23.8941   559
23.9041   545
23.9141   535
23.9241   503
23.9341   510
23.9441   467
23.9541   499
23.9641   467
23.9741   504
23.9841   467
23.9941   495
24.0041   543
24.0141   522
24.0241   502
24.0341   493
24.0441   501
24.0541   460
24.0641   481
24.0741   490
24.0841   529
24.0941   504
24.1041   476
24.1141   498
24.1241   505
24.1341   501
24.1441   492
24.1541   497
24.1641   471
24.1741   487
24.1841   528
24.1941   540
24.2041   474
24.2141   473
24.2241   481
24.2341   502
24.2441   497
24.2541   495
24.2641   464
24.2741   504
24.2841   474
24.2941   494
24.3041   486
24.3141   503
24.3241   509
24.3341   481
24.3441   449
24.3541   487
24.3641   496
24.3741   484
24.3841   476
24.3941   487
24.4041   522
24.4141   460
24.4241   459
24.4341   481
24.4441   489
24.4541   475
24.4641   476
24.4741   452
24.4841   495
24.4941   466
24.5041   457
24.5141   491
24.5241   449
24.5341   474
24.5441   518
24.5541   485
24.5641   488
24.5741   478
24.5841   446
24.5941   453
24.6041   467
24.6141   501
24.6241   453
24.6341   472
24.6441   461
24.6541   511
24.6641   441
24.6741   461
24.6841   495
24.6941   492
24.7041   433
24.7141   465
24.7241   459
24.7341   487
24.7441   444
24.7541   488
24.7641   429
24.7741   483
24.7841   470
24.7941   457
24.8041   469
24.8141   442
24.8241   440
24.8341   430
24.8441   487
24.8541   467
24.8641   450
24.8741   432
24.8841   425
24.8941   426
24.9041   446
24.9141   439
24.9241   481
24.9341   428
24.9441   485
24.9541   484
24.9641   482
24.9741   495
24.9841   491
24.9941   460
25.0041   441
25.0141   448
25.0241   468
25.0341   508
25.0441   503
25.0541   473
25.0641   454
25.0741   457
25.0841   456
25.0941   465
25.1041   484
25.1141   434
25.1241   474
25.1341   444
25.1441   460
25.1541   460
25.1641   449
25.1741   452
25.1841   533
25.1941   502
25.2041   472
25.2141   470
25.2241   443
25.2341   456
25.2441   465
25.2541   470
25.2641   444
25.2741   427
25.2841   455
25.2941   454
25.3041   486
25.3141   447
25.3241   475
25.3341   478
25.3441   491
25.3541   450
25.3641   443
25.3741   434
25.3841   469
25.3941   437
25.4041   410
25.4141   477
25.4241   413
25.4341   434
25.4441   416
25.4541   427
25.4641   474
25.4741   449
25.4841   412
25.4941   432
25.5041   427
25.5141   462
25.5241   436
25.5341   418
25.5441   443
25.5541   408
25.5641   422
25.5741   396
25.5841   463
25.5941   432
25.6041   421
25.6141   431
25.6241   428
25.6341   406
25.6441   441
25.6541   419
25.6641   413
25.6741   413
25.6841   407
25.6941   449
25.7041   407
25.7141   420
25.7241   426
25.7341   446
25.7441   439
25.7541   446
25.7641   448
25.7741   402
25.7841   394
25.7941   410
25.8041   420
25.8141   420
25.8241   458
25.8341   412
25.8441   423
25.8541   446
25.8641   448
25.8741   449
25.8841   404
25.8941   427
25.9041   422
25.9141   417
25.9241   379
25.9341   427
25.9441   405
25.9541   405
25.9641   437
25.9741   439
25.9841   450
25.9941   414
26.0041   405
26.0141   386
26.0241   422
26.0341   422
26.0441   408
26.0541   406
26.0641   430
26.0741   416
26.0841   405
26.0941   415
26.1041   425
26.1141   438
26.1241   428
26.1341   409
26.1441   408
26.1541   374
26.1641   428
26.1741   405
26.1841   383
26.1941   389
26.2041   429
26.2141   411
26.2241   414
26.2341   401
26.2441   407
26.2541   391
26.2641   404
26.2741   419
26.2841   414
26.2941   422
26.3041   432
26.3141   370
26.3241   392
26.3341   396
26.3441   401
26.3541   431
26.3641   409
26.3741   409
26.3841   385
26.3941   401
26.4041   393
26.4141   446
26.4241   421
26.4341   424
26.4441   439
26.4541   396
26.4641   435
26.4741   420
26.4841   431
26.4941   430
26.5041   409
26.5141   394
26.5241   407
26.5341   383
26.5441   413
26.5541   365
26.5641   406
26.5741   387
26.5841   403
26.5941   391
26.6041   368
26.6141   387
26.6241   351
26.6341   399
26.6441   398
26.6541   410
26.6641   386
26.6741   390
26.6841   370
26.6941   356
26.7041   383
26.7141   385
26.7241   407
26.7341   371
26.7441   413
26.7541   385
26.7641   368
26.7741   355
26.7841   392
26.7941   377
26.8041   378
26.8141   371
26.8241   385
26.8341   379
26.8441   413
26.8541   372
26.8641   371
26.8741   382
26.8841   349
26.8941   376
26.9041   390
26.9141   375
26.9241   380
26.9341   375
26.9441   369
26.9541   413
26.9641   408
26.9741   364
26.9841   353
26.9941   394
27.0041   376
27.0141   382
27.0241   369
27.0341   375
27.0441   371
27.0541   398
27.0641   396
27.0741   401
27.0841   387
27.0941   381
27.1041   364
27.1141   400
27.1241   385
27.1341   374
27.1441   357
27.1541   373
27.1641   363
27.1741   370
27.1841   385
27.1941   383
27.2041   381
27.2141   389
27.2241   400
27.2341   389
27.2441   386
27.2541   386
27.2641   395
27.2741   395
27.2841   375
27.2941   343
27.3041   368
27.3141   336
27.3241   364
27.3341   374
27.3441   378
27.3541   346
27.3641   345
27.3741   347
27.3841   385
27.3941   374
27.4041   336
27.4141   358
27.4241   342
27.4341   370
27.4441   354
27.4541   340
27.4641   376
27.4741   374
27.4841   374
27.4941   357
27.5041   373
27.5141   356
27.5241   361
27.5341   358
27.5441   371
27.5541   341
27.5641   365
27.5741   371
27.5841   368
27.5941   380
27.6041   369
27.6141   332
27.6241   358
27.6341   342
27.6441   323
27.6541   368
27.6641   339
27.6741   316
27.6841   357
27.6941   371
27.7041   364
27.7141   351
27.7241   343
27.7341   353
27.7441   347
27.7541   378
27.7641   349
27.7741   347
27.7841   354
27.7941   324
27.8041   351
27.8141   332
27.8241   357
27.8341   304
27.8441   323
27.8541   350
27.8641   356
27.8741   335
27.8841   331
27.8941   328
27.9041   328
27.9141   329
27.9241   321
27.9341   350
27.9441   328
27.9541   318
27.9641   338
27.9741   350
27.9841   337
27.9941   338
28.0041   341
28.0141   326
28.0241   317
28.0341   355
28.0441   345
28.0541   353
28.0641   344
28.0741   349
28.0841   305
28.0941   326
28.1041   309
28.1141   316
28.1241   310
28.1341   349
28.1441   332
28.1541   323
28.1641   330
28.1741   329
28.1841   351
28.1941   311
28.2041   325
28.2141   371
28.2241   318
28.2341   313
28.2441   306
28.2541   322
28.2641   340
28.2741   370
28.2841   345
28.2941   317
28.3041   299
28.3141   322
28.3241   365
28.3341   350
28.3441   345
28.3541   317
28.3641   307
28.3741   309
28.3841   308
28.3941   308
28.4041   314
28.4141   317
28.4241   290
28.4341   296
28.4441   329
28.4541   338
28.4641   348
28.4741   319
28.4841   327
28.4941   335
28.5041   304
28.5141   321
28.5241   325
28.5341   313
28.5441   345
28.5541   305
28.5641   303
28.5741   299
28.5841   338
28.5941   310
28.6041   309
28.6141   318
28.6241   324
28.6341   307
28.6441   312
28.6541   311
28.6641   323
28.6741   295
28.6841   302
28.6941   341
28.7041   302
28.7141   317
28.7241   317
28.7341   305
28.7441   301
28.7541   302
28.7641   328
28.7741   299
28.7841   327
28.7941   305
28.8041   297
28.8141   297
28.8241   304
28.8341   289
28.8441   260
28.8541   310
28.8641   312
28.8741   295
28.8841   303
28.8941   304
28.9041   304
28.9141   346
28.9241   293
28.9341   301
28.9441   303
28.9541   300
28.9641   303
28.9741   278
28.9841   309
28.9941   279
29.0041   303
29.0141   313
29.0241   320
29.0341   291
29.0441   321
29.0541   304
29.0641   289
29.0741   279
29.0841   294
29.0941   270
29.1041   284
29.1141   293
29.1241   287
29.1341   286
29.1441   320
29.1541   292
29.1641   297
29.1741   280
29.1841   300
29.1941   268
29.2041   279
29.2141   267
29.2241   338
29.2341   302
29.2441   261
29.2541   269
29.2641   281
29.2741   269
29.2841   265
29.2941   273
29.3041   293
29.3141   287
29.3241   295
29.3341   306
29.3441   273
29.3541   278
29.3641   256
29.3741   287
29.3841   306
29.3941   274
29.4041   296
29.4141   276
29.4241   304
29.4341   281
29.4441   277
29.4541   269
29.4641   266
29.4741   291
29.4841   310
29.4941   261
29.5041   285
29.5141   281
29.5241   266
29.5341   278
29.5441   242
29.5541   273
29.5641   276
29.5741   263
29.5841   289
29.5941   278
29.6041   263
29.6141   267
29.6241   270
29.6341   284
29.6441   256
29.6541   287
29.6641   258
29.6741   280
29.6841   258
29.6941   287
29.7041   275
29.7141   286
29.7241   277
29.7341   260
29.7441   260
29.7541   285
29.7641   284
29.7741   263
29.7841   287
29.7941   273
29.8041   269
29.8141   284
29.8241   242
29.8341   259
29.8441   259
29.8541   258
29.8641   274
29.8741   244
29.8841   274
29.8941   271
29.9041   253
29.9141   279
29.9241   267
29.9341   255
29.9441   269
29.9541   284
29.9641   260
29.9741   270
29.9841   256
29.9941   255
30.0041   254
30.0141   257
30.0241   260
30.0341   251
30.0441   229
30.0541   273
30.0641   253
30.0741   228
30.0841   236
30.0941   245
30.1041   254
30.1141   255
30.1241   264
30.1341   256
30.1441   256
30.1541   247
30.1641   271
30.1741   254
30.1841   249
30.1941   231
30.2041   246
30.2141   241
30.2241   239
30.2341   251
30.2441   247
30.2541   223
30.2641   230
30.2741   271
30.2841   255
30.2941   238
30.3041   234
30.3141   240
30.3241   235
30.3341   266
30.3441   248
30.3541   249
30.3641   284
30.3741   257
30.3841   248
30.3941   243
30.4041   263
30.4141   224
30.4241   231
30.4341   232
30.4441   242
30.4541   214
30.4641   269
30.4741   237
30.4841   222
30.4941   246
30.5041   220
30.5141   218
30.5241   263
30.5341   238
30.5441   240
30.5541   225
30.5641   225
30.5741   220
30.5841   242
30.5941   233
30.6041   245
30.6141   236
30.6241   224
30.6341   244
30.6441   233
30.6541   249
30.6641   214
30.6741   237
30.6841   235
30.6941   225
30.7041   201
30.7141   247
30.7241   212
30.7341   247
30.7441   229
30.7541   219
30.7641   221
30.7741   213
30.7841   202
30.7941   211
30.8041   210
30.8141   208
30.8241   222
30.8341   229
30.8441   221
30.8541   225
30.8641   223
30.8741   223
30.8841   227
30.8941   195
30.9041   177
30.9141   217
30.9241   219
30.9341   222
30.9441   211
30.9541   197
30.9641   239
30.9741   234
30.9841   244
30.9941   233
31.0041   242
31.0141   223
31.0241   200
31.0341   208
31.0441   208
31.0541   235
31.0641   235
31.0741   212
31.0841   202
31.0941   226
31.1041   235
31.1141   203
31.1241   207
31.1341   199
31.1441   227
31.1541   240
31.1641   207
31.1741   214
31.1841   256
31.1941   211
31.2041   222
31.2141   222
31.2241   220
31.2341   218
31.2441   207
31.2541   240
31.2641   200
31.2741   187
31.2841   213
31.2941   234
31.3041   217
31.3141   227
31.3241   204
31.3341   208
31.3441   188
31.3541   194
31.3641   191
31.3741   201
31.3841   204
31.3941   209
31.4041   201
31.4141   199
31.4241   234
31.4341   186
31.4441   210
31.4541   224
31.4641   209
31.4741   225
31.4841   211
31.4941   198
31.5041   211
31.5141   229
31.5241   188
31.5341   196
31.5441   196
31.5541   209
31.5641   203
31.5741   196
31.5841   197
31.5941   201
31.6041   199
31.6141   196
31.6241   196
31.6341   229
31.6441   197
31.6541   222
31.6641   210
31.6741   226
31.6841   191
31.6941   198
31.7041   195
31.7141   198
31.7241   220
31.7341   208
31.7441   201
31.7541   199
31.7641   198
31.7741   223
31.7841   223
31.7941   195
31.8041   189
31.8141   186
31.8241   197
31.8341   223
31.8441   199
31.8541   237
31.8641   201
31.8741   220
31.8841   213
31.8941   230
31.9041   227
31.9141   194
31.9241   190
31.9341   225
31.9441   211
31.9541   203
31.9641   200
31.9741   216
31.9841   201
31.9941   189
32.0041   229
32.0141   208
32.0241   207
32.0341   205
32.0441   197
32.0541   212
32.0641   189
32.0741   204
32.0841   225
32.0941   221
32.1041   208
32.1141   232
32.1241   199
32.1341   222
32.1441   203
32.1541   199
32.1641   225
32.1741   216
32.1841   220
32.1941   218
32.2041   212
32.2141   195
32.2241   191
32.2341   221
32.2441   180
32.2541   197
32.2641   198
32.2741   197
32.2841   205
32.2941   210
32.3041   184
32.3141   208
32.3241   186
32.3341   178
32.3441   182
32.3541   181
32.3641   202
32.3741   200
32.3841   185
32.3941   176
32.4041   187
32.4141   188
32.4241   179
32.4341   179
32.4441   189
32.4541   205
32.4641   189
32.4741   194
32.4841   179
32.4941   173
32.5041   149
32.5141   153
32.5241   168
32.5341   183
32.5441   159
32.5541   160
32.5641   156
32.5741   157
32.5841   156
32.5941   168
32.6041   159
32.6141   171
32.6241   177
32.6341   183
32.6441   153
32.6541   176
32.6641   136
32.6741   176
32.6841   174
32.6941   147
32.7041   177
32.7141   165
32.7241   179
32.7341   166
32.7441   181
32.7541   166
32.7641   157
32.7741   169
32.7841   163
32.7941   166
32.8041   153
32.8141   183
32.8241   157
32.8341   182
32.8441   159
32.8541   179
32.8641   164
32.8741   173
32.8841   168
32.8941   180
32.9041   156
32.9141   158
32.9241   153
32.9341   158
32.9441   138
32.9541   162
32.9641   151
32.9741   163
32.9841   154
32.9941   168
33.0041   157
33.0141   145
33.0241   143
33.0341   193
33.0441   141
33.0541   145
33.0641   148
33.0741   161
33.0841   158
33.0941   152
33.1041   155
33.1141   157
33.1241   152
33.1341   162
33.1441   163
33.1541   154
33.1641   133
33.1741   140
33.1841   161
33.1941   167
33.2041   168
33.2141   142
33.2241   156
33.2341   143
33.2441   150
33.2541   162
33.2641   157
33.2741   168
33.2841   167
33.2941   154
33.3041   144
33.3141   137
33.3241   136
33.3341   141
33.3441   149
33.3541   141
33.3641   154
33.3741   150
33.3841   156
33.3941   122
33.4041   143
33.4141   160
33.4241   143
33.4341   146
33.4441   158
33.4541   162
33.4641   141
33.4741   137
33.4841   148
33.4941   157
33.5041   157
33.5141   188
33.5241   134
33.5341   154
33.5441   155
33.5541   139
33.5641   128
33.5741   131
33.5841   130
33.5941   131
33.6041   157
33.6141   145
33.6241   159
33.6341   163
33.6441   146
33.6541   138
33.6641   138
33.6741   144
33.6841   139
33.6941   136
33.7041   143
33.7141   129
33.7241   135
33.7341   119
33.7441   138
33.7541   141
33.7641   156
33.7741   142
33.7841   135
33.7941   145
33.8041   149
33.8141   136
33.8241   129
33.8341   143
33.8441   135
33.8541   134
33.8641   134
33.8741   134
33.8841   131
33.8941   131
33.9041   141
33.9141   144
33.9241   127
33.9341   135
33.9441   144
33.9541   130
33.9641   102
33.9741   130
33.9841   149
33.9941   118
34.0041   140
34.0141   120
34.0241   127
34.0341   104
34.0441   135
34.0541   137
34.0641   148
34.0741   140
34.0841   137
34.0941   122
34.1041   116
34.1141   138
34.1241   137
34.1341   129
34.1441   148
34.1541   135
34.1641   132
34.1741   140
34.1841   136
34.1941   128
34.2041   110
34.2141   141
34.2241   137
34.2341   111
34.2441   124
34.2541   128
34.2641   134
34.2741   141
34.2841   126
34.2941   133
34.3041   130
34.3141   116
34.3241   126
34.3341   138
34.3441   122
34.3541   114
34.3641   118
34.3741   120
34.3841   139
34.3941   123
34.4041   128
34.4141   105
34.4241   129
34.4341   123
34.4441   123
34.4541   112
34.4641   129
34.4741   115
34.4841   104
34.4941   119
34.5041   127
34.5141    97
34.5241   124
34.5341   106
34.5441   104
34.5541   122
34.5641   117
34.5741   129
34.5841   115
34.5941   116
34.6041   124
34.6141   117
34.6241   115
34.6341   114
34.6441   119
34.6541   126
34.6641   119
34.6741   116
34.6841   108
34.6941   108
34.7041   116
34.7141   128
34.7241   106
34.7341   123
34.7441   123
34.7541   121
34.7641   121
34.7741   114
34.7841   106
34.7941   128
34.8041   121
34.8141   113
34.8241   106
34.8341   109
34.8441   106
34.8541   110
34.8641   119
34.8741   125
34.8841   123
34.8941   107
34.9041   106
34.9141   114
34.9241   134
34.9341   106
34.9441   115
34.9541   127
34.9641   103
34.9741   113
34.9841   114
34.9941   112
35.0041    93
35.0141   109
35.0241   118
35.0341    97
35.0441   100
35.0541   101
35.0641   106
35.0741    98
35.0841   106
35.0941    88
35.1041   111
35.1141   113
35.1241   114
35.1341    98
35.1441   122
35.1541   104
35.1641   117
35.1741   107
35.1841    96
35.1941    90
35.2041   107
35.2141   107
35.2241   100
35.2341   101
35.2441   101
35.2541   106
35.2641    94
35.2741   127
35.2841   111
35.2941   115
35.3041    84
35.3141   106
35.3241    98
35.3341    79
35.3441    86
35.3541    91
35.3641   105
35.3741   114
35.3841   109
35.3941   114
35.4041    87
35.4141   112
35.4241   109
35.4341   110
35.4441    93
35.4541    91
35.4641    88
35.4741    99
35.4841   103
35.4941   105
35.5041   106
35.5141    95
35.5241   105
35.5341   118
35.5441   100
35.5541    90
35.5641   105
35.5741   107
35.5841    89
35.5941   108
35.6041   102
35.6141    97
35.6241    98
35.6341    86
35.6441    90
35.6541    92
35.6641    98
35.6741    83
35.6841   101
35.6941   104
35.7041    93
35.7141    96
35.7241    99
35.7341    97
35.7441    89
35.7541   102
35.7641    86
35.7741    94
35.7841    95
35.7941    95
35.8041   105
35.8141   104
35.8241    97
35.8341    99
35.8441    90
35.8541    92
35.8641    86
35.8741    75
35.8841    97
35.8941    83
35.9041   102
35.9141    87
35.9241    88
35.9341    82
35.9441    79
35.9541    94
35.9641    87
35.9741    86
35.9841    87
35.9941    80
36.0041    76
36.0141    92
36.0241    81
36.0341    87
36.0441    87
36.0541    99
36.0641    81
36.0741    67
36.0841    91
36.0941    73
36.1041    75
36.1141    93
36.1241    94
36.1341    83
36.1441    85
36.1541    80
36.1641    81
36.1741    87
36.1841    76
36.1941    78
36.2041    99
36.2141    97
36.2241    98
36.2341    82
36.2441    76
36.2541    76
36.2641    67
36.2741    79
36.2841    93
36.2941    82
36.3041    75
36.3141    96
36.3241    91
36.3341    79
36.3441    77
36.3541    86
36.3641    97
36.3741    83
36.3841    73
36.3941    77
36.4041    95
36.4141    99
36.4241    81
36.4341    80
36.4441    87
36.4541    76
36.4641    84
36.4741    86
36.4841    89
36.4941    80
36.5041    78
36.5141    84
36.5241    64
36.5341    81
36.5441    76
36.5541    84
36.5641    89
36.5741    73
36.5841    83
36.5941    84
36.6041    84
36.6141    97
36.6241    70
36.6341    78
36.6441    66
36.6541    80
36.6641    83
36.6741    82
36.6841    70
36.6941    73
36.7041    72
36.7141    78
36.7241    82
36.7341    78
36.7441    62
36.7541    64
36.7641    78
36.7741    82
36.7841    78
36.7941    81
36.8041    74
36.8141    84
36.8241    85
36.8341    67
36.8441    71
36.8541    76
36.8641    73
36.8741    64
36.8841    79
36.8941    65
36.9041    69
36.9141    68
36.9241    67
36.9341    66
36.9441    74
36.9541    71
36.9641    60
36.9741    64
36.9841    68
36.9941    65
37.0041    77
37.0141    55
37.0241    67
37.0341    59
37.0441    81
37.0541    61
37.0641    73
37.0741    61
37.0841    65
37.0941    61
37.1041    65
37.1141    71
37.1241    57
37.1341    60
37.1441    63
37.1541    75
37.1641    43
37.1741    69
37.1841    70
37.1941    63
37.2041    62
37.2141    70
37.2241    58
37.2341    66
37.2441    71
37.2541    66
37.2641    56
37.2741    64
37.2841    77
37.2941    50
37.3041    69
37.3141    88
37.3241    67
37.3341    64
37.3441    72
37.3541    72
37.3641    84
37.3741    60
37.3841    64
37.3941    61
37.4041    65
37.4141    67
37.4241    56
37.4341    65
37.4441    53
37.4541    58
37.4641    67
37.4741    62
37.4841    49
37.4941    79
37.5041    55
37.5141    65
37.5241    51
37.5341    64
37.5441    53
37.5541    57
37.5641    64
37.5741    51
37.5841    42
37.5941    57
37.6041    54
37.6141    62
37.6241    54
37.6341    67
37.6441    63
37.6541    48
37.6641    51
37.6741    51
37.6841    69
37.6941    66
37.7041    58
37.7141    57
37.7241    65
37.7341    48
37.7441    52
37.7541    54
37.7641    53
37.7741    47
37.7841    41
37.7941    54
37.8041    57
37.8141    68
37.8241    52
37.8341    44
37.8441    54
37.8541    60
37.8641    39
37.8741    58
37.8841    53
37.8941    51
37.9041    46
37.9141    56
37.9241    62
37.9341    53
37.9441    78
37.9541    60
37.9641    44
37.9741    42
37.9841    67
37.9941    48
38.0041    48
38.0141    53
38.0241    45
38.0341    52
38.0441    47
38.0541    56
38.0641    45
38.0741    36
38.0841    46
38.0941    58
38.1041    44
38.1141    48
38.1241    53
38.1341    33
38.1441    46
38.1541    52
38.1641    48
38.1741    47
38.1841    50
38.1941    53
38.2041    55
38.2141    43
38.2241    40
38.2341    37
38.2441    46
38.2541    50
38.2641    39
38.2741    49
38.2841    53
38.2941    54
38.3041    39
38.3141    44
38.3241    46
38.3341    59
38.3441    43
38.3541    53
38.3641    54
38.3741    39
38.3841    38
38.3941    45
38.4041    45
38.4141    46
38.4241    41
38.4341    64
38.4441    42
38.4541    51
38.4641    44
38.4741    43
38.4841    43
38.4941    61
38.5041    46
38.5141    53
38.5241    42
38.5341    44
38.5441    51
38.5541    52
38.5641    44
38.5741    35
38.5841    48
38.5941    54
38.6041    44
38.6141    46
38.6241    47
38.6341    45
38.6441    38
38.6541    46
38.6641    32
38.6741    42
38.6841    44
38.6941    48
38.7041    56
38.7141    45
38.7241    42
38.7341    43
38.7441    45
38.7541    52
38.7641    52
38.7741    36
38.7841    36
38.7941    40
38.8041    47
38.8141    45
38.8241    53
38.8341    48
38.8441    41
38.8541    40
38.8641    39
38.8741    35
38.8841    47
38.8941    38
38.9041    39
38.9141    36
38.9241    35
38.9341    27
38.9441    45
38.9541    44
38.9641    42
38.9741    51
38.9841    38
38.9941    46
39.0041    32
39.0141    34
39.0241    30
39.0341    42
39.0441    28
39.0541    38
39.0641    42
39.0741    45
39.0841    44
39.0941    27
39.1041    41
39.1141    41
39.1241    36
39.1341    55
39.1441    41
39.1541    42
39.1641    39
39.1741    42
39.1841    38
39.1941    26
39.2041    35
39.2141    31
39.2241    41
39.2341    42
39.2441    35
39.2541    40
39.2641    33
39.2741    34
39.2841    36
39.2941    40
39.3041    38
39.3141    31
39.3241    41
39.3341    38
39.3441    34
39.3541    27
39.3641    35
39.3741    41
39.3841    40
39.3941    38
39.4041    32
39.4141    37
39.4241    40
39.4341    32
39.4441    21
39.4541    26
39.4641    29
39.4741    38
39.4841    33
39.4941    30
39.5041    27
39.5141    36
39.5241    37
39.5341    35
39.5441    33
39.5541    35
39.5641    27
39.5741    30
39.5841    34
39.5941    30
39.6041    29
39.6141    22
39.6241    24
39.6341    34
39.6441    23
39.6541    32
39.6641    31
39.6741    37
39.6841    46
39.6941    32
39.7041    32
39.7141    33
39.7241    35
39.7341    32
39.7441    31
39.7541    30
39.7641    31
39.7741    25
39.7841    24
39.7941    42
39.8041    36
39.8141    33
39.8241    23
39.8341    23
39.8441    36
39.8541    17
39.8641    24
39.8741    25
39.8841    28
39.8941    24
39.9041    24
39.9141    22
39.9241    24
39.9341    27
39.9441    25
39.9541    33
39.9641    28
39.9741    35
39.9841    33
