Bruker Nano GmbH Berlin, Germany
Esprit 1.9

Date: 4/1/2021 4:54:32 PM
Real time: 17363
Life time: 16128
Pulse density: 106400


Detector type: XFlash 430
Window type: Custom type
Detector thickness: 0.45
Si dead layer:0.029

Calibration, lin.: 10
Calibration, abs.: -955.9
Mn FWHM: 137.05
Fano factor: 0.121
Channels: 4095

Energy Counts
-0.9559     0
-0.9459     0
-0.9359     0
-0.9259     0
-0.9159     0
-0.9059     0
-0.8959     0
-0.8859     0
-0.8759     0
-0.8659     0
-0.8559     0
-0.8459     0
-0.8359     0
-0.8259     0
-0.8159     0
-0.8059     0
-0.7959     0
-0.7859     0
-0.7759     0
-0.7659     0
-0.7559     0
-0.7459     0
-0.7359     0
-0.7259     0
-0.7159     0
-0.7059     0
-0.6959     0
-0.6859     0
-0.6759     0
-0.6659     0
-0.6559     0
-0.6459     0
-0.6359     0
-0.6259     0
-0.6159     0
-0.6059     0
-0.5959     0
-0.5859     0
-0.5759     0
-0.5659     0
-0.5559     0
-0.5459     0
-0.5359     0
-0.5259     0
-0.5159     0
-0.5059     0
-0.4959     0
-0.4859     0
-0.4759     0
-0.4659     0
-0.4559     0
-0.4459     0
-0.4359     0
-0.4259     0
-0.4159     0
-0.4059     0
-0.3959     0
-0.3859     0
-0.3759     0
-0.3659     0
-0.3559     0
-0.3459     0
-0.3359     0
-0.3259     0
-0.3159     0
-0.3059     0
-0.2959     0
-0.2859     0
-0.2759     0
-0.2659     0
-0.2559     0
-0.2459     0
-0.2359     0
-0.2259     0
-0.2159     0
-0.2059     0
-0.1959     0
-0.1859     0
-0.1759     0
-0.1659     0
-0.1559     0
-0.1459     0
-0.1359     0
-0.1259     1
-0.1159     2
-0.1059    15
-0.0959    46
-0.0859   185
-0.0759   628
-0.0659  1884
-0.0559  4634
-0.0459 10228
-0.0359 19076
-0.0259 30689
-0.0159 42140
-0.0059 49547
 0.0041 49939
 0.0141 42547
 0.0241 31458
 0.0341 20076
 0.0441 11006
 0.0541  4990
 0.0641  1982
 0.0741   729
 0.0841   202
 0.0941    62
 0.1041    24
 0.1141     9
 0.1241     6
 0.1341     5
 0.1441     3
 0.1541     6
 0.1641     4
 0.1741     1
 0.1841   165
 0.1941   292
 0.2041   261
 0.2141   284
 0.2241   249
 0.2341   273
 0.2441   254
 0.2541   253
 0.2641   272
 0.2741   297
 0.2841   268
 0.2941   269
 0.3041   244
 0.3141   259
 0.3241   270
 0.3341   263
 0.3441   251
 0.3541   249
 0.3641   261
 0.3741   253
 0.3841   242
 0.3941   230
 0.4041   244
 0.4141   241
 0.4241   240
 0.4341   238
 0.4441   227
 0.4541   224
 0.4641   239
 0.4741   255
 0.4841   235
 0.4941   235
 0.5041   239
 0.5141   229
 0.5241   245
 0.5341   225
 0.5441   217
 0.5541   227
 0.5641   228
 0.5741   226
 0.5841   218
 0.5941   210
 0.6041   208
 0.6141   218
 0.6241   218
 0.6341   213
 0.6441   202
 0.6541   200
 0.6641   198
 0.6741   186
 0.6841   180
 0.6941   210
 0.7041   209
 0.7141   193
 0.7241   178
 0.7341   183
 0.7441   198
 0.7541   196
 0.7641   194
 0.7741   196
 0.7841   200
 0.7941   200
 0.8041   190
 0.8141   188
 0.8241   194
 0.8341   182
 0.8441   183
 0.8541   181
 0.8641   172
 0.8741   186
 0.8841   201
 0.8941   195
 0.9041   187
 0.9141   180
 0.9241   183
 0.9341   202
 0.9441   206
 0.9541   186
 0.9641   177
 0.9741   183
 0.9841   170
 0.9941   169
 1.0041   180
 1.0141   167
 1.0241   170
 1.0341   188
 1.0441   186
 1.0541   161
 1.0641   150
 1.0741   169
 1.0841   176
 1.0941   152
 1.1041   168
 1.1141   172
 1.1241   160
 1.1341   184
 1.1441   181
 1.1541   160
 1.1641   162
 1.1741   169
 1.1841   160
 1.1941   171
 1.2041   167
 1.2141   167
 1.2241   188
 1.2341   170
 1.2441   161
 1.2541   165
 1.2641   170
 1.2741   174
 1.2841   168
 1.2941   152
 1.3041   146
 1.3141   165
 1.3241   160
 1.3341   136
 1.3441   138
 1.3541   144
 1.3641   158
 1.3741   149
 1.3841   155
 1.3941   150
 1.4041   151
 1.4141   169
 1.4241   151
 1.4341   151
 1.4441   150
 1.4541   162
 1.4641   171
 1.4741   164
 1.4841   184
 1.4941   184
 1.5041   160
 1.5141   129
 1.5241   155
 1.5341   150
 1.5441   159
 1.5541   159
 1.5641   166
 1.5741   156
 1.5841   171
 1.5941   155
 1.6041   149
 1.6141   164
 1.6241   158
 1.6341   176
 1.6441   179
 1.6541   189
 1.6641   217
 1.6741   265
 1.6841   339
 1.6941   425
 1.7041   472
 1.7141   560
 1.7241   630
 1.7341   628
 1.7441   615
 1.7541   633
 1.7641   564
 1.7741   498
 1.7841   436
 1.7941   335
 1.8041   268
 1.8141   251
 1.8241   238
 1.8341   209
 1.8441   183
 1.8541   172
 1.8641   180
 1.8741   168
 1.8841   170
 1.8941   151
 1.9041   163
 1.9141   177
 1.9241   151
 1.9341   183
 1.9441   167
 1.9541   154
 1.9641   158
 1.9741   177
 1.9841   177
 1.9941   194
 2.0041   175
 2.0141   184
 2.0241   186
 2.0341   197
 2.0441   186
 2.0541   162
 2.0641   156
 2.0741   174
 2.0841   166
 2.0941   146
 2.1041   138
 2.1141   134
 2.1241   155
 2.1341   144
 2.1441   144
 2.1541   131
 2.1641   149
 2.1741   141
 2.1841   148
 2.1941   132
 2.2041   132
 2.2141   129
 2.2241   130
 2.2341   136
 2.2441   125
 2.2541   126
 2.2641   128
 2.2741   132
 2.2841   132
 2.2941   136
 2.3041   132
 2.3141   139
 2.3241   154
 2.3341   146
 2.3441   140
 2.3541   132
 2.3641   141
 2.3741   129
 2.3841   133
 2.3941   139
 2.4041   141
 2.4141   136
 2.4241   128
 2.4341   116
 2.4441   140
 2.4541    99
 2.4641   145
 2.4741   111
 2.4841   120
 2.4941   126
 2.5041   147
 2.5141   123
 2.5241   111
 2.5341   109
 2.5441   128
 2.5541   122
 2.5641   112
 2.5741   132
 2.5841   122
 2.5941   130
 2.6041   107
 2.6141   125
 2.6241   119
 2.6341   121
 2.6441   128
 2.6541   127
 2.6641   146
 2.6741   104
 2.6841   113
 2.6941   121
 2.7041   140
 2.7141   118
 2.7241   121
 2.7341   122
 2.7441   116
 2.7541   122
 2.7641   141
 2.7741   137
 2.7841   135
 2.7941   121
 2.8041   113
 2.8141   117
 2.8241   132
 2.8341   143
 2.8441   126
 2.8541   136
 2.8641   120
 2.8741   139
 2.8841   120
 2.8941   113
 2.9041   127
 2.9141   103
 2.9241   110
 2.9341   121
 2.9441    88
 2.9541   124
 2.9641   123
 2.9741   113
 2.9841   127
 2.9941   101
 3.0041   110
 3.0141   123
 3.0241   126
 3.0341   118
 3.0441    91
 3.0541    96
 3.0641   102
 3.0741   121
 3.0841   114
 3.0941    98
 3.1041    89
 3.1141    87
 3.1241    87
 3.1341   106
 3.1441   117
 3.1541    96
 3.1641   101
 3.1741   111
 3.1841   107
 3.1941   110
 3.2041   112
 3.2141   102
 3.2241   122
 3.2341   146
 3.2441   183
 3.2541   179
 3.2641   211
 3.2741   242
 3.2841   264
 3.2941   265
 3.3041   294
 3.3141   309
 3.3241   271
 3.3341   266
 3.3441   237
 3.3541   222
 3.3641   177
 3.3741   175
 3.3841   142
 3.3941   130
 3.4041   114
 3.4141   116
 3.4241    86
 3.4341    87
 3.4441    88
 3.4541    92
 3.4641   103
 3.4741    88
 3.4841    93
 3.4941   103
 3.5041   112
 3.5141    89
 3.5241   112
 3.5341   129
 3.5441   124
 3.5541   155
 3.5641   183
 3.5741   200
 3.5841   263
 3.5941   315
 3.6041   386
 3.6141   490
 3.6241   612
 3.6341   762
 3.6441   926
 3.6541  1081
 3.6641  1248
 3.6741  1324
 3.6841  1336
 3.6941  1322
 3.7041  1331
 3.7141  1238
 3.7241  1091
 3.7341   878
 3.7441   766
 3.7541   585
 3.7641   437
 3.7741   370
 3.7841   272
 3.7941   195
 3.8041   173
 3.8141   137
 3.8241   100
 3.8341    99
 3.8441    82
 3.8541   101
 3.8641    78
 3.8741    89
 3.8841    94
 3.8941    93
 3.9041   110
 3.9141   121
 3.9241   123
 3.9341   138
 3.9441   158
 3.9541   168
 3.9641   191
 3.9741   221
 3.9841   242
 3.9941   256
 4.0041   267
 4.0141   281
 4.0241   263
 4.0341   252
 4.0441   227
 4.0541   211
 4.0641   199
 4.0741   180
 4.0841   142
 4.0941   137
 4.1041   123
 4.1141   100
 4.1241    87
 4.1341    86
 4.1441    79
 4.1541    88
 4.1641    69
 4.1741    68
 4.1841    81
 4.1941    69
 4.2041    64
 4.2141    85
 4.2241    69
 4.2341    57
 4.2441    54
 4.2541    75
 4.2641    64
 4.2741    73
 4.2841    81
 4.2941    60
 4.3041    75
 4.3141    77
 4.3241    75
 4.3341    72
 4.3441    78
 4.3541    79
 4.3641    69
 4.3741    89
 4.3841   100
 4.3941   113
 4.4041   144
 4.4141   147
 4.4241   167
 4.4341   195
 4.4441   231
 4.4541   284
 4.4641   339
 4.4741   350
 4.4841   402
 4.4941   413
 4.5041   411
 4.5141   416
 4.5241   421
 4.5341   387
 4.5441   339
 4.5541   309
 4.5641   270
 4.5741   215
 4.5841   186
 4.5941   135
 4.6041   141
 4.6141   101
 4.6241   108
 4.6341    99
 4.6441    91
 4.6541    72
 4.6641    88
 4.6741    87
 4.6841    90
 4.6941    90
 4.7041    68
 4.7141    71
 4.7241   104
 4.7341    79
 4.7441    97
 4.7541    79
 4.7641    85
 4.7741    90
 4.7841    82
 4.7941    88
 4.8041    94
 4.8141   110
 4.8241    87
 4.8341    87
 4.8441   116
 4.8541   130
 4.8641   120
 4.8741   113
 4.8841   135
 4.8941   135
 4.9041   167
 4.9141   160
 4.9241   167
 4.9341   158
 4.9441   169
 4.9541   173
 4.9641   138
 4.9741   146
 4.9841   112
 4.9941    93
 5.0041   114
 5.0141   116
 5.0241   117
 5.0341    99
 5.0441    81
 5.0541    86
 5.0641    94
 5.0741    83
 5.0841    73
 5.0941    89
 5.1041    70
 5.1141    75
 5.1241    76
 5.1341    79
 5.1441    62
 5.1541    73
 5.1641    81
 5.1741    80
 5.1841   101
 5.1941    77
 5.2041    99
 5.2141    84
 5.2241    89
 5.2341    91
 5.2441    89
 5.2541    77
 5.2641   113
 5.2741    90
 5.2841    82
 5.2941   110
 5.3041   117
 5.3141   104
 5.3241   112
 5.3341   108
 5.3441   116
 5.3541   142
 5.3641   147
 5.3741   148
 5.3841   182
 5.3941   157
 5.4041   174
 5.4141   158
 5.4241   164
 5.4341   183
 5.4441   169
 5.4541   173
 5.4641   138
 5.4741   140
 5.4841   126
 5.4941   124
 5.5041    97
 5.5141   101
 5.5241    86
 5.5341   108
 5.5441   104
 5.5541    92
 5.5641    87
 5.5741    94
 5.5841    68
 5.5941    76
 5.6041    95
 5.6141    84
 5.6241    87
 5.6341   108
 5.6441    72
 5.6541    95
 5.6641    94
 5.6741    82
 5.6841    83
 5.6941    97
 5.7041   100
 5.7141    90
 5.7241    99
 5.7341   120
 5.7441   100
 5.7541   132
 5.7641   130
 5.7741   161
 5.7841   174
 5.7941   229
 5.8041   262
 5.8141   280
 5.8241   340
 5.8341   399
 5.8441   420
 5.8541   474
 5.8641   551
 5.8741   573
 5.8841   543
 5.8941   598
 5.9041   574
 5.9141   561
 5.9241   568
 5.9341   457
 5.9441   479
 5.9541   415
 5.9641   309
 5.9741   260
 5.9841   255
 5.9941   257
 6.0041   228
 6.0141   168
 6.0241   143
 6.0341   143
 6.0441   128
 6.0541   135
 6.0641   135
 6.0741   155
 6.0841   140
 6.0941   136
 6.1041   162
 6.1141   142
 6.1241   163
 6.1341   153
 6.1441   189
 6.1541   181
 6.1641   193
 6.1741   226
 6.1841   288
 6.1941   332
 6.2041   448
 6.2141   596
 6.2241   823
 6.2341  1072
 6.2441  1487
 6.2541  2174
 6.2641  2996
 6.2741  4201
 6.2841  5562
 6.2941  7603
 6.3041  9655
 6.3141 12271
 6.3241 15076
 6.3341 18284
 6.3441 21294
 6.3541 24084
 6.3641 26991
 6.3741 29261
 6.3841 30784
 6.3941 31681
 6.4041 31319
 6.4141 30502
 6.4241 28800
 6.4341 26329
 6.4441 23430
 6.4541 20287
 6.4641 17094
 6.4741 13975
 6.4841 11525
 6.4941  8644
 6.5041  6568
 6.5141  4940
 6.5241  3543
 6.5341  2441
 6.5441  1839
 6.5541  1236
 6.5641   856
 6.5741   614
 6.5841   477
 6.5941   325
 6.6041   263
 6.6141   205
 6.6241   196
 6.6341   177
 6.6441   168
 6.6541   156
 6.6641   158
 6.6741   151
 6.6841   141
 6.6941   161
 6.7041   150
 6.7141   140
 6.7241   158
 6.7341   186
 6.7441   176
 6.7541   177
 6.7641   164
 6.7741   180
 6.7841   196
 6.7941   198
 6.8041   194
 6.8141   230
 6.8241   226
 6.8341   238
 6.8441   272
 6.8541   294
 6.8641   308
 6.8741   395
 6.8841   441
 6.8941   479
 6.9041   639
 6.9141   746
 6.9241   978
 6.9341  1176
 6.9441  1431
 6.9541  1762
 6.9641  2149
 6.9741  2505
 6.9841  2939
 6.9941  3410
 7.0041  3893
 7.0141  4235
 7.0241  4542
 7.0341  4982
 7.0441  5137
 7.0541  5212
 7.0641  5080
 7.0741  4787
 7.0841  4496
 7.0941  4230
 7.1041  3721
 7.1141  3319
 7.1241  2858
 7.1341  2367
 7.1441  1966
 7.1541  1536
 7.1641  1213
 7.1741   902
 7.1841   753
 7.1941   545
 7.2041   448
 7.2141   334
 7.2241   297
 7.2341   223
 7.2441   218
 7.2541   198
 7.2641   177
 7.2741   152
 7.2841   191
 7.2941   156
 7.3041   193
 7.3141   188
 7.3241   193
 7.3341   200
 7.3441   197
 7.3541   204
 7.3641   235
 7.3741   231
 7.3841   273
 7.3941   267
 7.4041   286
 7.4141   317
 7.4241   309
 7.4341   304
 7.4441   299
 7.4541   308
 7.4641   320
 7.4741   319
 7.4841   294
 7.4941   303
 7.5041   284
 7.5141   284
 7.5241   251
 7.5341   231
 7.5441   220
 7.5541   222
 7.5641   234
 7.5741   174
 7.5841   157
 7.5941   145
 7.6041   179
 7.6141   155
 7.6241   166
 7.6341   163
 7.6441   171
 7.6541   167
 7.6641   157
 7.6741   177
 7.6841   169
 7.6941   161
 7.7041   193
 7.7141   162
 7.7241   192
 7.7341   175
 7.7441   181
 7.7541   178
 7.7641   186
 7.7741   190
 7.7841   187
 7.7941   187
 7.8041   180
 7.8141   200
 7.8241   186
 7.8341   238
 7.8441   243
 7.8541   215
 7.8641   241
 7.8741   260
 7.8841   269
 7.8941   247
 7.9041   273
 7.9141   267
 7.9241   285
 7.9341   329
 7.9441   309
 7.9541   365
 7.9641   358
 7.9741   370
 7.9841   421
 7.9941   437
 8.0041   501
 8.0141   485
 8.0241   547
 8.0341   534
 8.0441   621
 8.0541   644
 8.0641   697
 8.0741   707
 8.0841   786
 8.0941   839
 8.1041   864
 8.1141   913
 8.1241   902
 8.1341  1012
 8.1441  1024
 8.1541  1014
 8.1641  1045
 8.1741  1040
 8.1841  1083
 8.1941  1140
 8.2041  1116
 8.2141  1168
 8.2241  1162
 8.2341  1152
 8.2441  1137
 8.2541  1215
 8.2641  1235
 8.2741  1344
 8.2841  1472
 8.2941  1460
 8.3041  1634
 8.3141  1718
 8.3241  1855
 8.3341  1988
 8.3441  2099
 8.3541  2207
 8.3641  2337
 8.3741  2333
 8.3841  2456
 8.3941  2351
 8.4041  2354
 8.4141  2278
 8.4241  2135
 8.4341  1932
 8.4441  1784
 8.4541  1681
 8.4641  1421
 8.4741  1215
 8.4841  1061
 8.4941   945
 8.5041   740
 8.5141   595
 8.5241   576
 8.5341   508
 8.5441   415
 8.5541   384
 8.5641   350
 8.5741   356
 8.5841   336
 8.5941   330
 8.6041   332
 8.6141   320
 8.6241   348
 8.6341   357
 8.6441   343
 8.6541   317
 8.6641   319
 8.6741   340
 8.6841   334
 8.6941   317
 8.7041   317
 8.7141   319
 8.7241   308
 8.7341   270
 8.7441   270
 8.7541   262
 8.7641   235
 8.7741   263
 8.7841   247
 8.7941   255
 8.8041   251
 8.8141   235
 8.8241   220
 8.8341   217
 8.8441   219
 8.8541   216
 8.8641   235
 8.8741   230
 8.8841   234
 8.8941   260
 8.9041   240
 8.9141   257
 8.9241   253
 8.9341   252
 8.9441   266
 8.9541   275
 8.9641   267
 8.9741   275
 8.9841   267
 8.9941   280
 9.0041   280
 9.0141   282
 9.0241   303
 9.0341   285
 9.0441   323
 9.0541   310
 9.0641   308
 9.0741   332
 9.0841   326
 9.0941   363
 9.1041   397
 9.1141   379
 9.1241   398
 9.1341   384
 9.1441   410
 9.1541   444
 9.1641   484
 9.1741   453
 9.1841   518
 9.1941   504
 9.2041   528
 9.2141   587
 9.2241   571
 9.2341   654
 9.2441   703
 9.2541   709
 9.2641   746
 9.2741   724
 9.2841   817
 9.2941   839
 9.3041   817
 9.3141   920
 9.3241   906
 9.3341   898
 9.3441   980
 9.3541   984
 9.3641   980
 9.3741  1036
 9.3841  1062
 9.3941  1046
 9.4041  1084
 9.4141  1069
 9.4241  1114
 9.4341  1104
 9.4441  1145
 9.4541  1138
 9.4641  1150
 9.4741  1166
 9.4841  1250
 9.4941  1222
 9.5041  1304
 9.5141  1292
 9.5241  1306
 9.5341  1380
 9.5441  1435
 9.5541  1559
 9.5641  1651
 9.5741  1691
 9.5841  1777
 9.5941  1903
 9.6041  2005
 9.6141  2115
 9.6241  2253
 9.6341  2314
 9.6441  2314
 9.6541  2373
 9.6641  2381
 9.6741  2351
 9.6841  2302
 9.6941  2244
 9.7041  2152
 9.7141  2024
 9.7241  1947
 9.7341  1838
 9.7441  1673
 9.7541  1567
 9.7641  1446
 9.7741  1261
 9.7841  1200
 9.7941  1062
 9.8041  1000
 9.8141   983
 9.8241   936
 9.8341   871
 9.8441   907
 9.8541   911
 9.8641   924
 9.8741   923
 9.8841   946
 9.8941   919
 9.9041   923
 9.9141   989
 9.9241   986
 9.9341   982
 9.9441   975
 9.9541   941
 9.9641   947
 9.9741   938
 9.9841   918
 9.9941   870
10.0041   816
10.0141   768
10.0241   700
10.0341   638
10.0441   592
10.0541   508
10.0641   460
10.0741   384
10.0841   382
10.0941   357
10.1041   331
10.1141   287
10.1241   272
10.1341   250
10.1441   226
10.1541   219
10.1641   213
10.1741   226
10.1841   201
10.1941   184
10.2041   186
10.2141   179
10.2241   166
10.2341   178
10.2441   160
10.2541   153
10.2641   153
10.2741   166
10.2841   162
10.2941   153
10.3041   147
10.3141   147
10.3241   144
10.3341   140
10.3441   126
10.3541   137
10.3641   117
10.3741   124
10.3841   137
10.3941   146
10.4041   141
10.4141   135
10.4241   143
10.4341   129
10.4441   137
10.4541   134
10.4641   145
10.4741   159
10.4841   144
10.4941   151
10.5041   143
10.5141   145
10.5241   144
10.5341   149
10.5441   152
10.5541   142
10.5641   153
10.5741   163
10.5841   156
10.5941   146
10.6041   147
10.6141   158
10.6241   163
10.6341   150
10.6441   154
10.6541   155
10.6641   158
10.6741   168
10.6841   169
10.6941   178
10.7041   178
10.7141   185
10.7241   191
10.7341   167
10.7441   172
10.7541   174
10.7641   193
10.7741   200
10.7841   199
10.7941   198
10.8041   201
10.8141   194
10.8241   214
10.8341   227
10.8441   209
10.8541   195
10.8641   216
10.8741   220
10.8841   238
10.8941   249
10.9041   241
10.9141   237
10.9241   237
10.9341   249
10.9441   230
10.9541   228
10.9641   230
10.9741   230
10.9841   256
10.9941   236
11.0041   206
11.0141   229
11.0241   215
11.0341   207
11.0441   218
11.0541   211
11.0641   205
11.0741   213
11.0841   207
11.0941   199
11.1041   203
11.1141   206
11.1241   217
11.1341   218
11.1441   209
11.1541   232
11.1641   239
11.1741   245
11.1841   250
11.1941   270
11.2041   271
11.2141   312
11.2241   328
11.2341   318
11.2441   317
11.2541   335
11.2641   358
11.2741   356
11.2841   358
11.2941   353
11.3041   343
11.3141   321
11.3241   303
11.3341   286
11.3441   297
11.3541   307
11.3641   290
11.3741   272
11.3841   245
11.3941   249
11.4041   230
11.4141   203
11.4241   200
11.4341   192
11.4441   187
11.4541   174
11.4641   175
11.4741   182
11.4841   189
11.4941   176
11.5041   174
11.5141   164
11.5241   173
11.5341   173
11.5441   170
11.5541   158
11.5641   146
11.5741   154
11.5841   174
11.5941   180
11.6041   183
11.6141   171
11.6241   146
11.6341   157
11.6441   182
11.6541   177
11.6641   185
11.6741   179
11.6841   163
11.6941   175
11.7041   168
11.7141   162
11.7241   159
11.7341   145
11.7441   148
11.7541   145
11.7641   131
11.7741   126
11.7841   124
11.7941   123
11.8041   129
11.8141   127
11.8241   128
11.8341   124
11.8441   129
11.8541   130
11.8641   127
11.8741   134
11.8841   135
11.8941   135
11.9041   137
11.9141   127
11.9241   123
11.9341   115
11.9441   130
11.9541   124
11.9641   120
11.9741   124
11.9841   131
11.9941   115
12.0041   116
12.0141   115
12.0241   134
12.0341   134
12.0441   131
12.0541   133
12.0641   127
12.0741   126
12.0841   135
12.0941   143
12.1041   128
12.1141   137
12.1241   139
12.1341   129
12.1441   122
12.1541   122
12.1641   122
12.1741   120
12.1841   111
12.1941   126
12.2041   120
12.2141   132
12.2241   131
12.2341   123
12.2441   126
12.2541   123
12.2641   123
12.2741   120
12.2841   123
12.2941   121
12.3041   117
12.3141   125
12.3241   111
12.3341   118
12.3441   127
12.3541   114
12.3641   110
12.3741   126
12.3841   126
12.3941   127
12.4041   135
12.4141   125
12.4241   134
12.4341   130
12.4441   119
12.4541   124
12.4641   122
12.4741   115
12.4841   135
12.4941   141
12.5041   141
12.5141   130
12.5241   129
12.5341   136
12.5441   122
12.5541   117
12.5641   133
12.5741   126
12.5841   137
12.5941   145
12.6041   146
12.6141   138
12.6241   140
12.6341   139
12.6441   137
12.6541   148
12.6641   159
12.6741   161
12.6841   152
12.6941   141
12.7041   137
12.7141   143
12.7241   149
12.7341   146
12.7441   139
12.7541   136
12.7641   137
12.7741   140
12.7841   144
12.7941   147
12.8041   151
12.8141   151
12.8241   145
12.8341   138
12.8441   138
12.8541   145
12.8641   145
12.8741   139
12.8841   139
12.8941   141
12.9041   142
12.9141   145
12.9241   147
12.9341   145
12.9441   142
12.9541   139
12.9641   136
12.9741   136
12.9841   140
12.9941   142
13.0041   135
13.0141   140
13.0241   148
13.0341   139
13.0441   148
13.0541   138
13.0641   131
13.0741   149
13.0841   151
13.0941   141
13.1041   139
13.1141   158
13.1241   163
13.1341   164
13.1441   167
13.1541   171
13.1641   158
13.1741   157
13.1841   161
13.1941   156
13.2041   166
13.2141   184
13.2241   182
13.2341   172
13.2441   175
13.2541   195
13.2641   191
13.2741   190
13.2841   212
13.2941   212
13.3041   208
13.3141   216
13.3241   233
13.3341   249
13.3441   258
13.3541   262
13.3641   262
13.3741   268
13.3841   277
13.3941   275
13.4041   262
13.4141   251
13.4241   250
13.4341   251
13.4441   244
13.4541   235
13.4641   233
13.4741   228
13.4841   216
13.4941   210
13.5041   210
13.5141   206
13.5241   198
13.5341   193
13.5441   191
13.5541   187
13.5641   184
13.5741   186
13.5841   185
13.5941   175
13.6041   167
13.6141   166
13.6241   161
13.6341   161
13.6441   157
13.6541   156
13.6641   161
13.6741   172
13.6841   172
13.6941   172
13.7041   168
13.7141   164
13.7241   175
13.7341   175
13.7441   173
13.7541   180
13.7641   170
13.7741   163
13.7841   166
13.7941   169
13.8041   185
13.8141   188
13.8241   190
13.8341   185
13.8441   164
13.8541   171
13.8641   188
13.8741   197
13.8841   193
13.8941   191
13.9041   196
13.9141   199
13.9241   197
13.9341   195
13.9441   207
13.9541   214
13.9641   213
13.9741   221
13.9841   243
13.9941   263
14.0041   283
14.0141   312
14.0241   334
14.0341   344
14.0441   359
14.0541   381
14.0641   410
14.0741   437
14.0841   444
14.0941   452
14.1041   486
14.1141   523
14.1241   532
14.1341   524
14.1441   518
14.1541   521
14.1641   527
14.1741   527
14.1841   509
14.1941   465
14.2041   453
14.2141   454
14.2241   411
14.2341   378
14.2441   363
14.2541   358
14.2641   338
14.2741   292
14.2841   270
14.2941   266
14.3041   257
14.3141   243
14.3241   232
14.3341   228
14.3441   197
14.3541   195
14.3641   233
14.3741   211
14.3841   190
14.3941   199
14.4041   212
14.4141   228
14.4241   205
14.4341   187
14.4441   196
14.4541   201
14.4641   203
14.4741   197
14.4841   192
14.4941   219
14.5041   209
14.5141   194
14.5241   205
14.5341   206
14.5441   209
14.5541   219
14.5641   202
14.5741   195
14.5841   210
14.5941   209
14.6041   202
14.6141   197
14.6241   196
14.6341   199
14.6441   192
14.6541   194
14.6641   188
14.6741   190
14.6841   207
14.6941   208
14.7041   203
14.7141   186
14.7241   198
14.7341   213
14.7441   192
14.7541   212
14.7641   215
14.7741   203
14.7841   210
14.7941   218
14.8041   236
14.8141   238
14.8241   242
14.8341   246
14.8441   234
14.8541   226
14.8641   246
14.8741   254
14.8841   230
14.8941   253
14.9041   276
14.9141   262
14.9241   255
14.9341   268
14.9441   268
14.9541   263
14.9641   267
14.9741   269
14.9841   270
14.9941   266
15.0041   262
15.0141   256
15.0241   235
15.0341   235
15.0441   242
15.0541   247
15.0641   241
15.0741   222
15.0841   222
15.0941   216
15.1041   227
15.1141   226
15.1241   246
15.1341   245
15.1441   237
15.1541   231
15.1641   236
15.1741   235
15.1841   225
15.1941   220
15.2041   210
15.2141   210
15.2241   217
15.2341   219
15.2441   215
15.2541   223
15.2641   232
15.2741   220
15.2841   230
15.2941   241
15.3041   227
15.3141   224
15.3241   229
15.3341   219
15.3441   223
15.3541   227
15.3641   230
15.3741   221
15.3841   205
15.3941   215
15.4041   209
15.4141   235
15.4241   246
15.4341   217
15.4441   228
15.4541   254
15.4641   239
15.4741   235
15.4841   240
15.4941   249
15.5041   259
15.5141   270
15.5241   267
15.5341   245
15.5441   258
15.5541   265
15.5641   274
15.5741   285
15.5841   291
15.5941   310
15.6041   310
15.6141   319
15.6241   317
15.6341   320
15.6441   335
15.6541   356
15.6641   383
15.6741   377
15.6841   386
15.6941   383
15.7041   407
15.7141   417
15.7241   427
15.7341   437
15.7441   441
15.7541   452
15.7641   445
15.7741   437
15.7841   468
15.7941   465
15.8041   440
15.8141   456
15.8241   435
15.8341   399
15.8441   390
15.8541   405
15.8641   383
15.8741   388
15.8841   387
15.8941   355
15.9041   345
15.9141   353
15.9241   349
15.9341   310
15.9441   324
15.9541   315
15.9641   293
15.9741   277
15.9841   286
15.9941   289
16.0041   281
16.0141   266
16.0241   245
16.0341   274
16.0441   296
16.0541   276
16.0641   249
16.0741   257
16.0841   271
16.0941   288
16.1041   284
16.1141   270
16.1241   283
16.1341   283
16.1441   279
16.1541   272
16.1641   292
16.1741   277
16.1841   264
16.1941   268
16.2041   267
16.2141   268
16.2241   274
16.2341   286
16.2441   289
16.2541   283
16.2641   256
16.2741   259
16.2841   265
16.2941   278
16.3041   300
16.3141   274
16.3241   259
16.3341   273
16.3441   273
16.3541   275
16.3641   245
16.3741   240
16.3841   243
16.3941   255
16.4041   277
16.4141   287
16.4241   296
16.4341   283
16.4441   270
16.4541   284
16.4641   282
16.4741   285
16.4841   280
16.4941   277
16.5041   285
16.5141   271
16.5241   283
16.5341   280
16.5441   277
16.5541   280
16.5641   292
16.5741   297
16.5841   296
16.5941   284
16.6041   270
16.6141   286
16.6241   302
16.6341   303
16.6441   270
16.6541   300
16.6641   299
16.6741   296
16.6841   294
16.6941   290
16.7041   288
16.7141   287
16.7241   294
16.7341   301
16.7441   298
16.7541   294
16.7641   288
16.7741   291
16.7841   293
16.7941   296
16.8041   314
16.8141   290
16.8241   294
16.8341   313
16.8441   310
16.8541   313
16.8641   305
16.8741   315
16.8841   288
16.8941   288
16.9041   320
16.9141   296
16.9241   272
16.9341   283
16.9441   302
16.9541   298
16.9641   286
16.9741   308
16.9841   306
16.9941   316
17.0041   315
17.0141   299
17.0241   302
17.0341   299
17.0441   287
17.0541   316
17.0641   304
17.0741   319
17.0841   314
17.0941   312
17.1041   321
17.1141   303
17.1241   309
17.1341   312
17.1441   301
17.1541   342
17.1641   331
17.1741   308
17.1841   320
17.1941   303
17.2041   299
17.2141   308
17.2241   331
17.2341   320
17.2441   326
17.2541   329
17.2641   311
17.2741   300
17.2841   322
17.2941   320
17.3041   330
17.3141   340
17.3241   300
17.3341   305
17.3441   347
17.3541   340
17.3641   343
17.3741   332
17.3841   331
17.3941   345
17.4041   304
17.4141   306
17.4241   335
17.4341   352
17.4441   339
17.4541   338
17.4641   343
17.4741   341
17.4841   332
17.4941   317
17.5041   341
17.5141   345
17.5241   351
17.5341   357
17.5441   358
17.5541   355
17.5641   369
17.5741   357
17.5841   339
17.5941   342
17.6041   356
17.6141   349
17.6241   353
17.6341   351
17.6441   343
17.6541   357
17.6641   354
17.6741   372
17.6841   365
17.6941   360
17.7041   362
17.7141   376
17.7241   371
17.7341   370
17.7441   348
17.7541   336
17.7641   342
17.7741   349
17.7841   357
17.7941   361
17.8041   348
17.8141   349
17.8241   353
17.8341   350
17.8441   345
17.8541   361
17.8641   363
17.8741   346
17.8841   343
17.8941   352
17.9041   341
17.9141   329
17.9241   359
17.9341   385
17.9441   363
17.9541   312
17.9641   355
17.9741   366
17.9841   355
17.9941   355
18.0041   336
18.0141   345
18.0241   368
18.0341   346
18.0441   330
18.0541   350
18.0641   339
18.0741   376
18.0841   391
18.0941   376
18.1041   369
18.1141   356
18.1241   350
18.1341   352
18.1441   353
18.1541   341
18.1641   351
18.1741   353
18.1841   336
18.1941   340
18.2041   344
18.2141   339
18.2241   352
18.2341   358
18.2441   374
18.2541   369
18.2641   368
18.2741   363
18.2841   352
18.2941   384
18.3041   340
18.3141   369
18.3241   358
18.3341   369
18.3441   374
18.3541   344
18.3641   334
18.3741   334
18.3841   372
18.3941   365
18.4041   400
18.4141   382
18.4241   369
18.4341   350
18.4441   373
18.4541   372
18.4641   349
18.4741   358
18.4841   403
18.4941   400
18.5041   347
18.5141   365
18.5241   399
18.5341   367
18.5441   372
18.5541   384
18.5641   400
18.5741   391
18.5841   381
18.5941   365
18.6041   374
18.6141   388
18.6241   406
18.6341   376
18.6441   397
18.6541   371
18.6641   349
18.6741   350
18.6841   386
18.6941   375
18.7041   376
18.7141   390
18.7241   388
18.7341   370
18.7441   365
18.7541   396
18.7641   404
18.7741   385
18.7841   365
18.7941   393
18.8041   386
18.8141   370
18.8241   397
18.8341   376
18.8441   381
18.8541   390
18.8641   394
18.8741   416
18.8841   413
18.8941   411
18.9041   398
18.9141   382
18.9241   399
18.9341   411
18.9441   404
18.9541   384
18.9641   414
18.9741   393
18.9841   372
18.9941   402
19.0041   399
19.0141   418
19.0241   416
19.0341   389
19.0441   380
19.0541   403
19.0641   420
19.0741   437
19.0841   423
19.0941   393
19.1041   379
19.1141   397
19.1241   429
19.1341   405
19.1441   417
19.1541   427
19.1641   401
19.1741   423
19.1841   422
19.1941   424
19.2041   403
19.2141   402
19.2241   403
19.2341   411
19.2441   401
19.2541   437
19.2641   430
19.2741   400
19.2841   415
19.2941   394
19.3041   405
19.3141   399
19.3241   385
19.3341   390
19.3441   411
19.3541   437
19.3641   418
19.3741   419
19.3841   393
19.3941   392
19.4041   398
19.4141   413
19.4241   426
19.4341   394
19.4441   394
19.4541   431
19.4641   449
19.4741   410
19.4841   425
19.4941   416
19.5041   430
19.5141   436
19.5241   392
19.5341   419
19.5441   392
19.5541   427
19.5641   433
19.5741   411
19.5841   437
19.5941   441
19.6041   418
19.6141   452
19.6241   461
19.6341   410
19.6441   384
19.6541   398
19.6641   369
19.6741   435
19.6841   430
19.6941   405
19.7041   412
19.7141   422
19.7241   400
19.7341   412
19.7441   443
19.7541   426
19.7641   435
19.7741   431
19.7841   436
19.7941   432
19.8041   432
19.8141   440
19.8241   408
19.8341   418
19.8441   424
19.8541   426
19.8641   431
19.8741   430
19.8841   426
19.8941   429
19.9041   441
19.9141   400
19.9241   403
19.9341   438
19.9441   409
19.9541   436
19.9641   421
19.9741   443
19.9841   429
19.9941   442
20.0041   439
20.0141   451
20.0241   438
20.0341   441
20.0441   455
20.0541   420
20.0641   436
20.0741   421
20.0841   419
20.0941   445
20.1041   422
20.1141   450
20.1241   435
20.1341   417
20.1441   422
20.1541   425
20.1641   432
20.1741   444
20.1841   424
20.1941   444
20.2041   437
20.2141   436
20.2241   427
20.2341   398
20.2441   427
20.2541   434
20.2641   480
20.2741   420
20.2841   468
20.2941   460
20.3041   422
20.3141   442
20.3241   422
20.3341   465
20.3441   461
20.3541   473
20.3641   454
20.3741   445
20.3841   462
20.3941   430
20.4041   427
20.4141   446
20.4241   467
20.4341   444
20.4441   460
20.4541   477
20.4641   453
20.4741   457
20.4841   454
20.4941   468
20.5041   457
20.5141   417
20.5241   454
20.5341   425
20.5441   462
20.5541   445
20.5641   452
20.5741   427
20.5841   464
20.5941   438
20.6041   438
20.6141   410
20.6241   410
20.6341   421
20.6441   418
20.6541   425
20.6641   443
20.6741   426
20.6841   449
20.6941   436
20.7041   425
20.7141   441
20.7241   490
20.7341   458
20.7441   444
20.7541   454
20.7641   468
20.7741   464
20.7841   456
20.7941   468
20.8041   510
20.8141   478
20.8241   480
20.8341   485
20.8441   480
20.8541   482
20.8641   494
20.8741   520
20.8841   526
20.8941   528
20.9041   571
20.9141   564
20.9241   559
20.9341   562
20.9441   560
20.9541   575
20.9641   588
20.9741   579
20.9841   586
20.9941   649
21.0041   662
21.0141   643
21.0241   659
21.0341   650
21.0441   688
21.0541   684
21.0641   665
21.0741   708
21.0841   705
21.0941   747
21.1041   721
21.1141   679
21.1241   733
21.1341   712
21.1441   713
21.1541   701
21.1641   721
21.1741   710
21.1841   704
21.1941   688
21.2041   685
21.2141   689
21.2241   658
21.2341   664
21.2441   623
21.2541   648
21.2641   626
21.2741   616
21.2841   583
21.2941   567
21.3041   620
21.3141   523
21.3241   500
21.3341   517
21.3441   487
21.3541   515
21.3641   477
21.3741   498
21.3841   432
21.3941   458
21.4041   481
21.4141   488
21.4241   464
21.4341   463
21.4441   471
21.4541   482
21.4641   454
21.4741   467
21.4841   450
21.4941   449
21.5041   441
21.5141   451
21.5241   443
21.5341   455
21.5441   469
21.5541   477
21.5641   476
21.5741   459
21.5841   477
21.5941   442
21.6041   459
21.6141   472
21.6241   499
21.6341   435
21.6441   452
21.6541   455
21.6641   436
21.6741   474
21.6841   457
21.6941   480
21.7041   430
21.7141   448
21.7241   470
21.7341   471
21.7441   476
21.7541   495
21.7641   433
21.7741   406
21.7841   490
21.7941   454
21.8041   484
21.8141   493
21.8241   496
21.8341   456
21.8441   447
21.8541   446
21.8641   479
21.8741   454
21.8841   474
21.8941   452
21.9041   467
21.9141   453
21.9241   461
21.9341   463
21.9441   460
21.9541   446
21.9641   472
21.9741   463
21.9841   467
21.9941   441
22.0041   456
22.0141   462
22.0241   523
22.0341   505
22.0441   468
22.0541   472
22.0641   478
22.0741   460
22.0841   464
22.0941   476
22.1041   462
22.1141   495
22.1241   458
22.1341   491
22.1441   467
22.1541   482
22.1641   470
22.1741   504
22.1841   495
22.1941   439
22.2041   415
22.2141   503
22.2241   461
22.2341   433
22.2441   478
22.2541   468
22.2641   515
22.2741   464
22.2841   490
22.2941   453
22.3041   488
22.3141   475
22.3241   460
22.3341   482
22.3441   473
22.3541   458
22.3641   467
22.3741   487
22.3841   434
22.3941   487
22.4041   446
22.4141   470
22.4241   459
22.4341   486
22.4441   456
22.4541   445
22.4641   446
22.4741   461
22.4841   478
22.4941   493
22.5041   461
22.5141   466
22.5241   478
22.5341   458
22.5441   465
22.5541   445
22.5641   502
22.5741   437
22.5841   499
22.5941   476
22.6041   487
22.6141   448
22.6241   496
22.6341   483
22.6441   453
22.6541   484
22.6641   491
22.6741   499
22.6841   470
22.6941   482
22.7041   485
22.7141   461
22.7241   473
22.7341   441
22.7441   485
22.7541   451
22.7641   462
22.7741   461
22.7841   461
22.7941   437
22.8041   461
22.8141   509
22.8241   479
22.8341   477
22.8441   466
22.8541   484
22.8641   482
22.8741   462
22.8841   471
22.8941   476
22.9041   486
22.9141   435
22.9241   510
22.9341   480
22.9441   465
22.9541   446
22.9641   449
22.9741   468
22.9841   472
22.9941   437
23.0041   508
23.0141   459
23.0241   446
23.0341   470
23.0441   474
23.0541   458
23.0641   438
23.0741   446
23.0841   466
23.0941   447
23.1041   477
23.1141   459
23.1241   477
23.1341   468
23.1441   429
23.1541   475
23.1641   473
23.1741   464
23.1841   457
23.1941   478
23.2041   455
23.2141   447
23.2241   478
23.2341   470
23.2441   443
23.2541   458
23.2641   459
23.2741   457
23.2841   453
23.2941   464
23.3041   515
23.3141   464
23.3241   465
23.3341   484
23.3441   467
23.3541   454
23.3641   445
23.3741   481
23.3841   451
23.3941   455
23.4041   484
23.4141   480
23.4241   450
23.4341   452
23.4441   433
23.4541   468
23.4641   441
23.4741   431
23.4841   478
23.4941   417
23.5041   505
23.5141   464
23.5241   468
23.5341   425
23.5441   480
23.5541   445
23.5641   500
23.5741   438
23.5841   456
23.5941   437
23.6041   451
23.6141   497
23.6241   436
23.6341   455
23.6441   429
23.6541   477
23.6641   427
23.6741   481
23.6841   452
23.6941   490
23.7041   492
23.7141   439
23.7241   485
23.7341   471
23.7441   464
23.7541   497
23.7641   485
23.7741   510
23.7841   511
23.7941   518
23.8041   474
23.8141   493
23.8241   513
23.8341   534
23.8441   502
23.8541   490
23.8641   525
23.8741   516
23.8841   485
23.8941   466
23.9041   464
23.9141   501
23.9241   451
23.9341   446
23.9441   474
23.9541   474
23.9641   454
23.9741   460
23.9841   475
23.9941   444
24.0041   445
24.0141   513
24.0241   448
24.0341   486
24.0441   433
24.0541   453
24.0641   509
24.0741   482
24.0841   471
24.0941   463
24.1041   453
24.1141   449
24.1241   428
24.1341   492
24.1441   455
24.1541   408
24.1641   470
24.1741   454
24.1841   456
24.1941   439
24.2041   463
24.2141   486
24.2241   456
24.2341   492
24.2441   435
24.2541   463
24.2641   457
24.2741   434
24.2841   403
24.2941   479
24.3041   426
24.3141   415
24.3241   444
24.3341   434
24.3441   452
24.3541   455
24.3641   445
24.3741   426
24.3841   470
24.3941   434
24.4041   433
24.4141   425
24.4241   434
24.4341   411
24.4441   414
24.4541   428
24.4641   473
24.4741   426
24.4841   464
24.4941   440
24.5041   420
24.5141   453
24.5241   417
24.5341   423
24.5441   465
24.5541   420
24.5641   417
24.5741   473
24.5841   439
24.5941   451
24.6041   442
24.6141   445
24.6241   397
24.6341   428
24.6441   425
24.6541   419
24.6641   452
24.6741   448
24.6841   467
24.6941   493
24.7041   434
24.7141   450
24.7241   432
24.7341   447
24.7441   465
24.7541   447
24.7641   423
24.7741   475
24.7841   433
24.7941   446
24.8041   404
24.8141   443
24.8241   417
24.8341   436
24.8441   475
24.8541   413
24.8641   437
24.8741   427
24.8841   386
24.8941   394
24.9041   446
24.9141   425
24.9241   440
24.9341   402
24.9441   426
24.9541   425
24.9641   449
24.9741   419
24.9841   416
24.9941   422
25.0041   426
25.0141   432
25.0241   410
25.0341   420
25.0441   407
25.0541   419
25.0641   427
25.0741   460
25.0841   445
25.0941   435
25.1041   407
25.1141   458
25.1241   458
25.1341   459
25.1441   431
25.1541   449
25.1641   421
25.1741   445
25.1841   443
25.1941   459
25.2041   420
25.2141   454
25.2241   466
25.2341   419
25.2441   445
25.2541   441
25.2641   462
25.2741   437
25.2841   425
25.2941   420
25.3041   419
25.3141   413
25.3241   450
25.3341   454
25.3441   417
25.3541   413
25.3641   422
25.3741   451
25.3841   415
25.3941   418
25.4041   422
25.4141   422
25.4241   437
25.4341   416
25.4441   414
25.4541   413
25.4641   428
25.4741   410
25.4841   443
25.4941   431
25.5041   383
25.5141   419
25.5241   393
25.5341   391
25.5441   413
25.5541   437
25.5641   402
25.5741   403
25.5841   381
25.5941   367
25.6041   386
25.6141   411
25.6241   376
25.6341   391
25.6441   381
25.6541   391
25.6641   410
25.6741   396
25.6841   444
25.6941   394
25.7041   403
25.7141   423
25.7241   408
25.7341   435
25.7441   445
25.7541   428
25.7641   404
25.7741   403
25.7841   396
25.7941   393
25.8041   380
25.8141   388
25.8241   414
25.8341   388
25.8441   429
25.8541   401
25.8641   399
25.8741   377
25.8841   417
25.8941   385
25.9041   406
25.9141   385
25.9241   388
25.9341   404
25.9441   420
25.9541   410
25.9641   396
25.9741   419
25.9841   436
25.9941   422
26.0041   406
26.0141   404
26.0241   401
26.0341   395
26.0441   408
26.0541   389
26.0641   398
26.0741   371
26.0841   385
26.0941   395
26.1041   381
26.1141   380
26.1241   411
26.1341   398
26.1441   374
26.1541   384
26.1641   403
26.1741   387
26.1841   407
26.1941   365
26.2041   366
26.2141   383
26.2241   417
26.2341   350
26.2441   356
26.2541   384
26.2641   403
26.2741   369
26.2841   401
26.2941   408
26.3041   395
26.3141   401
26.3241   379
26.3341   393
26.3441   397
26.3541   384
26.3641   408
26.3741   381
26.3841   401
26.3941   435
26.4041   391
26.4141   429
26.4241   401
26.4341   424
26.4441   403
26.4541   376
26.4641   381
26.4741   377
26.4841   363
26.4941   408
26.5041   379
26.5141   358
26.5241   410
26.5341   395
26.5441   396
26.5541   376
26.5641   385
26.5741   344
26.5841   382
26.5941   353
26.6041   379
26.6141   348
26.6241   375
26.6341   353
26.6441   412
26.6541   395
26.6641   375
26.6741   377
26.6841   321
26.6941   375
26.7041   382
26.7141   380
26.7241   396
26.7341   391
26.7441   360
26.7541   398
26.7641   382
26.7741   358
26.7841   334
26.7941   343
26.8041   380
26.8141   361
26.8241   387
26.8341   385
26.8441   409
26.8541   388
26.8641   378
26.8741   395
26.8841   376
26.8941   359
26.9041   373
26.9141   399
26.9241   363
26.9341   365
26.9441   377
26.9541   351
26.9641   349
26.9741   374
26.9841   353
26.9941   347
27.0041   374
27.0141   371
27.0241   362
27.0341   375
27.0441   358
27.0541   376
27.0641   365
27.0741   373
27.0841   344
27.0941   357
27.1041   357
27.1141   391
27.1241   383
27.1341   366
27.1441   359
27.1541   361
27.1641   346
27.1741   393
27.1841   370
27.1941   343
27.2041   372
27.2141   375
27.2241   356
27.2341   337
27.2441   385
27.2541   354
27.2641   365
27.2741   366
27.2841   349
27.2941   352
27.3041   369
27.3141   349
27.3241   372
27.3341   343
27.3441   363
27.3541   370
27.3641   371
27.3741   379
27.3841   378
27.3941   337
27.4041   358
27.4141   347
27.4241   347
27.4341   367
27.4441   329
27.4541   347
27.4641   358
27.4741   344
27.4841   338
27.4941   355
27.5041   365
27.5141   395
27.5241   372
27.5341   383
27.5441   359
27.5541   376
27.5641   351
27.5741   369
27.5841   345
27.5941   338
27.6041   324
27.6141   372
27.6241   348
27.6341   348
27.6441   333
27.6541   333
27.6641   330
27.6741   309
27.6841   368
27.6941   324
27.7041   382
27.7141   347
27.7241   328
27.7341   338
27.7441   337
27.7541   337
27.7641   333
27.7741   350
27.7841   354
27.7941   333
27.8041   348
27.8141   327
27.8241   339
27.8341   354
27.8441   333
27.8541   321
27.8641   334
27.8741   370
27.8841   359
27.8941   336
27.9041   336
27.9141   340
27.9241   344
27.9341   330
27.9441   336
27.9541   346
27.9641   342
27.9741   345
27.9841   317
27.9941   304
28.0041   337
28.0141   326
28.0241   359
28.0341   319
28.0441   324
28.0541   290
28.0641   335
28.0741   319
28.0841   320
28.0941   347
28.1041   334
28.1141   334
28.1241   339
28.1341   343
28.1441   284
28.1541   347
28.1641   317
28.1741   337
28.1841   299
28.1941   287
28.2041   308
28.2141   300
28.2241   345
28.2341   320
28.2441   313
28.2541   316
28.2641   352
28.2741   300
28.2841   303
28.2941   313
28.3041   348
28.3141   327
28.3241   319
28.3341   321
28.3441   361
28.3541   336
28.3641   319
28.3741   317
28.3841   310
28.3941   329
28.4041   334
28.4141   313
28.4241   276
28.4341   306
28.4441   348
28.4541   325
28.4641   316
28.4741   329
28.4841   313
28.4941   294
28.5041   311
28.5141   306
28.5241   320
28.5341   297
28.5441   300
28.5541   314
28.5641   320
28.5741   324
28.5841   266
28.5941   287
28.6041   304
28.6141   307
28.6241   317
28.6341   308
28.6441   326
28.6541   328
28.6641   309
28.6741   312
28.6841   284
28.6941   300
28.7041   307
28.7141   321
28.7241   313
28.7341   330
28.7441   351
28.7541   303
28.7641   319
28.7741   304
28.7841   332
28.7941   326
28.8041   328
28.8141   311
28.8241   272
28.8341   302
28.8441   297
28.8541   313
28.8641   307
28.8741   322
28.8841   304
28.8941   303
28.9041   303
28.9141   319
28.9241   313
28.9341   321
28.9441   286
28.9541   312
28.9641   293
28.9741   325
28.9841   282
28.9941   272
29.0041   273
29.0141   298
29.0241   291
29.0341   299
29.0441   291
29.0541   308
29.0641   278
29.0741   300
29.0841   309
29.0941   282
29.1041   304
29.1141   287
29.1241   265
29.1341   288
29.1441   295
29.1541   277
29.1641   285
29.1741   311
29.1841   293
29.1941   316
29.2041   297
29.2141   298
29.2241   268
29.2341   304
29.2441   276
29.2541   280
29.2641   267
29.2741   299
29.2841   271
29.2941   304
29.3041   299
29.3141   290
29.3241   281
29.3341   287
29.3441   305
29.3541   274
29.3641   288
29.3741   303
29.3841   255
29.3941   291
29.4041   291
29.4141   291
29.4241   294
29.4341   275
29.4441   309
29.4541   271
29.4641   271
29.4741   274
29.4841   270
29.4941   288
29.5041   310
29.5141   281
29.5241   284
29.5341   267
29.5441   277
29.5541   284
29.5641   292
29.5741   292
29.5841   283
29.5941   301
29.6041   258
29.6141   287
29.6241   304
29.6341   292
29.6441   283
29.6541   271
29.6641   253
29.6741   299
29.6841   273
29.6941   281
29.7041   289
29.7141   265
29.7241   278
29.7341   249
29.7441   273
29.7541   280
29.7641   262
29.7741   264
29.7841   276
29.7941   294
29.8041   289
29.8141   274
29.8241   274
29.8341   270
29.8441   267
29.8541   295
29.8641   268
29.8741   285
29.8841   281
29.8941   291
29.9041   264
29.9141   282
29.9241   279
29.9341   249
29.9441   270
29.9541   284
29.9641   289
29.9741   262
29.9841   256
29.9941   262
30.0041   287
30.0141   261
30.0241   264
30.0341   253
30.0441   261
30.0541   252
30.0641   275
30.0741   276
30.0841   269
30.0941   271
30.1041   241
30.1141   252
30.1241   257
30.1341   265
30.1441   250
30.1541   244
30.1641   239
30.1741   242
30.1841   254
30.1941   245
30.2041   247
30.2141   273
30.2241   243
30.2341   270
30.2441   263
30.2541   245
30.2641   264
30.2741   252
30.2841   246
30.2941   262
30.3041   259
30.3141   247
30.3241   276
30.3341   254
30.3441   258
30.3541   253
30.3641   268
30.3741   238
30.3841   242
30.3941   254
30.4041   258
30.4141   223
30.4241   249
30.4341   246
30.4441   209
30.4541   243
30.4641   237
30.4741   228
30.4841   243
30.4941   219
30.5041   252
30.5141   259
30.5241   247
30.5341   254
30.5441   236
30.5541   240
30.5641   223
30.5741   237
30.5841   259
30.5941   233
30.6041   243
30.6141   231
30.6241   235
30.6341   219
30.6441   239
30.6541   237
30.6641   234
30.6741   238
30.6841   220
30.6941   244
30.7041   249
30.7141   229
30.7241   249
30.7341   241
30.7441   240
30.7541   235
30.7641   231
30.7741   226
30.7841   253
30.7941   240
30.8041   209
30.8141   241
30.8241   238
30.8341   224
30.8441   273
30.8541   245
30.8641   249
30.8741   225
30.8841   216
30.8941   222
30.9041   227
30.9141   217
30.9241   210
30.9341   227
30.9441   231
30.9541   234
30.9641   215
30.9741   242
30.9841   216
30.9941   228
31.0041   232
31.0141   211
31.0241   226
31.0341   229
31.0441   196
31.0541   225
31.0641   233
31.0741   248
31.0841   217
31.0941   253
31.1041   220
31.1141   210
31.1241   225
31.1341   233
31.1441   221
31.1541   204
31.1641   244
31.1741   227
31.1841   241
31.1941   231
31.2041   226
31.2141   236
31.2241   236
31.2341   227
31.2441   206
31.2541   209
31.2641   229
31.2741   208
31.2841   211
31.2941   237
31.3041   212
31.3141   218
31.3241   243
31.3341   226
31.3441   248
31.3541   221
31.3641   205
31.3741   221
31.3841   229
31.3941   231
31.4041   233
31.4141   209
31.4241   216
31.4341   205
31.4441   222
31.4541   224
31.4641   206
31.4741   214
31.4841   198
31.4941   200
31.5041   197
31.5141   200
31.5241   213
31.5341   210
31.5441   214
31.5541   219
31.5641   217
31.5741   226
31.5841   217
31.5941   193
31.6041   213
31.6141   185
31.6241   212
31.6341   209
31.6441   212
31.6541   220
31.6641   218
31.6741   223
31.6841   234
31.6941   212
31.7041   214
31.7141   206
31.7241   220
31.7341   213
31.7441   212
31.7541   220
31.7641   210
31.7741   220
31.7841   204
31.7941   271
31.8041   210
31.8141   211
31.8241   217
31.8341   209
31.8441   209
31.8541   189
31.8641   203
31.8741   211
31.8841   187
31.8941   213
31.9041   234
31.9141   229
31.9241   229
31.9341   225
31.9441   222
31.9541   193
31.9641   197
31.9741   203
31.9841   202
31.9941   203
32.0041   209
32.0141   216
32.0241   213
32.0341   206
32.0441   207
32.0541   206
32.0641   200
32.0741   219
32.0841   206
32.0941   192
32.1041   232
32.1141   192
32.1241   209
32.1341   236
32.1441   217
32.1541   199
32.1641   229
32.1741   197
32.1841   196
32.1941   228
32.2041   204
32.2141   200
32.2241   224
32.2341   206
32.2441   213
32.2541   219
32.2641   224
32.2741   213
32.2841   205
32.2941   227
32.3041   189
32.3141   209
32.3241   200
32.3341   198
32.3441   183
32.3541   192
32.3641   208
32.3741   192
32.3841   193
32.3941   194
32.4041   194
32.4141   168
32.4241   168
32.4341   170
32.4441   189
32.4541   201
32.4641   190
32.4741   188
32.4841   199
32.4941   172
32.5041   176
32.5141   195
32.5241   175
32.5341   174
32.5441   177
32.5541   187
32.5641   177
32.5741   185
32.5841   187
32.5941   164
32.6041   175
32.6141   186
32.6241   157
32.6341   172
32.6441   157
32.6541   172
32.6641   170
32.6741   183
32.6841   164
32.6941   159
32.7041   170
32.7141   177
32.7241   166
32.7341   174
32.7441   163
32.7541   188
32.7641   184
32.7741   170
32.7841   166
32.7941   173
32.8041   173
32.8141   158
32.8241   173
32.8341   165
32.8441   165
32.8541   172
32.8641   155
32.8741   170
32.8841   160
32.8941   170
32.9041   178
32.9141   170
32.9241   186
32.9341   178
32.9441   173
32.9541   191
32.9641   180
32.9741   181
32.9841   172
32.9941   162
33.0041   154
33.0141   185
33.0241   158
33.0341   176
33.0441   157
33.0541   152
33.0641   188
33.0741   174
33.0841   153
33.0941   167
33.1041   167
33.1141   178
33.1241   156
33.1341   146
33.1441   150
33.1541   166
33.1641   158
33.1741   156
33.1841   156
33.1941   146
33.2041   171
33.2141   155
33.2241   179
33.2341   170
33.2441   173
33.2541   165
33.2641   164
33.2741   164
33.2841   158
33.2941   173
33.3041   164
33.3141   149
33.3241   152
33.3341   139
33.3441   148
33.3541   168
33.3641   158
33.3741   161
33.3841   168
33.3941   140
33.4041   167
33.4141   154
33.4241   150
33.4341   159
33.4441   141
33.4541   161
33.4641   158
33.4741   147
33.4841   170
33.4941   161
33.5041   190
33.5141   145
33.5241   133
33.5341   148
33.5441   138
33.5541   155
33.5641   139
33.5741   141
33.5841   181
33.5941   129
33.6041   152
33.6141   143
33.6241   153
33.6341   159
33.6441   136
33.6541   147
33.6641   163
33.6741   154
33.6841   140
33.6941   148
33.7041   139
33.7141   162
33.7241   134
33.7341   134
33.7441   151
33.7541   151
33.7641   146
33.7741   154
33.7841   152
33.7941   148
33.8041   146
33.8141   151
33.8241   138
33.8341   132
33.8441   166
33.8541   156
33.8641   134
33.8741   148
33.8841   152
33.8941   123
33.9041   149
33.9141   124
33.9241   153
33.9341   111
33.9441   141
33.9541   153
33.9641   137
33.9741   126
33.9841   134
33.9941   134
34.0041   138
34.0141   129
34.0241   141
34.0341   135
34.0441   126
34.0541   140
34.0641   140
34.0741   142
34.0841   148
34.0941   143
34.1041   152
34.1141   132
34.1241   146
34.1341   130
34.1441   154
34.1541   141
34.1641   141
34.1741   137
34.1841   131
34.1941   126
34.2041   122
34.2141   150
34.2241   128
34.2341   142
34.2441   127
34.2541   105
34.2641   128
34.2741   132
34.2841   142
34.2941   124
34.3041   121
34.3141   136
34.3241   144
34.3341   137
34.3441   137
34.3541   137
34.3641   144
34.3741   121
34.3841   141
34.3941   144
34.4041   138
34.4141   122
34.4241   124
34.4341   117
34.4441   126
34.4541   127
34.4641   127
34.4741   136
34.4841   123
34.4941   113
34.5041   144
34.5141   109
34.5241   132
34.5341   123
34.5441   121
34.5541   131
34.5641   114
34.5741   117
34.5841   116
34.5941   132
34.6041   121
34.6141   111
34.6241   130
34.6341   123
34.6441   105
34.6541   125
34.6641   106
34.6741   133
34.6841   140
34.6941   113
34.7041   100
34.7141   112
34.7241   127
34.7341   124
34.7441   134
34.7541   121
34.7641   130
34.7741   143
34.7841   123
34.7941   125
34.8041   106
34.8141   129
34.8241   123
34.8341   116
34.8441   136
34.8541   111
34.8641   135
34.8741   117
34.8841   115
34.8941   110
34.9041   104
34.9141   123
34.9241   113
34.9341   140
34.9441   123
34.9541   123
34.9641    92
34.9741   112
34.9841   113
34.9941   113
35.0041   120
35.0141   135
35.0241   117
35.0341    99
35.0441   122
35.0541   132
35.0641   124
35.0741   108
35.0841   111
35.0941   120
35.1041   124
35.1141    99
35.1241   109
35.1341    98
35.1441   109
35.1541   129
35.1641   123
35.1741   110
35.1841   116
35.1941   110
35.2041   115
35.2141    93
35.2241    96
35.2341   125
35.2441   108
35.2541   103
35.2641   108
35.2741    99
35.2841    92
35.2941   128
35.3041   103
35.3141   120
35.3241   102
35.3341   113
35.3441   104
35.3541   111
35.3641   126
35.3741    88
35.3841    91
35.3941    96
35.4041    96
35.4141   122
35.4241   103
35.4341   119
35.4441   111
35.4541   105
35.4641   105
35.4741   108
35.4841   105
35.4941    98
35.5041    97
35.5141   109
35.5241   106
35.5341   111
35.5441   101
35.5541   113
35.5641   103
35.5741   101
35.5841    98
35.5941   101
35.6041   113
35.6141   106
35.6241   105
35.6341   101
35.6441   107
35.6541   100
35.6641    91
35.6741    89
35.6841    96
35.6941   106
35.7041   117
35.7141   114
35.7241    90
35.7341   108
35.7441    97
35.7541   117
35.7641   114
35.7741    78
35.7841    95
35.7941    79
35.8041   108
35.8141    91
35.8241    86
35.8341    92
35.8441    88
35.8541    78
35.8641   119
35.8741    84
35.8841   102
35.8941    80
35.9041    92
35.9141    80
35.9241    90
35.9341    91
35.9441   106
35.9541   103
35.9641   113
35.9741    86
35.9841    85
35.9941    93
36.0041    91
36.0141    88
36.0241   102
36.0341   100
36.0441    79
36.0541    81
36.0641    71
36.0741    90
36.0841    88
36.0941    88
36.1041    99
36.1141    93
36.1241    90
36.1341    82
36.1441    93
36.1541    88
36.1641   106
36.1741    88
36.1841   115
36.1941    93
36.2041    83
36.2141    80
36.2241    87
36.2341    92
36.2441    90
36.2541    75
36.2641    83
36.2741    87
36.2841   104
36.2941    90
36.3041   100
36.3141    85
36.3241    96
36.3341    89
36.3441    85
36.3541   101
36.3641   102
36.3741    96
36.3841    80
36.3941    72
36.4041   102
36.4141    89
36.4241    92
36.4341    85
36.4441    78
36.4541    96
36.4641    81
36.4741    85
36.4841    96
36.4941   103
36.5041    99
36.5141    90
36.5241    86
36.5341    86
36.5441    74
36.5541    85
36.5641    86
36.5741    94
36.5841    80
36.5941    83
36.6041    94
36.6141    73
36.6241    72
36.6341    83
36.6441    83
36.6541    78
36.6641    82
36.6741    90
36.6841    66
36.6941    80
36.7041    94
36.7141    93
36.7241    87
36.7341    85
36.7441    79
36.7541    84
36.7641    87
36.7741    85
36.7841    87
36.7941    89
36.8041    75
36.8141    72
36.8241    74
36.8341    71
36.8441    60
36.8541    71
36.8641    78
36.8741    66
36.8841    65
36.8941    62
36.9041    79
36.9141    80
36.9241    73
36.9341    71
36.9441    69
36.9541    62
36.9641    91
36.9741    75
36.9841    72
36.9941    86
37.0041    84
37.0141    64
37.0241    76
37.0341    76
37.0441    71
37.0541    85
37.0641    66
37.0741    58
37.0841    62
37.0941    69
37.1041    79
37.1141    76
37.1241    71
37.1341    80
37.1441    62
37.1541    70
37.1641    68
37.1741    67
37.1841    63
37.1941    63
37.2041    70
37.2141    95
37.2241    74
37.2341    73
37.2441    54
37.2541    59
37.2641    67
37.2741    66
37.2841    78
37.2941    63
37.3041    89
37.3141    64
37.3241    73
37.3341    74
37.3441    87
37.3541    71
37.3641    66
37.3741    60
37.3841    68
37.3941    65
37.4041    71
37.4141    77
37.4241    69
37.4341    71
37.4441    49
37.4541    54
37.4641    78
37.4741    68
37.4841    61
37.4941    55
37.5041    63
37.5141    73
37.5241    58
37.5341    67
37.5441    71
37.5541    69
37.5641    64
37.5741    53
37.5841    76
37.5941    56
37.6041    63
37.6141    62
37.6241    59
37.6341    53
37.6441    53
37.6541    61
37.6641    77
37.6741    58
37.6841    60
37.6941    82
37.7041    75
37.7141    71
37.7241    52
37.7341    56
37.7441    63
37.7541    78
37.7641    64
37.7741    52
37.7841    63
37.7941    58
37.8041    44
37.8141    46
37.8241    53
37.8341    62
37.8441    57
37.8541    68
37.8641    51
37.8741    54
37.8841    72
37.8941    61
37.9041    57
37.9141    62
37.9241    46
37.9341    53
37.9441    50
37.9541    61
37.9641    47
37.9741    55
37.9841    48
37.9941    50
38.0041    60
38.0141    61
38.0241    68
38.0341    54
38.0441    56
38.0541    58
38.0641    56
38.0741    54
38.0841    64
38.0941    53
38.1041    64
38.1141    58
38.1241    60
38.1341    53
38.1441    58
38.1541    48
38.1641    49
38.1741    54
38.1841    54
38.1941    47
38.2041    53
38.2141    60
38.2241    49
38.2341    56
38.2441    59
38.2541    46
38.2641    53
38.2741    47
38.2841    52
38.2941    50
38.3041    52
38.3141    46
38.3241    48
38.3341    45
38.3441    47
38.3541    47
38.3641    56
38.3741    44
38.3841    48
38.3941    51
38.4041    54
38.4141    44
38.4241    58
38.4341    63
38.4441    46
38.4541    54
38.4641    50
38.4741    67
38.4841    49
38.4941    53
38.5041    56
38.5141    44
38.5241    56
38.5341    54
38.5441    46
38.5541    42
38.5641    53
38.5741    47
38.5841    49
38.5941    54
38.6041    44
38.6141    53
38.6241    41
38.6341    62
38.6441    46
38.6541    38
38.6641    39
38.6741    49
38.6841    53
38.6941    46
38.7041    50
38.7141    56
38.7241    50
38.7341    40
38.7441    46
38.7541    44
38.7641    42
38.7741    50
38.7841    49
38.7941    35
38.8041    43
38.8141    46
38.8241    40
38.8341    44
38.8441    49
38.8541    25
38.8641    39
38.8741    48
38.8841    58
38.8941    42
38.9041    54
38.9141    49
38.9241    62
38.9341    39
38.9441    37
38.9541    41
38.9641    52
38.9741    37
38.9841    44
38.9941    52
39.0041    43
39.0141    41
39.0241    35
39.0341    39
39.0441    54
39.0541    45
39.0641    31
39.0741    37
39.0841    36
39.0941    44
39.1041    34
39.1141    50
39.1241    40
39.1341    39
39.1441    47
39.1541    46
39.1641    38
39.1741    52
39.1841    35
39.1941    39
39.2041    32
39.2141    41
39.2241    29
39.2341    31
39.2441    43
39.2541    46
39.2641    44
39.2741    43
39.2841    44
39.2941    40
39.3041    42
39.3141    40
39.3241    29
39.3341    53
39.3441    42
39.3541    33
39.3641    40
39.3741    39
39.3841    38
39.3941    40
39.4041    34
39.4141    31
39.4241    37
39.4341    40
39.4441    40
39.4541    38
39.4641    38
39.4741    38
39.4841    34
39.4941    37
39.5041    42
39.5141    28
39.5241    25
39.5341    31
39.5441    39
39.5541    28
39.5641    42
39.5741    46
39.5841    32
39.5941    35
39.6041    36
39.6141    42
39.6241    33
39.6341    45
39.6441    30
39.6541    45
39.6641    39
39.6741    35
39.6841    40
39.6941    26
39.7041    25
39.7141    28
39.7241    25
39.7341    31
39.7441    40
39.7541    23
39.7641    38
39.7741    33
39.7841    38
39.7941    27
39.8041    33
39.8141    28
39.8241    41
39.8341    37
39.8441    43
39.8541    36
39.8641    27
39.8741    33
39.8841    34
39.8941    28
39.9041    35
39.9141    37
39.9241    17
39.9341    24
39.9441    28
39.9541    30
39.9641    23
39.9741    30
39.9841    21
