Bruker Nano GmbH Berlin, Germany
Esprit 1.9

Date: 4/1/2021 4:19:28 PM
Real time: 32439
Life time: 30677
Pulse density: 77255


Detector type: XFlash 430
Window type: Custom type
Detector thickness: 0.45
Si dead layer:0.029

Calibration, lin.: 10
Calibration, abs.: -955.9
Mn FWHM: 137.05
Fano factor: 0.121
Channels: 4096

Energy Counts
-0.9559     0
-0.9459     0
-0.9359     0
-0.9259     0
-0.9159     0
-0.9059     0
-0.8959     0
-0.8859     0
-0.8759     0
-0.8659     0
-0.8559     0
-0.8459     0
-0.8359     0
-0.8259     0
-0.8159     0
-0.8059     0
-0.7959     0
-0.7859     0
-0.7759     0
-0.7659     0
-0.7559     0
-0.7459     0
-0.7359     0
-0.7259     0
-0.7159     0
-0.7059     0
-0.6959     0
-0.6859     0
-0.6759     0
-0.6659     0
-0.6559     0
-0.6459     0
-0.6359     0
-0.6259     0
-0.6159     0
-0.6059     0
-0.5959     0
-0.5859     0
-0.5759     0
-0.5659     0
-0.5559     0
-0.5459     0
-0.5359     0
-0.5259     0
-0.5159     0
-0.5059     0
-0.4959     0
-0.4859     0
-0.4759     0
-0.4659     0
-0.4559     0
-0.4459     0
-0.4359     0
-0.4259     0
-0.4159     0
-0.4059     0
-0.3959     0
-0.3859     0
-0.3759     0
-0.3659     0
-0.3559     0
-0.3459     0
-0.3359     0
-0.3259     0
-0.3159     0
-0.3059     0
-0.2959     0
-0.2859     0
-0.2759     0
-0.2659     0
-0.2559     0
-0.2459     0
-0.2359     0
-0.2259     0
-0.2159     0
-0.2059     0
-0.1959     0
-0.1859     0
-0.1759     0
-0.1659     0
-0.1559     0
-0.1459     0
-0.1359     1
-0.1259     2
-0.1159     5
-0.1059    19
-0.0959    86
-0.0859   348
-0.0759  1207
-0.0659  3499
-0.0559  8774
-0.0459 19350
-0.0359 36418
-0.0259 58384
-0.0159 80350
-0.0059 94247
 0.0041 94740
 0.0141 82294
 0.0241 59402
 0.0341 37762
 0.0441 20456
 0.0541  9590
 0.0641  3804
 0.0741  1296
 0.0841   378
 0.0941   119
 0.1041    34
 0.1141    20
 0.1241     5
 0.1341    10
 0.1441    14
 0.1541     5
 0.1641     7
 0.1741    36
 0.1841   296
 0.1941   558
 0.2041   457
 0.2141   500
 0.2241   484
 0.2341   509
 0.2441   499
 0.2541   495
 0.2641   523
 0.2741   491
 0.2841   514
 0.2941   504
 0.3041   485
 0.3141   493
 0.3241   490
 0.3341   463
 0.3441   491
 0.3541   482
 0.3641   465
 0.3741   462
 0.3841   467
 0.3941   455
 0.4041   442
 0.4141   427
 0.4241   446
 0.4341   474
 0.4441   432
 0.4541   467
 0.4641   429
 0.4741   418
 0.4841   435
 0.4941   423
 0.5041   443
 0.5141   424
 0.5241   431
 0.5341   433
 0.5441   424
 0.5541   426
 0.5641   419
 0.5741   398
 0.5841   388
 0.5941   393
 0.6041   389
 0.6141   380
 0.6241   361
 0.6341   389
 0.6441   394
 0.6541   401
 0.6641   403
 0.6741   384
 0.6841   370
 0.6941   369
 0.7041   370
 0.7141   369
 0.7241   369
 0.7341   353
 0.7441   372
 0.7541   373
 0.7641   359
 0.7741   362
 0.7841   343
 0.7941   358
 0.8041   360
 0.8141   346
 0.8241   340
 0.8341   343
 0.8441   360
 0.8541   360
 0.8641   363
 0.8741   358
 0.8841   361
 0.8941   331
 0.9041   322
 0.9141   343
 0.9241   340
 0.9341   340
 0.9441   316
 0.9541   328
 0.9641   350
 0.9741   335
 0.9841   323
 0.9941   349
 1.0041   331
 1.0141   322
 1.0241   302
 1.0341   320
 1.0441   316
 1.0541   339
 1.0641   326
 1.0741   311
 1.0841   346
 1.0941   324
 1.1041   314
 1.1141   320
 1.1241   283
 1.1341   292
 1.1441   293
 1.1541   301
 1.1641   308
 1.1741   327
 1.1841   329
 1.1941   320
 1.2041   302
 1.2141   290
 1.2241   304
 1.2341   327
 1.2441   287
 1.2541   298
 1.2641   293
 1.2741   305
 1.2841   300
 1.2941   308
 1.3041   337
 1.3141   302
 1.3241   320
 1.3341   318
 1.3441   305
 1.3541   283
 1.3641   300
 1.3741   273
 1.3841   304
 1.3941   308
 1.4041   291
 1.4141   310
 1.4241   284
 1.4341   293
 1.4441   283
 1.4541   264
 1.4641   264
 1.4741   292
 1.4841   289
 1.4941   265
 1.5041   297
 1.5141   278
 1.5241   296
 1.5341   306
 1.5441   304
 1.5541   284
 1.5641   270
 1.5741   286
 1.5841   265
 1.5941   283
 1.6041   274
 1.6141   283
 1.6241   274
 1.6341   304
 1.6441   313
 1.6541   330
 1.6641   394
 1.6741   485
 1.6841   544
 1.6941   718
 1.7041   891
 1.7141   994
 1.7241  1081
 1.7341  1121
 1.7441  1121
 1.7541  1025
 1.7641   893
 1.7741   795
 1.7841   687
 1.7941   569
 1.8041   465
 1.8141   451
 1.8241   387
 1.8341   338
 1.8441   358
 1.8541   320
 1.8641   324
 1.8741   326
 1.8841   315
 1.8941   297
 1.9041   294
 1.9141   285
 1.9241   280
 1.9341   301
 1.9441   284
 1.9541   338
 1.9641   319
 1.9741   305
 1.9841   332
 1.9941   335
 2.0041   323
 2.0141   314
 2.0241   332
 2.0341   327
 2.0441   318
 2.0541   294
 2.0641   337
 2.0741   287
 2.0841   281
 2.0941   269
 2.1041   280
 2.1141   283
 2.1241   284
 2.1341   243
 2.1441   256
 2.1541   255
 2.1641   256
 2.1741   259
 2.1841   256
 2.1941   271
 2.2041   242
 2.2141   254
 2.2241   261
 2.2341   232
 2.2441   258
 2.2541   263
 2.2641   246
 2.2741   244
 2.2841   240
 2.2941   227
 2.3041   250
 2.3141   255
 2.3241   242
 2.3341   233
 2.3441   221
 2.3541   276
 2.3641   273
 2.3741   236
 2.3841   244
 2.3941   241
 2.4041   213
 2.4141   234
 2.4241   224
 2.4341   206
 2.4441   232
 2.4541   230
 2.4641   186
 2.4741   222
 2.4841   255
 2.4941   202
 2.5041   242
 2.5141   211
 2.5241   205
 2.5341   213
 2.5441   234
 2.5541   226
 2.5641   240
 2.5741   216
 2.5841   216
 2.5941   240
 2.6041   221
 2.6141   233
 2.6241   225
 2.6341   198
 2.6441   205
 2.6541   201
 2.6641   193
 2.6741   191
 2.6841   210
 2.6941   201
 2.7041   227
 2.7141   218
 2.7241   202
 2.7341   211
 2.7441   253
 2.7541   204
 2.7641   221
 2.7741   231
 2.7841   203
 2.7941   197
 2.8041   217
 2.8141   213
 2.8241   240
 2.8341   234
 2.8441   225
 2.8541   262
 2.8641   215
 2.8741   226
 2.8841   225
 2.8941   212
 2.9041   216
 2.9141   222
 2.9241   192
 2.9341   215
 2.9441   177
 2.9541   218
 2.9641   186
 2.9741   212
 2.9841   204
 2.9941   176
 3.0041   191
 3.0141   218
 3.0241   202
 3.0341   185
 3.0441   206
 3.0541   195
 3.0641   205
 3.0741   173
 3.0841   175
 3.0941   201
 3.1041   189
 3.1141   213
 3.1241   170
 3.1341   170
 3.1441   172
 3.1541   186
 3.1641   177
 3.1741   204
 3.1841   175
 3.1941   181
 3.2041   200
 3.2141   193
 3.2241   235
 3.2341   255
 3.2441   295
 3.2541   293
 3.2641   340
 3.2741   381
 3.2841   399
 3.2941   449
 3.3041   475
 3.3141   507
 3.3241   480
 3.3341   449
 3.3441   411
 3.3541   387
 3.3641   322
 3.3741   279
 3.3841   242
 3.3941   236
 3.4041   229
 3.4141   200
 3.4241   179
 3.4341   171
 3.4441   176
 3.4541   176
 3.4641   154
 3.4741   160
 3.4841   191
 3.4941   184
 3.5041   163
 3.5141   173
 3.5241   193
 3.5341   219
 3.5441   230
 3.5541   233
 3.5641   267
 3.5741   338
 3.5841   425
 3.5941   483
 3.6041   637
 3.6141   754
 3.6241   914
 3.6341  1112
 3.6441  1333
 3.6541  1474
 3.6641  1737
 3.6741  1875
 3.6841  1960
 3.6941  1929
 3.7041  1945
 3.7141  1716
 3.7241  1601
 3.7341  1293
 3.7441  1081
 3.7541   840
 3.7641   677
 3.7741   531
 3.7841   411
 3.7941   329
 3.8041   254
 3.8141   234
 3.8241   197
 3.8341   172
 3.8441   147
 3.8541   159
 3.8641   148
 3.8741   149
 3.8841   166
 3.8941   158
 3.9041   161
 3.9141   175
 3.9241   194
 3.9341   217
 3.9441   231
 3.9541   244
 3.9641   320
 3.9741   331
 3.9841   361
 3.9941   378
 4.0041   404
 4.0141   378
 4.0241   361
 4.0341   360
 4.0441   330
 4.0541   297
 4.0641   247
 4.0741   268
 4.0841   210
 4.0941   205
 4.1041   168
 4.1141   167
 4.1241   165
 4.1341   137
 4.1441   121
 4.1541   138
 4.1641   144
 4.1741   134
 4.1841   126
 4.1941   125
 4.2041   119
 4.2141   125
 4.2241   122
 4.2341   109
 4.2441   118
 4.2541   125
 4.2641   114
 4.2741   104
 4.2841   125
 4.2941   111
 4.3041   126
 4.3141   130
 4.3241   131
 4.3341   115
 4.3441   121
 4.3541   136
 4.3641   124
 4.3741   126
 4.3841   137
 4.3941   138
 4.4041   188
 4.4141   205
 4.4241   186
 4.4341   213
 4.4441   242
 4.4541   296
 4.4641   304
 4.4741   291
 4.4841   324
 4.4941   333
 4.5041   322
 4.5141   314
 4.5241   313
 4.5341   313
 4.5441   277
 4.5541   265
 4.5641   213
 4.5741   213
 4.5841   216
 4.5941   185
 4.6041   191
 4.6141   150
 4.6241   158
 4.6341   131
 4.6441   150
 4.6541   150
 4.6641   128
 4.6741   124
 4.6841   125
 4.6941   152
 4.7041   151
 4.7141   144
 4.7241   142
 4.7341   145
 4.7441   150
 4.7541   146
 4.7641   146
 4.7741   149
 4.7841   151
 4.7941   165
 4.8041   149
 4.8141   190
 4.8241   168
 4.8341   198
 4.8441   170
 4.8541   173
 4.8641   181
 4.8741   180
 4.8841   173
 4.8941   189
 4.9041   157
 4.9141   168
 4.9241   196
 4.9341   172
 4.9441   151
 4.9541   163
 4.9641   164
 4.9741   178
 4.9841   156
 4.9941   150
 5.0041   138
 5.0141   148
 5.0241   148
 5.0341   157
 5.0441   142
 5.0541   115
 5.0641   156
 5.0741   126
 5.0841   143
 5.0941   158
 5.1041   129
 5.1141   159
 5.1241   147
 5.1341   143
 5.1441   152
 5.1541   157
 5.1641   167
 5.1741   148
 5.1841   133
 5.1941   124
 5.2041   127
 5.2141   141
 5.2241   130
 5.2341   148
 5.2441   152
 5.2541   140
 5.2641   122
 5.2741   127
 5.2841   138
 5.2941   136
 5.3041   152
 5.3141   167
 5.3241   143
 5.3341   174
 5.3441   164
 5.3541   185
 5.3641   187
 5.3741   179
 5.3841   217
 5.3941   209
 5.4041   214
 5.4141   209
 5.4241   199
 5.4341   228
 5.4441   195
 5.4541   189
 5.4641   191
 5.4741   201
 5.4841   177
 5.4941   167
 5.5041   178
 5.5141   159
 5.5241   170
 5.5341   152
 5.5441   150
 5.5541   154
 5.5641   163
 5.5741   171
 5.5841   155
 5.5941   161
 5.6041   165
 5.6141   140
 5.6241   152
 5.6341   146
 5.6441   175
 5.6541   161
 5.6641   155
 5.6741   137
 5.6841   139
 5.6941   125
 5.7041   138
 5.7141   149
 5.7241   166
 5.7341   167
 5.7441   159
 5.7541   169
 5.7641   186
 5.7741   166
 5.7841   152
 5.7941   167
 5.8041   184
 5.8141   171
 5.8241   201
 5.8341   193
 5.8441   186
 5.8541   230
 5.8641   253
 5.8741   215
 5.8841   203
 5.8941   231
 5.9041   223
 5.9141   216
 5.9241   233
 5.9341   231
 5.9441   237
 5.9541   211
 5.9641   200
 5.9741   186
 5.9841   194
 5.9941   217
 6.0041   198
 6.0141   194
 6.0241   173
 6.0341   183
 6.0441   192
 6.0541   178
 6.0641   149
 6.0741   168
 6.0841   178
 6.0941   170
 6.1041   185
 6.1141   187
 6.1241   182
 6.1341   148
 6.1441   177
 6.1541   200
 6.1641   169
 6.1741   197
 6.1841   201
 6.1941   247
 6.2041   243
 6.2141   262
 6.2241   326
 6.2341   345
 6.2441   492
 6.2541   638
 6.2641   822
 6.2741  1146
 6.2841  1370
 6.2941  1821
 6.3041  2213
 6.3141  2862
 6.3241  3428
 6.3341  4204
 6.3441  4848
 6.3541  5516
 6.3641  6052
 6.3741  6751
 6.3841  6918
 6.3941  7037
 6.4041  6994
 6.4141  6749
 6.4241  6339
 6.4341  5868
 6.4441  5397
 6.4541  4590
 6.4641  3909
 6.4741  3140
 6.4841  2631
 6.4941  2120
 6.5041  1553
 6.5141  1223
 6.5241   998
 6.5341   714
 6.5441   530
 6.5541   436
 6.5641   341
 6.5741   303
 6.5841   254
 6.5941   206
 6.6041   230
 6.6141   227
 6.6241   228
 6.6341   224
 6.6441   183
 6.6541   214
 6.6641   209
 6.6741   192
 6.6841   199
 6.6941   207
 6.7041   204
 6.7141   215
 6.7241   241
 6.7341   210
 6.7441   220
 6.7541   214
 6.7641   198
 6.7741   204
 6.7841   220
 6.7941   218
 6.8041   206
 6.8141   222
 6.8241   205
 6.8341   213
 6.8441   240
 6.8541   250
 6.8641   246
 6.8741   250
 6.8841   287
 6.8941   306
 6.9041   314
 6.9141   367
 6.9241   403
 6.9341   453
 6.9441   528
 6.9541   606
 6.9641   688
 6.9741   707
 6.9841   802
 6.9941   970
 7.0041  1059
 7.0141  1179
 7.0241  1217
 7.0341  1346
 7.0441  1428
 7.0541  1396
 7.0641  1346
 7.0741  1298
 7.0841  1199
 7.0941  1138
 7.1041  1068
 7.1141   940
 7.1241   875
 7.1341   769
 7.1441   683
 7.1541   597
 7.1641   507
 7.1741   477
 7.1841   439
 7.1941   419
 7.2041   377
 7.2141   351
 7.2241   343
 7.2341   362
 7.2441   331
 7.2541   377
 7.2641   347
 7.2741   356
 7.2841   342
 7.2941   361
 7.3041   346
 7.3141   384
 7.3241   376
 7.3341   387
 7.3441   411
 7.3541   402
 7.3641   456
 7.3741   413
 7.3841   484
 7.3941   472
 7.4041   438
 7.4141   470
 7.4241   479
 7.4341   470
 7.4441   457
 7.4541   437
 7.4641   428
 7.4741   413
 7.4841   397
 7.4941   397
 7.5041   404
 7.5141   378
 7.5241   384
 7.5341   356
 7.5441   338
 7.5541   338
 7.5641   351
 7.5741   331
 7.5841   324
 7.5941   317
 7.6041   318
 7.6141   335
 7.6241   320
 7.6341   308
 7.6441   310
 7.6541   336
 7.6641   339
 7.6741   352
 7.6841   371
 7.6941   361
 7.7041   415
 7.7141   405
 7.7241   408
 7.7341   405
 7.7441   396
 7.7541   424
 7.7641   382
 7.7741   414
 7.7841   415
 7.7941   437
 7.8041   488
 7.8141   494
 7.8241   497
 7.8341   507
 7.8441   477
 7.8541   514
 7.8641   548
 7.8741   536
 7.8841   547
 7.8941   545
 7.9041   594
 7.9141   562
 7.9241   612
 7.9341   653
 7.9441   676
 7.9541   712
 7.9641   751
 7.9741   874
 7.9841   901
 7.9941   965
 8.0041  1000
 8.0141  1074
 8.0241  1142
 8.0341  1211
 8.0441  1283
 8.0541  1387
 8.0641  1535
 8.0741  1615
 8.0841  1750
 8.0941  1766
 8.1041  1868
 8.1141  1998
 8.1241  2110
 8.1341  2010
 8.1441  2084
 8.1541  2247
 8.1641  2339
 8.1741  2418
 8.1841  2359
 8.1941  2412
 8.2041  2357
 8.2141  2397
 8.2241  2438
 8.2341  2435
 8.2441  2506
 8.2541  2554
 8.2641  2635
 8.2741  2705
 8.2841  2883
 8.2941  3147
 8.3041  3234
 8.3141  3580
 8.3241  3619
 8.3341  3932
 8.3441  4223
 8.3541  4362
 8.3641  4434
 8.3741  4608
 8.3841  4509
 8.3941  4628
 8.4041  4494
 8.4141  4371
 8.4241  4159
 8.4341  3866
 8.4441  3606
 8.4541  3128
 8.4641  2827
 8.4741  2476
 8.4841  2131
 8.4941  1850
 8.5041  1586
 8.5141  1341
 8.5241  1080
 8.5341   941
 8.5441   848
 8.5541   762
 8.5641   692
 8.5741   591
 8.5841   578
 8.5941   562
 8.6041   519
 8.6141   498
 8.6241   498
 8.6341   524
 8.6441   528
 8.6541   520
 8.6641   512
 8.6741   530
 8.6841   539
 8.6941   548
 8.7041   559
 8.7141   556
 8.7241   527
 8.7341   524
 8.7441   541
 8.7541   551
 8.7641   529
 8.7741   542
 8.7841   573
 8.7941   534
 8.8041   559
 8.8141   489
 8.8241   529
 8.8341   534
 8.8441   531
 8.8541   514
 8.8641   507
 8.8741   540
 8.8841   535
 8.8941   552
 8.9041   538
 8.9141   549
 8.9241   559
 8.9341   549
 8.9441   580
 8.9541   579
 8.9641   589
 8.9741   575
 8.9841   552
 8.9941   617
 9.0041   636
 9.0141   685
 9.0241   716
 9.0341   684
 9.0441   688
 9.0541   725
 9.0641   716
 9.0741   756
 9.0841   790
 9.0941   841
 9.1041   832
 9.1141   857
 9.1241   898
 9.1341   909
 9.1441   962
 9.1541   993
 9.1641  1064
 9.1741  1096
 9.1841  1130
 9.1941  1191
 9.2041  1253
 9.2141  1346
 9.2241  1415
 9.2341  1516
 9.2441  1482
 9.2541  1604
 9.2641  1657
 9.2741  1714
 9.2841  1734
 9.2941  1896
 9.3041  1910
 9.3141  1934
 9.3241  2035
 9.3341  2084
 9.3441  2198
 9.3541  2128
 9.3641  2255
 9.3741  2264
 9.3841  2344
 9.3941  2264
 9.4041  2384
 9.4141  2420
 9.4241  2457
 9.4341  2487
 9.4441  2463
 9.4541  2444
 9.4641  2580
 9.4741  2591
 9.4841  2609
 9.4941  2670
 9.5041  2686
 9.5141  2787
 9.5241  3043
 9.5341  3142
 9.5441  3187
 9.5541  3438
 9.5641  3716
 9.5741  3907
 9.5841  4117
 9.5941  4383
 9.6041  4718
 9.6141  5060
 9.6241  5354
 9.6341  5591
 9.6441  5769
 9.6541  5893
 9.6641  5886
 9.6741  5848
 9.6841  5839
 9.6941  5723
 9.7041  5501
 9.7141  5037
 9.7241  4925
 9.7341  4537
 9.7441  4195
 9.7541  3799
 9.7641  3533
 9.7741  3146
 9.7841  2851
 9.7941  2686
 9.8041  2532
 9.8141  2375
 9.8241  2189
 9.8341  2100
 9.8441  2086
 9.8541  2055
 9.8641  2030
 9.8741  2093
 9.8841  2069
 9.8941  2094
 9.9041  2134
 9.9141  2118
 9.9241  2217
 9.9341  2220
 9.9441  2204
 9.9541  2203
 9.9641  2193
 9.9741  2109
 9.9841  2000
 9.9941  1911
10.0041  1883
10.0141  1691
10.0241  1526
10.0341  1412
10.0441  1288
10.0541  1180
10.0641  1103
10.0741  1028
10.0841   921
10.0941   860
10.1041   765
10.1141   696
10.1241   646
10.1341   643
10.1441   572
10.1541   572
10.1641   543
10.1741   528
10.1841   496
10.1941   471
10.2041   487
10.2141   464
10.2241   426
10.2341   428
10.2441   396
10.2541   377
10.2641   348
10.2741   346
10.2841   339
10.2941   328
10.3041   321
10.3141   304
10.3241   327
10.3341   321
10.3441   337
10.3541   320
10.3641   295
10.3741   319
10.3841   300
10.3941   296
10.4041   302
10.4141   322
10.4241   318
10.4341   325
10.4441   330
10.4541   314
10.4641   328
10.4741   336
10.4841   314
10.4941   332
10.5041   347
10.5141   354
10.5241   375
10.5341   373
10.5441   358
10.5541   349
10.5641   378
10.5741   404
10.5841   398
10.5941   383
10.6041   383
10.6141   395
10.6241   350
10.6341   345
10.6441   351
10.6541   374
10.6641   382
10.6741   400
10.6841   413
10.6941   403
10.7041   397
10.7141   402
10.7241   437
10.7341   415
10.7441   414
10.7541   433
10.7641   461
10.7741   453
10.7841   432
10.7941   492
10.8041   487
10.8141   490
10.8241   521
10.8341   508
10.8441   498
10.8541   515
10.8641   512
10.8741   531
10.8841   541
10.8941   531
10.9041   600
10.9141   579
10.9241   549
10.9341   541
10.9441   540
10.9541   565
10.9641   553
10.9741   546
10.9841   540
10.9941   549
11.0041   518
11.0141   473
11.0241   507
11.0341   517
11.0441   466
11.0541   463
11.0641   490
11.0741   481
11.0841   500
11.0941   487
11.1041   459
11.1141   473
11.1241   494
11.1341   492
11.1441   480
11.1541   525
11.1641   523
11.1741   564
11.1841   600
11.1941   583
11.2041   596
11.2141   597
11.2241   626
11.2341   669
11.2441   746
11.2541   733
11.2641   731
11.2741   711
11.2841   696
11.2941   706
11.3041   736
11.3141   697
11.3241   684
11.3341   669
11.3441   666
11.3541   620
11.3641   616
11.3741   571
11.3841   507
11.3941   501
11.4041   475
11.4141   431
11.4241   419
11.4341   421
11.4441   375
11.4541   371
11.4641   388
11.4741   395
11.4841   386
11.4941   358
11.5041   355
11.5141   382
11.5241   387
11.5341   366
11.5441   398
11.5541   413
11.5641   418
11.5741   401
11.5841   390
11.5941   439
11.6041   416
11.6141   425
11.6241   419
11.6341   426
11.6441   408
11.6541   415
11.6641   413
11.6741   426
11.6841   424
11.6941   394
11.7041   368
11.7141   372
11.7241   356
11.7341   340
11.7441   325
11.7541   343
11.7641   351
11.7741   318
11.7841   313
11.7941   318
11.8041   308
11.8141   315
11.8241   312
11.8341   318
11.8441   288
11.8541   290
11.8641   294
11.8741   303
11.8841   320
11.8941   313
11.9041   317
11.9141   311
11.9241   301
11.9341   285
11.9441   292
11.9541   294
11.9641   307
11.9741   321
11.9841   324
11.9941   310
12.0041   300
12.0141   299
12.0241   293
12.0341   288
12.0441   312
12.0541   315
12.0641   306
12.0741   311
12.0841   302
12.0941   276
12.1041   288
12.1141   299
12.1241   287
12.1341   291
12.1441   288
12.1541   271
12.1641   280
12.1741   287
12.1841   273
12.1941   288
12.2041   291
12.2141   303
12.2241   288
12.2341   290
12.2441   291
12.2541   284
12.2641   286
12.2741   273
12.2841   280
12.2941   281
12.3041   271
12.3141   275
12.3241   267
12.3341   275
12.3441   274
12.3541   260
12.3641   264
12.3741   277
12.3841   279
12.3941   292
12.4041   297
12.4141   270
12.4241   268
12.4341   269
12.4441   294
12.4541   288
12.4641   275
12.4741   275
12.4841   267
12.4941   265
12.5041   283
12.5141   296
12.5241   301
12.5341   295
12.5441   271
12.5541   285
12.5641   311
12.5741   305
12.5841   308
12.5941   308
12.6041   321
12.6141   308
12.6241   306
12.6341   315
12.6441   303
12.6541   327
12.6641   338
12.6741   325
12.6841   300
12.6941   299
12.7041   314
12.7141   329
12.7241   330
12.7341   320
12.7441   301
12.7541   302
12.7641   312
12.7741   313
12.7841   315
12.7941   317
12.8041   312
12.8141   306
12.8241   312
12.8341   308
12.8441   293
12.8541   285
12.8641   294
12.8741   297
12.8841   301
12.8941   305
12.9041   300
12.9141   299
12.9241   320
12.9341   333
12.9441   333
12.9541   325
12.9641   321
12.9741   329
12.9841   327
12.9941   317
13.0041   339
13.0141   315
13.0241   320
13.0341   338
13.0441   342
13.0541   343
13.0641   301
13.0741   288
13.0841   298
13.0941   323
13.1041   340
13.1141   331
13.1241   321
13.1341   337
13.1441   356
13.1541   350
13.1641   354
13.1741   354
13.1841   368
13.1941   395
13.2041   386
13.2141   381
13.2241   434
13.2341   448
13.2441   448
13.2541   447
13.2641   464
13.2741   505
13.2841   556
13.2941   584
13.3041   594
13.3141   614
13.3241   642
13.3341   644
13.3441   650
13.3541   679
13.3641   679
13.3741   702
13.3841   718
13.3941   680
13.4041   681
13.4141   677
13.4241   631
13.4341   609
13.4441   600
13.4541   572
13.4641   536
13.4741   514
13.4841   505
13.4941   497
13.5041   503
13.5141   464
13.5241   447
13.5341   453
13.5441   426
13.5541   408
13.5641   400
13.5741   400
13.5841   411
13.5941   392
13.6041   372
13.6141   390
13.6241   386
13.6341   359
13.6441   350
13.6541   353
13.6641   380
13.6741   389
13.6841   372
13.6941   382
13.7041   414
13.7141   410
13.7241   399
13.7341   387
13.7441   375
13.7541   382
13.7641   387
13.7741   385
13.7841   380
13.7941   397
13.8041   405
13.8141   378
13.8241   372
13.8341   386
13.8441   394
13.8541   393
13.8641   399
13.8741   419
13.8841   432
13.8941   415
13.9041   416
13.9141   439
13.9241   434
13.9341   441
13.9441   444
13.9541   465
13.9641   498
13.9741   513
13.9841   535
13.9941   546
14.0041   572
14.0141   603
14.0241   635
14.0341   653
14.0441   674
14.0541   726
14.0641   756
14.0741   783
14.0841   813
14.0941   831
14.1041   885
14.1141   901
14.1241   884
14.1341   907
14.1441   933
14.1541   931
14.1641   891
14.1741   888
14.1841   892
14.1941   867
14.2041   837
14.2141   802
14.2241   763
14.2341   738
14.2441   697
14.2541   647
14.2641   611
14.2741   569
14.2841   554
14.2941   569
14.3041   568
14.3141   536
14.3241   506
14.3341   474
14.3441   455
14.3541   451
14.3641   448
14.3741   435
14.3841   444
14.3941   445
14.4041   432
14.4141   436
14.4241   429
14.4341   413
14.4441   418
14.4541   434
14.4641   430
14.4741   432
14.4841   432
14.4941   447
14.5041   448
14.5141   459
14.5241   463
14.5341   441
14.5441   458
14.5541   473
14.5641   443
14.5741   451
14.5841   451
14.5941   440
14.6041   454
14.6141   439
14.6241   423
14.6341   430
14.6441   458
14.6541   465
14.6641   444
14.6741   425
14.6841   443
14.6941   481
14.7041   471
14.7141   461
14.7241   490
14.7341   478
14.7441   469
14.7541   466
14.7641   480
14.7741   510
14.7841   511
14.7941   492
14.8041   466
14.8141   482
14.8241   514
14.8341   525
14.8441   525
14.8541   500
14.8641   512
14.8741   530
14.8841   551
14.8941   564
14.9041   571
14.9141   549
14.9241   533
14.9341   546
14.9441   550
14.9541   586
14.9641   586
14.9741   573
14.9841   562
14.9941   554
15.0041   565
15.0141   544
15.0241   551
15.0341   567
15.0441   551
15.0541   525
15.0641   509
15.0741   501
15.0841   491
15.0941   530
15.1041   537
15.1141   499
15.1241   486
15.1341   526
15.1441   506
15.1541   475
15.1641   471
15.1741   502
15.1841   510
15.1941   532
15.2041   547
15.2141   514
15.2241   488
15.2341   509
15.2441   489
15.2541   480
15.2641   506
15.2741   536
15.2841   493
15.2941   489
15.3041   518
15.3141   523
15.3241   519
15.3341   518
15.3441   506
15.3541   503
15.3641   503
15.3741   487
15.3841   492
15.3941   470
15.4041   476
15.4141   498
15.4241   509
15.4341   518
15.4441   545
15.4541   530
15.4641   502
15.4741   506
15.4841   498
15.4941   486
15.5041   507
15.5141   544
15.5241   561
15.5341   539
15.5441   529
15.5541   549
15.5641   546
15.5741   539
15.5841   543
15.5941   556
15.6041   545
15.6141   581
15.6241   596
15.6341   589
15.6441   598
15.6541   611
15.6641   613
15.6741   621
15.6841   674
15.6941   700
15.7041   705
15.7141   691
15.7241   705
15.7341   733
15.7441   731
15.7541   751
15.7641   745
15.7741   739
15.7841   737
15.7941   726
15.8041   753
15.8141   753
15.8241   707
15.8341   719
15.8441   680
15.8541   668
15.8641   680
15.8741   660
15.8841   653
15.8941   641
15.9041   607
15.9141   605
15.9241   630
15.9341   629
15.9441   599
15.9541   573
15.9641   601
15.9741   630
15.9841   603
15.9941   590
16.0041   571
16.0141   544
16.0241   563
16.0341   595
16.0441   580
16.0541   568
16.0641   587
16.0741   563
16.0841   542
16.0941   577
16.1041   581
16.1141   568
16.1241   561
16.1341   569
16.1441   591
16.1541   575
16.1641   566
16.1741   561
16.1841   573
16.1941   571
16.2041   560
16.2141   588
16.2241   575
16.2341   581
16.2441   573
16.2541   564
16.2641   573
16.2741   578
16.2841   569
16.2941   544
16.3041   579
16.3141   606
16.3241   576
16.3341   573
16.3441   601
16.3541   579
16.3641   574
16.3741   572
16.3841   596
16.3941   577
16.4041   581
16.4141   628
16.4241   570
16.4341   576
16.4441   555
16.4541   579
16.4641   607
16.4741   578
16.4841   594
16.4941   607
16.5041   613
16.5141   626
16.5241   631
16.5341   613
16.5441   572
16.5541   572
16.5641   619
16.5741   634
16.5841   614
16.5941   604
16.6041   628
16.6141   619
16.6241   633
16.6341   634
16.6441   609
16.6541   608
16.6641   584
16.6741   615
16.6841   661
16.6941   638
16.7041   648
16.7141   657
16.7241   600
16.7341   627
16.7441   642
16.7541   596
16.7641   608
16.7741   632
16.7841   633
16.7941   621
16.8041   599
16.8141   645
16.8241   659
16.8341   637
16.8441   613
16.8541   654
16.8641   635
16.8741   611
16.8841   617
16.8941   605
16.9041   659
16.9141   642
16.9241   673
16.9341   641
16.9441   600
16.9541   615
16.9641   635
16.9741   611
16.9841   625
16.9941   649
17.0041   644
17.0141   637
17.0241   641
17.0341   635
17.0441   646
17.0541   668
17.0641   673
17.0741   649
17.0841   626
17.0941   633
17.1041   647
17.1141   652
17.1241   658
17.1341   671
17.1441   672
17.1541   663
17.1641   671
17.1741   674
17.1841   669
17.1941   674
17.2041   692
17.2141   668
17.2241   651
17.2341   665
17.2441   665
17.2541   665
17.2641   670
17.2741   679
17.2841   643
17.2941   634
17.3041   650
17.3141   654
17.3241   658
17.3341   678
17.3441   677
17.3541   644
17.3641   675
17.3741   720
17.3841   708
17.3941   643
17.4041   685
17.4141   706
17.4241   698
17.4341   725
17.4441   749
17.4541   716
17.4641   707
17.4741   693
17.4841   711
17.4941   732
17.5041   705
17.5141   681
17.5241   688
17.5341   695
17.5441   754
17.5541   760
17.5641   743
17.5741   716
17.5841   732
17.5941   735
17.6041   734
17.6141   720
17.6241   719
17.6341   674
17.6441   734
17.6541   749
17.6641   710
17.6741   708
17.6841   695
17.6941   707
17.7041   737
17.7141   745
17.7241   746
17.7341   760
17.7441   740
17.7541   745
17.7641   752
17.7741   749
17.7841   712
17.7941   733
17.8041   708
17.8141   703
17.8241   714
17.8341   734
17.8441   724
17.8541   724
17.8641   737
17.8741   776
17.8841   748
17.8941   749
17.9041   719
17.9141   734
17.9241   782
17.9341   749
17.9441   717
17.9541   728
17.9641   765
17.9741   733
17.9841   720
17.9941   774
18.0041   805
18.0141   782
18.0241   741
18.0341   774
18.0441   736
18.0541   738
18.0641   728
18.0741   747
18.0841   772
18.0941   776
18.1041   807
18.1141   781
18.1241   777
18.1341   728
18.1441   745
18.1541   728
18.1641   737
18.1741   768
18.1841   749
18.1941   761
18.2041   785
18.2141   796
18.2241   817
18.2341   801
18.2441   787
18.2541   761
18.2641   764
18.2741   764
18.2841   763
18.2941   771
18.3041   772
18.3141   803
18.3241   810
18.3341   794
18.3441   766
18.3541   776
18.3641   752
18.3741   763
18.3841   802
18.3941   804
18.4041   731
18.4141   749
18.4241   769
18.4341   799
18.4441   811
18.4541   824
18.4641   796
18.4741   792
18.4841   773
18.4941   746
18.5041   757
18.5141   806
18.5241   822
18.5341   810
18.5441   764
18.5541   808
18.5641   795
18.5741   799
18.5841   787
18.5941   822
18.6041   842
18.6141   766
18.6241   814
18.6341   756
18.6441   791
18.6541   786
18.6641   793
18.6741   792
18.6841   840
18.6941   778
18.7041   783
18.7141   824
18.7241   783
18.7341   806
18.7441   827
18.7541   808
18.7641   806
18.7741   778
18.7841   771
18.7941   821
18.8041   785
18.8141   782
18.8241   813
18.8341   816
18.8441   815
18.8541   840
18.8641   830
18.8741   808
18.8841   837
18.8941   799
18.9041   833
18.9141   823
18.9241   783
18.9341   801
18.9441   859
18.9541   792
18.9641   801
18.9741   816
18.9841   790
18.9941   772
19.0041   821
19.0141   855
19.0241   809
19.0341   799
19.0441   834
19.0541   811
19.0641   801
19.0741   833
19.0841   857
19.0941   811
19.1041   843
19.1141   828
19.1241   825
19.1341   811
19.1441   802
19.1541   779
19.1641   814
19.1741   820
19.1841   825
19.1941   885
19.2041   842
19.2141   811
19.2241   864
19.2341   836
19.2441   837
19.2541   845
19.2641   870
19.2741   854
19.2841   832
19.2941   804
19.3041   805
19.3141   829
19.3241   849
19.3341   831
19.3441   864
19.3541   836
19.3641   821
19.3741   780
19.3841   829
19.3941   856
19.4041   840
19.4141   873
19.4241   802
19.4341   879
19.4441   849
19.4541   832
19.4641   865
19.4741   858
19.4841   868
19.4941   838
19.5041   832
19.5141   863
19.5241   862
19.5341   830
19.5441   815
19.5541   830
19.5641   860
19.5741   842
19.5841   882
19.5941   829
19.6041   819
19.6141   838
19.6241   834
19.6341   842
19.6441   839
19.6541   891
19.6641   901
19.6741   855
19.6841   840
19.6941   905
19.7041   854
19.7141   862
19.7241   860
19.7341   844
19.7441   897
19.7541   849
19.7641   831
19.7741   867
19.7841   892
19.7941   883
19.8041   868
19.8141   845
19.8241   848
19.8341   857
19.8441   915
19.8541   849
19.8641   872
19.8741   882
19.8841   857
19.8941   890
19.9041   870
19.9141   815
19.9241   870
19.9341   890
19.9441   882
19.9541   845
19.9641   840
19.9741   857
19.9841   899
19.9941   863
20.0041   875
20.0141   926
20.0241   878
20.0341   907
20.0441   876
20.0541   814
20.0641   846
20.0741   914
20.0841   866
20.0941   879
20.1041   856
20.1141   876
20.1241   913
20.1341   921
20.1441   869
20.1541   872
20.1641   919
20.1741   893
20.1841   842
20.1941   925
20.2041   851
20.2141   838
20.2241   865
20.2341   870
20.2441   869
20.2541   919
20.2641   876
20.2741   866
20.2841   869
20.2941   873
20.3041   869
20.3141   881
20.3241   917
20.3341   862
20.3441   890
20.3541   880
20.3641   909
20.3741   866
20.3841   867
20.3941   894
20.4041   858
20.4141   908
20.4241   915
20.4341   897
20.4441   931
20.4541   853
20.4641   853
20.4741   837
20.4841   895
20.4941   942
20.5041   954
20.5141   883
20.5241   883
20.5341   900
20.5441   884
20.5541   882
20.5641   882
20.5741   923
20.5841   894
20.5941   931
20.6041   891
20.6141   926
20.6241   853
20.6341   946
20.6441   884
20.6541   901
20.6641   873
20.6741   826
20.6841   885
20.6941   895
20.7041   914
20.7141   905
20.7241   901
20.7341   909
20.7441   916
20.7541   885
20.7641   923
20.7741   883
20.7841   899
20.7941   921
20.8041   927
20.8141   931
20.8241   940
20.8341   941
20.8441   901
20.8541   925
20.8641   910
20.8741  1005
20.8841  1020
20.8941   979
20.9041  1040
20.9141  1061
20.9241  1080
20.9341  1087
20.9441  1085
20.9541  1109
20.9641  1232
20.9741  1187
20.9841  1220
20.9941  1212
21.0041  1272
21.0141  1231
21.0241  1298
21.0341  1264
21.0441  1283
21.0541  1305
21.0641  1344
21.0741  1386
21.0841  1376
21.0941  1386
21.1041  1422
21.1141  1428
21.1241  1347
21.1341  1457
21.1441  1397
21.1541  1426
21.1641  1406
21.1741  1344
21.1841  1324
21.1941  1358
21.2041  1354
21.2141  1316
21.2241  1298
21.2341  1263
21.2441  1194
21.2541  1253
21.2641  1199
21.2741  1170
21.2841  1136
21.2941  1129
21.3041  1088
21.3141  1074
21.3241  1062
21.3341  1020
21.3441   980
21.3541   987
21.3641   999
21.3741   991
21.3841   980
21.3941   967
21.4041   948
21.4141   930
21.4241   972
21.4341   985
21.4441   917
21.4541   908
21.4641   938
21.4741   934
21.4841   907
21.4941   883
21.5041   904
21.5141   895
21.5241   883
21.5341   835
21.5441   909
21.5541   920
21.5641   886
21.5741   898
21.5841   914
21.5941   881
21.6041   920
21.6141   908
21.6241   940
21.6341   932
21.6441   930
21.6541   913
21.6641   902
21.6741   921
21.6841   906
21.6941   892
21.7041   904
21.7141   912
21.7241   888
21.7341   933
21.7441   868
21.7541   938
21.7641   927
21.7741   896
21.7841   986
21.7941   953
21.8041   927
21.8141   926
21.8241   942
21.8341   903
21.8441   852
21.8541   924
21.8641   909
21.8741   864
21.8841   935
21.8941   910
21.9041   930
21.9141   929
21.9241   941
21.9341   938
21.9441   925
21.9541   919
21.9641   929
21.9741   918
21.9841   878
21.9941   910
22.0041   916
22.0141   928
22.0241   951
22.0341   897
22.0441   959
22.0541   884
22.0641   971
22.0741   944
22.0841   950
22.0941   913
22.1041   935
22.1141   942
22.1241   882
22.1341   914
22.1441   900
22.1541   895
22.1641   917
22.1741   939
22.1841   957
22.1941   896
22.2041   903
22.2141   937
22.2241   875
22.2341   885
22.2441   930
22.2541   924
22.2641   956
22.2741   883
22.2841   952
22.2941   875
22.3041   898
22.3141   914
22.3241   860
22.3341   889
22.3441   927
22.3541   879
22.3641   887
22.3741   951
22.3841   901
22.3941   903
22.4041   917
22.4141   906
22.4241   875
22.4341   881
22.4441   889
22.4541   889
22.4641   902
22.4741   914
22.4841   892
22.4941   895
22.5041   930
22.5141   942
22.5241   914
22.5341   892
22.5441   886
22.5541   850
22.5641   931
22.5741   927
22.5841   945
22.5941   856
22.6041   940
22.6141   971
22.6241   905
22.6341   900
22.6441   905
22.6541   894
22.6641   893
22.6741   923
22.6841   889
22.6941   905
22.7041   877
22.7141   901
22.7241   932
22.7341   922
22.7441   882
22.7541   885
22.7641   879
22.7741   893
22.7841   887
22.7941   920
22.8041   898
22.8141   911
22.8241   919
22.8341   932
22.8441   944
22.8541   882
22.8641   882
22.8741   875
22.8841   879
22.8941   923
22.9041   917
22.9141   933
22.9241   905
22.9341   892
22.9441   853
22.9541   932
22.9641   895
22.9741   930
22.9841   912
22.9941   888
23.0041   877
23.0141   871
23.0241   879
23.0341   848
23.0441   853
23.0541   906
23.0641   856
23.0741   906
23.0841   895
23.0941   927
23.1041   885
23.1141   887
23.1241   856
23.1341   872
23.1441   879
23.1541   941
23.1641   949
23.1741   906
23.1841   856
23.1941   927
23.2041   941
23.2141   886
23.2241   885
23.2341   873
23.2441   809
23.2541   935
23.2641   925
23.2741   896
23.2841   866
23.2941   905
23.3041   939
23.3141   927
23.3241   930
23.3341   893
23.3441   887
23.3541   874
23.3641   878
23.3741   859
23.3841   855
23.3941   876
23.4041   864
23.4141   968
23.4241   879
23.4341   855
23.4441   880
23.4541   919
23.4641   875
23.4741   916
23.4841   847
23.4941   914
23.5041   894
23.5141   889
23.5241   865
23.5341   876
23.5441   907
23.5541   900
23.5641   906
23.5741   882
23.5841   882
23.5941   893
23.6041   868
23.6141   888
23.6241   960
23.6341   957
23.6441   892
23.6541   927
23.6641   898
23.6741   916
23.6841   946
23.6941   927
23.7041   931
23.7141   915
23.7241   962
23.7341   950
23.7441   983
23.7541   981
23.7641   961
23.7741   908
23.7841   956
23.7941   952
23.8041   972
23.8141   975
23.8241   913
23.8341   971
23.8441   966
23.8541   968
23.8641   951
23.8741   992
23.8841   968
23.8941   930
23.9041   949
23.9141   902
23.9241   909
23.9341   938
23.9441   903
23.9541   851
23.9641   894
23.9741   874
23.9841   850
23.9941   913
24.0041   875
24.0141   877
24.0241   901
24.0341   902
24.0441   850
24.0541   893
24.0641   853
24.0741   858
24.0841   926
24.0941   793
24.1041   809
24.1141   829
24.1241   827
24.1341   889
24.1441   876
24.1541   872
24.1641   877
24.1741   881
24.1841   860
24.1941   870
24.2041   888
24.2141   859
24.2241   851
24.2341   918
24.2441   882
24.2541   845
24.2641   873
24.2741   855
24.2841   826
24.2941   866
24.3041   890
24.3141   861
24.3241   879
24.3341   903
24.3441   861
24.3541   899
24.3641   866
24.3741   885
24.3841   842
24.3941   793
24.4041   809
24.4141   824
24.4241   844
24.4341   876
24.4441   858
24.4541   864
24.4641   851
24.4741   883
24.4841   831
24.4941   818
24.5041   840
24.5141   847
24.5241   857
24.5341   818
24.5441   823
24.5541   813
24.5641   844
24.5741   845
24.5841   807
24.5941   785
24.6041   821
24.6141   869
24.6241   817
24.6341   775
24.6441   812
24.6541   860
24.6641   859
24.6741   819
24.6841   810
24.6941   834
24.7041   819
24.7141   790
24.7241   795
24.7341   804
24.7441   867
24.7541   777
24.7641   809
24.7741   842
24.7841   789
24.7941   848
24.8041   831
24.8141   882
24.8241   826
24.8341   802
24.8441   828
24.8541   880
24.8641   843
24.8741   846
24.8841   838
24.8941   826
24.9041   870
24.9141   798
24.9241   835
24.9341   812
24.9441   825
24.9541   839
24.9641   834
24.9741   754
24.9841   807
24.9941   822
25.0041   826
25.0141   886
25.0241   781
25.0341   852
25.0441   783
25.0541   840
25.0641   838
25.0741   871
25.0841   807
25.0941   868
25.1041   831
25.1141   812
25.1241   794
25.1341   786
25.1441   838
25.1541   863
25.1641   856
25.1741   848
25.1841   835
25.1941   748
25.2041   790
25.2141   816
25.2241   826
25.2341   871
25.2441   838
25.2541   795
25.2641   866
25.2741   914
25.2841   898
25.2941   821
25.3041   828
25.3141   798
25.3241   797
25.3341   860
25.3441   778
25.3541   798
25.3641   810
25.3741   832
25.3841   846
25.3941   777
25.4041   790
25.4141   799
25.4241   812
25.4341   786
25.4441   776
25.4541   814
25.4641   843
25.4741   814
25.4841   819
25.4941   780
25.5041   820
25.5141   774
25.5241   784
25.5341   740
25.5441   717
25.5541   770
25.5641   723
25.5741   750
25.5841   775
25.5941   791
25.6041   758
25.6141   815
25.6241   759
25.6341   789
25.6441   819
25.6541   758
25.6641   757
25.6741   764
25.6841   743
25.6941   765
25.7041   787
25.7141   812
25.7241   783
25.7341   799
25.7441   776
25.7541   783
25.7641   753
25.7741   756
25.7841   745
25.7941   763
25.8041   754
25.8141   748
25.8241   769
25.8341   731
25.8441   784
25.8541   741
25.8641   750
25.8741   790
25.8841   738
25.8941   726
25.9041   782
25.9141   760
25.9241   752
25.9341   747
25.9441   746
25.9541   761
25.9641   757
25.9741   754
25.9841   781
25.9941   786
26.0041   774
26.0141   757
26.0241   759
26.0341   749
26.0441   750
26.0541   755
26.0641   764
26.0741   755
26.0841   719
26.0941   714
26.1041   786
26.1141   745
26.1241   759
26.1341   759
26.1441   739
26.1541   781
26.1641   742
26.1741   761
26.1841   703
26.1941   725
26.2041   754
26.2141   716
26.2241   696
26.2341   731
26.2441   742
26.2541   738
26.2641   761
26.2741   741
26.2841   716
26.2941   710
26.3041   722
26.3141   737
26.3241   748
26.3341   800
26.3441   722
26.3541   754
26.3641   726
26.3741   759
26.3841   705
26.3941   718
26.4041   744
26.4141   768
26.4241   719
26.4341   708
26.4441   731
26.4541   704
26.4641   737
26.4741   727
26.4841   760
26.4941   746
26.5041   714
26.5141   712
26.5241   774
26.5341   712
26.5441   720
26.5541   753
26.5641   742
26.5741   701
26.5841   694
26.5941   694
26.6041   675
26.6141   736
26.6241   671
26.6341   692
26.6441   727
26.6541   708
26.6641   703
26.6741   686
26.6841   719
26.6941   742
26.7041   702
26.7141   719
26.7241   708
26.7341   702
26.7441   690
26.7541   655
26.7641   667
26.7741   689
26.7841   678
26.7941   704
26.8041   702
26.8141   698
26.8241   725
26.8341   676
26.8441   707
26.8541   669
26.8641   658
26.8741   682
26.8841   685
26.8941   674
26.9041   684
26.9141   660
26.9241   683
26.9341   677
26.9441   689
26.9541   686
26.9641   672
26.9741   675
26.9841   662
26.9941   696
27.0041   688
27.0141   648
27.0241   641
27.0341   641
27.0441   694
27.0541   717
27.0641   665
27.0741   687
27.0841   711
27.0941   653
27.1041   669
27.1141   652
27.1241   657
27.1341   646
27.1441   705
27.1541   689
27.1641   658
27.1741   692
27.1841   693
27.1941   685
27.2041   650
27.2141   661
27.2241   669
27.2341   644
27.2441   628
27.2541   639
27.2641   677
27.2741   674
27.2841   666
27.2941   660
27.3041   638
27.3141   663
27.3241   660
27.3341   663
27.3441   644
27.3541   669
27.3641   696
27.3741   681
27.3841   634
27.3941   630
27.4041   701
27.4141   665
27.4241   668
27.4341   624
27.4441   682
27.4541   691
27.4641   694
27.4741   672
27.4841   634
27.4941   645
27.5041   615
27.5141   624
27.5241   630
27.5341   663
27.5441   684
27.5541   678
27.5641   681
27.5741   657
27.5841   631
27.5941   621
27.6041   628
27.6141   671
27.6241   638
27.6341   633
27.6441   634
27.6541   638
27.6641   594
27.6741   641
27.6841   671
27.6941   650
27.7041   626
27.7141   641
27.7241   669
27.7341   627
27.7441   622
27.7541   626
27.7641   583
27.7741   628
27.7841   602
27.7941   609
27.8041   627
27.8141   646
27.8241   660
27.8341   614
27.8441   606
27.8541   607
27.8641   606
27.8741   633
27.8841   613
27.8941   638
27.9041   652
27.9141   617
27.9241   608
27.9341   648
27.9441   635
27.9541   631
27.9641   624
27.9741   609
27.9841   645
27.9941   603
28.0041   631
28.0141   584
28.0241   602
28.0341   598
28.0441   578
28.0541   589
28.0641   602
28.0741   600
28.0841   611
28.0941   588
28.1041   602
28.1141   614
28.1241   614
28.1341   594
28.1441   608
28.1541   615
28.1641   629
28.1741   605
28.1841   590
28.1941   592
28.2041   570
28.2141   629
28.2241   579
28.2341   601
28.2441   597
28.2541   639
28.2641   605
28.2741   598
28.2841   589
28.2941   592
28.3041   624
28.3141   605
28.3241   567
28.3341   631
28.3441   623
28.3541   597
28.3641   621
28.3741   574
28.3841   566
28.3941   588
28.4041   576
28.4141   567
28.4241   611
28.4341   617
28.4441   565
28.4541   565
28.4641   592
28.4741   579
28.4841   577
28.4941   566
28.5041   565
28.5141   579
28.5241   594
28.5341   596
28.5441   588
28.5541   573
28.5641   583
28.5741   582
28.5841   613
28.5941   574
28.6041   598
28.6141   560
28.6241   579
28.6341   612
28.6441   586
28.6541   594
28.6641   585
28.6741   590
28.6841   580
28.6941   605
28.7041   551
28.7141   565
28.7241   576
28.7341   569
28.7441   573
28.7541   523
28.7641   549
28.7741   569
28.7841   583
28.7941   554
28.8041   543
28.8141   559
28.8241   579
28.8341   568
28.8441   579
28.8541   549
28.8641   564
28.8741   565
28.8841   543
28.8941   607
28.9041   545
28.9141   503
28.9241   522
28.9341   513
28.9441   537
28.9541   568
28.9641   540
28.9741   545
28.9841   543
28.9941   552
29.0041   576
29.0141   524
29.0241   596
29.0341   554
29.0441   527
29.0541   526
29.0641   498
29.0741   538
29.0841   508
29.0941   506
29.1041   513
29.1141   563
29.1241   540
29.1341   523
29.1441   556
29.1541   520
29.1641   548
29.1741   559
29.1841   523
29.1941   527
29.2041   518
29.2141   518
29.2241   520
29.2341   526
29.2441   511
29.2541   535
29.2641   510
29.2741   493
29.2841   513
29.2941   516
29.3041   545
29.3141   498
29.3241   514
29.3341   511
29.3441   520
29.3541   507
29.3641   513
29.3741   559
29.3841   560
29.3941   503
29.4041   528
29.4141   493
29.4241   491
29.4341   560
29.4441   505
29.4541   506
29.4641   537
29.4741   513
29.4841   513
29.4941   518
29.5041   487
29.5141   517
29.5241   472
29.5341   502
29.5441   491
29.5541   509
29.5641   496
29.5741   487
29.5841   503
29.5941   485
29.6041   498
29.6141   495
29.6241   492
29.6341   521
29.6441   496
29.6541   483
29.6641   509
29.6741   534
29.6841   514
29.6941   520
29.7041   483
29.7141   473
29.7241   460
29.7341   486
29.7441   506
29.7541   493
29.7641   458
29.7741   511
29.7841   506
29.7941   498
29.8041   495
29.8141   470
29.8241   511
29.8341   506
29.8441   443
29.8541   514
29.8641   495
29.8741   489
29.8841   464
29.8941   451
29.9041   486
29.9141   486
29.9241   494
29.9341   455
29.9441   464
29.9541   461
29.9641   456
29.9741   463
29.9841   471
29.9941   467
30.0041   468
30.0141   464
30.0241   466
30.0341   482
30.0441   503
30.0541   490
30.0641   490
30.0741   461
30.0841   476
30.0941   501
30.1041   445
30.1141   473
30.1241   464
30.1341   466
30.1441   468
30.1541   483
30.1641   459
30.1741   423
30.1841   493
30.1941   507
30.2041   452
30.2141   472
30.2241   462
30.2341   432
30.2441   456
30.2541   464
30.2641   472
30.2741   480
30.2841   464
30.2941   463
30.3041   487
30.3141   470
30.3241   435
30.3341   441
30.3441   426
30.3541   500
30.3641   420
30.3741   448
30.3841   445
30.3941   467
30.4041   425
30.4141   473
30.4241   441
30.4341   423
30.4441   425
30.4541   433
30.4641   434
30.4741   435
30.4841   441
30.4941   453
30.5041   461
30.5141   449
30.5241   451
30.5341   403
30.5441   419
30.5541   468
30.5641   445
30.5741   439
30.5841   435
30.5941   471
30.6041   445
30.6141   442
30.6241   431
30.6341   423
30.6441   438
30.6541   442
30.6641   417
30.6741   452
30.6841   388
30.6941   402
30.7041   438
30.7141   422
30.7241   409
30.7341   384
30.7441   377
30.7541   396
30.7641   417
30.7741   409
30.7841   417
30.7941   429
30.8041   421
30.8141   405
30.8241   454
30.8341   435
30.8441   422
30.8541   397
30.8641   426
30.8741   387
30.8841   414
30.8941   415
30.9041   436
30.9141   421
30.9241   428
30.9341   412
30.9441   416
30.9541   443
30.9641   410
30.9741   381
30.9841   424
30.9941   448
31.0041   421
31.0141   394
31.0241   398
31.0341   396
31.0441   391
31.0541   450
31.0641   400
31.0741   427
31.0841   392
31.0941   387
31.1041   422
31.1141   385
31.1241   413
31.1341   396
31.1441   426
31.1541   381
31.1641   416
31.1741   407
31.1841   438
31.1941   395
31.2041   412
31.2141   407
31.2241   387
31.2341   409
31.2441   393
31.2541   376
31.2641   380
31.2741   380
31.2841   400
31.2941   412
31.3041   403
31.3141   407
31.3241   362
31.3341   385
31.3441   383
31.3541   394
31.3641   400
31.3741   363
31.3841   362
31.3941   380
31.4041   374
31.4141   369
31.4241   402
31.4341   409
31.4441   379
31.4541   368
31.4641   381
31.4741   339
31.4841   380
31.4941   359
31.5041   390
31.5141   396
31.5241   351
31.5341   391
31.5441   377
31.5541   382
31.5641   355
31.5741   373
31.5841   392
31.5941   387
31.6041   394
31.6141   408
31.6241   410
31.6341   375
31.6441   377
31.6541   384
31.6641   376
31.6741   374
31.6841   370
31.6941   374
31.7041   408
31.7141   397
31.7241   448
31.7341   415
31.7441   391
31.7541   406
31.7641   388
31.7741   388
31.7841   391
31.7941   396
31.8041   405
31.8141   389
31.8241   370
31.8341   390
31.8441   411
31.8541   395
31.8641   402
31.8741   399
31.8841   392
31.8941   335
31.9041   388
31.9141   394
31.9241   414
31.9341   392
31.9441   384
31.9541   394
31.9641   375
31.9741   382
31.9841   389
31.9941   392
32.0041   401
32.0141   396
32.0241   416
32.0341   382
32.0441   388
32.0541   379
32.0641   426
32.0741   374
32.0841   374
32.0941   358
32.1041   412
32.1141   401
32.1241   416
32.1341   379
32.1441   370
32.1541   389
32.1641   379
32.1741   388
32.1841   403
32.1941   372
32.2041   378
32.2141   406
32.2241   389
32.2341   393
32.2441   341
32.2541   365
32.2641   359
32.2741   338
32.2841   371
32.2941   373
32.3041   360
32.3141   377
32.3241   349
32.3341   369
32.3441   353
32.3541   373
32.3641   393
32.3741   345
32.3841   346
32.3941   319
32.4041   339
32.4141   337
32.4241   313
32.4341   344
32.4441   315
32.4541   348
32.4641   320
32.4741   306
32.4841   320
32.4941   276
32.5041   343
32.5141   329
32.5241   315
32.5341   340
32.5441   313
32.5541   308
32.5641   318
32.5741   316
32.5841   339
32.5941   348
32.6041   319
32.6141   333
32.6241   300
32.6341   342
32.6441   325
32.6541   321
32.6641   298
32.6741   293
32.6841   296
32.6941   304
32.7041   304
32.7141   295
32.7241   310
32.7341   326
32.7441   313
32.7541   318
32.7641   306
32.7741   319
32.7841   317
32.7941   327
32.8041   331
32.8141   323
32.8241   315
32.8341   323
32.8441   318
32.8541   313
32.8641   329
32.8741   290
32.8841   334
32.8941   310
32.9041   327
32.9141   321
32.9241   296
32.9341   275
32.9441   289
32.9541   309
32.9641   337
32.9741   293
32.9841   283
32.9941   324
33.0041   319
33.0141   321
33.0241   321
33.0341   283
33.0441   293
33.0541   299
33.0641   295
33.0741   291
33.0841   296
33.0941   263
33.1041   313
33.1141   288
33.1241   296
33.1341   273
33.1441   273
33.1541   298
33.1641   306
33.1741   297
33.1841   291
33.1941   292
33.2041   290
33.2141   277
33.2241   317
33.2341   286
33.2441   290
33.2541   295
33.2641   306
33.2741   288
33.2841   275
33.2941   274
33.3041   288
33.3141   277
33.3241   276
33.3341   307
33.3441   301
33.3541   279
33.3641   290
33.3741   278
33.3841   265
33.3941   278
33.4041   279
33.4141   288
33.4241   298
33.4341   258
33.4441   263
33.4541   271
33.4641   308
33.4741   262
33.4841   274
33.4941   261
33.5041   281
33.5141   282
33.5241   262
33.5341   264
33.5441   261
33.5541   271
33.5641   276
33.5741   296
33.5841   253
33.5941   276
33.6041   266
33.6141   264
33.6241   255
33.6341   274
33.6441   276
33.6541   263
33.6641   258
33.6741   266
33.6841   260
33.6941   273
33.7041   263
33.7141   249
33.7241   242
33.7341   270
33.7441   231
33.7541   247
33.7641   265
33.7741   253
33.7841   262
33.7941   264
33.8041   276
33.8141   247
33.8241   267
33.8341   241
33.8441   279
33.8541   223
33.8641   253
33.8741   251
33.8841   249
33.8941   226
33.9041   229
33.9141   229
33.9241   222
33.9341   260
33.9441   251
33.9541   234
33.9641   271
33.9741   232
33.9841   251
33.9941   241
34.0041   277
34.0141   256
34.0241   252
34.0341   245
34.0441   233
34.0541   268
34.0641   233
34.0741   255
34.0841   246
34.0941   219
34.1041   228
34.1141   232
34.1241   228
34.1341   251
34.1441   227
34.1541   256
34.1641   277
34.1741   254
34.1841   225
34.1941   226
34.2041   239
34.2141   249
34.2241   262
34.2341   218
34.2441   219
34.2541   255
34.2641   232
34.2741   245
34.2841   223
34.2941   222
34.3041   237
34.3141   214
34.3241   230
34.3341   225
34.3441   220
34.3541   236
34.3641   223
34.3741   201
34.3841   226
34.3941   246
34.4041   256
34.4141   208
34.4241   244
34.4341   224
34.4441   235
34.4541   222
34.4641   213
34.4741   249
34.4841   238
34.4941   216
34.5041   223
34.5141   210
34.5241   215
34.5341   224
34.5441   217
34.5541   223
34.5641   232
34.5741   210
34.5841   219
34.5941   258
34.6041   227
34.6141   193
34.6241   226
34.6341   220
34.6441   232
34.6541   203
34.6641   232
34.6741   210
34.6841   228
34.6941   199
34.7041   226
34.7141   198
34.7241   232
34.7341   218
34.7441   229
34.7541   221
34.7641   233
34.7741   224
34.7841   213
34.7941   190
34.8041   180
34.8141   227
34.8241   223
34.8341   243
34.8441   233
34.8541   223
34.8641   219
34.8741   213
34.8841   206
34.8941   207
34.9041   224
34.9141   230
34.9241   229
34.9341   218
34.9441   200
34.9541   214
34.9641   199
34.9741   191
34.9841   198
34.9941   191
35.0041   203
35.0141   203
35.0241   200
35.0341   213
35.0441   198
35.0541   184
35.0641   203
35.0741   198
35.0841   165
35.0941   180
35.1041   224
35.1141   191
35.1241   204
35.1341   221
35.1441   207
35.1541   197
35.1641   194
35.1741   206
35.1841   182
35.1941   192
35.2041   227
35.2141   177
35.2241   202
35.2341   192
35.2441   173
35.2541   198
35.2641   193
35.2741   185
35.2841   191
35.2941   194
35.3041   208
35.3141   217
35.3241   175
35.3341   188
35.3441   212
35.3541   200
35.3641   179
35.3741   193
35.3841   193
35.3941   175
35.4041   180
35.4141   217
35.4241   197
35.4341   208
35.4441   193
35.4541   194
35.4641   190
35.4741   173
35.4841   196
35.4941   192
35.5041   219
35.5141   182
35.5241   190
35.5341   196
35.5441   187
35.5541   191
35.5641   189
35.5741   180
35.5841   184
35.5941   210
35.6041   185
35.6141   172
35.6241   157
35.6341   180
35.6441   207
35.6541   174
35.6641   176
35.6741   200
35.6841   160
35.6941   188
35.7041   163
35.7141   167
35.7241   193
35.7341   178
35.7441   174
35.7541   189
35.7641   198
35.7741   173
35.7841   169
35.7941   169
35.8041   167
35.8141   179
35.8241   157
35.8341   202
35.8441   199
35.8541   160
35.8641   171
35.8741   180
35.8841   179
35.8941   154
35.9041   186
35.9141   173
35.9241   182
35.9341   166
35.9441   168
35.9541   176
35.9641   156
35.9741   162
35.9841   166
35.9941   170
36.0041   183
36.0141   146
36.0241   150
36.0341   165
36.0441   177
36.0541   159
36.0641   173
36.0741   160
36.0841   155
36.0941   182
36.1041   159
36.1141   167
36.1241   167
36.1341   164
36.1441   175
36.1541   158
36.1641   160
36.1741   141
36.1841   158
36.1941   152
36.2041   141
36.2141   170
36.2241   161
36.2341   154
36.2441   161
36.2541   167
36.2641   171
36.2741   179
36.2841   179
36.2941   154
36.3041   181
36.3141   178
36.3241   167
36.3341   174
36.3441   158
36.3541   155
36.3641   165
36.3741   151
36.3841   160
36.3941   163
36.4041   161
36.4141   156
36.4241   157
36.4341   189
36.4441   156
36.4541   170
36.4641   164
36.4741   131
36.4841   177
36.4941   141
36.5041   162
36.5141   181
36.5241   172
36.5341   155
36.5441   167
36.5541   150
36.5641   133
36.5741   152
36.5841   142
36.5941   151
36.6041   157
36.6141   147
36.6241   148
36.6341   130
36.6441   165
36.6541   160
36.6641   137
36.6741   155
36.6841   139
36.6941   152
36.7041   137
36.7141   143
36.7241   126
36.7341   140
36.7441   151
36.7541   152
36.7641   127
36.7741   143
36.7841   154
36.7941   129
36.8041   139
36.8141   149
36.8241   145
36.8341   127
36.8441   133
36.8541   143
36.8641   133
36.8741   135
36.8841   115
36.8941   144
36.9041   145
36.9141   132
36.9241   147
36.9341   127
36.9441   126
36.9541   121
36.9641   124
36.9741   140
36.9841   152
36.9941   143
37.0041   127
37.0141   124
37.0241   130
37.0341   134
37.0441   142
37.0541   130
37.0641   111
37.0741   144
37.0841   131
37.0941   153
37.1041   122
37.1141   115
37.1241   129
37.1341   126
37.1441   140
37.1541   134
37.1641   126
37.1741   126
37.1841   132
37.1941   124
37.2041   130
37.2141   133
37.2241   139
37.2341   123
37.2441   148
37.2541   107
37.2641   139
37.2741   131
37.2841   112
37.2941   128
37.3041   128
37.3141   143
37.3241   138
37.3341   134
37.3441   137
37.3541   120
37.3641   106
37.3741   133
37.3841   119
37.3941   111
37.4041   126
37.4141   126
37.4241   112
37.4341   124
37.4441   119
37.4541   118
37.4641   113
37.4741   116
37.4841   122
37.4941   118
37.5041   109
37.5141   120
37.5241   115
37.5341   147
37.5441    97
37.5541   119
37.5641   114
37.5741   124
37.5841   119
37.5941   152
37.6041   107
37.6141   113
37.6241   102
37.6341   108
37.6441   118
37.6541   107
37.6641   120
37.6741   109
37.6841   118
37.6941   115
37.7041   115
37.7141   118
37.7241   124
37.7341   115
37.7441   125
37.7541   113
37.7641   117
37.7741    95
37.7841   101
37.7941   108
37.8041    96
37.8141    94
37.8241   124
37.8341   116
37.8441   110
37.8541   111
37.8641   101
37.8741    98
37.8841   129
37.8941   118
37.9041   109
37.9141    93
37.9241    99
37.9341    90
37.9441   109
37.9541   103
37.9641    73
37.9741    96
37.9841   107
37.9941   110
38.0041   103
38.0141   124
38.0241   114
38.0341   104
38.0441   114
38.0541    82
38.0641   102
38.0741    97
38.0841    98
38.0941    93
38.1041   100
38.1141    97
38.1241   106
38.1341   101
38.1441   108
38.1541    82
38.1641    99
38.1741   107
38.1841   101
38.1941    93
38.2041    93
38.2141    97
38.2241   102
38.2341   115
38.2441    73
38.2541   106
38.2641    73
38.2741    92
38.2841    77
38.2941   102
38.3041   109
38.3141    92
38.3241    97
38.3341    92
38.3441    99
38.3541   104
38.3641    90
38.3741   103
38.3841    94
38.3941    92
38.4041    94
38.4141    89
38.4241    88
38.4341    90
38.4441    99
38.4541    82
38.4641    93
38.4741   101
38.4841    83
38.4941    95
38.5041    87
38.5141    93
38.5241   106
38.5341    82
38.5441   103
38.5541    94
38.5641    89
38.5741    95
38.5841    78
38.5941    84
38.6041    75
38.6141    82
38.6241    79
38.6341    92
38.6441    89
38.6541    85
38.6641    93
38.6741    85
38.6841    74
38.6941    79
38.7041    96
38.7141    76
38.7241    87
38.7341    93
38.7441    79
38.7541    76
38.7641    65
38.7741    76
38.7841    86
38.7941    92
38.8041    85
38.8141    67
38.8241    91
38.8341    84
38.8441    86
38.8541    78
38.8641    75
38.8741    78
38.8841    74
38.8941    67
38.9041    89
38.9141    73
38.9241    80
38.9341    89
38.9441    84
38.9541    81
38.9641    96
38.9741    64
38.9841    77
38.9941    86
39.0041    91
39.0141    86
39.0241    84
39.0341    80
39.0441    72
39.0541    88
39.0641    77
39.0741    78
39.0841    74
39.0941    76
39.1041    79
39.1141    69
39.1241    64
39.1341    69
39.1441    72
39.1541    66
39.1641    75
39.1741    55
39.1841    71
39.1941    61
39.2041    59
39.2141    75
39.2241    72
39.2341    64
39.2441    69
39.2541    70
39.2641    76
39.2741    70
39.2841    74
39.2941    72
39.3041    67
39.3141    82
39.3241    65
39.3341    81
39.3441    66
39.3541    69
39.3641    72
39.3741    71
39.3841    64
39.3941    58
39.4041    57
39.4141    66
39.4241    72
39.4341    60
39.4441    71
39.4541    57
39.4641    54
39.4741    63
39.4841    71
39.4941    61
39.5041    76
39.5141    68
39.5241    44
39.5341    63
39.5441    67
39.5541    57
39.5641    61
39.5741    59
39.5841    52
39.5941    72
39.6041    73
39.6141    62
39.6241    68
39.6341    56
39.6441    68
39.6541    55
39.6641    49
39.6741    71
39.6841    58
39.6941    63
39.7041    67
39.7141    61
39.7241    74
39.7341    66
39.7441    68
39.7541    58
39.7641    54
39.7741    55
39.7841    60
39.7941    65
39.8041    67
39.8141    55
39.8241    53
39.8341    58
39.8441    64
39.8541    48
39.8641    55
39.8741    58
39.8841    61
39.8941    63
39.9041    52
39.9141    56
39.9241    53
39.9341    58
39.9441    56
39.9541    53
39.9641    44
39.9741    52
39.9841    54
39.9941    60
