Bruker Nano GmbH Berlin, Germany
Esprit 1.9

Date: 4/1/2021 4:52:42 PM
Real time: 29668
Life time: 27953
Pulse density: 83201


Detector type: XFlash 430
Window type: Custom type
Detector thickness: 0.45
Si dead layer:0.029

Calibration, lin.: 10
Calibration, abs.: -955.9
Mn FWHM: 137.05
Fano factor: 0.121
Channels: 4096

Energy Counts
-0.9559     0
-0.9459     0
-0.9359     0
-0.9259     0
-0.9159     0
-0.9059     0
-0.8959     0
-0.8859     0
-0.8759     0
-0.8659     0
-0.8559     0
-0.8459     0
-0.8359     0
-0.8259     0
-0.8159     0
-0.8059     0
-0.7959     0
-0.7859     0
-0.7759     0
-0.7659     0
-0.7559     0
-0.7459     0
-0.7359     0
-0.7259     0
-0.7159     0
-0.7059     0
-0.6959     0
-0.6859     0
-0.6759     0
-0.6659     0
-0.6559     0
-0.6459     0
-0.6359     0
-0.6259     0
-0.6159     0
-0.6059     0
-0.5959     0
-0.5859     0
-0.5759     0
-0.5659     0
-0.5559     0
-0.5459     0
-0.5359     0
-0.5259     0
-0.5159     0
-0.5059     0
-0.4959     0
-0.4859     0
-0.4759     0
-0.4659     0
-0.4559     0
-0.4459     0
-0.4359     0
-0.4259     0
-0.4159     0
-0.4059     0
-0.3959     0
-0.3859     0
-0.3759     0
-0.3659     0
-0.3559     0
-0.3459     0
-0.3359     0
-0.3259     0
-0.3159     0
-0.3059     0
-0.2959     0
-0.2859     0
-0.2759     0
-0.2659     0
-0.2559     0
-0.2459     0
-0.2359     0
-0.2259     0
-0.2159     0
-0.2059     0
-0.1959     0
-0.1859     0
-0.1759     0
-0.1659     0
-0.1559     0
-0.1459     1
-0.1359     0
-0.1259     0
-0.1159     4
-0.1059    13
-0.0959    84
-0.0859   304
-0.0759  1112
-0.0659  3177
-0.0559  8175
-0.0459 17884
-0.0359 33191
-0.0259 53486
-0.0159 73335
-0.0059 85833
 0.0041 85648
 0.0141 73957
 0.0241 54527
 0.0341 34584
 0.0441 18969
 0.0541  8763
 0.0641  3493
 0.0741  1221
 0.0841   375
 0.0941    94
 0.1041    35
 0.1141    12
 0.1241    10
 0.1341    14
 0.1441     8
 0.1541    13
 0.1641     8
 0.1741     6
 0.1841   263
 0.1941   489
 0.2041   414
 0.2141   445
 0.2241   442
 0.2341   468
 0.2441   499
 0.2541   439
 0.2641   433
 0.2741   455
 0.2841   480
 0.2941   459
 0.3041   448
 0.3141   459
 0.3241   439
 0.3341   437
 0.3441   452
 0.3541   422
 0.3641   444
 0.3741   424
 0.3841   409
 0.3941   407
 0.4041   415
 0.4141   423
 0.4241   424
 0.4341   421
 0.4441   404
 0.4541   393
 0.4641   409
 0.4741   419
 0.4841   395
 0.4941   368
 0.5041   368
 0.5141   371
 0.5241   383
 0.5341   393
 0.5441   383
 0.5541   357
 0.5641   350
 0.5741   354
 0.5841   365
 0.5941   351
 0.6041   373
 0.6141   368
 0.6241   364
 0.6341   373
 0.6441   363
 0.6541   350
 0.6641   375
 0.6741   376
 0.6841   371
 0.6941   361
 0.7041   342
 0.7141   328
 0.7241   327
 0.7341   333
 0.7441   343
 0.7541   336
 0.7641   327
 0.7741   345
 0.7841   342
 0.7941   302
 0.8041   326
 0.8141   334
 0.8241   341
 0.8341   325
 0.8441   318
 0.8541   320
 0.8641   333
 0.8741   326
 0.8841   323
 0.8941   331
 0.9041   312
 0.9141   337
 0.9241   334
 0.9341   312
 0.9441   327
 0.9541   321
 0.9641   314
 0.9741   310
 0.9841   305
 0.9941   301
 1.0041   307
 1.0141   309
 1.0241   303
 1.0341   307
 1.0441   258
 1.0541   282
 1.0641   314
 1.0741   326
 1.0841   292
 1.0941   268
 1.1041   283
 1.1141   312
 1.1241   274
 1.1341   287
 1.1441   287
 1.1541   278
 1.1641   283
 1.1741   279
 1.1841   293
 1.1941   250
 1.2041   280
 1.2141   294
 1.2241   273
 1.2341   274
 1.2441   306
 1.2541   289
 1.2641   268
 1.2741   265
 1.2841   287
 1.2941   279
 1.3041   284
 1.3141   278
 1.3241   279
 1.3341   257
 1.3441   298
 1.3541   258
 1.3641   242
 1.3741   236
 1.3841   277
 1.3941   264
 1.4041   271
 1.4141   280
 1.4241   296
 1.4341   260
 1.4441   261
 1.4541   250
 1.4641   244
 1.4741   287
 1.4841   251
 1.4941   275
 1.5041   256
 1.5141   281
 1.5241   284
 1.5341   276
 1.5441   262
 1.5541   299
 1.5641   267
 1.5741   279
 1.5841   270
 1.5941   261
 1.6041   255
 1.6141   232
 1.6241   223
 1.6341   271
 1.6441   275
 1.6541   304
 1.6641   354
 1.6741   496
 1.6841   562
 1.6941   671
 1.7041   828
 1.7141   926
 1.7241   991
 1.7341  1112
 1.7441  1092
 1.7541   990
 1.7641   946
 1.7741   807
 1.7841   674
 1.7941   572
 1.8041   504
 1.8141   423
 1.8241   376
 1.8341   348
 1.8441   327
 1.8541   328
 1.8641   299
 1.8741   314
 1.8841   296
 1.8941   259
 1.9041   246
 1.9141   244
 1.9241   264
 1.9341   275
 1.9441   298
 1.9541   308
 1.9641   299
 1.9741   286
 1.9841   307
 1.9941   339
 2.0041   327
 2.0141   341
 2.0241   330
 2.0341   322
 2.0441   285
 2.0541   276
 2.0641   290
 2.0741   279
 2.0841   265
 2.0941   248
 2.1041   252
 2.1141   238
 2.1241   233
 2.1341   261
 2.1441   230
 2.1541   210
 2.1641   229
 2.1741   249
 2.1841   226
 2.1941   233
 2.2041   244
 2.2141   237
 2.2241   242
 2.2341   240
 2.2441   227
 2.2541   243
 2.2641   206
 2.2741   250
 2.2841   238
 2.2941   207
 2.3041   223
 2.3141   217
 2.3241   241
 2.3341   252
 2.3441   227
 2.3541   238
 2.3641   198
 2.3741   218
 2.3841   211
 2.3941   215
 2.4041   211
 2.4141   174
 2.4241   204
 2.4341   239
 2.4441   206
 2.4541   210
 2.4641   235
 2.4741   194
 2.4841   217
 2.4941   200
 2.5041   197
 2.5141   193
 2.5241   194
 2.5341   225
 2.5441   211
 2.5541   204
 2.5641   189
 2.5741   199
 2.5841   206
 2.5941   177
 2.6041   209
 2.6141   203
 2.6241   200
 2.6341   225
 2.6441   208
 2.6541   186
 2.6641   213
 2.6741   199
 2.6841   209
 2.6941   187
 2.7041   178
 2.7141   215
 2.7241   180
 2.7341   195
 2.7441   183
 2.7541   174
 2.7641   170
 2.7741   200
 2.7841   199
 2.7941   192
 2.8041   212
 2.8141   200
 2.8241   196
 2.8341   222
 2.8441   182
 2.8541   229
 2.8641   188
 2.8741   188
 2.8841   195
 2.8941   193
 2.9041   218
 2.9141   165
 2.9241   184
 2.9341   189
 2.9441   180
 2.9541   185
 2.9641   185
 2.9741   195
 2.9841   177
 2.9941   174
 3.0041   190
 3.0141   168
 3.0241   172
 3.0341   172
 3.0441   186
 3.0541   167
 3.0641   153
 3.0741   178
 3.0841   177
 3.0941   154
 3.1041   162
 3.1141   184
 3.1241   149
 3.1341   169
 3.1441   175
 3.1541   159
 3.1641   153
 3.1741   152
 3.1841   187
 3.1941   161
 3.2041   147
 3.2141   177
 3.2241   154
 3.2341   179
 3.2441   176
 3.2541   183
 3.2641   195
 3.2741   214
 3.2841   236
 3.2941   215
 3.3041   220
 3.3141   242
 3.3241   252
 3.3341   233
 3.3441   220
 3.3541   202
 3.3641   205
 3.3741   179
 3.3841   153
 3.3941   172
 3.4041   156
 3.4141   156
 3.4241   131
 3.4341   159
 3.4441   143
 3.4541   159
 3.4641   151
 3.4741   157
 3.4841   149
 3.4941   143
 3.5041   172
 3.5141   157
 3.5241   163
 3.5341   180
 3.5441   190
 3.5541   209
 3.5641   257
 3.5741   311
 3.5841   389
 3.5941   481
 3.6041   585
 3.6141   754
 3.6241   960
 3.6341  1228
 3.6441  1537
 3.6541  1860
 3.6641  1993
 3.6741  2155
 3.6841  2247
 3.6941  2295
 3.7041  2203
 3.7141  2020
 3.7241  1827
 3.7341  1564
 3.7441  1272
 3.7541   992
 3.7641   780
 3.7741   578
 3.7841   435
 3.7941   352
 3.8041   264
 3.8141   205
 3.8241   154
 3.8341   160
 3.8441   132
 3.8541   133
 3.8641   124
 3.8741   138
 3.8841   161
 3.8941   141
 3.9041   184
 3.9141   178
 3.9241   201
 3.9341   236
 3.9441   283
 3.9541   277
 3.9641   300
 3.9741   346
 3.9841   389
 3.9941   416
 4.0041   400
 4.0141   423
 4.0241   457
 4.0341   389
 4.0441   359
 4.0541   362
 4.0641   277
 4.0741   268
 4.0841   233
 4.0941   171
 4.1041   185
 4.1141   151
 4.1241   138
 4.1341   116
 4.1441   134
 4.1541   113
 4.1641   122
 4.1741   107
 4.1841   118
 4.1941   105
 4.2041   105
 4.2141   113
 4.2241   120
 4.2341   104
 4.2441    99
 4.2541    97
 4.2641   103
 4.2741   113
 4.2841   128
 4.2941   108
 4.3041   103
 4.3141   114
 4.3241   113
 4.3341   140
 4.3441    99
 4.3541   118
 4.3641   110
 4.3741   112
 4.3841   123
 4.3941   110
 4.4041   128
 4.4141   145
 4.4241   183
 4.4341   178
 4.4441   195
 4.4541   207
 4.4641   211
 4.4741   239
 4.4841   231
 4.4941   272
 4.5041   274
 4.5141   291
 4.5241   290
 4.5341   251
 4.5441   248
 4.5541   225
 4.5641   196
 4.5741   183
 4.5841   174
 4.5941   150
 4.6041   161
 4.6141   136
 4.6241   146
 4.6341   136
 4.6441   158
 4.6541   123
 4.6641   129
 4.6741   130
 4.6841   131
 4.6941   113
 4.7041   123
 4.7141   103
 4.7241   122
 4.7341   124
 4.7441   113
 4.7541   110
 4.7641   127
 4.7741   105
 4.7841   108
 4.7941   107
 4.8041   127
 4.8141   112
 4.8241   132
 4.8341   125
 4.8441   146
 4.8541   146
 4.8641   136
 4.8741   155
 4.8841   156
 4.8941   134
 4.9041   161
 4.9141   155
 4.9241   148
 4.9341   142
 4.9441   140
 4.9541   168
 4.9641   130
 4.9741   138
 4.9841   134
 4.9941   151
 5.0041   155
 5.0141   146
 5.0241   140
 5.0341   153
 5.0441   135
 5.0541   135
 5.0641   127
 5.0741   124
 5.0841   125
 5.0941   122
 5.1041   129
 5.1141   135
 5.1241   129
 5.1341   138
 5.1441   131
 5.1541   129
 5.1641   129
 5.1741   130
 5.1841   128
 5.1941   137
 5.2041   125
 5.2141   130
 5.2241   136
 5.2341   145
 5.2441   134
 5.2541   144
 5.2641   130
 5.2741   144
 5.2841   123
 5.2941   138
 5.3041   144
 5.3141   123
 5.3241   108
 5.3341   138
 5.3441   135
 5.3541   129
 5.3641   155
 5.3741   144
 5.3841   142
 5.3941   154
 5.4041   164
 5.4141   145
 5.4241   154
 5.4341   144
 5.4441   154
 5.4541   133
 5.4641   151
 5.4741   150
 5.4841   158
 5.4941   140
 5.5041   134
 5.5141   133
 5.5241   123
 5.5341   155
 5.5441   127
 5.5541   141
 5.5641   145
 5.5741   141
 5.5841   133
 5.5941   126
 5.6041   114
 5.6141   132
 5.6241   136
 5.6341   124
 5.6441   150
 5.6541   150
 5.6641   149
 5.6741   134
 5.6841   147
 5.6941   150
 5.7041   135
 5.7141   138
 5.7241   131
 5.7341   162
 5.7441   143
 5.7541   159
 5.7641   163
 5.7741   172
 5.7841   163
 5.7941   178
 5.8041   193
 5.8141   224
 5.8241   216
 5.8341   218
 5.8441   283
 5.8541   274
 5.8641   309
 5.8741   316
 5.8841   319
 5.8941   390
 5.9041   321
 5.9141   288
 5.9241   289
 5.9341   280
 5.9441   290
 5.9541   266
 5.9641   238
 5.9741   219
 5.9841   190
 5.9941   184
 6.0041   182
 6.0141   171
 6.0241   195
 6.0341   167
 6.0441   181
 6.0541   175
 6.0641   184
 6.0741   155
 6.0841   154
 6.0941   190
 6.1041   158
 6.1141   169
 6.1241   166
 6.1341   178
 6.1441   169
 6.1541   180
 6.1641   198
 6.1741   227
 6.1841   198
 6.1941   231
 6.2041   260
 6.2141   290
 6.2241   368
 6.2341   464
 6.2441   630
 6.2541   784
 6.2641  1106
 6.2741  1497
 6.2841  1966
 6.2941  2521
 6.3041  3237
 6.3141  4191
 6.3241  5084
 6.3341  6027
 6.3441  7042
 6.3541  7998
 6.3641  8931
 6.3741  9777
 6.3841 10129
 6.3941 10449
 6.4041 10446
 6.4141 10101
 6.4241  9303
 6.4341  8580
 6.4441  7839
 6.4541  6755
 6.4641  5753
 6.4741  4746
 6.4841  3828
 6.4941  2979
 6.5041  2321
 6.5141  1717
 6.5241  1432
 6.5341   999
 6.5441   705
 6.5541   547
 6.5641   425
 6.5741   324
 6.5841   277
 6.5941   277
 6.6041   238
 6.6141   230
 6.6241   180
 6.6341   208
 6.6441   223
 6.6541   197
 6.6641   202
 6.6741   223
 6.6841   201
 6.6941   191
 6.7041   192
 6.7141   196
 6.7241   218
 6.7341   207
 6.7441   212
 6.7541   203
 6.7641   236
 6.7741   218
 6.7841   220
 6.7941   201
 6.8041   230
 6.8141   243
 6.8241   245
 6.8341   229
 6.8441   225
 6.8541   251
 6.8641   278
 6.8741   270
 6.8841   269
 6.8941   337
 6.9041   338
 6.9141   400
 6.9241   473
 6.9341   544
 6.9441   664
 6.9541   697
 6.9641   843
 6.9741  1004
 6.9841  1151
 6.9941  1312
 7.0041  1500
 7.0141  1607
 7.0241  1746
 7.0341  1809
 7.0441  1859
 7.0541  1811
 7.0641  1854
 7.0741  1851
 7.0841  1751
 7.0941  1639
 7.1041  1387
 7.1141  1364
 7.1241  1126
 7.1341   986
 7.1441   850
 7.1541   731
 7.1641   604
 7.1741   504
 7.1841   449
 7.1941   402
 7.2041   409
 7.2141   325
 7.2241   323
 7.2341   320
 7.2441   278
 7.2541   289
 7.2641   306
 7.2741   296
 7.2841   306
 7.2941   316
 7.3041   323
 7.3141   333
 7.3241   374
 7.3341   374
 7.3441   356
 7.3541   366
 7.3641   372
 7.3741   411
 7.3841   360
 7.3941   407
 7.4041   432
 7.4141   394
 7.4241   365
 7.4341   372
 7.4441   372
 7.4541   331
 7.4641   307
 7.4741   333
 7.4841   304
 7.4941   345
 7.5041   302
 7.5141   288
 7.5241   286
 7.5341   297
 7.5441   295
 7.5541   313
 7.5641   260
 7.5741   284
 7.5841   318
 7.5941   307
 7.6041   280
 7.6141   311
 7.6241   341
 7.6341   318
 7.6441   302
 7.6541   292
 7.6641   311
 7.6741   348
 7.6841   350
 7.6941   313
 7.7041   322
 7.7141   353
 7.7241   350
 7.7341   365
 7.7441   346
 7.7541   365
 7.7641   362
 7.7741   377
 7.7841   387
 7.7941   404
 7.8041   399
 7.8141   437
 7.8241   436
 7.8341   403
 7.8441   441
 7.8541   478
 7.8641   462
 7.8741   475
 7.8841   466
 7.8941   523
 7.9041   507
 7.9141   504
 7.9241   558
 7.9341   574
 7.9441   561
 7.9541   683
 7.9641   708
 7.9741   801
 7.9841   855
 7.9941   943
 8.0041   919
 8.0141   970
 8.0241  1062
 8.0341  1108
 8.0441  1209
 8.0541  1269
 8.0641  1401
 8.0741  1471
 8.0841  1513
 8.0941  1633
 8.1041  1710
 8.1141  1782
 8.1241  1903
 8.1341  1907
 8.1441  2037
 8.1541  2093
 8.1641  2147
 8.1741  2222
 8.1841  2095
 8.1941  2168
 8.2041  2193
 8.2141  2267
 8.2241  2305
 8.2341  2304
 8.2441  2303
 8.2541  2407
 8.2641  2649
 8.2741  2759
 8.2841  2895
 8.2941  3184
 8.3041  3353
 8.3141  3605
 8.3241  4088
 8.3341  4232
 8.3441  4549
 8.3541  4824
 8.3641  5066
 8.3741  5249
 8.3841  5325
 8.3941  5411
 8.4041  5077
 8.4141  4962
 8.4241  4700
 8.4341  4396
 8.4441  3958
 8.4541  3621
 8.4641  3197
 8.4741  2704
 8.4841  2415
 8.4941  2013
 8.5041  1735
 8.5141  1450
 8.5241  1261
 8.5341  1079
 8.5441   868
 8.5541   834
 8.5641   760
 8.5741   656
 8.5841   660
 8.5941   593
 8.6041   580
 8.6141   599
 8.6241   598
 8.6341   595
 8.6441   610
 8.6541   602
 8.6641   571
 8.6741   543
 8.6841   566
 8.6941   583
 8.7041   596
 8.7141   569
 8.7241   548
 8.7341   547
 8.7441   605
 8.7541   584
 8.7641   545
 8.7741   548
 8.7841   512
 8.7941   520
 8.8041   506
 8.8141   561
 8.8241   522
 8.8341   537
 8.8441   526
 8.8541   514
 8.8641   506
 8.8741   533
 8.8841   553
 8.8941   515
 8.9041   554
 8.9141   543
 8.9241   520
 8.9341   568
 8.9441   593
 8.9541   589
 8.9641   561
 8.9741   598
 8.9841   606
 8.9941   585
 9.0041   577
 9.0141   621
 9.0241   631
 9.0341   584
 9.0441   637
 9.0541   634
 9.0641   719
 9.0741   679
 9.0841   729
 9.0941   766
 9.1041   802
 9.1141   809
 9.1241   786
 9.1341   872
 9.1441   881
 9.1541   913
 9.1641   960
 9.1741  1000
 9.1841  1048
 9.1941  1110
 9.2041  1188
 9.2141  1221
 9.2241  1287
 9.2341  1376
 9.2441  1405
 9.2541  1410
 9.2641  1454
 9.2741  1578
 9.2841  1677
 9.2941  1763
 9.3041  1748
 9.3141  1867
 9.3241  1847
 9.3341  1918
 9.3441  2024
 9.3541  2060
 9.3641  2089
 9.3741  2203
 9.3841  2194
 9.3941  2172
 9.4041  2282
 9.4141  2307
 9.4241  2352
 9.4341  2400
 9.4441  2348
 9.4541  2390
 9.4641  2450
 9.4741  2448
 9.4841  2443
 9.4941  2595
 9.5041  2627
 9.5141  2747
 9.5241  2897
 9.5341  2973
 9.5441  3102
 9.5541  3216
 9.5641  3468
 9.5741  3618
 9.5841  3765
 9.5941  4012
 9.6041  4294
 9.6141  4413
 9.6241  4681
 9.6341  4838
 9.6441  5002
 9.6541  5019
 9.6641  5114
 9.6741  5015
 9.6841  4994
 9.6941  4954
 9.7041  4668
 9.7141  4402
 9.7241  4092
 9.7341  3911
 9.7441  3585
 9.7541  3204
 9.7641  3037
 9.7741  2771
 9.7841  2561
 9.7941  2355
 9.8041  2248
 9.8141  2090
 9.8241  1995
 9.8341  1942
 9.8441  1883
 9.8541  1894
 9.8641  1846
 9.8741  1849
 9.8841  1822
 9.8941  1887
 9.9041  1904
 9.9141  1970
 9.9241  2019
 9.9341  2020
 9.9441  1953
 9.9541  1986
 9.9641  1991
 9.9741  1971
 9.9841  1893
 9.9941  1822
10.0041  1713
10.0141  1620
10.0241  1474
10.0341  1359
10.0441  1205
10.0541  1110
10.0641   976
10.0741   864
10.0841   815
10.0941   722
10.1041   669
10.1141   635
10.1241   598
10.1341   583
10.1441   510
10.1541   485
10.1641   452
10.1741   443
10.1841   428
10.1941   415
10.2041   397
10.2141   384
10.2241   341
10.2341   357
10.2441   367
10.2541   348
10.2641   333
10.2741   318
10.2841   298
10.2941   284
10.3041   296
10.3141   300
10.3241   299
10.3341   274
10.3441   256
10.3541   250
10.3641   292
10.3741   291
10.3841   284
10.3941   300
10.4041   276
10.4141   266
10.4241   286
10.4341   277
10.4441   283
10.4541   285
10.4641   277
10.4741   313
10.4841   299
10.4941   288
10.5041   327
10.5141   335
10.5241   307
10.5341   313
10.5441   303
10.5541   302
10.5641   319
10.5741   337
10.5841   317
10.5941   336
10.6041   319
10.6141   331
10.6241   345
10.6341   367
10.6441   357
10.6541   352
10.6641   344
10.6741   350
10.6841   353
10.6941   363
10.7041   379
10.7141   373
10.7241   393
10.7341   412
10.7441   375
10.7541   401
10.7641   383
10.7741   394
10.7841   400
10.7941   414
10.8041   445
10.8141   441
10.8241   437
10.8341   456
10.8441   450
10.8541   467
10.8641   470
10.8741   506
10.8841   494
10.8941   519
10.9041   516
10.9141   501
10.9241   519
10.9341   527
10.9441   512
10.9541   533
10.9641   528
10.9741   510
10.9841   482
10.9941   494
11.0041   488
11.0141   503
11.0241   490
11.0341   449
11.0441   434
11.0541   447
11.0641   448
11.0741   469
11.0841   448
11.0941   436
11.1041   465
11.1141   431
11.1241   439
11.1341   436
11.1441   477
11.1541   497
11.1641   490
11.1741   519
11.1841   506
11.1941   507
11.2041   562
11.2141   557
11.2241   595
11.2341   608
11.2441   647
11.2541   619
11.2641   608
11.2741   685
11.2841   667
11.2941   664
11.3041   653
11.3141   616
11.3241   590
11.3341   598
11.3441   534
11.3541   517
11.3641   500
11.3741   482
11.3841   454
11.3941   453
11.4041   416
11.4141   406
11.4241   398
11.4341   389
11.4441   357
11.4541   371
11.4641   361
11.4741   349
11.4841   329
11.4941   353
11.5041   331
11.5141   316
11.5241   334
11.5341   359
11.5441   365
11.5541   345
11.5641   342
11.5741   348
11.5841   321
11.5941   336
11.6041   373
11.6141   375
11.6241   361
11.6341   367
11.6441   370
11.6541   346
11.6641   336
11.6741   367
11.6841   334
11.6941   322
11.7041   317
11.7141   333
11.7241   315
11.7341   303
11.7441   274
11.7541   272
11.7641   276
11.7741   283
11.7841   290
11.7941   283
11.8041   275
11.8141   279
11.8241   248
11.8341   273
11.8441   284
11.8541   280
11.8641   265
11.8741   259
11.8841   272
11.8941   286
11.9041   271
11.9141   275
11.9241   268
11.9341   279
11.9441   272
11.9541   261
11.9641   265
11.9741   261
11.9841   262
11.9941   259
12.0041   261
12.0141   264
12.0241   268
12.0341   291
12.0441   289
12.0541   266
12.0641   249
12.0741   271
12.0841   280
12.0941   279
12.1041   267
12.1141   258
12.1241   259
12.1341   267
12.1441   256
12.1541   261
12.1641   263
12.1741   238
12.1841   256
12.1941   269
12.2041   257
12.2141   270
12.2241   271
12.2341   253
12.2441   240
12.2541   255
12.2641   270
12.2741   259
12.2841   258
12.2941   261
12.3041   267
12.3141   275
12.3241   259
12.3341   246
12.3441   276
12.3541   283
12.3641   279
12.3741   268
12.3841   255
12.3941   259
12.4041   265
12.4141   260
12.4241   263
12.4341   274
12.4441   286
12.4541   284
12.4641   276
12.4741   276
12.4841   278
12.4941   265
12.5041   269
12.5141   269
12.5241   262
12.5341   254
12.5441   266
12.5541   277
12.5641   283
12.5741   294
12.5841   286
12.5941   272
12.6041   282
12.6141   284
12.6241   274
12.6341   294
12.6441   289
12.6541   266
12.6641   308
12.6741   315
12.6841   286
12.6941   306
12.7041   315
12.7141   295
12.7241   290
12.7341   311
12.7441   294
12.7541   296
12.7641   285
12.7741   277
12.7841   295
12.7941   306
12.8041   288
12.8141   279
12.8241   274
12.8341   295
12.8441   304
12.8541   294
12.8641   273
12.8741   285
12.8841   321
12.8941   321
12.9041   310
12.9141   315
12.9241   309
12.9341   296
12.9441   293
12.9541   306
12.9641   315
12.9741   293
12.9841   308
12.9941   307
13.0041   305
13.0141   310
13.0241   319
13.0341   322
13.0441   306
13.0541   303
13.0641   324
13.0741   310
13.0841   306
13.0941   325
13.1041   308
13.1141   308
13.1241   332
13.1341   333
13.1441   323
13.1541   320
13.1641   335
13.1741   347
13.1841   361
13.1941   329
13.2041   316
13.2141   327
13.2241   317
13.2341   330
13.2441   347
13.2541   364
13.2641   370
13.2741   376
13.2841   357
13.2941   375
13.3041   398
13.3141   390
13.3241   372
13.3341   398
13.3441   421
13.3541   400
13.3641   404
13.3741   379
13.3841   390
13.3941   414
13.4041   430
13.4141   404
13.4241   385
13.4341   402
13.4441   401
13.4541   382
13.4641   357
13.4741   359
13.4841   362
13.4941   382
13.5041   403
13.5141   400
13.5241   368
13.5341   361
13.5441   377
13.5541   388
13.5641   351
13.5741   334
13.5841   367
13.5941   369
13.6041   354
13.6141   369
13.6241   380
13.6341   342
13.6441   347
13.6541   373
13.6641   364
13.6741   366
13.6841   390
13.6941   381
13.7041   365
13.7141   367
13.7241   362
13.7341   388
13.7441   391
13.7541   376
13.7641   376
13.7741   390
13.7841   378
13.7941   373
13.8041   384
13.8141   387
13.8241   399
13.8341   395
13.8441   391
13.8541   395
13.8641   403
13.8741   390
13.8841   398
13.8941   420
13.9041   408
13.9141   411
13.9241   423
13.9341   414
13.9441   407
13.9541   404
13.9641   420
13.9741   450
13.9841   452
13.9941   435
14.0041   456
14.0141   496
14.0241   492
14.0341   481
14.0441   481
14.0541   490
14.0641   504
14.0741   498
14.0841   495
14.0941   509
14.1041   513
14.1141   508
14.1241   497
14.1341   502
14.1441   540
14.1541   526
14.1641   523
14.1741   548
14.1841   529
14.1941   505
14.2041   503
14.2141   538
14.2241   541
14.2341   506
14.2441   467
14.2541   445
14.2641   462
14.2741   470
14.2841   475
14.2941   473
14.3041   474
14.3141   468
14.3241   448
14.3341   426
14.3441   441
14.3541   448
14.3641   441
14.3741   433
14.3841   454
14.3941   455
14.4041   436
14.4141   445
14.4241   443
14.4341   417
14.4441   435
14.4541   460
14.4641   450
14.4741   468
14.4841   458
14.4941   426
14.5041   449
14.5141   461
14.5241   451
14.5341   464
14.5441   466
14.5541   457
14.5641   463
14.5741   475
14.5841   499
14.5941   488
14.6041   450
14.6141   454
14.6241   464
14.6341   479
14.6441   461
14.6541   455
14.6641   447
14.6741   456
14.6841   482
14.6941   456
14.7041   443
14.7141   454
14.7241   464
14.7341   471
14.7441   482
14.7541   471
14.7641   482
14.7741   488
14.7841   491
14.7941   490
14.8041   471
14.8141   501
14.8241   516
14.8341   510
14.8441   485
14.8541   469
14.8641   483
14.8741   488
14.8841   488
14.8941   494
14.9041   485
14.9141   495
14.9241   512
14.9341   493
14.9441   472
14.9541   486
14.9641   513
14.9741   512
14.9841   513
14.9941   506
15.0041   487
15.0141   507
15.0241   530
15.0341   498
15.0441   470
15.0541   462
15.0641   482
15.0741   487
15.0841   510
15.0941   516
15.1041   531
15.1141   515
15.1241   493
15.1341   494
15.1441   484
15.1541   493
15.1641   500
15.1741   500
15.1841   504
15.1941   511
15.2041   496
15.2141   494
15.2241   509
15.2341   508
15.2441   522
15.2541   495
15.2641   491
15.2741   548
15.2841   541
15.2941   500
15.3041   498
15.3141   517
15.3241   490
15.3341   475
15.3441   492
15.3541   494
15.3641   508
15.3741   527
15.3841   539
15.3941   541
15.4041   528
15.4141   515
15.4241   522
15.4341   498
15.4441   522
15.4541   542
15.4641   513
15.4741   491
15.4841   530
15.4941   532
15.5041   540
15.5141   572
15.5241   545
15.5341   519
15.5441   528
15.5541   549
15.5641   561
15.5741   534
15.5841   535
15.5941   553
15.6041   569
15.6141   567
15.6241   572
15.6341   622
15.6441   661
15.6541   608
15.6641   613
15.6741   642
15.6841   669
15.6941   690
15.7041   665
15.7141   686
15.7241   674
15.7341   667
15.7441   681
15.7541   686
15.7641   666
15.7741   686
15.7841   698
15.7941   719
15.8041   703
15.8141   685
15.8241   714
15.8341   701
15.8441   666
15.8541   679
15.8641   646
15.8741   674
15.8841   667
15.8941   640
15.9041   612
15.9141   614
15.9241   594
15.9341   612
15.9441   613
15.9541   615
15.9641   599
15.9741   584
15.9841   592
15.9941   576
16.0041   584
16.0141   612
16.0241   609
16.0341   578
16.0441   596
16.0541   580
16.0641   576
16.0741   570
16.0841   571
16.0941   615
16.1041   638
16.1141   616
16.1241   577
16.1341   615
16.1441   646
16.1541   621
16.1641   608
16.1741   604
16.1841   606
16.1941   613
16.2041   589
16.2141   583
16.2241   603
16.2341   614
16.2441   614
16.2541   578
16.2641   595
16.2741   598
16.2841   597
16.2941   611
16.3041   618
16.3141   636
16.3241   637
16.3341   650
16.3441   649
16.3541   638
16.3641   648
16.3741   610
16.3841   604
16.3941   635
16.4041   627
16.4141   632
16.4241   671
16.4341   634
16.4441   621
16.4541   645
16.4641   650
16.4741   622
16.4841   633
16.4941   645
16.5041   641
16.5141   636
16.5241   645
16.5341   600
16.5441   613
16.5541   668
16.5641   646
16.5741   644
16.5841   659
16.5941   603
16.6041   626
16.6141   651
16.6241   623
16.6341   636
16.6441   622
16.6541   638
16.6641   658
16.6741   688
16.6841   671
16.6941   662
16.7041   639
16.7141   637
16.7241   670
16.7341   655
16.7441   619
16.7541   616
16.7641   623
16.7741   643
16.7841   631
16.7941   666
16.8041   675
16.8141   662
16.8241   669
16.8341   644
16.8441   637
16.8541   666
16.8641   685
16.8741   666
16.8841   678
16.8941   660
16.9041   681
16.9141   691
16.9241   684
16.9341   667
16.9441   664
16.9541   661
16.9641   696
16.9741   642
16.9841   648
16.9941   652
17.0041   673
17.0141   692
17.0241   694
17.0341   673
17.0441   707
17.0541   672
17.0641   670
17.0741   689
17.0841   731
17.0941   719
17.1041   724
17.1141   709
17.1241   678
17.1341   683
17.1441   693
17.1541   714
17.1641   721
17.1741   690
17.1841   718
17.1941   700
17.2041   670
17.2141   667
17.2241   730
17.2341   716
17.2441   681
17.2541   697
17.2641   710
17.2741   723
17.2841   736
17.2941   761
17.3041   698
17.3141   671
17.3241   703
17.3341   691
17.3441   704
17.3541   743
17.3641   728
17.3741   712
17.3841   749
17.3941   732
17.4041   725
17.4141   707
17.4241   727
17.4341   743
17.4441   732
17.4541   718
17.4641   709
17.4741   720
17.4841   760
17.4941   748
17.5041   723
17.5141   756
17.5241   756
17.5341   731
17.5441   760
17.5541   776
17.5641   755
17.5741   767
17.5841   771
17.5941   747
17.6041   755
17.6141   780
17.6241   760
17.6341   764
17.6441   773
17.6541   815
17.6641   770
17.6741   762
17.6841   773
17.6941   758
17.7041   745
17.7141   739
17.7241   758
17.7341   783
17.7441   775
17.7541   831
17.7641   773
17.7741   741
17.7841   799
17.7941   756
17.8041   754
17.8141   764
17.8241   747
17.8341   771
17.8441   785
17.8541   766
17.8641   742
17.8741   742
17.8841   758
17.8941   761
17.9041   787
17.9141   765
17.9241   799
17.9341   755
17.9441   812
17.9541   794
17.9641   791
17.9741   754
17.9841   761
17.9941   770
18.0041   799
18.0141   807
18.0241   768
18.0341   760
18.0441   803
18.0541   818
18.0641   794
18.0741   803
18.0841   829
18.0941   770
18.1041   791
18.1141   837
18.1241   807
18.1341   795
18.1441   772
18.1541   794
18.1641   820
18.1741   840
18.1841   768
18.1941   747
18.2041   782
18.2141   834
18.2241   819
18.2341   824
18.2441   835
18.2541   823
18.2641   801
18.2741   789
18.2841   781
18.2941   816
18.3041   811
18.3141   849
18.3241   795
18.3341   775
18.3441   799
18.3541   837
18.3641   854
18.3741   835
18.3841   813
18.3941   790
18.4041   780
18.4141   789
18.4241   835
18.4341   851
18.4441   820
18.4541   842
18.4641   853
18.4741   828
18.4841   842
18.4941   841
18.5041   821
18.5141   830
18.5241   802
18.5341   846
18.5441   795
18.5541   818
18.5641   835
18.5741   850
18.5841   839
18.5941   869
18.6041   800
18.6141   830
18.6241   830
18.6341   839
18.6441   795
18.6541   854
18.6641   823
18.6741   837
18.6841   867
18.6941   823
18.7041   868
18.7141   844
18.7241   835
18.7341   806
18.7441   818
18.7541   865
18.7641   872
18.7741   878
18.7841   853
18.7941   840
18.8041   863
18.8141   856
18.8241   839
18.8341   829
18.8441   888
18.8541   808
18.8641   855
18.8741   864
18.8841   856
18.8941   881
18.9041   871
18.9141   842
18.9241   860
18.9341   856
18.9441   823
18.9541   838
18.9641   874
18.9741   856
18.9841   846
18.9941   847
19.0041   860
19.0141   842
19.0241   823
19.0341   895
19.0441   838
19.0541   837
19.0641   883
19.0741   894
19.0841   843
19.0941   855
19.1041   900
19.1141   875
19.1241   858
19.1341   872
19.1441   885
19.1541   860
19.1641   865
19.1741   847
19.1841   880
19.1941   852
19.2041   857
19.2141   887
19.2241   875
19.2341   892
19.2441   897
19.2541   879
19.2641   887
19.2741   877
19.2841   885
19.2941   905
19.3041   870
19.3141   867
19.3241   860
19.3341   878
19.3441   913
19.3541   866
19.3641   847
19.3741   893
19.3841   922
19.3941   850
19.4041   903
19.4141   927
19.4241   922
19.4341   881
19.4441   856
19.4541   905
19.4641   885
19.4741   906
19.4841   904
19.4941   904
19.5041   867
19.5141   857
19.5241   858
19.5341   898
19.5441   887
19.5541   872
19.5641   839
19.5741   864
19.5841   848
19.5941   949
19.6041   922
19.6141   919
19.6241   891
19.6341   885
19.6441   876
19.6541   881
19.6641   885
19.6741   923
19.6841   922
19.6941   890
19.7041   869
19.7141   867
19.7241   866
19.7341   923
19.7441   887
19.7541   894
19.7641   908
19.7741   908
19.7841   873
19.7941   904
19.8041   887
19.8141   898
19.8241   889
19.8341   856
19.8441   920
19.8541   869
19.8641   912
19.8741   905
19.8841   858
19.8941   870
19.9041   898
19.9141   895
19.9241   918
19.9341   906
19.9441   867
19.9541   887
19.9641   883
19.9741   918
19.9841   934
19.9941   910
20.0041   903
20.0141   907
20.0241   890
20.0341   863
20.0441   906
20.0541   929
20.0641   918
20.0741   940
20.0841   912
20.0941   887
20.1041   904
20.1141   876
20.1241   959
20.1341   931
20.1441   886
20.1541   923
20.1641   917
20.1741   883
20.1841   944
20.1941   908
20.2041   891
20.2141   936
20.2241   905
20.2341   893
20.2441   884
20.2541   927
20.2641   919
20.2741   883
20.2841   885
20.2941   909
20.3041   924
20.3141   969
20.3241   969
20.3341   923
20.3441   903
20.3541   916
20.3641   888
20.3741   868
20.3841   874
20.3941   933
20.4041   908
20.4141   874
20.4241   883
20.4341   880
20.4441   858
20.4541   913
20.4641   917
20.4741   899
20.4841   874
20.4941   910
20.5041   904
20.5141   924
20.5241   914
20.5341   899
20.5441   926
20.5541   857
20.5641   915
20.5741   921
20.5841   917
20.5941   887
20.6041   953
20.6141   931
20.6241   916
20.6341   889
20.6441   937
20.6541   920
20.6641   932
20.6741   929
20.6841   934
20.6941   893
20.7041   943
20.7141   912
20.7241   916
20.7341   959
20.7441   926
20.7541   913
20.7641   949
20.7741   916
20.7841   911
20.7941   930
20.8041   917
20.8141   930
20.8241   970
20.8341   972
20.8441   970
20.8541   955
20.8641  1041
20.8741  1007
20.8841  1040
20.8941  1024
20.9041  1024
20.9141  1083
20.9241  1129
20.9341  1094
20.9441  1075
20.9541  1157
20.9641  1182
20.9741  1199
20.9841  1160
20.9941  1177
21.0041  1218
21.0141  1209
21.0241  1260
21.0341  1297
21.0441  1238
21.0541  1313
21.0641  1276
21.0741  1282
21.0841  1258
21.0941  1295
21.1041  1326
21.1141  1386
21.1241  1317
21.1341  1312
21.1441  1347
21.1541  1386
21.1641  1337
21.1741  1308
21.1841  1282
21.1941  1350
21.2041  1278
21.2141  1263
21.2241  1216
21.2341  1212
21.2441  1172
21.2541  1204
21.2641  1162
21.2741  1136
21.2841  1125
21.2941  1048
21.3041  1045
21.3141  1065
21.3241  1040
21.3341  1038
21.3441   961
21.3541   999
21.3641  1020
21.3741   990
21.3841   995
21.3941   945
21.4041   954
21.4141   872
21.4241   862
21.4341   892
21.4441   893
21.4541   891
21.4641   969
21.4741   896
21.4841   958
21.4941   946
21.5041   846
21.5141   905
21.5241   890
21.5341   973
21.5441   907
21.5541   936
21.5641   913
21.5741   929
21.5841   921
21.5941   916
21.6041   937
21.6141   878
21.6241   892
21.6341   924
21.6441   911
21.6541   921
21.6641   907
21.6741   950
21.6841   910
21.6941   894
21.7041   957
21.7141   980
21.7241   975
21.7341   912
21.7441   900
21.7541   905
21.7641   951
21.7741   925
21.7841   884
21.7941   938
21.8041   908
21.8141   921
21.8241   874
21.8341   882
21.8441   922
21.8541   837
21.8641   957
21.8741   994
21.8841   956
21.8941   935
21.9041   905
21.9141   910
21.9241   930
21.9341   919
21.9441   848
21.9541   878
21.9641   962
21.9741   871
21.9841   915
21.9941   929
22.0041   972
22.0141   943
22.0241   893
22.0341   887
22.0441   911
22.0541   928
22.0641   879
22.0741   930
22.0841   944
22.0941   895
22.1041   908
22.1141   878
22.1241   888
22.1341   879
22.1441   910
22.1541   903
22.1641   920
22.1741   984
22.1841   860
22.1941   848
22.2041   896
22.2141   940
22.2241   909
22.2341   883
22.2441   917
22.2541   879
22.2641   887
22.2741   954
22.2841   906
22.2941   910
22.3041   869
22.3141   898
22.3241   916
22.3341   923
22.3441   925
22.3541   898
22.3641   896
22.3741   953
22.3841   955
22.3941   930
22.4041   894
22.4141   866
22.4241   904
22.4341   902
22.4441   861
22.4541   909
22.4641   894
22.4741   918
22.4841   884
22.4941   889
22.5041   937
22.5141   929
22.5241   846
22.5341   924
22.5441   902
22.5541   934
22.5641   881
22.5741   940
22.5841   903
22.5941   849
22.6041   859
22.6141   884
22.6241   897
22.6341   884
22.6441   947
22.6541   909
22.6641   935
22.6741   846
22.6841   859
22.6941   883
22.7041   937
22.7141   921
22.7241   841
22.7341   906
22.7441   899
22.7541   867
22.7641   907
22.7741   888
22.7841   883
22.7941   908
22.8041   866
22.8141   914
22.8241   904
22.8341   923
22.8441   876
22.8541   826
22.8641   931
22.8741   937
22.8841   876
22.8941   913
22.9041   917
22.9141   916
22.9241   894
22.9341   873
22.9441   923
22.9541   944
22.9641   901
22.9741   883
22.9841   894
22.9941   848
23.0041   883
23.0141   865
23.0241   846
23.0341   863
23.0441   885
23.0541   879
23.0641   819
23.0741   863
23.0841   925
23.0941   888
23.1041   883
23.1141   890
23.1241   855
23.1341   886
23.1441   866
23.1541   869
23.1641   911
23.1741   863
23.1841   881
23.1941   853
23.2041   878
23.2141   803
23.2241   905
23.2341   912
23.2441   903
23.2541   885
23.2641   839
23.2741   842
23.2841   816
23.2941   856
23.3041   839
23.3141   848
23.3241   884
23.3341   835
23.3441   905
23.3541   901
23.3641   850
23.3741   853
23.3841   875
23.3941   875
23.4041   854
23.4141   856
23.4241   855
23.4341   839
23.4441   815
23.4541   899
23.4641   857
23.4741   879
23.4841   867
23.4941   812
23.5041   849
23.5141   831
23.5241   882
23.5341   864
23.5441   863
23.5541   870
23.5641   864
23.5741   832
23.5841   865
23.5941   893
23.6041   878
23.6141   840
23.6241   877
23.6341   875
23.6441   931
23.6541   887
23.6641   875
23.6741   906
23.6841   886
23.6941   925
23.7041   894
23.7141   936
23.7241   913
23.7341   902
23.7441   904
23.7541   921
23.7641   982
23.7741   918
23.7841   885
23.7941   902
23.8041   938
23.8141   937
23.8241   872
23.8341   945
23.8441   928
23.8541   892
23.8641   933
23.8741   933
23.8841   921
23.8941   912
23.9041   847
23.9141   865
23.9241   860
23.9341   878
23.9441   893
23.9541   894
23.9641   830
23.9741   858
23.9841   862
23.9941   855
24.0041   846
24.0141   842
24.0241   874
24.0341   821
24.0441   856
24.0541   836
24.0641   852
24.0741   806
24.0841   847
24.0941   808
24.1041   811
24.1141   806
24.1241   782
24.1341   836
24.1441   849
24.1541   821
24.1641   876
24.1741   835
24.1841   846
24.1941   859
24.2041   809
24.2141   835
24.2241   827
24.2341   831
24.2441   813
24.2541   867
24.2641   772
24.2741   850
24.2841   834
24.2941   799
24.3041   798
24.3141   787
24.3241   824
24.3341   876
24.3441   783
24.3541   820
24.3641   817
24.3741   822
24.3841   819
24.3941   773
24.4041   817
24.4141   829
24.4241   802
24.4341   821
24.4441   801
24.4541   823
24.4641   827
24.4741   853
24.4841   783
24.4941   767
24.5041   790
24.5141   824
24.5241   830
24.5341   777
24.5441   757
24.5541   813
24.5641   807
24.5741   800
24.5841   817
24.5941   782
24.6041   784
24.6141   768
24.6241   807
24.6341   817
24.6441   767
24.6541   822
24.6641   760
24.6741   773
24.6841   785
24.6941   789
24.7041   839
24.7141   764
24.7241   755
24.7341   841
24.7441   793
24.7541   795
24.7641   778
24.7741   759
24.7841   832
24.7941   802
24.8041   801
24.8141   784
24.8241   757
24.8341   764
24.8441   748
24.8541   825
24.8641   810
24.8741   730
24.8841   759
24.8941   792
24.9041   784
24.9141   819
24.9241   804
24.9341   816
24.9441   764
24.9541   790
24.9641   727
24.9741   765
24.9841   765
24.9941   743
25.0041   784
25.0141   791
25.0241   793
25.0341   773
25.0441   745
25.0541   796
25.0641   817
25.0741   759
25.0841   779
25.0941   827
25.1041   784
25.1141   766
25.1241   784
25.1341   743
25.1441   782
25.1541   802
25.1641   824
25.1741   770
25.1841   751
25.1941   803
25.2041   783
25.2141   801
25.2241   794
25.2341   759
25.2441   776
25.2541   775
25.2641   749
25.2741   779
25.2841   832
25.2941   804
25.3041   805
25.3141   758
25.3241   786
25.3341   778
25.3441   787
25.3541   762
25.3641   751
25.3741   813
25.3841   777
25.3941   705
25.4041   748
25.4141   760
25.4241   792
25.4341   762
25.4441   728
25.4541   721
25.4641   737
25.4741   758
25.4841   722
25.4941   752
25.5041   734
25.5141   765
25.5241   711
25.5341   756
25.5441   713
25.5541   718
25.5641   723
25.5741   702
25.5841   761
25.5941   735
25.6041   729
25.6141   706
25.6241   730
25.6341   675
25.6441   702
25.6541   745
25.6641   724
25.6741   694
25.6841   716
25.6941   727
25.7041   738
25.7141   723
25.7241   713
25.7341   702
25.7441   707
25.7541   708
25.7641   736
25.7741   741
25.7841   712
25.7941   682
25.8041   704
25.8141   734
25.8241   747
25.8341   706
25.8441   726
25.8541   727
25.8641   701
25.8741   754
25.8841   749
25.8941   726
25.9041   692
25.9141   696
25.9241   703
25.9341   701
25.9441   685
25.9541   671
25.9641   708
25.9741   739
25.9841   721
25.9941   715
26.0041   730
26.0141   703
26.0241   697
26.0341   711
26.0441   709
26.0541   681
26.0641   706
26.0741   697
26.0841   684
26.0941   686
26.1041   755
26.1141   715
26.1241   691
26.1341   735
26.1441   752
26.1541   700
26.1641   703
26.1741   671
26.1841   706
26.1941   720
26.2041   720
26.2141   696
26.2241   653
26.2341   670
26.2441   678
26.2541   727
26.2641   698
26.2741   683
26.2841   665
26.2941   693
26.3041   644
26.3141   673
26.3241   650
26.3341   688
26.3441   652
26.3541   635
26.3641   646
26.3741   706
26.3841   669
26.3941   683
26.4041   677
26.4141   701
26.4241   692
26.4341   653
26.4441   702
26.4541   692
26.4641   716
26.4741   673
26.4841   699
26.4941   677
26.5041   671
26.5141   677
26.5241   641
26.5341   676
26.5441   677
26.5541   639
26.5641   646
26.5741   653
26.5841   621
26.5941   690
26.6041   672
26.6141   671
26.6241   623
26.6341   674
26.6441   670
26.6541   668
26.6641   636
26.6741   666
26.6841   625
26.6941   636
26.7041   654
26.7141   691
26.7241   674
26.7341   612
26.7441   624
26.7541   626
26.7641   660
26.7741   622
26.7841   637
26.7941   680
26.8041   621
26.8141   650
26.8241   645
26.8341   680
26.8441   677
26.8541   666
26.8641   622
26.8741   628
26.8841   649
26.8941   658
26.9041   670
26.9141   663
26.9241   576
26.9341   644
26.9441   685
26.9541   686
26.9641   633
26.9741   641
26.9841   605
26.9941   617
27.0041   585
27.0141   609
27.0241   649
27.0341   660
27.0441   621
27.0541   644
27.0641   576
27.0741   614
27.0841   629
27.0941   627
27.1041   613
27.1141   625
27.1241   673
27.1341   630
27.1441   635
27.1541   702
27.1641   681
27.1741   667
27.1841   645
27.1941   622
27.2041   602
27.2141   585
27.2241   662
27.2341   642
27.2441   629
27.2541   619
27.2641   651
27.2741   605
27.2841   617
27.2941   611
27.3041   667
27.3141   626
27.3241   624
27.3341   627
27.3441   595
27.3541   584
27.3641   600
27.3741   605
27.3841   600
27.3941   637
27.4041   636
27.4141   613
27.4241   588
27.4341   662
27.4441   631
27.4541   600
27.4641   626
27.4741   630
27.4841   627
27.4941   593
27.5041   639
27.5141   614
27.5241   619
27.5341   612
27.5441   555
27.5541   567
27.5641   592
27.5741   579
27.5841   609
27.5941   568
27.6041   614
27.6141   595
27.6241   611
27.6341   590
27.6441   610
27.6541   596
27.6641   577
27.6741   545
27.6841   560
27.6941   580
27.7041   559
27.7141   574
27.7241   633
27.7341   515
27.7441   568
27.7541   607
27.7641   576
27.7741   626
27.7841   587
27.7941   581
27.8041   552
27.8141   615
27.8241   597
27.8341   554
27.8441   594
27.8541   584
27.8641   569
27.8741   553
27.8841   544
27.8941   564
27.9041   551
27.9141   601
27.9241   567
27.9341   573
27.9441   571
27.9541   552
27.9641   585
27.9741   526
27.9841   537
27.9941   556
28.0041   549
28.0141   539
28.0241   537
28.0341   527
28.0441   552
28.0541   583
28.0641   574
28.0741   580
28.0841   580
28.0941   583
28.1041   533
28.1141   555
28.1241   596
28.1341   540
28.1441   536
28.1541   542
28.1641   579
28.1741   543
28.1841   553
28.1941   510
28.2041   524
28.2141   576
28.2241   559
28.2341   575
28.2441   524
28.2541   534
28.2641   534
28.2741   541
28.2841   540
28.2941   541
28.3041   563
28.3141   569
28.3241   537
28.3341   515
28.3441   533
28.3541   557
28.3641   564
28.3741   527
28.3841   530
28.3941   499
28.4041   529
28.4141   505
28.4241   532
28.4341   559
28.4441   510
28.4541   581
28.4641   548
28.4741   557
28.4841   539
28.4941   532
28.5041   529
28.5141   556
28.5241   560
28.5341   488
28.5441   486
28.5541   515
28.5641   512
28.5741   511
28.5841   539
28.5941   485
28.6041   526
28.6141   541
28.6241   496
28.6341   535
28.6441   512
28.6541   530
28.6641   526
28.6741   527
28.6841   478
28.6941   492
28.7041   534
28.7141   518
28.7241   511
28.7341   506
28.7441   502
28.7541   514
28.7641   526
28.7741   502
28.7841   520
28.7941   529
28.8041   489
28.8141   536
28.8241   538
28.8341   493
28.8441   488
28.8541   514
28.8641   489
28.8741   511
28.8841   517
28.8941   497
28.9041   479
28.9141   492
28.9241   518
28.9341   513
28.9441   498
28.9541   482
28.9641   480
28.9741   511
28.9841   493
28.9941   481
29.0041   493
29.0141   514
29.0241   493
29.0341   468
29.0441   466
29.0541   494
29.0641   462
29.0741   455
29.0841   494
29.0941   454
29.1041   501
29.1141   497
29.1241   474
29.1341   505
29.1441   458
29.1541   516
29.1641   485
29.1741   475
29.1841   472
29.1941   503
29.2041   502
29.2141   508
29.2241   470
29.2341   480
29.2441   502
29.2541   495
29.2641   488
29.2741   466
29.2841   454
29.2941   474
29.3041   479
29.3141   489
29.3241   495
29.3341   478
29.3441   475
29.3541   466
29.3641   483
29.3741   478
29.3841   485
29.3941   462
29.4041   491
29.4141   494
29.4241   452
29.4341   449
29.4441   401
29.4541   465
29.4641   470
29.4741   457
29.4841   475
29.4941   468
29.5041   439
29.5141   440
29.5241   465
29.5341   463
29.5441   446
29.5541   485
29.5641   462
29.5741   458
29.5841   498
29.5941   453
29.6041   439
29.6141   449
29.6241   477
29.6341   476
29.6441   428
29.6541   456
29.6641   466
29.6741   463
29.6841   455
29.6941   445
29.7041   501
29.7141   417
29.7241   469
29.7341   469
29.7441   453
29.7541   481
29.7641   446
29.7741   438
29.7841   435
29.7941   440
29.8041   450
29.8141   445
29.8241   453
29.8341   421
29.8441   441
29.8541   464
29.8641   490
29.8741   451
29.8841   473
29.8941   414
29.9041   446
29.9141   434
29.9241   429
29.9341   437
29.9441   415
29.9541   448
29.9641   459
29.9741   412
29.9841   421
29.9941   421
30.0041   417
30.0141   428
30.0241   437
30.0341   430
30.0441   443
30.0541   429
30.0641   459
30.0741   450
30.0841   391
30.0941   400
30.1041   428
30.1141   417
30.1241   438
30.1341   420
30.1441   443
30.1541   445
30.1641   449
30.1741   433
30.1841   447
30.1941   406
30.2041   425
30.2141   425
30.2241   398
30.2341   404
30.2441   392
30.2541   418
30.2641   392
30.2741   396
30.2841   420
30.2941   399
30.3041   428
30.3141   416
30.3241   389
30.3341   403
30.3441   388
30.3541   403
30.3641   437
30.3741   412
30.3841   382
30.3941   376
30.4041   406
30.4141   416
30.4241   384
30.4341   403
30.4441   394
30.4541   417
30.4641   415
30.4741   432
30.4841   397
30.4941   407
30.5041   402
30.5141   449
30.5241   426
30.5341   379
30.5441   403
30.5541   404
30.5641   390
30.5741   412
30.5841   399
30.5941   391
30.6041   376
30.6141   386
30.6241   399
30.6341   405
30.6441   376
30.6541   403
30.6641   345
30.6741   355
30.6841   375
30.6941   373
30.7041   388
30.7141   407
30.7241   385
30.7341   386
30.7441   408
30.7541   379
30.7641   350
30.7741   381
30.7841   400
30.7941   423
30.8041   407
30.8141   401
30.8241   372
30.8341   358
30.8441   375
30.8541   385
30.8641   351
30.8741   385
30.8841   396
30.8941   401
30.9041   343
30.9141   389
30.9241   390
30.9341   338
30.9441   353
30.9541   398
30.9641   385
30.9741   390
30.9841   382
30.9941   355
31.0041   356
31.0141   364
31.0241   355
31.0341   352
31.0441   375
31.0541   387
31.0641   348
31.0741   360
31.0841   384
31.0941   392
31.1041   356
31.1141   379
31.1241   336
31.1341   376
31.1441   345
31.1541   365
31.1641   386
31.1741   317
31.1841   364
31.1941   351
31.2041   350
31.2141   368
31.2241   360
31.2341   359
31.2441   357
31.2541   370
31.2641   376
31.2741   334
31.2841   366
31.2941   347
31.3041   363
31.3141   359
31.3241   376
31.3341   337
31.3441   361
31.3541   321
31.3641   338
31.3741   331
31.3841   355
31.3941   354
31.4041   373
31.4141   366
31.4241   327
31.4341   342
31.4441   367
31.4541   337
31.4641   340
31.4741   313
31.4841   331
31.4941   329
31.5041   337
31.5141   349
31.5241   346
31.5341   375
31.5441   349
31.5541   328
31.5641   328
31.5741   353
31.5841   344
31.5941   311
31.6041   339
31.6141   342
31.6241   349
31.6341   327
31.6441   325
31.6541   323
31.6641   362
31.6741   356
31.6841   358
31.6941   341
31.7041   346
31.7141   328
31.7241   330
31.7341   318
31.7441   325
31.7541   350
31.7641   312
31.7741   314
31.7841   319
31.7941   345
31.8041   334
31.8141   346
31.8241   309
31.8341   328
31.8441   315
31.8541   334
31.8641   298
31.8741   354
31.8841   326
31.8941   310
31.9041   318
31.9141   347
31.9241   354
31.9341   337
31.9441   318
31.9541   307
31.9641   326
31.9741   330
31.9841   304
31.9941   315
32.0041   330
32.0141   301
32.0241   314
32.0341   321
32.0441   343
32.0541   277
32.0641   332
32.0741   352
32.0841   314
32.0941   336
32.1041   292
32.1141   297
32.1241   321
32.1341   343
32.1441   302
32.1541   323
32.1641   314
32.1741   334
32.1841   309
32.1941   332
32.2041   328
32.2141   275
32.2241   331
32.2341   312
32.2441   299
32.2541   315
32.2641   286
32.2741   318
32.2841   288
32.2941   308
32.3041   276
32.3141   289
32.3241   287
32.3341   297
32.3441   283
32.3541   282
32.3641   316
32.3741   306
32.3841   299
32.3941   298
32.4041   291
32.4141   289
32.4241   307
32.4341   261
32.4441   305
32.4541   301
32.4641   301
32.4741   296
32.4841   295
32.4941   286
32.5041   281
32.5141   284
32.5241   276
32.5341   273
32.5441   263
32.5541   297
32.5641   282
32.5741   277
32.5841   287
32.5941   287
32.6041   304
32.6141   297
32.6241   303
32.6341   265
32.6441   284
32.6541   263
32.6641   268
32.6741   311
32.6841   293
32.6941   258
32.7041   256
32.7141   291
32.7241   272
32.7341   283
32.7441   277
32.7541   281
32.7641   277
32.7741   272
32.7841   260
32.7941   258
32.8041   274
32.8141   272
32.8241   243
32.8341   272
32.8441   271
32.8541   266
32.8641   271
32.8741   279
32.8841   283
32.8941   278
32.9041   258
32.9141   281
32.9241   296
32.9341   265
32.9441   283
32.9541   276
32.9641   306
32.9741   285
32.9841   270
32.9941   266
33.0041   288
33.0141   283
33.0241   263
33.0341   295
33.0441   259
33.0541   273
33.0641   287
33.0741   246
33.0841   253
33.0941   278
33.1041   250
33.1141   261
33.1241   279
33.1341   269
33.1441   249
33.1541   253
33.1641   251
33.1741   279
33.1841   234
33.1941   254
33.2041   263
33.2141   254
33.2241   264
33.2341   255
33.2441   280
33.2541   233
33.2641   237
33.2741   232
33.2841   279
33.2941   271
33.3041   258
33.3141   240
33.3241   239
33.3341   244
33.3441   271
33.3541   259
33.3641   259
33.3741   253
33.3841   233
33.3941   239
33.4041   229
33.4141   231
33.4241   239
33.4341   259
33.4441   254
33.4541   233
33.4641   248
33.4741   251
33.4841   267
33.4941   254
33.5041   241
33.5141   255
33.5241   241
33.5341   260
33.5441   233
33.5541   232
33.5641   244
33.5741   242
33.5841   215
33.5941   234
33.6041   238
33.6141   242
33.6241   238
33.6341   228
33.6441   217
33.6541   239
33.6641   215
33.6741   228
33.6841   255
33.6941   252
33.7041   262
33.7141   236
33.7241   223
33.7341   232
33.7441   228
33.7541   252
33.7641   213
33.7741   248
33.7841   210
33.7941   264
33.8041   232
33.8141   202
33.8241   230
33.8341   257
33.8441   221
33.8541   212
33.8641   212
33.8741   226
33.8841   196
33.8941   227
33.9041   223
33.9141   215
33.9241   223
33.9341   238
33.9441   227
33.9541   248
33.9641   206
33.9741   222
33.9841   228
33.9941   218
34.0041   234
34.0141   231
34.0241   223
34.0341   213
34.0441   202
34.0541   204
34.0641   204
34.0741   227
34.0841   222
34.0941   221
34.1041   218
34.1141   237
34.1241   228
34.1341   222
34.1441   196
34.1541   215
34.1641   220
34.1741   221
34.1841   217
34.1941   217
34.2041   210
34.2141   201
34.2241   190
34.2341   225
34.2441   227
34.2541   229
34.2641   173
34.2741   203
34.2841   213
34.2941   208
34.3041   202
34.3141   189
34.3241   224
34.3341   213
34.3441   202
34.3541   192
34.3641   245
34.3741   201
34.3841   211
34.3941   195
34.4041   194
34.4141   203
34.4241   183
34.4341   198
34.4441   219
34.4541   212
34.4641   189
34.4741   186
34.4841   215
34.4941   185
34.5041   211
34.5141   196
34.5241   193
34.5341   211
34.5441   210
34.5541   199
34.5641   203
34.5741   184
34.5841   205
34.5941   187
34.6041   189
34.6141   205
34.6241   200
34.6341   213
34.6441   208
34.6541   175
34.6641   189
34.6741   188
34.6841   202
34.6941   186
34.7041   196
34.7141   172
34.7241   194
34.7341   200
34.7441   177
34.7541   195
34.7641   190
34.7741   193
34.7841   186
34.7941   194
34.8041   191
34.8141   172
34.8241   197
34.8341   198
34.8441   189
34.8541   172
34.8641   177
34.8741   185
34.8841   181
34.8941   204
34.9041   196
34.9141   179
34.9241   169
34.9341   185
34.9441   191
34.9541   171
34.9641   193
34.9741   171
34.9841   185
34.9941   172
35.0041   184
35.0141   164
35.0241   219
35.0341   181
35.0441   175
35.0541   175
35.0641   178
35.0741   192
35.0841   187
35.0941   158
35.1041   169
35.1141   179
35.1241   184
35.1341   146
35.1441   188
35.1541   173
35.1641   158
35.1741   168
35.1841   190
35.1941   178
35.2041   159
35.2141   148
35.2241   145
35.2341   177
35.2441   155
35.2541   173
35.2641   187
35.2741   173
35.2841   185
35.2941   155
35.3041   138
35.3141   170
35.3241   172
35.3341   162
35.3441   171
35.3541   161
35.3641   167
35.3741   158
35.3841   178
35.3941   159
35.4041   176
35.4141   169
35.4241   159
35.4341   151
35.4441   165
35.4541   161
35.4641   187
35.4741   151
35.4841   151
35.4941   153
35.5041   147
35.5141   139
35.5241   155
35.5341   156
35.5441   151
35.5541   153
35.5641   144
35.5741   152
35.5841   162
35.5941   157
35.6041   188
35.6141   149
35.6241   132
35.6341   169
35.6441   161
35.6541   145
35.6641   150
35.6741   159
35.6841   161
35.6941   157
35.7041   177
35.7141   160
35.7241   160
35.7341   158
35.7441   166
35.7541   142
35.7641   149
35.7741   161
35.7841   131
35.7941   178
35.8041   164
35.8141   146
35.8241   160
35.8341   138
35.8441   145
35.8541   140
35.8641   162
35.8741   161
35.8841   146
35.8941   169
35.9041   146
35.9141   168
35.9241   149
35.9341   139
35.9441   150
35.9541   124
35.9641   147
35.9741   130
35.9841   157
35.9941   152
36.0041   144
36.0141   153
36.0241   174
36.0341   167
36.0441   131
36.0541   135
36.0641   126
36.0741   152
36.0841   148
36.0941   149
36.1041   134
36.1141   140
36.1241   138
36.1341   157
36.1441   146
36.1541   142
36.1641   145
36.1741   146
36.1841   169
36.1941   143
36.2041   141
36.2141   138
36.2241   144
36.2341   151
36.2441   153
36.2541   118
36.2641   154
36.2741   141
36.2841   141
36.2941   113
36.3041   133
36.3141   131
36.3241   132
36.3341   151
36.3441   140
36.3541   134
36.3641   137
36.3741   129
36.3841   117
36.3941   156
36.4041   154
36.4141   129
36.4241   137
36.4341   150
36.4441   125
36.4541   144
36.4641   137
36.4741   144
36.4841   130
36.4941   118
36.5041   129
36.5141   119
36.5241   131
36.5341   137
36.5441   150
36.5541   110
36.5641   125
36.5741   114
36.5841   114
36.5941   125
36.6041   118
36.6141   108
36.6241   130
36.6341   125
36.6441   134
36.6541   131
36.6641   123
36.6741    99
36.6841   111
36.6941   126
36.7041   134
36.7141   135
36.7241   115
36.7341   116
36.7441   144
36.7541   115
36.7641   123
36.7741   118
36.7841   120
36.7941   123
36.8041   115
36.8141   116
36.8241   123
36.8341   125
36.8441   118
36.8541   124
36.8641   127
36.8741   113
36.8841   131
36.8941   112
36.9041   114
36.9141   137
36.9241   126
36.9341   128
36.9441   127
36.9541   119
36.9641   110
36.9741   117
36.9841   127
36.9941   123
37.0041   118
37.0141   130
37.0241   112
37.0341   129
37.0441   125
37.0541   111
37.0641   128
37.0741   112
37.0841   121
37.0941   108
37.1041   112
37.1141   116
37.1241   137
37.1341   120
37.1441   119
37.1541   123
37.1641    96
37.1741   111
37.1841   119
37.1941   103
37.2041   118
37.2141   112
37.2241   119
37.2341    97
37.2441   112
37.2541   123
37.2641   106
37.2741   111
37.2841   106
37.2941   105
37.3041   108
37.3141   119
37.3241   127
37.3341   112
37.3441   104
37.3541    97
37.3641   104
37.3741    96
37.3841   112
37.3941   104
37.4041   108
37.4141    98
37.4241   119
37.4341   111
37.4441   101
37.4541   106
37.4641   109
37.4741   105
37.4841   117
37.4941   116
37.5041   111
37.5141    99
37.5241    94
37.5341    98
37.5441   111
37.5541   104
37.5641   102
37.5741   113
37.5841   104
37.5941    89
37.6041    90
37.6141   103
37.6241    99
37.6341   110
37.6441   100
37.6541   102
37.6641    99
37.6741    99
37.6841   111
37.6941   117
37.7041   120
37.7141   108
37.7241    86
37.7341   111
37.7441    85
37.7541   103
37.7641   101
37.7741   108
37.7841   102
37.7941   106
37.8041    87
37.8141   108
37.8241    83
37.8341   104
37.8441   106
37.8541    84
37.8641    89
37.8741    92
37.8841    94
37.8941   101
37.9041   103
37.9141    86
37.9241    90
37.9341    94
37.9441   100
37.9541    91
37.9641    94
37.9741    79
37.9841    99
37.9941    93
38.0041   100
38.0141    73
38.0241    94
38.0341    92
38.0441    90
38.0541    88
38.0641    81
38.0741    93
38.0841    79
38.0941    91
38.1041   100
38.1141    82
38.1241    91
38.1341    86
38.1441    94
38.1541    88
38.1641    99
38.1741    84
38.1841    89
38.1941    79
38.2041    88
38.2141    77
38.2241    88
38.2341    93
38.2441    85
38.2541    89
38.2641    85
38.2741    80
38.2841    89
38.2941    74
38.3041    91
38.3141    87
38.3241    78
38.3341    92
38.3441    84
38.3541    78
38.3641   101
38.3741    84
38.3841    84
38.3941    80
38.4041    91
38.4141    89
38.4241    79
38.4341    91
38.4441   101
38.4541    89
38.4641    84
38.4741    76
38.4841    82
38.4941    76
38.5041    84
38.5141    87
38.5241    69
38.5341    60
38.5441    69
38.5541    68
38.5641    81
38.5741    77
38.5841    87
38.5941    70
38.6041    82
38.6141    76
38.6241    88
38.6341    69
38.6441    85
38.6541    72
38.6641    77
38.6741    75
38.6841    70
38.6941    81
38.7041    77
38.7141    83
38.7241    73
38.7341    56
38.7441    75
38.7541    77
38.7641    90
38.7741    64
38.7841    78
38.7941    85
38.8041    61
38.8141    72
38.8241    61
38.8341    72
38.8441    63
38.8541    57
38.8641    60
38.8741    75
38.8841    56
38.8941    64
38.9041    75
38.9141    71
38.9241    82
38.9341    53
38.9441    71
38.9541    91
38.9641    58
38.9741    64
38.9841    76
38.9941    72
39.0041    68
39.0141    61
39.0241    69
39.0341    81
39.0441    70
39.0541    78
39.0641    58
39.0741    71
39.0841    60
39.0941    64
39.1041    75
39.1141    63
39.1241    59
39.1341    63
39.1441    53
39.1541    69
39.1641    70
39.1741    72
39.1841    51
39.1941    50
39.2041    68
39.2141    55
39.2241    62
39.2341    67
39.2441    63
39.2541    63
39.2641    53
39.2741    70
39.2841    76
39.2941    67
39.3041    55
39.3141    62
39.3241    59
39.3341    59
39.3441    53
39.3541    64
39.3641    54
39.3741    58
39.3841    57
39.3941    67
39.4041    60
39.4141    59
39.4241    53
39.4341    65
39.4441    45
39.4541    62
39.4641    42
39.4741    57
39.4841    65
39.4941    46
39.5041    63
39.5141    63
39.5241    59
39.5341    71
39.5441    57
39.5541    55
39.5641    60
39.5741    69
39.5841    41
39.5941    47
39.6041    59
39.6141    70
39.6241    63
39.6341    41
39.6441    52
39.6541    53
39.6641    43
39.6741    37
39.6841    55
39.6941    61
39.7041    56
39.7141    50
39.7241    53
39.7341    45
39.7441    57
39.7541    55
39.7641    47
39.7741    53
39.7841    42
39.7941    46
39.8041    59
39.8141    50
39.8241    45
39.8341    53
39.8441    48
39.8541    45
39.8641    58
39.8741    43
39.8841    45
39.8941    51
39.9041    49
39.9141    43
39.9241    61
39.9341    53
39.9441    49
39.9541    44
39.9641    52
39.9741    43
39.9841    55
39.9941    46
