Bruker Nano GmbH Berlin, Germany
Esprit 1.9

Date: 4/1/2021 4:59:10 PM
Real time: 20937
Life time: 19552
Pulse density: 97713


Detector type: XFlash 430
Window type: Custom type
Detector thickness: 0.45
Si dead layer:0.029

Calibration, lin.: 10
Calibration, abs.: -955.9
Mn FWHM: 137.05
Fano factor: 0.121
Channels: 4095

Energy Counts
-0.9559     0
-0.9459     0
-0.9359     0
-0.9259     0
-0.9159     0
-0.9059     0
-0.8959     0
-0.8859     0
-0.8759     0
-0.8659     0
-0.8559     0
-0.8459     0
-0.8359     0
-0.8259     0
-0.8159     0
-0.8059     0
-0.7959     0
-0.7859     0
-0.7759     0
-0.7659     0
-0.7559     0
-0.7459     0
-0.7359     0
-0.7259     0
-0.7159     0
-0.7059     0
-0.6959     0
-0.6859     0
-0.6759     0
-0.6659     0
-0.6559     0
-0.6459     0
-0.6359     0
-0.6259     0
-0.6159     0
-0.6059     0
-0.5959     0
-0.5859     0
-0.5759     0
-0.5659     0
-0.5559     0
-0.5459     0
-0.5359     0
-0.5259     0
-0.5159     0
-0.5059     0
-0.4959     0
-0.4859     0
-0.4759     0
-0.4659     0
-0.4559     0
-0.4459     0
-0.4359     0
-0.4259     0
-0.4159     0
-0.4059     0
-0.3959     0
-0.3859     0
-0.3759     0
-0.3659     0
-0.3559     0
-0.3459     0
-0.3359     0
-0.3259     0
-0.3159     0
-0.3059     0
-0.2959     0
-0.2859     0
-0.2759     0
-0.2659     0
-0.2559     0
-0.2459     0
-0.2359     0
-0.2259     0
-0.2159     0
-0.2059     0
-0.1959     0
-0.1859     0
-0.1759     0
-0.1659     0
-0.1559     0
-0.1459     0
-0.1359     1
-0.1259     0
-0.1159     1
-0.1059    17
-0.0959    51
-0.0859   215
-0.0759   748
-0.0659  2266
-0.0559  5752
-0.0459 12383
-0.0359 23145
-0.0259 37105
-0.0159 50957
-0.0059 60162
 0.0041 60226
 0.0141 52059
 0.0241 38375
 0.0341 24143
 0.0441 13172
 0.0541  6051
 0.0641  2399
 0.0741   863
 0.0841   272
 0.0941    64
 0.1041    22
 0.1141     7
 0.1241     9
 0.1341     7
 0.1441     8
 0.1541     6
 0.1641     4
 0.1741     1
 0.1841   172
 0.1941   327
 0.2041   304
 0.2141   317
 0.2241   303
 0.2341   317
 0.2441   318
 0.2541   308
 0.2641   298
 0.2741   301
 0.2841   324
 0.2941   296
 0.3041   306
 0.3141   303
 0.3241   300
 0.3341   286
 0.3441   285
 0.3541   277
 0.3641   282
 0.3741   277
 0.3841   276
 0.3941   295
 0.4041   272
 0.4141   256
 0.4241   291
 0.4341   284
 0.4441   280
 0.4541   277
 0.4641   262
 0.4741   252
 0.4841   248
 0.4941   262
 0.5041   258
 0.5141   263
 0.5241   245
 0.5341   253
 0.5441   260
 0.5541   252
 0.5641   255
 0.5741   242
 0.5841   241
 0.5941   247
 0.6041   254
 0.6141   245
 0.6241   241
 0.6341   239
 0.6441   236
 0.6541   216
 0.6641   216
 0.6741   236
 0.6841   238
 0.6941   227
 0.7041   215
 0.7141   226
 0.7241   246
 0.7341   243
 0.7441   224
 0.7541   219
 0.7641   217
 0.7741   198
 0.7841   200
 0.7941   209
 0.8041   202
 0.8141   206
 0.8241   205
 0.8341   225
 0.8441   226
 0.8541   208
 0.8641   216
 0.8741   219
 0.8841   197
 0.8941   209
 0.9041   234
 0.9141   226
 0.9241   194
 0.9341   197
 0.9441   201
 0.9541   190
 0.9641   204
 0.9741   203
 0.9841   196
 0.9941   209
 1.0041   206
 1.0141   201
 1.0241   196
 1.0341   198
 1.0441   198
 1.0541   184
 1.0641   179
 1.0741   203
 1.0841   177
 1.0941   180
 1.1041   177
 1.1141   207
 1.1241   207
 1.1341   184
 1.1441   164
 1.1541   185
 1.1641   200
 1.1741   206
 1.1841   196
 1.1941   173
 1.2041   187
 1.2141   186
 1.2241   201
 1.2341   174
 1.2441   169
 1.2541   169
 1.2641   176
 1.2741   170
 1.2841   183
 1.2941   174
 1.3041   187
 1.3141   167
 1.3241   184
 1.3341   168
 1.3441   165
 1.3541   186
 1.3641   169
 1.3741   166
 1.3841   165
 1.3941   184
 1.4041   175
 1.4141   178
 1.4241   170
 1.4341   168
 1.4441   190
 1.4541   194
 1.4641   182
 1.4741   188
 1.4841   172
 1.4941   166
 1.5041   163
 1.5141   173
 1.5241   162
 1.5341   172
 1.5441   170
 1.5541   157
 1.5641   154
 1.5741   166
 1.5841   167
 1.5941   159
 1.6041   191
 1.6141   170
 1.6241   152
 1.6341   173
 1.6441   196
 1.6541   220
 1.6641   286
 1.6741   337
 1.6841   405
 1.6941   475
 1.7041   561
 1.7141   637
 1.7241   689
 1.7341   785
 1.7441   787
 1.7541   752
 1.7641   647
 1.7741   569
 1.7841   459
 1.7941   412
 1.8041   328
 1.8141   257
 1.8241   252
 1.8341   239
 1.8441   204
 1.8541   209
 1.8641   195
 1.8741   170
 1.8841   182
 1.8941   173
 1.9041   151
 1.9141   184
 1.9241   152
 1.9341   156
 1.9441   162
 1.9541   164
 1.9641   201
 1.9741   209
 1.9841   217
 1.9941   207
 2.0041   183
 2.0141   197
 2.0241   194
 2.0341   207
 2.0441   189
 2.0541   183
 2.0641   171
 2.0741   174
 2.0841   178
 2.0941   162
 2.1041   156
 2.1141   159
 2.1241   160
 2.1341   150
 2.1441   156
 2.1541   153
 2.1641   158
 2.1741   162
 2.1841   145
 2.1941   137
 2.2041   148
 2.2141   162
 2.2241   131
 2.2341   130
 2.2441   156
 2.2541   131
 2.2641   136
 2.2741   113
 2.2841   151
 2.2941   149
 2.3041   160
 2.3141   142
 2.3241   144
 2.3341   130
 2.3441   175
 2.3541   141
 2.3641   132
 2.3741   126
 2.3841   139
 2.3941   151
 2.4041   131
 2.4141   129
 2.4241   148
 2.4341   140
 2.4441   144
 2.4541   135
 2.4641   141
 2.4741   123
 2.4841   130
 2.4941   113
 2.5041   118
 2.5141   130
 2.5241   135
 2.5341   137
 2.5441   113
 2.5541   109
 2.5641   123
 2.5741   128
 2.5841   119
 2.5941   126
 2.6041   132
 2.6141   120
 2.6241   135
 2.6341   125
 2.6441   124
 2.6541   138
 2.6641   122
 2.6741   122
 2.6841   132
 2.6941   140
 2.7041   133
 2.7141   113
 2.7241   139
 2.7341   115
 2.7441   130
 2.7541   124
 2.7641   105
 2.7741   113
 2.7841   122
 2.7941   136
 2.8041   135
 2.8141   135
 2.8241   144
 2.8341   126
 2.8441   155
 2.8541   110
 2.8641   129
 2.8741   116
 2.8841   128
 2.8941   132
 2.9041   133
 2.9141   122
 2.9241   107
 2.9341   101
 2.9441   127
 2.9541   127
 2.9641   130
 2.9741   132
 2.9841   117
 2.9941   117
 3.0041   107
 3.0141   109
 3.0241    93
 3.0341   112
 3.0441   114
 3.0541   125
 3.0641   117
 3.0741   104
 3.0841   106
 3.0941   109
 3.1041   113
 3.1141   110
 3.1241    97
 3.1341   101
 3.1441    98
 3.1541   104
 3.1641   118
 3.1741   104
 3.1841    98
 3.1941   108
 3.2041   101
 3.2141   117
 3.2241   117
 3.2341   150
 3.2441   184
 3.2541   197
 3.2641   238
 3.2741   254
 3.2841   266
 3.2941   298
 3.3041   310
 3.3141   346
 3.3241   304
 3.3341   296
 3.3441   248
 3.3541   237
 3.3641   212
 3.3741   196
 3.3841   153
 3.3941   141
 3.4041   120
 3.4141   117
 3.4241    86
 3.4341    99
 3.4441    83
 3.4541    88
 3.4641    86
 3.4741    95
 3.4841   106
 3.4941    90
 3.5041   110
 3.5141   122
 3.5241   130
 3.5341   124
 3.5441   143
 3.5541   184
 3.5641   193
 3.5741   222
 3.5841   274
 3.5941   327
 3.6041   434
 3.6141   523
 3.6241   700
 3.6341   866
 3.6441   987
 3.6541  1164
 3.6641  1282
 3.6741  1386
 3.6841  1490
 3.6941  1450
 3.7041  1425
 3.7141  1327
 3.7241  1190
 3.7341  1060
 3.7441   850
 3.7541   668
 3.7641   505
 3.7741   409
 3.7841   285
 3.7941   212
 3.8041   187
 3.8141   132
 3.8241   111
 3.8341   102
 3.8441    98
 3.8541    97
 3.8641   100
 3.8741   105
 3.8841   100
 3.8941   105
 3.9041   102
 3.9141   106
 3.9241   118
 3.9341   160
 3.9441   147
 3.9541   213
 3.9641   238
 3.9741   259
 3.9841   258
 3.9941   271
 4.0041   326
 4.0141   311
 4.0241   291
 4.0341   266
 4.0441   263
 4.0541   210
 4.0641   211
 4.0741   209
 4.0841   157
 4.0941   143
 4.1041   117
 4.1141   102
 4.1241   104
 4.1341    85
 4.1441    74
 4.1541    74
 4.1641    68
 4.1741    93
 4.1841    81
 4.1941    75
 4.2041    68
 4.2141    89
 4.2241    75
 4.2341    82
 4.2441    81
 4.2541    63
 4.2641    73
 4.2741    72
 4.2841    68
 4.2941    76
 4.3041    75
 4.3141    63
 4.3241    81
 4.3341    74
 4.3441    73
 4.3541   105
 4.3641    94
 4.3741   103
 4.3841   111
 4.3941   137
 4.4041   164
 4.4141   194
 4.4241   229
 4.4341   252
 4.4441   316
 4.4541   365
 4.4641   438
 4.4741   465
 4.4841   493
 4.4941   492
 4.5041   497
 4.5141   497
 4.5241   496
 4.5341   443
 4.5441   382
 4.5541   350
 4.5641   316
 4.5741   269
 4.5841   209
 4.5941   159
 4.6041   165
 4.6141   136
 4.6241   112
 4.6341   122
 4.6441   111
 4.6541    86
 4.6641   108
 4.6741   104
 4.6841    81
 4.6941    91
 4.7041    94
 4.7141   100
 4.7241    95
 4.7341    79
 4.7441   103
 4.7541    87
 4.7641   107
 4.7741   116
 4.7841   117
 4.7941   131
 4.8041   122
 4.8141   135
 4.8241   127
 4.8341   131
 4.8441   156
 4.8541   161
 4.8641   158
 4.8741   175
 4.8841   192
 4.8941   183
 4.9041   196
 4.9141   189
 4.9241   175
 4.9341   181
 4.9441   175
 4.9541   166
 4.9641   181
 4.9741   160
 4.9841   156
 4.9941   133
 5.0041   138
 5.0141   108
 5.0241   127
 5.0341   116
 5.0441   103
 5.0541    86
 5.0641    93
 5.0741    96
 5.0841   100
 5.0941    78
 5.1041    99
 5.1141   114
 5.1241    91
 5.1341    91
 5.1441   109
 5.1541   100
 5.1641   108
 5.1741    99
 5.1841   113
 5.1941    95
 5.2041   110
 5.2141   108
 5.2241   125
 5.2341   112
 5.2441   105
 5.2541    90
 5.2641   106
 5.2741   115
 5.2841   106
 5.2941    97
 5.3041   101
 5.3141   141
 5.3241   122
 5.3341   145
 5.3441   142
 5.3541   166
 5.3641   203
 5.3741   202
 5.3841   191
 5.3941   195
 5.4041   167
 5.4141   206
 5.4241   193
 5.4341   186
 5.4441   196
 5.4541   178
 5.4641   160
 5.4741   154
 5.4841   131
 5.4941   138
 5.5041   120
 5.5141   130
 5.5241   132
 5.5341   119
 5.5441    90
 5.5541   110
 5.5641   105
 5.5741   106
 5.5841   104
 5.5941   105
 5.6041   128
 5.6141   123
 5.6241   119
 5.6341   107
 5.6441   116
 5.6541    88
 5.6641   121
 5.6741   114
 5.6841   115
 5.6941   114
 5.7041   116
 5.7141    99
 5.7241   114
 5.7341   130
 5.7441   116
 5.7541   121
 5.7641   131
 5.7741   170
 5.7841   177
 5.7941   192
 5.8041   214
 5.8141   228
 5.8241   264
 5.8341   302
 5.8441   325
 5.8541   349
 5.8641   337
 5.8741   374
 5.8841   407
 5.8941   406
 5.9041   402
 5.9141   379
 5.9241   349
 5.9341   360
 5.9441   327
 5.9541   288
 5.9641   284
 5.9741   258
 5.9841   210
 5.9941   204
 6.0041   211
 6.0141   160
 6.0241   147
 6.0341   161
 6.0441   162
 6.0541   131
 6.0641   171
 6.0741   141
 6.0841   127
 6.0941   139
 6.1041   161
 6.1141   152
 6.1241   186
 6.1341   154
 6.1441   202
 6.1541   162
 6.1641   186
 6.1741   223
 6.1841   236
 6.1941   289
 6.2041   360
 6.2141   477
 6.2241   592
 6.2341   803
 6.2441  1197
 6.2541  1651
 6.2641  2258
 6.2741  3088
 6.2841  4131
 6.2941  5405
 6.3041  7022
 6.3141  8929
 6.3241 10991
 6.3341 13205
 6.3441 15438
 6.3541 17526
 6.3641 19659
 6.3741 21057
 6.3841 22119
 6.3941 22997
 6.4041 22672
 6.4141 21846
 6.4241 20649
 6.4341 18847
 6.4441 16689
 6.4541 14652
 6.4641 12199
 6.4741 10326
 6.4841  8170
 6.4941  6312
 6.5041  4992
 6.5141  3534
 6.5241  2643
 6.5341  1842
 6.5441  1338
 6.5541   901
 6.5641   687
 6.5741   534
 6.5841   362
 6.5941   284
 6.6041   231
 6.6141   247
 6.6241   176
 6.6341   202
 6.6441   194
 6.6541   177
 6.6641   166
 6.6741   168
 6.6841   194
 6.6941   195
 6.7041   169
 6.7141   192
 6.7241   164
 6.7341   184
 6.7441   162
 6.7541   172
 6.7641   162
 6.7741   186
 6.7841   210
 6.7941   215
 6.8041   206
 6.8141   222
 6.8241   226
 6.8341   250
 6.8441   258
 6.8541   262
 6.8641   288
 6.8741   318
 6.8841   390
 6.8941   484
 6.9041   557
 6.9141   637
 6.9241   748
 6.9341   938
 6.9441  1104
 6.9541  1338
 6.9641  1681
 6.9741  1983
 6.9841  2296
 6.9941  2767
 7.0041  3080
 7.0141  3300
 7.0241  3581
 7.0341  3831
 7.0441  3826
 7.0541  3858
 7.0641  3809
 7.0741  3677
 7.0841  3482
 7.0941  3228
 7.1041  2900
 7.1141  2543
 7.1241  2216
 7.1341  1780
 7.1441  1535
 7.1541  1285
 7.1641   996
 7.1741   776
 7.1841   600
 7.1941   520
 7.2041   440
 7.2141   360
 7.2241   308
 7.2341   248
 7.2441   252
 7.2541   249
 7.2641   226
 7.2741   222
 7.2841   213
 7.2941   266
 7.3041   247
 7.3141   278
 7.3241   274
 7.3341   292
 7.3441   309
 7.3541   358
 7.3641   333
 7.3741   345
 7.3841   368
 7.3941   357
 7.4041   375
 7.4141   397
 7.4241   439
 7.4341   438
 7.4441   426
 7.4541   403
 7.4641   413
 7.4741   446
 7.4841   449
 7.4941   412
 7.5041   377
 7.5141   375
 7.5241   347
 7.5341   316
 7.5441   306
 7.5541   268
 7.5641   225
 7.5741   256
 7.5841   261
 7.5941   248
 7.6041   225
 7.6141   206
 7.6241   236
 7.6341   212
 7.6441   220
 7.6541   212
 7.6641   239
 7.6741   192
 7.6841   206
 7.6941   203
 7.7041   225
 7.7141   271
 7.7241   224
 7.7341   241
 7.7441   231
 7.7541   225
 7.7641   262
 7.7741   240
 7.7841   273
 7.7941   265
 7.8041   249
 7.8141   291
 7.8241   308
 7.8341   299
 7.8441   301
 7.8541   313
 7.8641   331
 7.8741   328
 7.8841   355
 7.8941   320
 7.9041   344
 7.9141   364
 7.9241   431
 7.9341   432
 7.9441   429
 7.9541   467
 7.9641   521
 7.9741   546
 7.9841   577
 7.9941   595
 8.0041   649
 8.0141   741
 8.0241   747
 8.0341   834
 8.0441   884
 8.0541   890
 8.0641   942
 8.0741  1018
 8.0841  1091
 8.0941  1169
 8.1041  1220
 8.1141  1285
 8.1241  1381
 8.1341  1407
 8.1441  1413
 8.1541  1470
 8.1641  1471
 8.1741  1598
 8.1841  1484
 8.1941  1548
 8.2041  1552
 8.2141  1537
 8.2241  1615
 8.2341  1646
 8.2441  1618
 8.2541  1736
 8.2641  1879
 8.2741  1955
 8.2841  2085
 8.2941  2181
 8.3041  2365
 8.3141  2511
 8.3241  2660
 8.3341  2946
 8.3441  3011
 8.3541  3296
 8.3641  3366
 8.3741  3454
 8.3841  3597
 8.3941  3546
 8.4041  3491
 8.4141  3276
 8.4241  3090
 8.4341  2873
 8.4441  2652
 8.4541  2367
 8.4641  2095
 8.4741  1853
 8.4841  1564
 8.4941  1382
 8.5041  1182
 8.5141  1016
 8.5241   810
 8.5341   735
 8.5441   651
 8.5541   579
 8.5641   548
 8.5741   503
 8.5841   492
 8.5941   459
 8.6041   474
 8.6141   443
 8.6241   459
 8.6341   471
 8.6441   474
 8.6541   484
 8.6641   481
 8.6741   432
 8.6841   455
 8.6941   457
 8.7041   454
 8.7141   414
 8.7241   413
 8.7341   408
 8.7441   388
 8.7541   359
 8.7641   357
 8.7741   316
 8.7841   370
 8.7941   344
 8.8041   358
 8.8141   310
 8.8241   334
 8.8341   362
 8.8441   355
 8.8541   334
 8.8641   348
 8.8741   340
 8.8841   321
 8.8941   350
 8.9041   327
 8.9141   343
 8.9241   336
 8.9341   325
 8.9441   367
 8.9541   357
 8.9641   377
 8.9741   362
 8.9841   384
 8.9941   391
 9.0041   411
 9.0141   372
 9.0241   437
 9.0341   406
 9.0441   427
 9.0541   436
 9.0641   449
 9.0741   464
 9.0841   454
 9.0941   487
 9.1041   529
 9.1141   526
 9.1241   554
 9.1341   570
 9.1441   593
 9.1541   615
 9.1641   682
 9.1741   677
 9.1841   696
 9.1941   761
 9.2041   818
 9.2141   852
 9.2241   871
 9.2341   930
 9.2441   945
 9.2541   985
 9.2641  1094
 9.2741  1113
 9.2841  1183
 9.2941  1148
 9.3041  1221
 9.3141  1262
 9.3241  1326
 9.3341  1331
 9.3441  1377
 9.3541  1415
 9.3641  1411
 9.3741  1434
 9.3841  1487
 9.3941  1502
 9.4041  1542
 9.4141  1509
 9.4241  1517
 9.4341  1565
 9.4441  1536
 9.4541  1596
 9.4641  1657
 9.4741  1689
 9.4841  1666
 9.4941  1742
 9.5041  1744
 9.5141  1813
 9.5241  1833
 9.5341  1884
 9.5441  1926
 9.5541  2078
 9.5641  2237
 9.5741  2223
 9.5841  2396
 9.5941  2566
 9.6041  2738
 9.6141  2838
 9.6241  3003
 9.6341  3017
 9.6441  3137
 9.6541  3212
 9.6641  3274
 9.6741  3317
 9.6841  3124
 9.6941  3063
 9.7041  2891
 9.7141  2855
 9.7241  2669
 9.7341  2502
 9.7441  2273
 9.7541  2077
 9.7641  1962
 9.7741  1867
 9.7841  1686
 9.7941  1541
 9.8041  1438
 9.8141  1390
 9.8241  1287
 9.8341  1318
 9.8441  1363
 9.8541  1279
 9.8641  1303
 9.8741  1323
 9.8841  1302
 9.8941  1335
 9.9041  1450
 9.9141  1426
 9.9241  1369
 9.9341  1477
 9.9441  1466
 9.9541  1434
 9.9641  1448
 9.9741  1368
 9.9841  1292
 9.9941  1239
10.0041  1180
10.0141  1096
10.0241  1025
10.0341   936
10.0441   851
10.0541   760
10.0641   710
10.0741   622
10.0841   589
10.0941   490
10.1041   445
10.1141   400
10.1241   358
10.1341   331
10.1441   294
10.1541   290
10.1641   284
10.1741   278
10.1841   278
10.1941   260
10.2041   285
10.2141   260
10.2241   223
10.2341   230
10.2441   227
10.2541   218
10.2641   238
10.2741   217
10.2841   224
10.2941   207
10.3041   200
10.3141   190
10.3241   185
10.3341   168
10.3441   190
10.3541   194
10.3641   183
10.3741   168
10.3841   190
10.3941   173
10.4041   183
10.4141   192
10.4241   189
10.4341   185
10.4441   191
10.4541   203
10.4641   190
10.4741   194
10.4841   209
10.4941   199
10.5041   198
10.5141   211
10.5241   206
10.5341   211
10.5441   215
10.5541   219
10.5641   206
10.5741   217
10.5841   211
10.5941   210
10.6041   202
10.6141   235
10.6241   224
10.6341   225
10.6441   228
10.6541   231
10.6641   232
10.6741   228
10.6841   226
10.6941   239
10.7041   261
10.7141   255
10.7241   255
10.7341   261
10.7441   265
10.7541   275
10.7641   292
10.7741   271
10.7841   283
10.7941   312
10.8041   311
10.8141   302
10.8241   309
10.8341   314
10.8441   318
10.8541   317
10.8641   321
10.8741   340
10.8841   330
10.8941   306
10.9041   359
10.9141   341
10.9241   328
10.9341   344
10.9441   346
10.9541   335
10.9641   348
10.9741   336
10.9841   311
10.9941   330
11.0041   332
11.0141   315
11.0241   335
11.0341   307
11.0441   297
11.0541   289
11.0641   301
11.0741   296
11.0841   299
11.0941   301
11.1041   255
11.1141   279
11.1241   309
11.1341   308
11.1441   328
11.1541   316
11.1641   327
11.1741   345
11.1841   352
11.1941   380
11.2041   389
11.2141   401
11.2241   399
11.2341   436
11.2441   451
11.2541   462
11.2641   460
11.2741   487
11.2841   481
11.2941   463
11.3041   488
11.3141   467
11.3241   417
11.3341   409
11.3441   412
11.3541   396
11.3641   376
11.3741   337
11.3841   306
11.3941   298
11.4041   300
11.4141   301
11.4241   292
11.4341   253
11.4441   244
11.4541   239
11.4641   261
11.4741   241
11.4841   237
11.4941   234
11.5041   219
11.5141   236
11.5241   239
11.5341   245
11.5441   254
11.5541   256
11.5641   233
11.5741   225
11.5841   254
11.5941   234
11.6041   228
11.6141   239
11.6241   253
11.6341   255
11.6441   263
11.6541   266
11.6641   262
11.6741   252
11.6841   240
11.6941   224
11.7041   256
11.7141   243
11.7241   219
11.7341   216
11.7441   224
11.7541   218
11.7641   192
11.7741   202
11.7841   185
11.7941   180
11.8041   179
11.8141   191
11.8241   181
11.8341   178
11.8441   182
11.8541   190
11.8641   183
11.8741   190
11.8841   198
11.8941   192
11.9041   191
11.9141   202
11.9241   197
11.9341   204
11.9441   219
11.9541   224
11.9641   217
11.9741   194
11.9841   201
11.9941   188
12.0041   189
12.0141   196
12.0241   186
12.0341   199
12.0441   205
12.0541   193
12.0641   189
12.0741   182
12.0841   183
12.0941   194
12.1041   179
12.1141   166
12.1241   161
12.1341   168
12.1441   193
12.1541   181
12.1641   163
12.1741   182
12.1841   173
12.1941   184
12.2041   182
12.2141   178
12.2241   186
12.2341   176
12.2441   182
12.2541   185
12.2641   181
12.2741   179
12.2841   187
12.2941   196
12.3041   182
12.3141   182
12.3241   179
12.3341   168
12.3441   171
12.3541   183
12.3641   180
12.3741   174
12.3841   169
12.3941   177
12.4041   187
12.4141   177
12.4241   187
12.4341   189
12.4441   176
12.4541   169
12.4641   178
12.4741   188
12.4841   179
12.4941   193
12.5041   184
12.5141   173
12.5241   181
12.5341   177
12.5441   201
12.5541   212
12.5641   207
12.5741   205
12.5841   210
12.5941   213
12.6041   213
12.6141   203
12.6241   187
12.6341   183
12.6441   207
12.6541   213
12.6641   199
12.6741   184
12.6841   180
12.6941   195
12.7041   208
12.7141   198
12.7241   179
12.7341   186
12.7441   194
12.7541   190
12.7641   190
12.7741   200
12.7841   209
12.7941   208
12.8041   202
12.8141   203
12.8241   209
12.8341   211
12.8441   205
12.8541   198
12.8641   200
12.8741   211
12.8841   221
12.8941   223
12.9041   223
12.9141   224
12.9241   230
12.9341   235
12.9441   216
12.9541   221
12.9641   231
12.9741   228
12.9841   220
12.9941   223
13.0041   230
13.0141   225
13.0241   232
13.0341   228
13.0441   220
13.0541   216
13.0641   211
13.0741   210
13.0841   215
13.0941   223
13.1041   233
13.1141   238
13.1241   238
13.1341   237
13.1441   239
13.1541   243
13.1641   245
13.1741   254
13.1841   264
13.1941   262
13.2041   260
13.2141   271
13.2241   290
13.2341   282
13.2441   288
13.2541   313
13.2641   315
13.2741   332
13.2841   344
13.2941   350
13.3041   368
13.3141   397
13.3241   423
13.3341   430
13.3441   438
13.3541   441
13.3641   420
13.3741   417
13.3841   430
13.3941   427
13.4041   413
13.4141   419
13.4241   433
13.4341   440
13.4441   411
13.4541   377
13.4641   363
13.4741   352
13.4841   348
13.4941   323
13.5041   322
13.5141   333
13.5241   316
13.5341   293
13.5441   281
13.5541   279
13.5641   289
13.5741   280
13.5841   273
13.5941   272
13.6041   272
13.6141   276
13.6241   274
13.6341   272
13.6441   271
13.6541   288
13.6641   302
13.6741   294
13.6841   286
13.6941   278
13.7041   277
13.7141   272
13.7241   253
13.7341   258
13.7441   286
13.7541   260
13.7641   258
13.7741   286
13.7841   283
13.7941   271
13.8041   266
13.8141   282
13.8241   290
13.8341   297
13.8441   296
13.8541   279
13.8641   287
13.8741   292
13.8841   273
13.8941   287
13.9041   319
13.9141   307
13.9241   302
13.9341   335
13.9441   352
13.9541   362
13.9641   407
13.9741   411
13.9841   426
13.9941   486
14.0041   525
14.0141   567
14.0241   591
14.0341   612
14.0441   657
14.0541   719
14.0641   786
14.0741   817
14.0841   812
14.0941   856
14.1041   929
14.1141   953
14.1241   968
14.1341   983
14.1441   951
14.1541   934
14.1641   942
14.1741   938
14.1841   934
14.1941   930
14.2041   874
14.2141   804
14.2241   756
14.2341   714
14.2441   695
14.2541   624
14.2641   558
14.2741   526
14.2841   519
14.2941   482
14.3041   447
14.3141   439
14.3241   414
14.3341   417
14.3441   393
14.3541   375
14.3641   367
14.3741   346
14.3841   341
14.3941   335
14.4041   344
14.4141   347
14.4241   319
14.4341   316
14.4441   319
14.4541   318
14.4641   322
14.4741   331
14.4841   342
14.4941   347
14.5041   347
14.5141   354
14.5241   345
14.5341   316
14.5441   323
14.5541   343
14.5641   324
14.5741   325
14.5841   342
14.5941   344
14.6041   345
14.6141   321
14.6241   315
14.6341   326
14.6441   342
14.6541   334
14.6641   333
14.6741   334
14.6841   341
14.6941   341
14.7041   345
14.7141   348
14.7241   343
14.7341   336
14.7441   335
14.7541   351
14.7641   353
14.7741   342
14.7841   357
14.7941   366
14.8041   361
14.8141   390
14.8241   409
14.8341   398
14.8441   382
14.8541   394
14.8641   432
14.8741   438
14.8841   438
14.8941   419
14.9041   411
14.9141   422
14.9241   427
14.9341   438
14.9441   433
14.9541   424
14.9641   434
14.9741   416
14.9841   422
14.9941   420
15.0041   396
15.0141   416
15.0241   421
15.0341   415
15.0441   424
15.0541   405
15.0641   387
15.0741   382
15.0841   377
15.0941   390
15.1041   396
15.1141   384
15.1241   386
15.1341   377
15.1441   386
15.1541   383
15.1641   375
15.1741   375
15.1841   398
15.1941   395
15.2041   364
15.2141   363
15.2241   384
15.2341   378
15.2441   373
15.2541   390
15.2641   383
15.2741   368
15.2841   384
15.2941   382
15.3041   390
15.3141   377
15.3241   387
15.3341   391
15.3441   406
15.3541   395
15.3641   398
15.3741   422
15.3841   409
15.3941   394
15.4041   405
15.4141   419
15.4241   416
15.4341   386
15.4441   389
15.4541   399
15.4641   417
15.4741   425
15.4841   394
15.4941   394
15.5041   398
15.5141   426
15.5241   441
15.5341   423
15.5441   426
15.5541   443
15.5641   438
15.5741   449
15.5841   488
15.5941   463
15.6041   448
15.6141   489
15.6241   538
15.6341   542
15.6441   555
15.6541   573
15.6641   595
15.6741   610
15.6841   634
15.6941   624
15.7041   639
15.7141   661
15.7241   679
15.7341   679
15.7441   662
15.7541   693
15.7641   706
15.7741   696
15.7841   704
15.7941   698
15.8041   681
15.8141   687
15.8241   693
15.8341   666
15.8441   644
15.8541   647
15.8641   614
15.8741   596
15.8841   613
15.8941   609
15.9041   569
15.9141   577
15.9241   550
15.9341   547
15.9441   555
15.9541   531
15.9641   491
15.9741   488
15.9841   503
15.9941   479
16.0041   502
16.0141   488
16.0241   445
16.0341   459
16.0441   491
16.0541   466
16.0641   468
16.0741   489
16.0841   469
16.0941   484
16.1041   484
16.1141   461
16.1241   466
16.1341   456
16.1441   479
16.1541   474
16.1641   465
16.1741   462
16.1841   458
16.1941   451
16.2041   460
16.2141   449
16.2241   456
16.2341   459
16.2441   463
16.2541   478
16.2641   466
16.2741   478
16.2841   476
16.2941   464
16.3041   467
16.3141   481
16.3241   473
16.3341   448
16.3441   460
16.3541   491
16.3641   482
16.3741   463
16.3841   468
16.3941   494
16.4041   500
16.4141   495
16.4241   491
16.4341   488
16.4441   486
16.4541   479
16.4641   506
16.4741   476
16.4841   476
16.4941   477
16.5041   493
16.5141   504
16.5241   490
16.5341   496
16.5441   494
16.5541   501
16.5641   500
16.5741   501
16.5841   529
16.5941   516
16.6041   515
16.6141   506
16.6241   493
16.6341   505
16.6441   492
16.6541   516
16.6641   513
16.6741   502
16.6841   520
16.6941   519
16.7041   530
16.7141   510
16.7241   512
16.7341   544
16.7441   546
16.7541   533
16.7641   515
16.7741   518
16.7841   522
16.7941   520
16.8041   509
16.8141   534
16.8241   520
16.8341   492
16.8441   536
16.8541   542
16.8641   510
16.8741   528
16.8841   513
16.8941   501
16.9041   530
16.9141   529
16.9241   525
16.9341   537
16.9441   536
16.9541   520
16.9641   515
16.9741   510
16.9841   508
16.9941   522
17.0041   548
17.0141   540
17.0241   490
17.0341   473
17.0441   518
17.0541   527
17.0641   510
17.0741   525
17.0841   534
17.0941   531
17.1041   521
17.1141   523
17.1241   530
17.1341   529
17.1441   521
17.1541   530
17.1641   553
17.1741   530
17.1841   557
17.1941   547
17.2041   532
17.2141   535
17.2241   545
17.2341   554
17.2441   544
17.2541   554
17.2641   538
17.2741   548
17.2841   551
17.2941   553
17.3041   579
17.3141   557
17.3241   587
17.3341   582
17.3441   572
17.3541   591
17.3641   553
17.3741   567
17.3841   538
17.3941   560
17.4041   551
17.4141   560
17.4241   565
17.4341   583
17.4441   575
17.4541   587
17.4641   577
17.4741   563
17.4841   591
17.4941   580
17.5041   574
17.5141   569
17.5241   561
17.5341   569
17.5441   581
17.5541   602
17.5641   579
17.5741   561
17.5841   571
17.5941   582
17.6041   608
17.6141   598
17.6241   590
17.6341   611
17.6441   566
17.6541   619
17.6641   629
17.6741   598
17.6841   590
17.6941   598
17.7041   613
17.7141   619
17.7241   591
17.7341   565
17.7441   602
17.7541   591
17.7641   604
17.7741   596
17.7841   621
17.7941   575
17.8041   591
17.8141   601
17.8241   619
17.8341   605
17.8441   587
17.8541   597
17.8641   605
17.8741   603
17.8841   563
17.8941   581
17.9041   587
17.9141   563
17.9241   586
17.9341   588
17.9441   570
17.9541   596
17.9641   618
17.9741   592
17.9841   571
17.9941   581
18.0041   584
18.0141   593
18.0241   609
18.0341   574
18.0441   599
18.0541   632
18.0641   601
18.0741   596
18.0841   623
18.0941   599
18.1041   556
18.1141   553
18.1241   606
18.1341   617
18.1441   623
18.1541   576
18.1641   594
18.1741   596
18.1841   601
18.1941   624
18.2041   622
18.2141   588
18.2241   584
18.2341   587
18.2441   608
18.2541   620
18.2641   584
18.2741   600
18.2841   611
18.2941   617
18.3041   608
18.3141   622
18.3241   629
18.3341   598
18.3441   610
18.3541   628
18.3641   571
18.3741   559
18.3841   591
18.3941   583
18.4041   637
18.4141   624
18.4241   599
18.4341   597
18.4441   603
18.4541   626
18.4641   591
18.4741   580
18.4841   615
18.4941   639
18.5041   596
18.5141   613
18.5241   651
18.5341   645
18.5441   628
18.5541   619
18.5641   605
18.5741   616
18.5841   605
18.5941   611
18.6041   597
18.6141   628
18.6241   655
18.6341   616
18.6441   635
18.6541   593
18.6641   596
18.6741   620
18.6841   608
18.6941   628
18.7041   600
18.7141   576
18.7241   641
18.7341   625
18.7441   633
18.7541   635
18.7641   610
18.7741   623
18.7841   613
18.7941   653
18.8041   672
18.8141   608
18.8241   598
18.8341   630
18.8441   600
18.8541   608
18.8641   654
18.8741   651
18.8841   652
18.8941   623
18.9041   608
18.9141   613
18.9241   619
18.9341   648
18.9441   595
18.9541   612
18.9641   663
18.9741   617
18.9841   595
18.9941   620
19.0041   621
19.0141   652
19.0241   649
19.0341   613
19.0441   650
19.0541   643
19.0641   640
19.0741   625
19.0841   644
19.0941   636
19.1041   665
19.1141   671
19.1241   622
19.1341   606
19.1441   631
19.1541   630
19.1641   645
19.1741   638
19.1841   657
19.1941   623
19.2041   606
19.2141   590
19.2241   632
19.2341   667
19.2441   646
19.2541   634
19.2641   631
19.2741   605
19.2841   651
19.2941   652
19.3041   662
19.3141   614
19.3241   627
19.3341   630
19.3441   589
19.3541   653
19.3641   667
19.3741   638
19.3841   621
19.3941   641
19.4041   648
19.4141   626
19.4241   640
19.4341   614
19.4441   613
19.4541   672
19.4641   611
19.4741   673
19.4841   683
19.4941   632
19.5041   610
19.5141   629
19.5241   615
19.5341   633
19.5441   631
19.5541   646
19.5641   655
19.5741   633
19.5841   651
19.5941   662
19.6041   666
19.6141   619
19.6241   653
19.6341   638
19.6441   619
19.6541   650
19.6641   660
19.6741   634
19.6841   631
19.6941   643
19.7041   659
19.7141   659
19.7241   641
19.7341   649
19.7441   620
19.7541   676
19.7641   682
19.7741   629
19.7841   691
19.7941   620
19.8041   630
19.8141   682
19.8241   628
19.8341   634
19.8441   663
19.8541   618
19.8641   683
19.8741   697
19.8841   662
19.8941   651
19.9041   654
19.9141   691
19.9241   670
19.9341   644
19.9441   665
19.9541   692
19.9641   652
19.9741   661
19.9841   641
19.9941   606
20.0041   591
20.0141   627
20.0241   634
20.0341   633
20.0441   620
20.0541   614
20.0641   612
20.0741   629
20.0841   624
20.0941   651
20.1041   620
20.1141   621
20.1241   641
20.1341   661
20.1441   654
20.1541   682
20.1641   656
20.1741   654
20.1841   629
20.1941   661
20.2041   652
20.2141   651
20.2241   640
20.2341   641
20.2441   656
20.2541   657
20.2641   629
20.2741   660
20.2841   627
20.2941   651
20.3041   670
20.3141   625
20.3241   669
20.3341   679
20.3441   626
20.3541   673
20.3641   679
20.3741   648
20.3841   633
20.3941   641
20.4041   669
20.4141   651
20.4241   645
20.4341   660
20.4441   645
20.4541   679
20.4641   621
20.4741   637
20.4841   627
20.4941   613
20.5041   664
20.5141   634
20.5241   639
20.5341   651
20.5441   669
20.5541   634
20.5641   623
20.5741   639
20.5841   638
20.5941   661
20.6041   669
20.6141   698
20.6241   658
20.6341   679
20.6441   663
20.6541   660
20.6641   665
20.6741   672
20.6841   659
20.6941   644
20.7041   652
20.7141   644
20.7241   676
20.7341   695
20.7441   642
20.7541   641
20.7641   664
20.7741   637
20.7841   635
20.7941   643
20.8041   697
20.8141   659
20.8241   671
20.8341   654
20.8441   684
20.8541   714
20.8641   722
20.8741   731
20.8841   726
20.8941   755
20.9041   751
20.9141   724
20.9241   762
20.9341   745
20.9441   774
20.9541   772
20.9641   807
20.9741   820
20.9841   788
20.9941   819
21.0041   837
21.0141   818
21.0241   852
21.0341   883
21.0441   854
21.0541   831
21.0641   865
21.0741   872
21.0841   889
21.0941   900
21.1041   913
21.1141   945
21.1241   913
21.1341   907
21.1441   941
21.1541   909
21.1641   901
21.1741   886
21.1841   902
21.1941   878
21.2041   862
21.2141   809
21.2241   837
21.2341   869
21.2441   782
21.2541   806
21.2641   779
21.2741   818
21.2841   742
21.2941   764
21.3041   771
21.3141   721
21.3241   718
21.3341   737
21.3441   699
21.3541   700
21.3641   677
21.3741   664
21.3841   686
21.3941   656
21.4041   652
21.4141   704
21.4241   695
21.4341   659
21.4441   629
21.4541   701
21.4641   632
21.4741   633
21.4841   658
21.4941   648
21.5041   620
21.5141   642
21.5241   608
21.5341   643
21.5441   629
21.5541   628
21.5641   639
21.5741   661
21.5841   662
21.5941   618
21.6041   625
21.6141   638
21.6241   682
21.6341   640
21.6441   666
21.6541   629
21.6641   624
21.6741   659
21.6841   630
21.6941   649
21.7041   605
21.7141   616
21.7241   627
21.7341   619
21.7441   630
21.7541   631
21.7641   637
21.7741   633
21.7841   637
21.7941   669
21.8041   677
21.8141   606
21.8241   629
21.8341   627
21.8441   645
21.8541   614
21.8641   620
21.8741   601
21.8841   633
21.8941   639
21.9041   664
21.9141   611
21.9241   592
21.9341   671
21.9441   643
21.9541   632
21.9641   645
21.9741   662
21.9841   599
21.9941   598
22.0041   628
22.0141   619
22.0241   588
22.0341   611
22.0441   635
22.0541   632
22.0641   567
22.0741   628
22.0841   612
22.0941   606
22.1041   648
22.1141   638
22.1241   633
22.1341   633
22.1441   660
22.1541   606
22.1641   630
22.1741   648
22.1841   628
22.1941   627
22.2041   603
22.2141   602
22.2241   616
22.2341   635
22.2441   657
22.2541   631
22.2641   621
22.2741   576
22.2841   606
22.2941   593
22.3041   601
22.3141   625
22.3241   675
22.3341   634
22.3441   650
22.3541   652
22.3641   607
22.3741   637
22.3841   621
22.3941   631
22.4041   666
22.4141   636
22.4241   600
22.4341   609
22.4441   582
22.4541   631
22.4641   589
22.4741   589
22.4841   608
22.4941   577
22.5041   586
22.5141   615
22.5241   575
22.5341   612
22.5441   608
22.5541   588
22.5641   624
22.5741   610
22.5841   610
22.5941   629
22.6041   621
22.6141   625
22.6241   622
22.6341   567
22.6441   606
22.6541   621
22.6641   641
22.6741   585
22.6841   648
22.6941   618
22.7041   594
22.7141   591
22.7241   630
22.7341   590
22.7441   571
22.7541   609
22.7641   567
22.7741   620
22.7841   606
22.7941   587
22.8041   597
22.8141   606
22.8241   624
22.8341   574
22.8441   596
22.8541   548
22.8641   576
22.8741   577
22.8841   633
22.8941   611
22.9041   614
22.9141   612
22.9241   558
22.9341   610
22.9441   620
22.9541   573
22.9641   605
22.9741   611
22.9841   573
22.9941   613
23.0041   619
23.0141   597
23.0241   589
23.0341   636
23.0441   573
23.0541   569
23.0641   610
23.0741   558
23.0841   611
23.0941   580
23.1041   588
23.1141   580
23.1241   604
23.1341   597
23.1441   593
23.1541   613
23.1641   607
23.1741   591
23.1841   577
23.1941   594
23.2041   596
23.2141   586
23.2241   553
23.2341   587
23.2441   611
23.2541   534
23.2641   541
23.2741   612
23.2841   644
23.2941   611
23.3041   599
23.3141   599
23.3241   569
23.3341   618
23.3441   601
23.3541   599
23.3641   568
23.3741   579
23.3841   604
23.3941   566
23.4041   582
23.4141   571
23.4241   572
23.4341   575
23.4441   560
23.4541   561
23.4641   581
23.4741   572
23.4841   555
23.4941   525
23.5041   580
23.5141   554
23.5241   559
23.5341   512
23.5441   590
23.5541   565
23.5641   599
23.5741   571
23.5841   535
23.5941   581
23.6041   541
23.6141   555
23.6241   559
23.6341   561
23.6441   565
23.6541   588
23.6641   629
23.6741   641
23.6841   575
23.6941   572
23.7041   611
23.7141   575
23.7241   638
23.7341   647
23.7441   605
23.7541   578
23.7641   626
23.7741   591
23.7841   571
23.7941   610
23.8041   597
23.8141   593
23.8241   617
23.8341   570
23.8441   603
23.8541   581
23.8641   608
23.8741   631
23.8841   559
23.8941   607
23.9041   606
23.9141   581
23.9241   608
23.9341   563
23.9441   567
23.9541   584
23.9641   550
23.9741   587
23.9841   597
23.9941   555
24.0041   594
24.0141   595
24.0241   539
24.0341   577
24.0441   537
24.0541   548
24.0641   559
24.0741   545
24.0841   527
24.0941   531
24.1041   575
24.1141   540
24.1241   520
24.1341   556
24.1441   565
24.1541   552
24.1641   543
24.1741   516
24.1841   519
24.1941   578
24.2041   549
24.2141   563
24.2241   586
24.2341   547
24.2441   548
24.2541   537
24.2641   541
24.2741   545
24.2841   571
24.2941   565
24.3041   561
24.3141   521
24.3241   539
24.3341   511
24.3441   583
24.3541   602
24.3641   535
24.3741   520
24.3841   508
24.3941   537
24.4041   475
24.4141   526
24.4241   544
24.4341   503
24.4441   514
24.4541   533
24.4641   542
24.4741   534
24.4841   514
24.4941   529
24.5041   502
24.5141   496
24.5241   550
24.5341   519
24.5441   511
24.5541   528
24.5641   501
24.5741   540
24.5841   509
24.5941   496
24.6041   540
24.6141   519
24.6241   552
24.6341   519
24.6441   514
24.6541   495
24.6641   501
24.6741   547
24.6841   503
24.6941   513
24.7041   528
24.7141   540
24.7241   540
24.7341   489
24.7441   499
24.7541   488
24.7641   539
24.7741   511
24.7841   494
24.7941   509
24.8041   531
24.8141   565
24.8241   486
24.8341   491
24.8441   538
24.8541   514
24.8641   513
24.8741   515
24.8841   496
24.8941   515
24.9041   474
24.9141   523
24.9241   492
24.9341   508
24.9441   561
24.9541   524
24.9641   518
24.9741   489
24.9841   510
24.9941   518
25.0041   514
25.0141   500
25.0241   514
25.0341   515
25.0441   501
25.0541   534
25.0641   502
25.0741   537
25.0841   476
25.0941   510
25.1041   495
25.1141   565
25.1241   502
25.1341   539
25.1441   515
25.1541   513
25.1641   529
25.1741   528
25.1841   512
25.1941   507
25.2041   526
25.2141   510
25.2241   481
25.2341   499
25.2441   493
25.2541   503
25.2641   487
25.2741   489
25.2841   530
25.2941   526
25.3041   502
25.3141   515
25.3241   516
25.3341   549
25.3441   514
25.3541   528
25.3641   541
25.3741   490
25.3841   485
25.3941   536
25.4041   514
25.4141   495
25.4241   514
25.4341   506
25.4441   527
25.4541   477
25.4641   482
25.4741   440
25.4841   470
25.4941   468
25.5041   470
25.5141   465
25.5241   473
25.5341   493
25.5441   457
25.5541   485
25.5641   473
25.5741   473
25.5841   473
25.5941   492
25.6041   455
25.6141   459
25.6241   507
25.6341   478
25.6441   482
25.6541   449
25.6641   477
25.6741   481
25.6841   464
25.6941   451
25.7041   452
25.7141   511
25.7241   472
25.7341   437
25.7441   460
25.7541   466
25.7641   513
25.7741   458
25.7841   470
25.7941   441
25.8041   431
25.8141   416
25.8241   428
25.8341   449
25.8441   462
25.8541   439
25.8641   449
25.8741   459
25.8841   466
25.8941   405
25.9041   457
25.9141   471
25.9241   431
25.9341   473
25.9441   453
25.9541   450
25.9641   473
25.9741   498
25.9841   441
25.9941   439
26.0041   424
26.0141   467
26.0241   447
26.0341   471
26.0441   416
26.0541   422
26.0641   444
26.0741   455
26.0841   423
26.0941   461
26.1041   442
26.1141   424
26.1241   467
26.1341   467
26.1441   474
26.1541   463
26.1641   448
26.1741   421
26.1841   459
26.1941   425
26.2041   422
26.2141   470
26.2241   449
26.2341   425
26.2441   453
26.2541   449
26.2641   447
26.2741   436
26.2841   446
26.2941   460
26.3041   444
26.3141   417
26.3241   436
26.3341   434
26.3441   440
26.3541   431
26.3641   452
26.3741   449
26.3841   428
26.3941   431
26.4041   423
26.4141   430
26.4241   429
26.4341   464
26.4441   458
26.4541   410
26.4641   419
26.4741   431
26.4841   420
26.4941   444
26.5041   475
26.5141   422
26.5241   418
26.5341   454
26.5441   412
26.5541   409
26.5641   412
26.5741   430
26.5841   423
26.5941   429
26.6041   414
26.6141   447
26.6241   406
26.6341   410
26.6441   410
26.6541   417
26.6641   421
26.6741   438
26.6841   385
26.6941   372
26.7041   376
26.7141   417
26.7241   419
26.7341   439
26.7441   430
26.7541   412
26.7641   402
26.7741   389
26.7841   438
26.7941   436
26.8041   399
26.8141   414
26.8241   403
26.8341   390
26.8441   400
26.8541   423
26.8641   415
26.8741   437
26.8841   387
26.8941   366
26.9041   410
26.9141   397
26.9241   417
26.9341   389
26.9441   413
26.9541   415
26.9641   408
26.9741   403
26.9841   372
26.9941   399
27.0041   418
27.0141   418
27.0241   366
27.0341   392
27.0441   402
27.0541   418
27.0641   409
27.0741   421
27.0841   395
27.0941   395
27.1041   388
27.1141   396
27.1241   383
27.1341   373
27.1441   373
27.1541   374
27.1641   399
27.1741   404
27.1841   396
27.1941   381
27.2041   367
27.2141   365
27.2241   405
27.2341   422
27.2441   369
27.2541   395
27.2641   389
27.2741   395
27.2841   416
27.2941   391
27.3041   384
27.3141   421
27.3241   424
27.3341   403
27.3441   415
27.3541   352
27.3641   374
27.3741   415
27.3841   376
27.3941   399
27.4041   380
27.4141   406
27.4241   394
27.4341   365
27.4441   370
27.4541   353
27.4641   370
27.4741   376
27.4841   388
27.4941   404
27.5041   365
27.5141   393
27.5241   410
27.5341   410
27.5441   406
27.5541   384
27.5641   388
27.5741   373
27.5841   350
27.5941   366
27.6041   388
27.6141   395
27.6241   354
27.6341   387
27.6441   375
27.6541   377
27.6641   405
27.6741   395
27.6841   354
27.6941   390
27.7041   371
27.7141   367
27.7241   333
27.7341   327
27.7441   369
27.7541   385
27.7641   349
27.7741   356
27.7841   375
27.7941   330
27.8041   356
27.8141   338
27.8241   355
27.8341   329
27.8441   375
27.8541   353
27.8641   351
27.8741   380
27.8841   346
27.8941   383
27.9041   361
27.9141   381
27.9241   332
27.9341   308
27.9441   348
27.9541   364
27.9641   361
27.9741   367
27.9841   352
27.9941   353
28.0041   365
28.0141   354
28.0241   347
28.0341   334
28.0441   353
28.0541   362
28.0641   352
28.0741   338
28.0841   352
28.0941   350
28.1041   360
28.1141   328
28.1241   359
28.1341   355
28.1441   369
28.1541   345
28.1641   379
28.1741   330
28.1841   315
28.1941   343
28.2041   360
28.2141   342
28.2241   357
28.2341   341
28.2441   338
28.2541   347
28.2641   358
28.2741   330
28.2841   330
28.2941   373
28.3041   345
28.3141   310
28.3241   322
28.3341   328
28.3441   333
28.3541   355
28.3641   332
28.3741   368
28.3841   326
28.3941   328
28.4041   347
28.4141   342
28.4241   348
28.4341   349
28.4441   325
28.4541   325
28.4641   312
28.4741   333
28.4841   309
28.4941   311
28.5041   333
28.5141   343
28.5241   308
28.5341   305
28.5441   353
28.5541   341
28.5641   322
28.5741   287
28.5841   333
28.5941   331
28.6041   298
28.6141   301
28.6241   333
28.6341   352
28.6441   332
28.6541   366
28.6641   313
28.6741   299
28.6841   300
28.6941   326
28.7041   362
28.7141   345
28.7241   301
28.7341   329
28.7441   347
28.7541   319
28.7641   339
28.7741   320
28.7841   310
28.7941   301
28.8041   319
28.8141   292
28.8241   321
28.8341   310
28.8441   323
28.8541   302
28.8641   327
28.8741   295
28.8841   315
28.8941   306
28.9041   317
28.9141   298
28.9241   332
28.9341   308
28.9441   316
28.9541   301
28.9641   277
28.9741   305
28.9841   297
28.9941   290
29.0041   320
29.0141   332
29.0241   318
29.0341   311
29.0441   337
29.0541   344
29.0641   310
29.0741   302
29.0841   270
29.0941   280
29.1041   308
29.1141   327
29.1241   276
29.1341   279
29.1441   307
29.1541   336
29.1641   341
29.1741   305
29.1841   297
29.1941   296
29.2041   279
29.2141   334
29.2241   270
29.2341   300
29.2441   283
29.2541   270
29.2641   286
29.2741   299
29.2841   279
29.2941   295
29.3041   267
29.3141   284
29.3241   291
29.3341   294
29.3441   310
29.3541   313
29.3641   304
29.3741   309
29.3841   289
29.3941   300
29.4041   258
29.4141   268
29.4241   287
29.4341   262
29.4441   264
29.4541   291
29.4641   278
29.4741   321
29.4841   292
29.4941   290
29.5041   282
29.5141   267
29.5241   283
29.5341   273
29.5441   281
29.5541   246
29.5641   273
29.5741   300
29.5841   289
29.5941   267
29.6041   303
29.6141   283
29.6241   288
29.6341   261
29.6441   316
29.6541   290
29.6641   285
29.6741   273
29.6841   275
29.6941   280
29.7041   278
29.7141   263
29.7241   258
29.7341   281
29.7441   277
29.7541   290
29.7641   268
29.7741   291
29.7841   274
29.7941   264
29.8041   274
29.8141   264
29.8241   294
29.8341   294
29.8441   264
29.8541   279
29.8641   246
29.8741   275
29.8841   284
29.8941   256
29.9041   260
29.9141   252
29.9241   238
29.9341   247
29.9441   257
29.9541   283
29.9641   260
29.9741   269
29.9841   264
29.9941   267
30.0041   285
30.0141   285
30.0241   281
30.0341   282
30.0441   261
30.0541   302
30.0641   255
30.0741   273
30.0841   276
30.0941   253
30.1041   267
30.1141   271
30.1241   268
30.1341   269
30.1441   236
30.1541   274
30.1641   279
30.1741   260
30.1841   253
30.1941   230
30.2041   268
30.2141   244
30.2241   257
30.2341   267
30.2441   248
30.2541   260
30.2641   267
30.2741   277
30.2841   267
30.2941   282
30.3041   267
30.3141   262
30.3241   230
30.3341   227
30.3441   269
30.3541   263
30.3641   276
30.3741   262
30.3841   264
30.3941   232
30.4041   255
30.4141   240
30.4241   252
30.4341   228
30.4441   246
30.4541   284
30.4641   247
30.4741   243
30.4841   262
30.4941   248
30.5041   242
30.5141   233
30.5241   246
30.5341   237
30.5441   225
30.5541   231
30.5641   247
30.5741   216
30.5841   230
30.5941   210
30.6041   234
30.6141   236
30.6241   234
30.6341   258
30.6441   252
30.6541   244
30.6641   262
30.6741   248
30.6841   229
30.6941   251
30.7041   224
30.7141   229
30.7241   243
30.7341   232
30.7441   221
30.7541   248
30.7641   257
30.7741   242
30.7841   225
30.7941   231
30.8041   229
30.8141   240
30.8241   243
30.8341   235
30.8441   228
30.8541   240
30.8641   229
30.8741   218
30.8841   227
30.8941   235
30.9041   224
30.9141   224
30.9241   205
30.9341   231
30.9441   201
30.9541   235
30.9641   219
30.9741   235
30.9841   220
30.9941   218
31.0041   249
31.0141   233
31.0241   218
31.0341   238
31.0441   241
31.0541   244
31.0641   225
31.0741   213
31.0841   271
31.0941   210
31.1041   225
31.1141   215
31.1241   209
31.1341   226
31.1441   213
31.1541   222
31.1641   234
31.1741   199
31.1841   210
31.1941   221
31.2041   207
31.2141   217
31.2241   227
31.2341   220
31.2441   226
31.2541   212
31.2641   214
31.2741   206
31.2841   240
31.2941   222
31.3041   215
31.3141   228
31.3241   221
31.3341   220
31.3441   209
31.3541   229
31.3641   250
31.3741   243
31.3841   211
31.3941   206
31.4041   207
31.4141   191
31.4241   211
31.4341   190
31.4441   198
31.4541   224
31.4641   211
31.4741   220
31.4841   196
31.4941   222
31.5041   199
31.5141   224
31.5241   200
31.5341   194
31.5441   220
31.5541   205
31.5641   193
31.5741   203
31.5841   205
31.5941   209
31.6041   230
31.6141   199
31.6241   238
31.6341   233
31.6441   220
31.6541   210
31.6641   199
31.6741   189
31.6841   201
31.6941   206
31.7041   216
31.7141   187
31.7241   211
31.7341   195
31.7441   216
31.7541   201
31.7641   223
31.7741   198
31.7841   210
31.7941   200
31.8041   216
31.8141   225
31.8241   219
31.8341   223
31.8441   206
31.8541   224
31.8641   204
31.8741   186
31.8841   206
31.8941   200
31.9041   196
31.9141   179
31.9241   194
31.9341   209
31.9441   212
31.9541   202
31.9641   195
31.9741   203
31.9841   209
31.9941   214
32.0041   197
32.0141   207
32.0241   219
32.0341   206
32.0441   167
32.0541   209
32.0641   186
32.0741   182
32.0841   213
32.0941   228
32.1041   224
32.1141   210
32.1241   229
32.1341   201
32.1441   211
32.1541   200
32.1641   183
32.1741   213
32.1841   208
32.1941   192
32.2041   186
32.2141   220
32.2241   227
32.2341   206
32.2441   189
32.2541   242
32.2641   197
32.2741   177
32.2841   218
32.2941   197
32.3041   183
32.3141   203
32.3241   194
32.3341   175
32.3441   192
32.3541   176
32.3641   195
32.3741   188
32.3841   191
32.3941   183
32.4041   178
32.4141   179
32.4241   183
32.4341   187
32.4441   166
32.4541   179
32.4641   185
32.4741   178
32.4841   169
32.4941   174
32.5041   180
32.5141   179
32.5241   191
32.5341   170
32.5441   172
32.5541   181
32.5641   163
32.5741   197
32.5841   186
32.5941   175
32.6041   179
32.6141   168
32.6241   165
32.6341   167
32.6441   152
32.6541   182
32.6641   188
32.6741   167
32.6841   186
32.6941   169
32.7041   164
32.7141   165
32.7241   189
32.7341   170
32.7441   189
32.7541   161
32.7641   158
32.7741   156
32.7841   192
32.7941   169
32.8041   164
32.8141   166
32.8241   160
32.8341   175
32.8441   163
32.8541   158
32.8641   150
32.8741   154
32.8841   172
32.8941   160
32.9041   164
32.9141   148
32.9241   162
32.9341   163
32.9441   173
32.9541   171
32.9641   170
32.9741   155
32.9841   150
32.9941   164
33.0041   165
33.0141   171
33.0241   179
33.0341   170
33.0441   169
33.0541   184
33.0641   177
33.0741   183
33.0841   153
33.0941   132
33.1041   146
33.1141   160
33.1241   176
33.1341   151
33.1441   159
33.1541   176
33.1641   155
33.1741   172
33.1841   167
33.1941   142
33.2041   158
33.2141   167
33.2241   152
33.2341   141
33.2441   158
33.2541   138
33.2641   148
33.2741   158
33.2841   147
33.2941   150
33.3041   165
33.3141   143
33.3241   145
33.3341   164
33.3441   168
33.3541   148
33.3641   158
33.3741   141
33.3841   148
33.3941   165
33.4041   136
33.4141   142
33.4241   135
33.4341   142
33.4441   141
33.4541   178
33.4641   159
33.4741   151
33.4841   130
33.4941   131
33.5041   139
33.5141   151
33.5241   136
33.5341   147
33.5441   129
33.5541   140
33.5641   163
33.5741   163
33.5841   137
33.5941   156
33.6041   134
33.6141   141
33.6241   138
33.6341   139
33.6441   150
33.6541   142
33.6641   137
33.6741   137
33.6841   144
33.6941   147
33.7041   154
33.7141   128
33.7241   130
33.7341   139
33.7441   152
33.7541   139
33.7641   130
33.7741   126
33.7841   131
33.7941   132
33.8041   136
33.8141   126
33.8241   155
33.8341   128
33.8441   157
33.8541   136
33.8641   126
33.8741   134
33.8841   117
33.8941   147
33.9041   141
33.9141   134
33.9241   137
33.9341   139
33.9441   128
33.9541   117
33.9641   128
33.9741   139
33.9841   128
33.9941   116
34.0041   134
34.0141   138
34.0241   132
34.0341   120
34.0441   122
34.0541   122
34.0641   110
34.0741   145
34.0841   136
34.0941   130
34.1041   142
34.1141   138
34.1241   134
34.1341   156
34.1441   138
34.1541   137
34.1641   145
34.1741   130
34.1841   111
34.1941   130
34.2041   128
34.2141   137
34.2241   119
34.2341   122
34.2441   146
34.2541   142
34.2641   135
34.2741   136
34.2841   128
34.2941   135
34.3041   141
34.3141   126
34.3241   130
34.3341   125
34.3441   117
34.3541   128
34.3641   110
34.3741   110
34.3841   130
34.3941   113
34.4041   115
34.4141   132
34.4241   139
34.4341   118
34.4441   132
34.4541   140
34.4641   126
34.4741   108
34.4841   120
34.4941   112
34.5041   132
34.5141   113
34.5241   120
34.5341   107
34.5441   115
34.5541   116
34.5641   130
34.5741   122
34.5841   122
34.5941   106
34.6041   109
34.6141   109
34.6241   111
34.6341   106
34.6441   113
34.6541   108
34.6641   113
34.6741   118
34.6841   106
34.6941   111
34.7041   115
34.7141   117
34.7241   100
34.7341   103
34.7441   107
34.7541   100
34.7641   108
34.7741   112
34.7841   123
34.7941   113
34.8041   110
34.8141   106
34.8241   114
34.8341   108
34.8441   118
34.8541   116
34.8641   120
34.8741   112
34.8841   110
34.8941   125
34.9041   138
34.9141   114
34.9241    99
34.9341    99
34.9441   109
34.9541   119
34.9641   114
34.9741   101
34.9841   106
34.9941   112
35.0041   108
35.0141   137
35.0241   104
35.0341   109
35.0441    91
35.0541    91
35.0641    99
35.0741   131
35.0841   127
35.0941   123
35.1041    95
35.1141   103
35.1241   103
35.1341   111
35.1441   115
35.1541   107
35.1641   110
35.1741    99
35.1841    99
35.1941   110
35.2041   105
35.2141    96
35.2241   101
35.2341    99
35.2441    95
35.2541   111
35.2641    88
35.2741    97
35.2841   100
35.2941   110
35.3041   105
35.3141   121
35.3241    88
35.3341    99
35.3441    95
35.3541    83
35.3641   101
35.3741   110
35.3841    95
35.3941   100
35.4041    81
35.4141    96
35.4241   113
35.4341   107
35.4441   100
35.4541    93
35.4641    94
35.4741   102
35.4841    99
35.4941    99
35.5041    95
35.5141    88
35.5241    90
35.5341   102
35.5441    89
35.5541   102
35.5641    90
35.5741   103
35.5841    90
35.5941    86
35.6041   103
35.6141   106
35.6241    97
35.6341    84
35.6441    96
35.6541    84
35.6641    99
35.6741    95
35.6841    94
35.6941    99
35.7041    93
35.7141    91
35.7241    83
35.7341    83
35.7441    96
35.7541    82
35.7641    92
35.7741    95
35.7841    79
35.7941    84
35.8041    91
35.8141    92
35.8241    90
35.8341    92
35.8441    90
35.8541    81
35.8641    90
35.8741    81
35.8841    87
35.8941    91
35.9041    76
35.9141    93
35.9241   102
35.9341    97
35.9441    90
35.9541    95
35.9641    84
35.9741    93
35.9841    72
35.9941    69
36.0041   101
36.0141    94
36.0241    74
36.0341    99
36.0441    78
36.0541    73
36.0641    86
36.0741   108
36.0841    69
36.0941    77
36.1041    96
36.1141    76
36.1241    82
36.1341    86
36.1441    73
36.1541    80
36.1641    91
36.1741    87
36.1841    69
36.1941   101
36.2041    80
36.2141    97
36.2241    87
36.2341    92
36.2441    86
36.2541    88
36.2641    67
36.2741    61
36.2841    76
36.2941    85
36.3041    82
36.3141    70
36.3241    85
36.3341    85
36.3441    75
36.3541    96
36.3641    97
36.3741    85
36.3841    84
36.3941    81
36.4041    64
36.4141    74
36.4241    88
36.4341    90
36.4441    75
36.4541    83
36.4641    78
36.4741    73
36.4841    78
36.4941    66
36.5041    80
36.5141    91
36.5241    90
36.5341    79
36.5441    70
36.5541    88
36.5641    75
36.5741    69
36.5841    77
36.5941    78
36.6041    82
36.6141    79
36.6241    75
36.6341    74
36.6441    84
36.6541    78
36.6641    66
36.6741    80
36.6841    71
36.6941    73
36.7041    76
36.7141    58
36.7241    82
36.7341    79
36.7441    73
36.7541    69
36.7641    86
36.7741    66
36.7841    74
36.7941    68
36.8041    68
36.8141    62
36.8241    73
36.8341    66
36.8441    60
36.8541    59
36.8641    76
36.8741    71
36.8841    68
36.8941    67
36.9041    59
36.9141    61
36.9241    74
36.9341    63
36.9441    65
36.9541    72
36.9641    67
36.9741    58
36.9841    74
36.9941    71
37.0041    62
37.0141    66
37.0241    64
37.0341    76
37.0441    71
37.0541    70
37.0641    82
37.0741    73
37.0841    70
37.0941    68
37.1041    54
37.1141    77
37.1241    70
37.1341    67
37.1441    61
37.1541    66
37.1641    52
37.1741    68
37.1841    72
37.1941    64
37.2041    60
37.2141    55
37.2241    69
37.2341    63
37.2441    69
37.2541    61
37.2641    63
37.2741    69
37.2841    48
37.2941    56
37.3041    65
37.3141    67
37.3241    64
37.3341    67
37.3441    65
37.3541    63
37.3641    79
37.3741    75
37.3841    71
37.3941    67
37.4041    74
37.4141    67
37.4241    77
37.4341    52
37.4441    63
37.4541    55
37.4641    62
37.4741    57
37.4841    72
37.4941    65
37.5041    49
37.5141    75
37.5241    68
37.5341    60
37.5441    55
37.5541    60
37.5641    58
37.5741    57
37.5841    67
37.5941    64
37.6041    54
37.6141    52
37.6241    56
37.6341    60
37.6441    59
37.6541    67
37.6641    57
37.6741    49
37.6841    43
37.6941    60
37.7041    59
37.7141    55
37.7241    58
37.7341    49
37.7441    50
37.7541    49
37.7641    39
37.7741    57
37.7841    60
37.7941    61
37.8041    60
37.8141    56
37.8241    55
37.8341    58
37.8441    54
37.8541    63
37.8641    63
37.8741    50
37.8841    49
37.8941    62
37.9041    50
37.9141    60
37.9241    56
37.9341    61
37.9441    59
37.9541    57
37.9641    50
37.9741    47
37.9841    39
37.9941    60
38.0041    60
38.0141    56
38.0241    65
38.0341    52
38.0441    60
38.0541    45
38.0641    57
38.0741    43
38.0841    53
38.0941    55
38.1041    47
38.1141    62
38.1241    50
38.1341    48
38.1441    55
38.1541    46
38.1641    49
38.1741    46
38.1841    42
38.1941    54
38.2041    53
38.2141    57
38.2241    61
38.2341    47
38.2441    44
38.2541    51
38.2641    66
38.2741    55
38.2841    42
38.2941    56
38.3041    55
38.3141    59
38.3241    45
38.3341    61
38.3441    48
38.3541    35
38.3641    45
38.3741    56
38.3841    45
38.3941    37
38.4041    52
38.4141    47
38.4241    36
38.4341    34
38.4441    30
38.4541    40
38.4641    53
38.4741    45
38.4841    47
38.4941    39
38.5041    40
38.5141    45
38.5241    58
38.5341    44
38.5441    38
38.5541    41
38.5641    51
38.5741    54
38.5841    46
38.5941    50
38.6041    48
38.6141    37
38.6241    52
38.6341    39
38.6441    46
38.6541    48
38.6641    43
38.6741    39
38.6841    44
38.6941    46
38.7041    39
38.7141    39
38.7241    48
38.7341    51
38.7441    48
38.7541    42
38.7641    42
38.7741    40
38.7841    31
38.7941    45
38.8041    45
38.8141    32
38.8241    41
38.8341    43
38.8441    51
38.8541    46
38.8641    38
38.8741    44
38.8841    52
38.8941    34
38.9041    42
38.9141    34
38.9241    53
38.9341    41
38.9441    45
38.9541    32
38.9641    35
38.9741    33
38.9841    41
38.9941    32
39.0041    41
39.0141    35
39.0241    38
39.0341    40
39.0441    40
39.0541    42
39.0641    46
39.0741    38
39.0841    34
39.0941    44
39.1041    29
39.1141    35
39.1241    48
39.1341    43
39.1441    36
39.1541    31
39.1641    39
39.1741    31
39.1841    35
39.1941    36
39.2041    40
39.2141    37
39.2241    39
39.2341    38
39.2441    44
39.2541    34
39.2641    33
39.2741    37
39.2841    35
39.2941    33
39.3041    44
39.3141    31
39.3241    37
39.3341    36
39.3441    46
39.3541    38
39.3641    31
39.3741    28
39.3841    29
39.3941    28
39.4041    40
39.4141    32
39.4241    34
39.4341    36
39.4441    35
39.4541    33
39.4641    36
39.4741    38
39.4841    29
39.4941    44
39.5041    25
39.5141    31
39.5241    29
39.5341    36
39.5441    29
39.5541    38
39.5641    22
39.5741    24
39.5841    27
39.5941    29
39.6041    29
39.6141    31
39.6241    39
39.6341    35
39.6441    29
39.6541    34
39.6641    14
39.6741    36
39.6841    26
39.6941    26
39.7041    30
39.7141    33
39.7241    26
39.7341    28
39.7441    27
39.7541    24
39.7641    26
39.7741    28
39.7841    19
39.7941    36
39.8041    26
39.8141    27
39.8241    24
39.8341    26
39.8441    31
39.8541    23
39.8641    23
39.8741    25
39.8841    24
39.8941    26
39.9041    21
39.9141    27
39.9241    29
39.9341    24
39.9441    31
39.9541    29
39.9641    29
39.9741    27
39.9841    33
