Bruker Nano GmbH Berlin, Germany
Esprit 1.9

Date: 4/21/2021 1:46:11 PM
Real time: 23561
Life time: 22106
Pulse density: 90490


Detector type: XFlash 430
Window type: Custom type
Detector thickness: 0.45
Si dead layer:0.029

Calibration, lin.: 10
Calibration, abs.: -955.9
Mn FWHM: 137.05
Fano factor: 0.121
Channels: 4095

Energy Counts
-0.9559     0
-0.9459     0
-0.9359     0
-0.9259     0
-0.9159     0
-0.9059     0
-0.8959     0
-0.8859     0
-0.8759     0
-0.8659     0
-0.8559     0
-0.8459     0
-0.8359     0
-0.8259     0
-0.8159     0
-0.8059     0
-0.7959     0
-0.7859     0
-0.7759     0
-0.7659     0
-0.7559     0
-0.7459     0
-0.7359     0
-0.7259     0
-0.7159     0
-0.7059     0
-0.6959     0
-0.6859     0
-0.6759     0
-0.6659     0
-0.6559     0
-0.6459     0
-0.6359     0
-0.6259     0
-0.6159     0
-0.6059     0
-0.5959     0
-0.5859     0
-0.5759     0
-0.5659     0
-0.5559     0
-0.5459     0
-0.5359     0
-0.5259     0
-0.5159     0
-0.5059     0
-0.4959     0
-0.4859     0
-0.4759     0
-0.4659     0
-0.4559     0
-0.4459     0
-0.4359     0
-0.4259     0
-0.4159     0
-0.4059     0
-0.3959     0
-0.3859     0
-0.3759     0
-0.3659     0
-0.3559     0
-0.3459     0
-0.3359     0
-0.3259     0
-0.3159     0
-0.3059     0
-0.2959     0
-0.2859     0
-0.2759     0
-0.2659     0
-0.2559     0
-0.2459     0
-0.2359     0
-0.2259     0
-0.2159     0
-0.2059     0
-0.1959     0
-0.1859     0
-0.1759     0
-0.1659     0
-0.1559     0
-0.1459     0
-0.1359     0
-0.1259     0
-0.1159     4
-0.1059    20
-0.0959    66
-0.0859   282
-0.0759   833
-0.0659  2512
-0.0559  6504
-0.0459 14046
-0.0359 26517
-0.0259 42180
-0.0159 57552
-0.0059 67637
 0.0041 67516
 0.0141 58785
 0.0241 43744
 0.0341 27454
 0.0441 14746
 0.0541  6972
 0.0641  2773
 0.0741   942
 0.0841   302
 0.0941    88
 0.1041    32
 0.1141    11
 0.1241     7
 0.1341     5
 0.1441     4
 0.1541     4
 0.1641     0
 0.1741    25
 0.1841   233
 0.1941   416
 0.2041   331
 0.2141   358
 0.2241   349
 0.2341   351
 0.2441   347
 0.2541   345
 0.2641   353
 0.2741   367
 0.2841   341
 0.2941   307
 0.3041   323
 0.3141   325
 0.3241   320
 0.3341   333
 0.3441   319
 0.3541   322
 0.3641   302
 0.3741   302
 0.3841   319
 0.3941   300
 0.4041   327
 0.4141   316
 0.4241   292
 0.4341   300
 0.4441   309
 0.4541   293
 0.4641   299
 0.4741   302
 0.4841   302
 0.4941   304
 0.5041   324
 0.5141   283
 0.5241   275
 0.5341   281
 0.5441   297
 0.5541   293
 0.5641   286
 0.5741   300
 0.5841   284
 0.5941   275
 0.6041   255
 0.6141   254
 0.6241   272
 0.6341   272
 0.6441   248
 0.6541   237
 0.6641   271
 0.6741   273
 0.6841   257
 0.6941   252
 0.7041   240
 0.7141   250
 0.7241   258
 0.7341   261
 0.7441   273
 0.7541   271
 0.7641   254
 0.7741   250
 0.7841   257
 0.7941   240
 0.8041   232
 0.8141   235
 0.8241   241
 0.8341   253
 0.8441   266
 0.8541   247
 0.8641   250
 0.8741   244
 0.8841   237
 0.8941   240
 0.9041   249
 0.9141   235
 0.9241   235
 0.9341   244
 0.9441   221
 0.9541   223
 0.9641   236
 0.9741   217
 0.9841   228
 0.9941   238
 1.0041   223
 1.0141   209
 1.0241   238
 1.0341   237
 1.0441   226
 1.0541   209
 1.0641   220
 1.0741   224
 1.0841   226
 1.0941   205
 1.1041   213
 1.1141   204
 1.1241   222
 1.1341   217
 1.1441   202
 1.1541   206
 1.1641   220
 1.1741   209
 1.1841   209
 1.1941   204
 1.2041   224
 1.2141   226
 1.2241   226
 1.2341   207
 1.2441   205
 1.2541   225
 1.2641   224
 1.2741   169
 1.2841   170
 1.2941   201
 1.3041   214
 1.3141   221
 1.3241   222
 1.3341   206
 1.3441   223
 1.3541   214
 1.3641   210
 1.3741   184
 1.3841   185
 1.3941   200
 1.4041   191
 1.4141   213
 1.4241   203
 1.4341   191
 1.4441   187
 1.4541   222
 1.4641   211
 1.4741   205
 1.4841   208
 1.4941   201
 1.5041   197
 1.5141   196
 1.5241   204
 1.5341   201
 1.5441   191
 1.5541   174
 1.5641   171
 1.5741   195
 1.5841   176
 1.5941   176
 1.6041   179
 1.6141   211
 1.6241   191
 1.6341   183
 1.6441   215
 1.6541   256
 1.6641   262
 1.6741   326
 1.6841   415
 1.6941   524
 1.7041   633
 1.7141   774
 1.7241   796
 1.7341   892
 1.7441   844
 1.7541   801
 1.7641   694
 1.7741   611
 1.7841   560
 1.7941   442
 1.8041   389
 1.8141   294
 1.8241   294
 1.8341   254
 1.8441   244
 1.8541   232
 1.8641   202
 1.8741   217
 1.8841   218
 1.8941   201
 1.9041   206
 1.9141   198
 1.9241   183
 1.9341   215
 1.9441   206
 1.9541   196
 1.9641   212
 1.9741   246
 1.9841   251
 1.9941   239
 2.0041   225
 2.0141   251
 2.0241   229
 2.0341   250
 2.0441   242
 2.0541   198
 2.0641   192
 2.0741   197
 2.0841   201
 2.0941   182
 2.1041   188
 2.1141   185
 2.1241   164
 2.1341   171
 2.1441   184
 2.1541   160
 2.1641   175
 2.1741   191
 2.1841   197
 2.1941   168
 2.2041   151
 2.2141   171
 2.2241   169
 2.2341   181
 2.2441   172
 2.2541   161
 2.2641   178
 2.2741   174
 2.2841   158
 2.2941   167
 2.3041   152
 2.3141   169
 2.3241   165
 2.3341   168
 2.3441   164
 2.3541   152
 2.3641   155
 2.3741   177
 2.3841   161
 2.3941   162
 2.4041   139
 2.4141   161
 2.4241   160
 2.4341   161
 2.4441   154
 2.4541   163
 2.4641   151
 2.4741   161
 2.4841   154
 2.4941   162
 2.5041   178
 2.5141   138
 2.5241   145
 2.5341   138
 2.5441   143
 2.5541   130
 2.5641   137
 2.5741   158
 2.5841   168
 2.5941   158
 2.6041   163
 2.6141   173
 2.6241   163
 2.6341   143
 2.6441   147
 2.6541   135
 2.6641   141
 2.6741   135
 2.6841   137
 2.6941   147
 2.7041   130
 2.7141   126
 2.7241   141
 2.7341   130
 2.7441   155
 2.7541   157
 2.7641   160
 2.7741   140
 2.7841   158
 2.7941   167
 2.8041   134
 2.8141   150
 2.8241   156
 2.8341   145
 2.8441   174
 2.8541   144
 2.8641   144
 2.8741   155
 2.8841   153
 2.8941   151
 2.9041   129
 2.9141   132
 2.9241   127
 2.9341   146
 2.9441   137
 2.9541   109
 2.9641   136
 2.9741   129
 2.9841   138
 2.9941   135
 3.0041   123
 3.0141   143
 3.0241   129
 3.0341   161
 3.0441   120
 3.0541   126
 3.0641   124
 3.0741   117
 3.0841   128
 3.0941   115
 3.1041   129
 3.1141   118
 3.1241   112
 3.1341   117
 3.1441   106
 3.1541    95
 3.1641   108
 3.1741   123
 3.1841   131
 3.1941   135
 3.2041   166
 3.2141   147
 3.2241   160
 3.2341   176
 3.2441   210
 3.2541   274
 3.2641   358
 3.2741   328
 3.2841   404
 3.2941   394
 3.3041   468
 3.3141   461
 3.3241   451
 3.3341   427
 3.3441   389
 3.3541   352
 3.3641   300
 3.3741   261
 3.3841   196
 3.3941   186
 3.4041   168
 3.4141   144
 3.4241   137
 3.4341   114
 3.4441   119
 3.4541   114
 3.4641   107
 3.4741   124
 3.4841    88
 3.4941   115
 3.5041   148
 3.5141   129
 3.5241   124
 3.5341   153
 3.5441   208
 3.5541   189
 3.5641   225
 3.5741   295
 3.5841   264
 3.5941   382
 3.6041   457
 3.6141   505
 3.6241   719
 3.6341   817
 3.6441  1012
 3.6541  1040
 3.6641  1196
 3.6741  1302
 3.6841  1382
 3.6941  1418
 3.7041  1323
 3.7141  1177
 3.7241  1056
 3.7341   925
 3.7441   740
 3.7541   604
 3.7641   485
 3.7741   388
 3.7841   280
 3.7941   233
 3.8041   150
 3.8141   122
 3.8241   107
 3.8341   102
 3.8441    96
 3.8541    91
 3.8641   108
 3.8741    98
 3.8841   120
 3.8941   123
 3.9041   119
 3.9141   126
 3.9241   122
 3.9341   131
 3.9441   158
 3.9541   186
 3.9641   219
 3.9741   229
 3.9841   239
 3.9941   226
 4.0041   248
 4.0141   241
 4.0241   294
 4.0341   259
 4.0441   226
 4.0541   218
 4.0641   199
 4.0741   173
 4.0841   137
 4.0941   141
 4.1041   145
 4.1141   115
 4.1241   121
 4.1341    91
 4.1441    95
 4.1541    84
 4.1641    80
 4.1741    92
 4.1841    89
 4.1941    92
 4.2041    85
 4.2141    84
 4.2241   102
 4.2341    96
 4.2441    80
 4.2541    90
 4.2641    89
 4.2741    64
 4.2841    93
 4.2941    87
 4.3041    96
 4.3141   103
 4.3241    96
 4.3341    74
 4.3441    76
 4.3541    98
 4.3641    84
 4.3741   101
 4.3841   117
 4.3941   119
 4.4041   155
 4.4141   184
 4.4241   192
 4.4341   230
 4.4441   275
 4.4541   298
 4.4641   330
 4.4741   402
 4.4841   385
 4.4941   406
 4.5041   465
 4.5141   436
 4.5241   395
 4.5341   394
 4.5441   398
 4.5541   339
 4.5641   298
 4.5741   247
 4.5841   205
 4.5941   171
 4.6041   152
 4.6141   164
 4.6241   138
 4.6341   115
 4.6441   112
 4.6541   104
 4.6641    93
 4.6741   113
 4.6841    87
 4.6941   111
 4.7041    98
 4.7141   109
 4.7241    92
 4.7341    89
 4.7441   113
 4.7541    87
 4.7641    95
 4.7741    95
 4.7841    98
 4.7941   119
 4.8041   103
 4.8141   112
 4.8241   111
 4.8341   131
 4.8441   156
 4.8541   137
 4.8641   152
 4.8741   148
 4.8841   152
 4.8941   161
 4.9041   167
 4.9141   169
 4.9241   143
 4.9341   181
 4.9441   168
 4.9541   170
 4.9641   177
 4.9741   152
 4.9841   159
 4.9941   148
 5.0041   126
 5.0141   125
 5.0241   115
 5.0341   112
 5.0441    88
 5.0541   105
 5.0641    94
 5.0741    90
 5.0841   102
 5.0941   114
 5.1041   111
 5.1141   107
 5.1241    91
 5.1341    98
 5.1441   107
 5.1541   109
 5.1641   114
 5.1741    99
 5.1841   108
 5.1941   100
 5.2041   100
 5.2141   110
 5.2241   111
 5.2341   123
 5.2441   110
 5.2541   116
 5.2641   120
 5.2741   115
 5.2841   146
 5.2941   151
 5.3041   188
 5.3141   215
 5.3241   242
 5.3341   324
 5.3441   378
 5.3541   441
 5.3641   454
 5.3741   495
 5.3841   559
 5.3941   605
 5.4041   609
 5.4141   626
 5.4241   620
 5.4341   605
 5.4441   556
 5.4541   531
 5.4641   452
 5.4741   374
 5.4841   339
 5.4941   319
 5.5041   234
 5.5141   185
 5.5241   178
 5.5341   157
 5.5441   141
 5.5541   107
 5.5641   121
 5.5741   119
 5.5841   130
 5.5941   133
 5.6041   111
 5.6141    98
 5.6241   116
 5.6341   109
 5.6441    93
 5.6541   132
 5.6641   110
 5.6741   139
 5.6841   103
 5.6941   109
 5.7041   115
 5.7141   124
 5.7241   154
 5.7341   128
 5.7441   168
 5.7541   165
 5.7641   190
 5.7741   210
 5.7841   254
 5.7941   302
 5.8041   347
 5.8141   416
 5.8241   499
 5.8341   569
 5.8441   635
 5.8541   786
 5.8641   812
 5.8741   917
 5.8841   918
 5.8941   924
 5.9041   951
 5.9141   917
 5.9241   889
 5.9341   793
 5.9441   687
 5.9541   604
 5.9641   541
 5.9741   491
 5.9841   466
 5.9941   337
 6.0041   289
 6.0141   261
 6.0241   207
 6.0341   189
 6.0441   203
 6.0541   166
 6.0641   175
 6.0741   157
 6.0841   182
 6.0941   151
 6.1041   166
 6.1141   142
 6.1241   166
 6.1341   166
 6.1441   180
 6.1541   202
 6.1641   188
 6.1741   207
 6.1841   232
 6.1941   281
 6.2041   300
 6.2141   388
 6.2241   586
 6.2341   809
 6.2441  1057
 6.2541  1374
 6.2641  2018
 6.2741  2725
 6.2841  3695
 6.2941  4853
 6.3041  6323
 6.3141  8089
 6.3241 10048
 6.3341 11812
 6.3441 13983
 6.3541 15888
 6.3641 17689
 6.3741 19139
 6.3841 20139
 6.3941 20696
 6.4041 20621
 6.4141 20328
 6.4241 18866
 6.4341 17521
 6.4441 15727
 6.4541 13792
 6.4641 11634
 6.4741  9580
 6.4841  7721
 6.4941  6001
 6.5041  4754
 6.5141  3432
 6.5241  2568
 6.5341  1828
 6.5441  1368
 6.5541  1002
 6.5641   707
 6.5741   511
 6.5841   397
 6.5941   303
 6.6041   261
 6.6141   227
 6.6241   196
 6.6341   198
 6.6441   176
 6.6541   193
 6.6641   183
 6.6741   169
 6.6841   181
 6.6941   195
 6.7041   171
 6.7141   174
 6.7241   164
 6.7341   189
 6.7441   174
 6.7541   183
 6.7641   186
 6.7741   189
 6.7841   215
 6.7941   222
 6.8041   211
 6.8141   205
 6.8241   232
 6.8341   259
 6.8441   252
 6.8541   289
 6.8641   308
 6.8741   316
 6.8841   382
 6.8941   392
 6.9041   505
 6.9141   598
 6.9241   741
 6.9341   914
 6.9441  1006
 6.9541  1213
 6.9641  1465
 6.9741  1675
 6.9841  2079
 6.9941  2245
 7.0041  2637
 7.0141  2995
 7.0241  3078
 7.0341  3308
 7.0441  3434
 7.0541  3323
 7.0641  3370
 7.0741  3296
 7.0841  3048
 7.0941  2920
 7.1041  2611
 7.1141  2429
 7.1241  2095
 7.1341  1648
 7.1441  1378
 7.1541  1194
 7.1641   912
 7.1741   733
 7.1841   628
 7.1941   489
 7.2041   425
 7.2141   398
 7.2241   299
 7.2341   280
 7.2441   266
 7.2541   261
 7.2641   226
 7.2741   254
 7.2841   250
 7.2941   255
 7.3041   261
 7.3141   303
 7.3241   335
 7.3341   387
 7.3441   429
 7.3541   510
 7.3641   486
 7.3741   627
 7.3841   695
 7.3941   801
 7.4041   924
 7.4141  1021
 7.4241  1055
 7.4341  1109
 7.4441  1128
 7.4541  1243
 7.4641  1205
 7.4741  1205
 7.4841  1197
 7.4941  1177
 7.5041  1061
 7.5141  1007
 7.5241   898
 7.5341   811
 7.5441   714
 7.5541   639
 7.5641   568
 7.5741   481
 7.5841   434
 7.5941   338
 7.6041   324
 7.6141   302
 7.6241   300
 7.6341   282
 7.6441   237
 7.6541   241
 7.6641   255
 7.6741   246
 7.6841   252
 7.6941   265
 7.7041   272
 7.7141   264
 7.7241   268
 7.7341   259
 7.7441   250
 7.7541   280
 7.7641   294
 7.7741   283
 7.7841   273
 7.7941   258
 7.8041   251
 7.8141   296
 7.8241   330
 7.8341   315
 7.8441   352
 7.8541   335
 7.8641   317
 7.8741   354
 7.8841   372
 7.8941   397
 7.9041   383
 7.9141   421
 7.9241   417
 7.9341   417
 7.9441   458
 7.9541   504
 7.9641   564
 7.9741   573
 7.9841   641
 7.9941   668
 8.0041   708
 8.0141   725
 8.0241   800
 8.0341   853
 8.0441   951
 8.0541   995
 8.0641  1052
 8.0741  1123
 8.0841  1155
 8.0941  1266
 8.1041  1251
 8.1141  1366
 8.1241  1431
 8.1341  1445
 8.1441  1473
 8.1541  1553
 8.1641  1600
 8.1741  1651
 8.1841  1693
 8.1941  1626
 8.2041  1644
 8.2141  1673
 8.2241  1755
 8.2341  1790
 8.2441  1875
 8.2541  1899
 8.2641  2036
 8.2741  2055
 8.2841  2166
 8.2941  2385
 8.3041  2446
 8.3141  2664
 8.3241  2921
 8.3341  3012
 8.3441  3318
 8.3541  3423
 8.3641  3560
 8.3741  3599
 8.3841  3647
 8.3941  3703
 8.4041  3615
 8.4141  3515
 8.4241  3286
 8.4341  3126
 8.4441  2786
 8.4541  2491
 8.4641  2254
 8.4741  1944
 8.4841  1672
 8.4941  1464
 8.5041  1271
 8.5141  1068
 8.5241   948
 8.5341   818
 8.5441   684
 8.5541   613
 8.5641   575
 8.5741   491
 8.5841   497
 8.5941   478
 8.6041   492
 8.6141   482
 8.6241   477
 8.6341   432
 8.6441   441
 8.6541   453
 8.6641   467
 8.6741   436
 8.6841   397
 8.6941   416
 8.7041   449
 8.7141   417
 8.7241   401
 8.7341   397
 8.7441   375
 8.7541   366
 8.7641   367
 8.7741   340
 8.7841   378
 8.7941   344
 8.8041   342
 8.8141   336
 8.8241   353
 8.8341   334
 8.8441   303
 8.8541   384
 8.8641   334
 8.8741   329
 8.8841   373
 8.8941   355
 8.9041   364
 8.9141   372
 8.9241   361
 8.9341   363
 8.9441   380
 8.9541   404
 8.9641   416
 8.9741   391
 8.9841   364
 8.9941   403
 9.0041   418
 9.0141   450
 9.0241   441
 9.0341   438
 9.0441   456
 9.0541   471
 9.0641   510
 9.0741   510
 9.0841   513
 9.0941   543
 9.1041   568
 9.1141   561
 9.1241   613
 9.1341   657
 9.1441   652
 9.1541   699
 9.1641   719
 9.1741   735
 9.1841   767
 9.1941   807
 9.2041   816
 9.2141   884
 9.2241   950
 9.2341   951
 9.2441  1007
 9.2541  1030
 9.2641  1055
 9.2741  1112
 9.2841  1187
 9.2941  1220
 9.3041  1242
 9.3141  1266
 9.3241  1349
 9.3341  1356
 9.3441  1397
 9.3541  1495
 9.3641  1465
 9.3741  1507
 9.3841  1544
 9.3941  1530
 9.4041  1587
 9.4141  1572
 9.4241  1594
 9.4341  1588
 9.4441  1599
 9.4541  1648
 9.4641  1648
 9.4741  1653
 9.4841  1696
 9.4941  1776
 9.5041  1772
 9.5141  1769
 9.5241  1826
 9.5341  1887
 9.5441  2023
 9.5541  2026
 9.5641  2137
 9.5741  2296
 9.5841  2462
 9.5941  2561
 9.6041  2702
 9.6141  2910
 9.6241  2949
 9.6341  3138
 9.6441  3231
 9.6541  3300
 9.6641  3300
 9.6741  3252
 9.6841  3187
 9.6941  3134
 9.7041  3026
 9.7141  2910
 9.7241  2623
 9.7341  2444
 9.7441  2321
 9.7541  2202
 9.7641  2057
 9.7741  1821
 9.7841  1700
 9.7941  1622
 9.8041  1461
 9.8141  1451
 9.8241  1398
 9.8341  1342
 9.8441  1254
 9.8541  1255
 9.8641  1245
 9.8741  1352
 9.8841  1360
 9.8941  1376
 9.9041  1373
 9.9141  1436
 9.9241  1410
 9.9341  1419
 9.9441  1470
 9.9541  1491
 9.9641  1475
 9.9741  1415
 9.9841  1359
 9.9941  1343
10.0041  1250
10.0141  1163
10.0241  1085
10.0341   985
10.0441   907
10.0541   815
10.0641   741
10.0741   645
10.0841   598
10.0941   537
10.1041   512
10.1141   450
10.1241   405
10.1341   387
10.1441   391
10.1541   361
10.1641   344
10.1741   331
10.1841   326
10.1941   300
10.2041   281
10.2141   279
10.2241   276
10.2341   278
10.2441   283
10.2541   276
10.2641   265
10.2741   267
10.2841   256
10.2941   243
10.3041   263
10.3141   234
10.3241   222
10.3341   231
10.3441   256
10.3541   243
10.3641   249
10.3741   230
10.3841   198
10.3941   203
10.4041   222
10.4141   200
10.4241   208
10.4341   204
10.4441   204
10.4541   196
10.4641   198
10.4741   186
10.4841   188
10.4941   174
10.5041   203
10.5141   223
10.5241   221
10.5341   198
10.5441   218
10.5541   217
10.5641   205
10.5741   201
10.5841   219
10.5941   219
10.6041   240
10.6141   244
10.6241   251
10.6341   235
10.6441   230
10.6541   212
10.6641   243
10.6741   250
10.6841   240
10.6941   252
10.7041   251
10.7141   256
10.7241   250
10.7341   253
10.7441   263
10.7541   260
10.7641   264
10.7741   300
10.7841   282
10.7941   268
10.8041   286
10.8141   291
10.8241   309
10.8341   337
10.8441   318
10.8541   320
10.8641   345
10.8741   352
10.8841   352
10.8941   336
10.9041   322
10.9141   331
10.9241   341
10.9341   346
10.9441   377
10.9541   353
10.9641   354
10.9741   308
10.9841   333
10.9941   349
11.0041   343
11.0141   336
11.0241   321
11.0341   317
11.0441   302
11.0541   295
11.0641   309
11.0741   301
11.0841   310
11.0941   333
11.1041   328
11.1141   307
11.1241   306
11.1341   323
11.1441   327
11.1541   363
11.1641   359
11.1741   357
11.1841   396
11.1941   405
11.2041   431
11.2141   442
11.2241   435
11.2341   481
11.2441   500
11.2541   515
11.2641   558
11.2741   526
11.2841   510
11.2941   533
11.3041   512
11.3141   514
11.3241   497
11.3341   461
11.3441   477
11.3541   449
11.3641   398
11.3741   368
11.3841   333
11.3941   348
11.4041   321
11.4141   306
11.4241   271
11.4341   252
11.4441   267
11.4541   263
11.4641   253
11.4741   250
11.4841   238
11.4941   253
11.5041   226
11.5141   226
11.5241   236
11.5341   250
11.5441   250
11.5541   239
11.5641   231
11.5741   244
11.5841   247
11.5941   222
11.6041   244
11.6141   254
11.6241   251
11.6341   255
11.6441   215
11.6541   236
11.6641   248
11.6741   234
11.6841   242
11.6941   243
11.7041   232
11.7141   235
11.7241   214
11.7341   213
11.7441   205
11.7541   197
11.7641   203
11.7741   208
11.7841   193
11.7941   176
11.8041   177
11.8141   200
11.8241   203
11.8341   198
11.8441   206
11.8541   179
11.8641   182
11.8741   175
11.8841   175
11.8941   176
11.9041   171
11.9141   186
11.9241   179
11.9341   167
11.9441   172
11.9541   190
11.9641   196
11.9741   192
11.9841   190
11.9941   182
12.0041   182
12.0141   192
12.0241   193
12.0341   214
12.0441   209
12.0541   188
12.0641   187
12.0741   195
12.0841   192
12.0941   199
12.1041   187
12.1141   178
12.1241   185
12.1341   185
12.1441   198
12.1541   209
12.1641   200
12.1741   192
12.1841   183
12.1941   177
12.2041   179
12.2141   171
12.2241   181
12.2341   178
12.2441   186
12.2541   193
12.2641   176
12.2741   188
12.2841   196
12.2941   167
12.3041   174
12.3141   181
12.3241   170
12.3341   171
12.3441   166
12.3541   172
12.3641   179
12.3741   178
12.3841   181
12.3941   181
12.4041   180
12.4141   169
12.4241   185
12.4341   193
12.4441   192
12.4541   196
12.4641   198
12.4741   182
12.4841   179
12.4941   178
12.5041   184
12.5141   192
12.5241   189
12.5341   191
12.5441   198
12.5541   202
12.5641   201
12.5741   193
12.5841   197
12.5941   198
12.6041   196
12.6141   193
12.6241   209
12.6341   198
12.6441   196
12.6541   184
12.6641   173
12.6741   198
12.6841   207
12.6941   204
12.7041   210
12.7141   222
12.7241   204
12.7341   202
12.7441   204
12.7541   194
12.7641   185
12.7741   180
12.7841   193
12.7941   208
12.8041   215
12.8141   217
12.8241   214
12.8341   208
12.8441   199
12.8541   186
12.8641   183
12.8741   191
12.8841   195
12.8941   202
12.9041   217
12.9141   212
12.9241   188
12.9341   203
12.9441   212
12.9541   213
12.9641   226
12.9741   219
12.9841   212
12.9941   204
13.0041   214
13.0141   230
13.0241   241
13.0341   218
13.0441   212
13.0541   210
13.0641   206
13.0741   213
13.0841   224
13.0941   227
13.1041   203
13.1141   196
13.1241   219
13.1341   225
13.1441   218
13.1541   238
13.1641   250
13.1741   244
13.1841   244
13.1941   248
13.2041   252
13.2141   265
13.2241   267
13.2341   278
13.2441   289
13.2541   298
13.2641   314
13.2741   346
13.2841   372
13.2941   380
13.3041   393
13.3141   413
13.3241   424
13.3341   449
13.3441   444
13.3541   426
13.3641   442
13.3741   452
13.3841   462
13.3941   463
13.4041   438
13.4141   417
13.4241   408
13.4341   415
13.4441   402
13.4541   374
13.4641   362
13.4741   354
13.4841   353
13.4941   350
13.5041   353
13.5141   329
13.5241   289
13.5341   290
13.5441   289
13.5541   282
13.5641   285
13.5741   269
13.5841   266
13.5941   270
13.6041   266
13.6141   250
13.6241   249
13.6341   257
13.6441   246
13.6541   253
13.6641   274
13.6741   265
13.6841   263
13.6941   267
13.7041   266
13.7141   268
13.7241   262
13.7341   262
13.7441   272
13.7541   261
13.7641   248
13.7741   272
13.7841   275
13.7941   260
13.8041   265
13.8141   266
13.8241   278
13.8341   281
13.8441   264
13.8541   266
13.8641   268
13.8741   273
13.8841   279
13.8941   283
13.9041   287
13.9141   273
13.9241   268
13.9341   283
13.9441   300
13.9541   290
13.9641   290
13.9741   323
13.9841   318
13.9941   300
14.0041   317
14.0141   308
14.0241   298
14.0341   323
14.0441   347
14.0541   358
14.0641   364
14.0741   386
14.0841   396
14.0941   394
14.1041   383
14.1141   366
14.1241   377
14.1341   406
14.1441   396
14.1541   394
14.1641   413
14.1741   393
14.1841   379
14.1941   373
14.2041   377
14.2141   394
14.2241   386
14.2341   348
14.2441   341
14.2541   348
14.2641   333
14.2741   335
14.2841   337
14.2941   330
14.3041   335
14.3141   329
14.3241   314
14.3341   319
14.3441   322
14.3541   328
14.3641   343
14.3741   339
14.3841   334
14.3941   341
14.4041   342
14.4141   315
14.4241   296
14.4341   320
14.4441   338
14.4541   338
14.4641   334
14.4741   323
14.4841   325
14.4941   328
14.5041   340
14.5141   346
14.5241   333
14.5341   339
14.5441   334
14.5541   326
14.5641   322
14.5741   318
14.5841   330
14.5941   349
14.6041   343
14.6141   321
14.6241   330
14.6341   339
14.6441   325
14.6541   321
14.6641   322
14.6741   324
14.6841   322
14.6941   325
14.7041   317
14.7141   324
14.7241   336
14.7341   337
14.7441   342
14.7541   341
14.7641   361
14.7741   368
14.7841   365
14.7941   349
14.8041   350
14.8141   365
14.8241   358
14.8341   368
14.8441   374
14.8541   368
14.8641   359
14.8741   366
14.8841   390
14.8941   393
14.9041   383
14.9141   395
14.9241   406
14.9341   403
14.9441   417
14.9541   409
14.9641   393
14.9741   399
14.9841   403
14.9941   398
15.0041   379
15.0141   410
15.0241   425
15.0341   395
15.0441   360
15.0541   365
15.0641   383
15.0741   354
15.0841   372
15.0941   380
15.1041   384
15.1141   392
15.1241   380
15.1341   372
15.1441   370
15.1541   366
15.1641   382
15.1741   390
15.1841   389
15.1941   368
15.2041   371
15.2141   379
15.2241   386
15.2341   389
15.2441   388
15.2541   397
15.2641   388
15.2741   380
15.2841   378
15.2941   380
15.3041   386
15.3141   397
15.3241   396
15.3341   384
15.3441   377
15.3541   371
15.3641   390
15.3741   400
15.3841   373
15.3941   361
15.4041   371
15.4141   371
15.4241   376
15.4341   374
15.4441   383
15.4541   384
15.4641   404
15.4741   400
15.4841   392
15.4941   402
15.5041   397
15.5141   398
15.5241   377
15.5341   379
15.5441   408
15.5541   411
15.5641   416
15.5741   431
15.5841   421
15.5941   456
15.6041   472
15.6141   441
15.6241   424
15.6341   473
15.6441   483
15.6541   473
15.6641   478
15.6741   480
15.6841   478
15.6941   507
15.7041   524
15.7141   512
15.7241   531
15.7341   518
15.7441   499
15.7541   516
15.7641   515
15.7741   520
15.7841   519
15.7941   523
15.8041   532
15.8141   536
15.8241   525
15.8341   520
15.8441   505
15.8541   478
15.8641   504
15.8741   514
15.8841   524
15.8941   489
15.9041   477
15.9141   467
15.9241   461
15.9341   435
15.9441   446
15.9541   483
15.9641   450
15.9741   436
15.9841   447
15.9941   456
16.0041   445
16.0141   417
16.0241   426
16.0341   445
16.0441   450
16.0541   425
16.0641   427
16.0741   444
16.0841   442
16.0941   445
16.1041   434
16.1141   450
16.1241   448
16.1341   459
16.1441   445
16.1541   451
16.1641   466
16.1741   445
16.1841   458
16.1941   457
16.2041   448
16.2141   466
16.2241   469
16.2341   457
16.2441   437
16.2541   465
16.2641   490
16.2741   469
16.2841   463
16.2941   476
16.3041   482
16.3141   491
16.3241   494
16.3341   483
16.3441   486
16.3541   487
16.3641   467
16.3741   477
16.3841   462
16.3941   463
16.4041   476
16.4141   460
16.4241   464
16.4341   490
16.4441   452
16.4541   461
16.4641   474
16.4741   478
16.4841   461
16.4941   462
16.5041   464
16.5141   478
16.5241   500
16.5341   504
16.5441   485
16.5541   490
16.5641   504
16.5741   495
16.5841   505
16.5941   488
16.6041   482
16.6141   474
16.6241   463
16.6341   487
16.6441   496
16.6541   490
16.6641   494
16.6741   496
16.6841   503
16.6941   510
16.7041   514
16.7141   521
16.7241   503
16.7341   498
16.7441   524
16.7541   523
16.7641   512
16.7741   514
16.7841   495
16.7941   471
16.8041   500
16.8141   506
16.8241   509
16.8341   508
16.8441   518
16.8541   510
16.8641   505
16.8741   531
16.8841   538
16.8941   510
16.9041   500
16.9141   520
16.9241   542
16.9341   543
16.9441   520
16.9541   511
16.9641   504
16.9741   491
16.9841   546
16.9941   531
17.0041   507
17.0141   495
17.0241   508
17.0341   512
17.0441   539
17.0541   561
17.0641   544
17.0741   526
17.0841   565
17.0941   558
17.1041   565
17.1141   554
17.1241   519
17.1341   506
17.1441   537
17.1541   531
17.1641   556
17.1741   541
17.1841   529
17.1941   543
17.2041   581
17.2141   577
17.2241   547
17.2341   533
17.2441   516
17.2541   578
17.2641   586
17.2741   541
17.2841   558
17.2941   537
17.3041   556
17.3141   545
17.3241   524
17.3341   524
17.3441   539
17.3541   572
17.3641   564
17.3741   569
17.3841   578
17.3941   592
17.4041   592
17.4141   566
17.4241   569
17.4341   639
17.4441   621
17.4541   602
17.4641   613
17.4741   590
17.4841   583
17.4941   584
17.5041   565
17.5141   561
17.5241   547
17.5341   559
17.5441   587
17.5541   567
17.5641   576
17.5741   617
17.5841   620
17.5941   594
17.6041   572
17.6141   594
17.6241   610
17.6341   587
17.6441   560
17.6541   581
17.6641   571
17.6741   587
17.6841   592
17.6941   558
17.7041   580
17.7141   594
17.7241   612
17.7341   591
17.7441   594
17.7541   580
17.7641   589
17.7741   632
17.7841   610
17.7941   593
17.8041   605
17.8141   585
17.8241   589
17.8341   628
17.8441   626
17.8541   592
17.8641   566
17.8741   570
17.8841   599
17.8941   608
17.9041   608
17.9141   626
17.9241   628
17.9341   605
17.9441   625
17.9541   598
17.9641   598
17.9741   617
17.9841   604
17.9941   641
18.0041   600
18.0141   600
18.0241   597
18.0341   585
18.0441   595
18.0541   631
18.0641   649
18.0741   632
18.0841   614
18.0941   622
18.1041   611
18.1141   607
18.1241   580
18.1341   582
18.1441   597
18.1541   616
18.1641   620
18.1741   590
18.1841   624
18.1941   629
18.2041   605
18.2141   619
18.2241   621
18.2341   611
18.2441   625
18.2541   614
18.2641   642
18.2741   605
18.2841   635
18.2941   623
18.3041   623
18.3141   601
18.3241   626
18.3341   623
18.3441   613
18.3541   615
18.3641   614
18.3741   628
18.3841   609
18.3941   614
18.4041   623
18.4141   610
18.4241   595
18.4341   610
18.4441   594
18.4541   593
18.4641   631
18.4741   617
18.4841   620
18.4941   656
18.5041   626
18.5141   617
18.5241   649
18.5341   639
18.5441   627
18.5541   621
18.5641   607
18.5741   648
18.5841   667
18.5941   634
18.6041   653
18.6141   632
18.6241   599
18.6341   640
18.6441   603
18.6541   630
18.6641   642
18.6741   651
18.6841   658
18.6941   655
18.7041   620
18.7141   637
18.7241   647
18.7341   636
18.7441   664
18.7541   613
18.7641   622
18.7741   628
18.7841   663
18.7941   659
18.8041   662
18.8141   667
18.8241   638
18.8341   693
18.8441   652
18.8541   660
18.8641   628
18.8741   648
18.8841   661
18.8941   643
18.9041   648
18.9141   626
18.9241   653
18.9341   685
18.9441   657
18.9541   656
18.9641   688
18.9741   683
18.9841   638
18.9941   652
19.0041   632
19.0141   666
19.0241   697
19.0341   655
19.0441   647
19.0541   684
19.0641   680
19.0741   685
19.0841   685
19.0941   643
19.1041   636
19.1141   652
19.1241   657
19.1341   686
19.1441   685
19.1541   648
19.1641   662
19.1741   632
19.1841   642
19.1941   700
19.2041   695
19.2141   678
19.2241   666
19.2341   680
19.2441   668
19.2541   659
19.2641   654
19.2741   649
19.2841   663
19.2941   654
19.3041   687
19.3141   655
19.3241   674
19.3341   666
19.3441   682
19.3541   642
19.3641   682
19.3741   662
19.3841   677
19.3941   677
19.4041   660
19.4141   672
19.4241   648
19.4341   659
19.4441   653
19.4541   658
19.4641   706
19.4741   673
19.4841   697
19.4941   686
19.5041   681
19.5141   660
19.5241   661
19.5341   665
19.5441   709
19.5541   713
19.5641   686
19.5741   704
19.5841   677
19.5941   705
19.6041   702
19.6141   721
19.6241   657
19.6341   693
19.6441   711
19.6541   657
19.6641   664
19.6741   686
19.6841   685
19.6941   725
19.7041   689
19.7141   694
19.7241   720
19.7341   686
19.7441   706
19.7541   695
19.7641   716
19.7741   740
19.7841   682
19.7941   689
19.8041   675
19.8141   665
19.8241   698
19.8341   688
19.8441   706
19.8541   663
19.8641   693
19.8741   711
19.8841   702
19.8941   685
19.9041   701
19.9141   680
19.9241   697
19.9341   682
19.9441   696
19.9541   684
19.9641   671
19.9741   675
19.9841   650
19.9941   682
20.0041   720
20.0141   655
20.0241   644
20.0341   685
20.0441   650
20.0541   677
20.0641   684
20.0741   668
20.0841   664
20.0941   669
20.1041   660
20.1141   666
20.1241   680
20.1341   670
20.1441   682
20.1541   695
20.1641   698
20.1741   648
20.1841   668
20.1941   654
20.2041   694
20.2141   669
20.2241   702
20.2341   695
20.2441   690
20.2541   678
20.2641   699
20.2741   701
20.2841   670
20.2941   698
20.3041   720
20.3141   704
20.3241   740
20.3341   699
20.3441   734
20.3541   689
20.3641   684
20.3741   721
20.3841   692
20.3941   672
20.4041   706
20.4141   695
20.4241   726
20.4341   688
20.4441   711
20.4541   704
20.4641   682
20.4741   705
20.4841   711
20.4941   701
20.5041   687
20.5141   727
20.5241   702
20.5341   713
20.5441   745
20.5541   679
20.5641   680
20.5741   688
20.5841   687
20.5941   677
20.6041   717
20.6141   730
20.6241   706
20.6341   700
20.6441   697
20.6541   658
20.6641   706
20.6741   714
20.6841   707
20.6941   685
20.7041   678
20.7141   691
20.7241   691
20.7341   702
20.7441   681
20.7541   686
20.7641   710
20.7741   691
20.7841   681
20.7941   715
20.8041   735
20.8141   697
20.8241   703
20.8341   733
20.8441   709
20.8541   713
20.8641   737
20.8741   797
20.8841   785
20.8941   767
20.9041   804
20.9141   786
20.9241   763
20.9341   819
20.9441   832
20.9541   864
20.9641   829
20.9741   912
20.9841   908
20.9941   894
21.0041   900
21.0141   885
21.0241   958
21.0341   981
21.0441   963
21.0541   965
21.0641   959
21.0741   978
21.0841   941
21.0941  1009
21.1041  1031
21.1141  1021
21.1241  1021
21.1341   991
21.1441  1007
21.1541   984
21.1641   994
21.1741   991
21.1841  1001
21.1941  1002
21.2041   979
21.2141   922
21.2241   915
21.2341   959
21.2441   901
21.2541   865
21.2641   907
21.2741   844
21.2841   833
21.2941   826
21.3041   837
21.3141   809
21.3241   810
21.3341   802
21.3441   736
21.3541   776
21.3641   738
21.3741   737
21.3841   751
21.3941   735
21.4041   715
21.4141   689
21.4241   663
21.4341   694
21.4441   698
21.4541   714
21.4641   743
21.4741   693
21.4841   718
21.4941   719
21.5041   710
21.5141   727
21.5241   712
21.5341   731
21.5441   693
21.5541   733
21.5641   711
21.5741   711
21.5841   700
21.5941   639
21.6041   667
21.6141   673
21.6241   678
21.6341   710
21.6441   728
21.6541   645
21.6641   666
21.6741   700
21.6841   694
21.6941   651
21.7041   648
21.7141   702
21.7241   699
21.7341   677
21.7441   726
21.7541   692
21.7641   720
21.7741   732
21.7841   694
21.7941   696
21.8041   651
21.8141   678
21.8241   683
21.8341   673
21.8441   683
21.8541   703
21.8641   723
21.8741   681
21.8841   711
21.8941   692
21.9041   737
21.9141   701
21.9241   706
21.9341   707
21.9441   723
21.9541   680
21.9641   701
21.9741   695
21.9841   732
21.9941   695
22.0041   687
22.0141   722
22.0241   674
22.0341   679
22.0441   662
22.0541   658
22.0641   694
22.0741   698
22.0841   757
22.0941   674
22.1041   688
22.1141   648
22.1241   687
22.1341   651
22.1441   721
22.1541   679
22.1641   727
22.1741   699
22.1841   689
22.1941   671
22.2041   657
22.2141   694
22.2241   690
22.2341   699
22.2441   665
22.2541   664
22.2641   684
22.2741   664
22.2841   729
22.2941   659
22.3041   678
22.3141   669
22.3241   666
22.3341   708
22.3441   680
22.3541   724
22.3641   665
22.3741   677
22.3841   710
22.3941   732
22.4041   673
22.4141   669
22.4241   678
22.4341   700
22.4441   640
22.4541   684
22.4641   689
22.4741   680
22.4841   663
22.4941   683
22.5041   652
22.5141   690
22.5241   701
22.5341   654
22.5441   639
22.5541   618
22.5641   639
22.5741   676
22.5841   637
22.5941   669
22.6041   706
22.6141   685
22.6241   680
22.6341   689
22.6441   652
22.6541   695
22.6641   643
22.6741   675
22.6841   688
22.6941   721
22.7041   671
22.7141   663
22.7241   675
22.7341   660
22.7441   690
22.7541   666
22.7641   682
22.7741   687
22.7841   703
22.7941   645
22.8041   662
22.8141   633
22.8241   648
22.8341   675
22.8441   655
22.8541   666
22.8641   679
22.8741   718
22.8841   667
22.8941   709
22.9041   704
22.9141   659
22.9241   664
22.9341   678
22.9441   688
22.9541   660
22.9641   703
22.9741   671
22.9841   667
22.9941   688
23.0041   687
23.0141   645
23.0241   651
23.0341   664
23.0441   677
23.0541   637
23.0641   660
23.0741   650
23.0841   627
23.0941   695
23.1041   664
23.1141   684
23.1241   694
23.1341   642
23.1441   660
23.1541   645
23.1641   650
23.1741   668
23.1841   713
23.1941   647
23.2041   652
23.2141   703
23.2241   634
23.2341   650
23.2441   731
23.2541   654
23.2641   651
23.2741   652
23.2841   621
23.2941   663
23.3041   666
23.3141   657
23.3241   604
23.3341   654
23.3441   566
23.3541   646
23.3641   668
23.3741   636
23.3841   657
23.3941   642
23.4041   637
23.4141   668
23.4241   656
23.4341   645
23.4441   652
23.4541   648
23.4641   632
23.4741   655
23.4841   577
23.4941   665
23.5041   640
23.5141   623
23.5241   646
23.5341   630
23.5441   676
23.5541   674
23.5641   636
23.5741   660
23.5841   664
23.5941   662
23.6041   640
23.6141   619
23.6241   680
23.6341   696
23.6441   688
23.6541   665
23.6641   683
23.6741   642
23.6841   646
23.6941   657
23.7041   675
23.7141   658
23.7241   691
23.7341   667
23.7441   669
23.7541   704
23.7641   663
23.7741   717
23.7841   688
23.7941   686
23.8041   696
23.8141   686
23.8241   655
23.8341   671
23.8441   689
23.8541   679
23.8641   631
23.8741   672
23.8841   672
23.8941   710
23.9041   678
23.9141   677
23.9241   658
23.9341   673
23.9441   633
23.9541   681
23.9641   647
23.9741   679
23.9841   612
23.9941   631
24.0041   676
24.0141   649
24.0241   618
24.0341   648
24.0441   695
24.0541   636
24.0641   645
24.0741   658
24.0841   646
24.0941   597
24.1041   629
24.1141   630
24.1241   606
24.1341   643
24.1441   582
24.1541   645
24.1641   603
24.1741   619
24.1841   641
24.1941   631
24.2041   681
24.2141   660
24.2241   605
24.2341   668
24.2441   634
24.2541   628
24.2641   616
24.2741   610
24.2841   611
24.2941   623
24.3041   634
24.3141   659
24.3241   578
24.3341   633
24.3441   608
24.3541   605
24.3641   581
24.3741   632
24.3841   591
24.3941   613
24.4041   601
24.4141   597
24.4241   634
24.4341   578
24.4441   638
24.4541   584
24.4641   569
24.4741   630
24.4841   622
24.4941   634
24.5041   618
24.5141   623
24.5241   606
24.5341   642
24.5441   591
24.5541   591
24.5641   561
24.5741   617
24.5841   599
24.5941   561
24.6041   585
24.6141   606
24.6241   565
24.6341   586
24.6441   592
24.6541   570
24.6641   600
24.6741   601
24.6841   566
24.6941   571
24.7041   589
24.7141   600
24.7241   588
24.7341   582
24.7441   586
24.7541   537
24.7641   599
24.7741   583
24.7841   578
24.7941   551
24.8041   578
24.8141   586
24.8241   575
24.8341   579
24.8441   552
24.8541   579
24.8641   551
24.8741   522
24.8841   558
24.8941   581
24.9041   594
24.9141   592
24.9241   590
24.9341   609
24.9441   591
24.9541   604
24.9641   618
24.9741   603
24.9841   627
24.9941   622
25.0041   620
25.0141   571
25.0241   612
25.0341   546
25.0441   533
25.0541   581
25.0641   582
25.0741   609
25.0841   580
25.0941   577
25.1041   561
25.1141   601
25.1241   551
25.1341   568
25.1441   573
25.1541   595
25.1641   592
25.1741   595
25.1841   570
25.1941   588
25.2041   538
25.2141   601
25.2241   576
25.2341   576
25.2441   563
25.2541   555
25.2641   583
25.2741   570
25.2841   574
25.2941   591
25.3041   612
25.3141   553
25.3241   560
25.3341   540
25.3441   570
25.3541   554
25.3641   584
25.3741   551
25.3841   561
25.3941   556
25.4041   576
25.4141   564
25.4241   569
25.4341   543
25.4441   558
25.4541   559
25.4641   555
25.4741   575
25.4841   536
25.4941   554
25.5041   550
25.5141   532
25.5241   543
25.5341   567
25.5441   583
25.5541   525
25.5641   553
25.5741   559
25.5841   508
25.5941   592
25.6041   574
25.6141   571
25.6241   566
25.6341   563
25.6441   531
25.6541   546
25.6641   543
25.6741   538
25.6841   536
25.6941   565
25.7041   566
25.7141   564
25.7241   564
25.7341   539
25.7441   555
25.7541   545
25.7641   556
25.7741   506
25.7841   516
25.7941   538
25.8041   511
25.8141   549
25.8241   526
25.8341   542
25.8441   493
25.8541   500
25.8641   524
25.8741   538
25.8841   557
25.8941   503
25.9041   532
25.9141   513
25.9241   539
25.9341   523
25.9441   518
25.9541   521
25.9641   516
25.9741   542
25.9841   533
25.9941   524
26.0041   533
26.0141   501
26.0241   531
26.0341   520
26.0441   551
26.0541   528
26.0641   490
26.0741   506
26.0841   531
26.0941   497
26.1041   486
26.1141   502
26.1241   507
26.1341   533
26.1441   518
26.1541   536
26.1641   504
26.1741   499
26.1841   508
26.1941   520
26.2041   502
26.2141   549
26.2241   530
26.2341   515
26.2441   477
26.2541   519
26.2641   510
26.2741   530
26.2841   517
26.2941   510
26.3041   571
26.3141   555
26.3241   514
26.3341   551
26.3441   538
26.3541   551
26.3641   495
26.3741   494
26.3841   545
26.3941   502
26.4041   524
26.4141   493
26.4241   500
26.4341   539
26.4441   509
26.4541   508
26.4641   493
26.4741   511
26.4841   526
26.4941   507
26.5041   466
26.5141   504
26.5241   508
26.5341   503
26.5441   482
26.5541   494
26.5641   484
26.5741   489
26.5841   509
26.5941   499
26.6041   529
26.6141   512
26.6241   479
26.6341   456
26.6441   467
26.6541   493
26.6641   492
26.6741   476
26.6841   511
26.6941   500
26.7041   502
26.7141   522
26.7241   494
26.7341   510
26.7441   472
26.7541   512
26.7641   497
26.7741   529
26.7841   473
26.7941   491
26.8041   497
26.8141   483
26.8241   458
26.8341   493
26.8441   432
26.8541   468
26.8641   495
26.8741   481
26.8841   473
26.8941   457
26.9041   465
26.9141   467
26.9241   451
26.9341   428
26.9441   430
26.9541   445
26.9641   517
26.9741   482
26.9841   464
26.9941   496
27.0041   441
27.0141   489
27.0241   458
27.0341   485
27.0441   462
27.0541   447
27.0641   429
27.0741   463
27.0841   461
27.0941   474
27.1041   456
27.1141   442
27.1241   474
27.1341   479
27.1441   474
27.1541   463
27.1641   455
27.1741   448
27.1841   455
27.1941   486
27.2041   472
27.2141   474
27.2241   454
27.2341   458
27.2441   412
27.2541   440
27.2641   470
27.2741   458
27.2841   453
27.2941   432
27.3041   460
27.3141   436
27.3241   465
27.3341   450
27.3441   461
27.3541   445
27.3641   418
27.3741   447
27.3841   491
27.3941   462
27.4041   489
27.4141   468
27.4241   454
27.4341   483
27.4441   464
27.4541   446
27.4641   459
27.4741   450
27.4841   424
27.4941   432
27.5041   443
27.5141   457
27.5241   432
27.5341   453
27.5441   440
27.5541   458
27.5641   473
27.5741   482
27.5841   476
27.5941   440
27.6041   468
27.6141   405
27.6241   436
27.6341   441
27.6441   412
27.6541   427
27.6641   458
27.6741   432
27.6841   433
27.6941   424
27.7041   446
27.7141   421
27.7241   414
27.7341   439
27.7441   432
27.7541   443
27.7641   426
27.7741   426
27.7841   403
27.7941   398
27.8041   422
27.8141   421
27.8241   435
27.8341   433
27.8441   431
27.8541   425
27.8641   418
27.8741   427
27.8841   419
27.8941   424
27.9041   452
27.9141   421
27.9241   425
27.9341   429
27.9441   398
27.9541   424
27.9641   412
27.9741   406
27.9841   402
27.9941   429
28.0041   398
28.0141   419
28.0241   408
28.0341   445
28.0441   422
28.0541   432
28.0641   423
28.0741   369
28.0841   403
28.0941   430
28.1041   446
28.1141   410
28.1241   438
28.1341   423
28.1441   416
28.1541   408
28.1641   430
28.1741   419
28.1841   390
28.1941   421
28.2041   420
28.2141   378
28.2241   408
28.2341   410
28.2441   391
28.2541   389
28.2641   436
28.2741   380
28.2841   393
28.2941   418
28.3041   405
28.3141   417
28.3241   379
28.3341   433
28.3441   408
28.3541   412
28.3641   426
28.3741   405
28.3841   419
28.3941   381
28.4041   384
28.4141   411
28.4241   376
28.4341   396
28.4441   385
28.4541   405
28.4641   397
28.4741   386
28.4841   374
28.4941   405
28.5041   430
28.5141   409
28.5241   383
28.5341   392
28.5441   417
28.5541   402
28.5641   382
28.5741   404
28.5841   400
28.5941   440
28.6041   414
28.6141   393
28.6241   406
28.6341   361
28.6441   394
28.6541   391
28.6641   380
28.6741   387
28.6841   385
28.6941   388
28.7041   394
28.7141   370
28.7241   381
28.7341   369
28.7441   390
28.7541   411
28.7641   335
28.7741   361
28.7841   337
28.7941   376
28.8041   403
28.8141   402
28.8241   361
28.8341   370
28.8441   372
28.8541   404
28.8641   377
28.8741   373
28.8841   362
28.8941   368
28.9041   346
28.9141   379
28.9241   384
28.9341   406
28.9441   350
28.9541   350
28.9641   378
28.9741   356
28.9841   367
28.9941   363
29.0041   361
29.0141   341
29.0241   341
29.0341   402
29.0441   362
29.0541   349
29.0641   362
29.0741   339
29.0841   335
29.0941   308
29.1041   366
29.1141   382
29.1241   362
29.1341   333
29.1441   367
29.1541   352
29.1641   385
29.1741   347
29.1841   376
29.1941   349
29.2041   371
29.2141   354
29.2241   350
29.2341   377
29.2441   363
29.2541   348
29.2641   361
29.2741   365
29.2841   332
29.2941   339
29.3041   346
29.3141   353
29.3241   341
29.3341   346
29.3441   329
29.3541   358
29.3641   356
29.3741   341
29.3841   315
29.3941   364
29.4041   369
29.4141   348
29.4241   352
29.4341   336
29.4441   313
29.4541   332
29.4641   347
29.4741   341
29.4841   353
29.4941   344
29.5041   343
29.5141   313
29.5241   344
29.5341   343
29.5441   320
29.5541   339
29.5641   326
29.5741   359
29.5841   367
29.5941   350
29.6041   316
29.6141   318
29.6241   309
29.6341   362
29.6441   362
29.6541   331
29.6641   329
29.6741   329
29.6841   300
29.6941   344
29.7041   371
29.7141   334
29.7241   330
29.7341   360
29.7441   310
29.7541   304
29.7641   308
29.7741   341
29.7841   335
29.7941   339
29.8041   316
29.8141   324
29.8241   337
29.8341   302
29.8441   334
29.8541   304
29.8641   334
29.8741   329
29.8841   355
29.8941   343
29.9041   316
29.9141   312
29.9241   308
29.9341   322
29.9441   306
29.9541   313
29.9641   316
29.9741   305
29.9841   292
29.9941   295
30.0041   299
30.0141   332
30.0241   323
30.0341   300
30.0441   301
30.0541   322
30.0641   316
30.0741   302
30.0841   315
30.0941   323
30.1041   293
30.1141   308
30.1241   293
30.1341   293
30.1441   318
30.1541   307
30.1641   318
30.1741   302
30.1841   293
30.1941   285
30.2041   307
30.2141   282
30.2241   293
30.2341   276
30.2441   310
30.2541   308
30.2641   276
30.2741   319
30.2841   283
30.2941   302
30.3041   297
30.3141   311
30.3241   311
30.3341   289
30.3441   274
30.3541   300
30.3641   292
30.3741   318
30.3841   297
30.3941   274
30.4041   284
30.4141   301
30.4241   303
30.4341   256
30.4441   291
30.4541   314
30.4641   264
30.4741   274
30.4841   294
30.4941   298
30.5041   292
30.5141   299
30.5241   306
30.5341   292
30.5441   289
30.5541   289
30.5641   273
30.5741   275
30.5841   282
30.5941   274
30.6041   298
30.6141   290
30.6241   292
30.6341   289
30.6441   281
30.6541   266
30.6641   280
30.6741   261
30.6841   260
30.6941   276
30.7041   279
30.7141   285
30.7241   302
30.7341   286
30.7441   287
30.7541   290
30.7641   279
30.7741   266
30.7841   269
30.7941   273
30.8041   267
30.8141   250
30.8241   281
30.8341   280
30.8441   314
30.8541   260
30.8641   275
30.8741   298
30.8841   258
30.8941   282
30.9041   279
30.9141   252
30.9241   243
30.9341   274
30.9441   290
30.9541   277
30.9641   303
30.9741   300
30.9841   291
30.9941   299
31.0041   255
31.0141   254
31.0241   251
31.0341   281
31.0441   260
31.0541   288
31.0641   256
31.0741   285
31.0841   274
31.0941   271
31.1041   252
31.1141   261
31.1241   260
31.1341   278
31.1441   234
31.1541   281
31.1641   258
31.1741   276
31.1841   277
31.1941   258
31.2041   256
31.2141   267
31.2241   270
31.2341   258
31.2441   268
31.2541   256
31.2641   249
31.2741   256
31.2841   289
31.2941   251
31.3041   258
31.3141   252
31.3241   246
31.3341   213
31.3441   249
31.3541   254
31.3641   243
31.3741   281
31.3841   256
31.3941   266
31.4041   269
31.4141   267
31.4241   276
31.4341   245
31.4441   269
31.4541   259
31.4641   232
31.4741   246
31.4841   240
31.4941   230
31.5041   256
31.5141   244
31.5241   244
31.5341   253
31.5441   233
31.5541   268
31.5641   235
31.5741   259
31.5841   248
31.5941   249
31.6041   246
31.6141   262
31.6241   241
31.6341   247
31.6441   255
31.6541   252
31.6641   262
31.6741   254
31.6841   257
31.6941   257
31.7041   251
31.7141   244
31.7241   239
31.7341   244
31.7441   230
31.7541   225
31.7641   227
31.7741   268
31.7841   241
31.7941   265
31.8041   229
31.8141   242
31.8241   240
31.8341   252
31.8441   253
31.8541   223
31.8641   238
31.8741   247
31.8841   244
31.8941   233
31.9041   211
31.9141   248
31.9241   256
31.9341   222
31.9441   240
31.9541   257
31.9641   230
31.9741   254
31.9841   241
31.9941   229
32.0041   254
32.0141   247
32.0241   224
32.0341   236
32.0441   224
32.0541   232
32.0641   233
32.0741   222
32.0841   226
32.0941   225
32.1041   237
32.1141   244
32.1241   214
32.1341   233
32.1441   251
32.1541   232
32.1641   247
32.1741   213
32.1841   248
32.1941   230
32.2041   245
32.2141   231
32.2241   232
32.2341   252
32.2441   247
32.2541   230
32.2641   213
32.2741   230
32.2841   236
32.2941   194
32.3041   235
32.3141   243
32.3241   247
32.3341   201
32.3441   243
32.3541   197
32.3641   221
32.3741   233
32.3841   211
32.3941   203
32.4041   216
32.4141   192
32.4241   212
32.4341   213
32.4441   215
32.4541   222
32.4641   221
32.4741   203
32.4841   219
32.4941   224
32.5041   228
32.5141   230
32.5241   220
32.5341   235
32.5441   209
32.5541   210
32.5641   211
32.5741   213
32.5841   218
32.5941   224
32.6041   217
32.6141   209
32.6241   193
32.6341   206
32.6441   179
32.6541   208
32.6641   218
32.6741   201
32.6841   198
32.6941   190
32.7041   216
32.7141   209
32.7241   212
32.7341   204
32.7441   221
32.7541   217
32.7641   196
32.7741   182
32.7841   191
32.7941   204
32.8041   181
32.8141   204
32.8241   192
32.8341   198
32.8441   195
32.8541   217
32.8641   186
32.8741   212
32.8841   214
32.8941   187
32.9041   195
32.9141   199
32.9241   172
32.9341   215
32.9441   192
32.9541   200
32.9641   185
32.9741   174
32.9841   206
32.9941   210
33.0041   173
33.0141   217
33.0241   204
33.0341   196
33.0441   192
33.0541   172
33.0641   205
33.0741   184
33.0841   167
33.0941   182
33.1041   176
33.1141   189
33.1241   181
33.1341   214
33.1441   174
33.1541   182
33.1641   181
33.1741   184
33.1841   201
33.1941   186
33.2041   198
33.2141   183
33.2241   174
33.2341   216
33.2441   168
33.2541   175
33.2641   193
33.2741   194
33.2841   180
33.2941   171
33.3041   177
33.3141   186
33.3241   180
33.3341   172
33.3441   182
33.3541   183
33.3641   175
33.3741   177
33.3841   171
33.3941   184
33.4041   188
33.4141   137
33.4241   166
33.4341   172
33.4441   177
33.4541   201
33.4641   185
33.4741   188
33.4841   172
33.4941   179
33.5041   169
33.5141   184
33.5241   148
33.5341   189
33.5441   211
33.5541   162
33.5641   177
33.5741   170
33.5841   164
33.5941   168
33.6041   175
33.6141   191
33.6241   171
33.6341   169
33.6441   172
33.6541   162
33.6641   160
33.6741   173
33.6841   163
33.6941   172
33.7041   177
33.7141   168
33.7241   180
33.7341   175
33.7441   159
33.7541   181
33.7641   165
33.7741   171
33.7841   177
33.7941   141
33.8041   163
33.8141   181
33.8241   153
33.8341   165
33.8441   166
33.8541   177
33.8641   169
33.8741   162
33.8841   165
33.8941   166
33.9041   172
33.9141   184
33.9241   165
33.9341   165
33.9441   173
33.9541   152
33.9641   155
33.9741   159
33.9841   158
33.9941   151
34.0041   149
34.0141   174
34.0241   166
34.0341   187
34.0441   148
34.0541   172
34.0641   173
34.0741   181
34.0841   157
34.0941   159
34.1041   173
34.1141   190
34.1241   157
34.1341   163
34.1441   175
34.1541   164
34.1641   157
34.1741   142
34.1841   152
34.1941   153
34.2041   163
34.2141   135
34.2241   171
34.2341   156
34.2441   162
34.2541   145
34.2641   153
34.2741   150
34.2841   152
34.2941   134
34.3041   149
34.3141   152
34.3241   154
34.3341   163
34.3441   169
34.3541   140
34.3641   166
34.3741   128
34.3841   163
34.3941   154
34.4041   129
34.4141   136
34.4241   137
34.4341   146
34.4441   141
34.4541   153
34.4641   132
34.4741   149
34.4841   159
34.4941   141
34.5041   149
34.5141   149
34.5241   137
34.5341   126
34.5441   152
34.5541   147
34.5641   156
34.5741   117
34.5841   136
34.5941   145
34.6041   133
34.6141   153
34.6241   140
34.6341   137
34.6441   139
34.6541   132
34.6641   148
34.6741   139
34.6841   148
34.6941   136
34.7041   140
34.7141   166
34.7241   152
34.7341   148
34.7441   152
34.7541   143
34.7641   146
34.7741   136
34.7841   137
34.7941   125
34.8041   140
34.8141   129
34.8241   128
34.8341   152
34.8441   130
34.8541   103
34.8641   142
34.8741   136
34.8841   129
34.8941   133
34.9041   121
34.9141   132
34.9241   135
34.9341   147
34.9441   127
34.9541   130
34.9641   133
34.9741   139
34.9841   114
34.9941   112
35.0041   134
35.0141   144
35.0241   128
35.0341   136
35.0441   140
35.0541   140
35.0641   120
35.0741   151
35.0841   126
35.0941   154
35.1041   120
35.1141   127
35.1241   121
35.1341   134
35.1441   133
35.1541   117
35.1641   116
35.1741   125
35.1841   130
35.1941   128
35.2041   120
35.2141   133
35.2241   134
35.2341   141
35.2441   131
35.2541   141
35.2641   127
35.2741   114
35.2841   116
35.2941   111
35.3041   112
35.3141   100
35.3241   117
35.3341   124
35.3441   128
35.3541   131
35.3641   138
35.3741   138
35.3841   132
35.3941   143
35.4041   127
35.4141   103
35.4241   119
35.4341   112
35.4441   124
35.4541   140
35.4641   108
35.4741   113
35.4841   117
35.4941   145
35.5041   126
35.5141   112
35.5241   114
35.5341   135
35.5441   110
35.5541   107
35.5641   107
35.5741   110
35.5841   132
35.5941   126
35.6041   111
35.6141   110
35.6241   112
35.6341   104
35.6441   107
35.6541   124
35.6641   119
35.6741   112
35.6841   107
35.6941   103
35.7041   114
35.7141   117
35.7241   113
35.7341   123
35.7441   127
35.7541   114
35.7641   108
35.7741   100
35.7841   107
35.7941   118
35.8041   118
35.8141    98
35.8241   115
35.8341   129
35.8441   101
35.8541   117
35.8641    98
35.8741   105
35.8841   108
35.8941   108
35.9041   106
35.9141   136
35.9241   109
35.9341   115
35.9441   124
35.9541   104
35.9641   128
35.9741   120
35.9841   125
35.9941   110
36.0041   105
36.0141   108
36.0241   106
36.0341   104
36.0441   119
36.0541   153
36.0641   129
36.0741   122
36.0841   106
36.0941   130
36.1041   108
36.1141   104
36.1241    96
36.1341   102
36.1441   105
36.1541    96
36.1641   104
36.1741    98
36.1841   103
36.1941    98
36.2041   115
36.2141    84
36.2241   100
36.2341   106
36.2441   108
36.2541   120
36.2641    86
36.2741   113
36.2841    92
36.2941    87
36.3041   100
36.3141    92
36.3241    93
36.3341    94
36.3441   100
36.3541   102
36.3641    97
36.3741   107
36.3841   111
36.3941    91
36.4041   103
36.4141   102
36.4241   103
36.4341   104
36.4441    92
36.4541   105
36.4641   102
36.4741    98
36.4841    88
36.4941   109
36.5041   110
36.5141   108
36.5241    95
36.5341    89
36.5441   100
36.5541    97
36.5641    91
36.5741    85
36.5841    85
36.5941    97
36.6041   109
36.6141   100
36.6241    91
36.6341    83
36.6441   110
36.6541    94
36.6641   101
36.6741    92
36.6841   100
36.6941    91
36.7041    87
36.7141   101
36.7241   104
36.7341    97
36.7441   107
36.7541    84
36.7641   105
36.7741    66
36.7841    86
36.7941    86
36.8041    76
36.8141    81
36.8241    91
36.8341    73
36.8441    81
36.8541    79
36.8641    86
36.8741    80
36.8841    82
36.8941    75
36.9041    78
36.9141    92
36.9241    74
36.9341    92
36.9441    83
36.9541    70
36.9641    95
36.9741    90
36.9841    81
36.9941    82
37.0041    88
37.0141    87
37.0241    88
37.0341    87
37.0441    84
37.0541    85
37.0641    89
37.0741    79
37.0841    83
37.0941    78
37.1041    74
37.1141    82
37.1241    73
37.1341    79
37.1441    90
37.1541   100
37.1641    83
37.1741    82
37.1841    95
37.1941    76
37.2041    85
37.2141    86
37.2241    75
37.2341    65
37.2441    80
37.2541    73
37.2641    89
37.2741    90
37.2841    79
37.2941    83
37.3041    71
37.3141    87
37.3241    58
37.3341    68
37.3441    78
37.3541    85
37.3641    64
37.3741    74
37.3841    63
37.3941    79
37.4041    74
37.4141    77
37.4241    74
37.4341    80
37.4441    74
37.4541    76
37.4641    73
37.4741    84
37.4841    67
37.4941    74
37.5041    72
37.5141    79
37.5241    85
37.5341    78
37.5441    87
37.5541    81
37.5641    78
37.5741    69
37.5841    71
37.5941    73
37.6041    72
37.6141    78
37.6241    73
37.6341    72
37.6441    64
37.6541    57
37.6641    68
37.6741    74
37.6841    74
37.6941    75
37.7041    84
37.7141    59
37.7241    75
37.7341    63
37.7441    59
37.7541    73
37.7641    69
37.7741    64
37.7841    61
37.7941    68
37.8041    67
37.8141    59
37.8241    61
37.8341    77
37.8441    59
37.8541    66
37.8641    60
37.8741    58
37.8841    57
37.8941    77
37.9041    75
37.9141    76
37.9241    61
37.9341    57
37.9441    55
37.9541    69
37.9641    68
37.9741    63
37.9841    61
37.9941    61
38.0041    61
38.0141    61
38.0241    59
38.0341    57
38.0441    61
38.0541    70
38.0641    65
38.0741    79
38.0841    65
38.0941    71
38.1041    67
38.1141    60
38.1241    52
38.1341    74
38.1441    67
38.1541    66
38.1641    53
38.1741    62
38.1841    53
38.1941    49
38.2041    58
38.2141    55
38.2241    72
38.2341    62
38.2441    46
38.2541    46
38.2641    65
38.2741    59
38.2841    50
38.2941    56
38.3041    70
38.3141    71
38.3241    55
38.3341    65
38.3441    56
38.3541    50
38.3641    56
38.3741    63
38.3841    43
38.3941    46
38.4041    63
38.4141    57
38.4241    52
38.4341    54
38.4441    54
38.4541    69
38.4641    60
38.4741    55
38.4841    70
38.4941    67
38.5041    63
38.5141    46
38.5241    55
38.5341    48
38.5441    61
38.5541    55
38.5641    54
38.5741    41
38.5841    52
38.5941    47
38.6041    44
38.6141    60
38.6241    49
38.6341    55
38.6441    64
38.6541    61
38.6641    43
38.6741    61
38.6841    49
38.6941    45
38.7041    42
38.7141    48
38.7241    46
38.7341    48
38.7441    54
38.7541    47
38.7641    57
38.7741    59
38.7841    46
38.7941    51
38.8041    63
38.8141    50
38.8241    46
38.8341    49
38.8441    55
38.8541    50
38.8641    52
38.8741    47
38.8841    37
38.8941    58
38.9041    48
38.9141    32
38.9241    36
38.9341    44
38.9441    45
38.9541    46
38.9641    51
38.9741    53
38.9841    54
38.9941    49
39.0041    51
39.0141    56
39.0241    45
39.0341    30
39.0441    52
39.0541    48
39.0641    48
39.0741    38
39.0841    46
39.0941    50
39.1041    39
39.1141    51
39.1241    52
39.1341    59
39.1441    52
39.1541    42
39.1641    51
39.1741    40
39.1841    42
39.1941    44
39.2041    46
39.2141    48
39.2241    38
39.2341    38
39.2441    42
39.2541    51
39.2641    47
39.2741    41
39.2841    51
39.2941    41
39.3041    53
39.3141    44
39.3241    62
39.3341    50
39.3441    45
39.3541    44
39.3641    45
39.3741    48
39.3841    43
39.3941    39
39.4041    38
39.4141    36
39.4241    29
39.4341    52
39.4441    35
39.4541    64
39.4641    52
39.4741    44
39.4841    36
39.4941    51
39.5041    46
39.5141    35
39.5241    37
39.5341    37
39.5441    31
39.5541    43
39.5641    47
39.5741    41
39.5841    40
39.5941    38
39.6041    37
39.6141    30
39.6241    50
39.6341    30
39.6441    35
39.6541    48
39.6641    45
39.6741    29
39.6841    25
39.6941    45
39.7041    37
39.7141    32
39.7241    42
39.7341    23
39.7441    33
39.7541    36
39.7641    39
39.7741    34
39.7841    34
39.7941    36
39.8041    39
39.8141    39
39.8241    41
39.8341    30
39.8441    31
39.8541    34
39.8641    45
39.8741    43
39.8841    32
39.8941    34
39.9041    20
39.9141    31
39.9241    32
39.9341    29
39.9441    30
39.9541    33
39.9641    38
39.9741    30
39.9841    44
