Bruker Nano GmbH Berlin, Germany
Esprit 1.9

Date: 4/1/2021 4:57:55 PM
Real time: 16011
Life time: 14733
Pulse density: 118407


Detector type: XFlash 430
Window type: Custom type
Detector thickness: 0.45
Si dead layer:0.029

Calibration, lin.: 10
Calibration, abs.: -955.9
Mn FWHM: 137.05
Fano factor: 0.121
Channels: 4095

Energy Counts
-0.9559     0
-0.9459     0
-0.9359     0
-0.9259     0
-0.9159     0
-0.9059     0
-0.8959     0
-0.8859     0
-0.8759     0
-0.8659     0
-0.8559     0
-0.8459     0
-0.8359     0
-0.8259     0
-0.8159     0
-0.8059     0
-0.7959     0
-0.7859     0
-0.7759     0
-0.7659     0
-0.7559     0
-0.7459     0
-0.7359     0
-0.7259     0
-0.7159     0
-0.7059     0
-0.6959     0
-0.6859     0
-0.6759     0
-0.6659     0
-0.6559     0
-0.6459     0
-0.6359     0
-0.6259     0
-0.6159     0
-0.6059     0
-0.5959     0
-0.5859     0
-0.5759     0
-0.5659     0
-0.5559     0
-0.5459     0
-0.5359     0
-0.5259     0
-0.5159     0
-0.5059     0
-0.4959     0
-0.4859     0
-0.4759     0
-0.4659     0
-0.4559     0
-0.4459     0
-0.4359     0
-0.4259     0
-0.4159     0
-0.4059     0
-0.3959     0
-0.3859     0
-0.3759     0
-0.3659     0
-0.3559     0
-0.3459     0
-0.3359     0
-0.3259     0
-0.3159     0
-0.3059     0
-0.2959     0
-0.2859     0
-0.2759     0
-0.2659     0
-0.2559     0
-0.2459     0
-0.2359     0
-0.2259     0
-0.2159     0
-0.2059     0
-0.1959     0
-0.1859     0
-0.1759     0
-0.1659     0
-0.1559     0
-0.1459     0
-0.1359     1
-0.1259     0
-0.1159     2
-0.1059     7
-0.0959    61
-0.0859   158
-0.0759   600
-0.0659  1638
-0.0559  4175
-0.0459  9257
-0.0359 17575
-0.0259 28019
-0.0159 38213
-0.0059 45064
 0.0041 45457
 0.0141 39407
 0.0241 28964
 0.0341 18270
 0.0441  9977
 0.0541  4644
 0.0641  1911
 0.0741   655
 0.0841   189
 0.0941    59
 0.1041    15
 0.1141    12
 0.1241     6
 0.1341     8
 0.1441     8
 0.1541     4
 0.1641     4
 0.1741     1
 0.1841   159
 0.1941   259
 0.2041   262
 0.2141   254
 0.2241   265
 0.2341   264
 0.2441   245
 0.2541   271
 0.2641   281
 0.2741   279
 0.2841   277
 0.2941   264
 0.3041   256
 0.3141   249
 0.3241   243
 0.3341   271
 0.3441   229
 0.3541   231
 0.3641   227
 0.3741   211
 0.3841   225
 0.3941   248
 0.4041   239
 0.4141   244
 0.4241   232
 0.4341   230
 0.4441   220
 0.4541   201
 0.4641   194
 0.4741   202
 0.4841   215
 0.4941   212
 0.5041   212
 0.5141   218
 0.5241   235
 0.5341   242
 0.5441   215
 0.5541   205
 0.5641   207
 0.5741   207
 0.5841   207
 0.5941   200
 0.6041   190
 0.6141   187
 0.6241   182
 0.6341   177
 0.6441   199
 0.6541   212
 0.6641   192
 0.6741   196
 0.6841   189
 0.6941   188
 0.7041   196
 0.7141   183
 0.7241   172
 0.7341   171
 0.7441   192
 0.7541   176
 0.7641   163
 0.7741   183
 0.7841   197
 0.7941   189
 0.8041   179
 0.8141   182
 0.8241   169
 0.8341   173
 0.8441   190
 0.8541   177
 0.8641   153
 0.8741   158
 0.8841   173
 0.8941   163
 0.9041   156
 0.9141   169
 0.9241   179
 0.9341   163
 0.9441   164
 0.9541   184
 0.9641   175
 0.9741   162
 0.9841   181
 0.9941   172
 1.0041   150
 1.0141   170
 1.0241   162
 1.0341   151
 1.0441   169
 1.0541   177
 1.0641   176
 1.0741   173
 1.0841   161
 1.0941   152
 1.1041   170
 1.1141   162
 1.1241   160
 1.1341   160
 1.1441   158
 1.1541   161
 1.1641   164
 1.1741   167
 1.1841   163
 1.1941   168
 1.2041   174
 1.2141   164
 1.2241   147
 1.2341   160
 1.2441   171
 1.2541   159
 1.2641   170
 1.2741   140
 1.2841   151
 1.2941   138
 1.3041   151
 1.3141   137
 1.3241   167
 1.3341   162
 1.3441   133
 1.3541   150
 1.3641   154
 1.3741   150
 1.3841   162
 1.3941   167
 1.4041   161
 1.4141   152
 1.4241   141
 1.4341   163
 1.4441   144
 1.4541   155
 1.4641   147
 1.4741   167
 1.4841   147
 1.4941   135
 1.5041   138
 1.5141   151
 1.5241   154
 1.5341   155
 1.5441   133
 1.5541   115
 1.5641   153
 1.5741   138
 1.5841   137
 1.5941   157
 1.6041   139
 1.6141   146
 1.6241   149
 1.6341   152
 1.6441   164
 1.6541   166
 1.6641   198
 1.6741   239
 1.6841   341
 1.6941   387
 1.7041   438
 1.7141   526
 1.7241   575
 1.7341   576
 1.7441   591
 1.7541   581
 1.7641   491
 1.7741   431
 1.7841   364
 1.7941   303
 1.8041   285
 1.8141   240
 1.8241   202
 1.8341   192
 1.8441   186
 1.8541   189
 1.8641   177
 1.8741   162
 1.8841   163
 1.8941   155
 1.9041   139
 1.9141   142
 1.9241   150
 1.9341   136
 1.9441   142
 1.9541   140
 1.9641   166
 1.9741   170
 1.9841   188
 1.9941   185
 2.0041   191
 2.0141   202
 2.0241   176
 2.0341   172
 2.0441   148
 2.0541   150
 2.0641   149
 2.0741   135
 2.0841   153
 2.0941   131
 2.1041   137
 2.1141   128
 2.1241   136
 2.1341   135
 2.1441   124
 2.1541   123
 2.1641   121
 2.1741   132
 2.1841   147
 2.1941   142
 2.2041   119
 2.2141   136
 2.2241   123
 2.2341   124
 2.2441   133
 2.2541   131
 2.2641   117
 2.2741   139
 2.2841   120
 2.2941   136
 2.3041   102
 2.3141   119
 2.3241   123
 2.3341   105
 2.3441   121
 2.3541   120
 2.3641   125
 2.3741   118
 2.3841   144
 2.3941   124
 2.4041   126
 2.4141   129
 2.4241   123
 2.4341   126
 2.4441   110
 2.4541   119
 2.4641   137
 2.4741   106
 2.4841   130
 2.4941   108
 2.5041   107
 2.5141   117
 2.5241   113
 2.5341   110
 2.5441   111
 2.5541    97
 2.5641   124
 2.5741   126
 2.5841   112
 2.5941    97
 2.6041   104
 2.6141   104
 2.6241   107
 2.6341    95
 2.6441   110
 2.6541   109
 2.6641    85
 2.6741    93
 2.6841   123
 2.6941   102
 2.7041    98
 2.7141   102
 2.7241   107
 2.7341    99
 2.7441   108
 2.7541   105
 2.7641   109
 2.7741   109
 2.7841   110
 2.7941   105
 2.8041   128
 2.8141   114
 2.8241   127
 2.8341   118
 2.8441   112
 2.8541   112
 2.8641   105
 2.8741   122
 2.8841   113
 2.8941   116
 2.9041    99
 2.9141   103
 2.9241   101
 2.9341    96
 2.9441   115
 2.9541    95
 2.9641   105
 2.9741    88
 2.9841    93
 2.9941   108
 3.0041   110
 3.0141    91
 3.0241    87
 3.0341    94
 3.0441    84
 3.0541   104
 3.0641    92
 3.0741    88
 3.0841    85
 3.0941    88
 3.1041   106
 3.1141    95
 3.1241    80
 3.1341    85
 3.1441    86
 3.1541    87
 3.1641    71
 3.1741   117
 3.1841    92
 3.1941    93
 3.2041    78
 3.2141    92
 3.2241    93
 3.2341   124
 3.2441   113
 3.2541   113
 3.2641   137
 3.2741   131
 3.2841   136
 3.2941   155
 3.3041   159
 3.3141   166
 3.3241   163
 3.3341   153
 3.3441   161
 3.3541   129
 3.3641   135
 3.3741   112
 3.3841   112
 3.3941   105
 3.4041    85
 3.4141    77
 3.4241    95
 3.4341    86
 3.4441    81
 3.4541    85
 3.4641    63
 3.4741    88
 3.4841    79
 3.4941    82
 3.5041    77
 3.5141    85
 3.5241    97
 3.5341   107
 3.5441   106
 3.5541   106
 3.5641   120
 3.5741   159
 3.5841   184
 3.5941   195
 3.6041   263
 3.6141   341
 3.6241   430
 3.6341   532
 3.6441   594
 3.6541   692
 3.6641   799
 3.6741   843
 3.6841   907
 3.6941   909
 3.7041   868
 3.7141   814
 3.7241   694
 3.7341   607
 3.7441   477
 3.7541   397
 3.7641   325
 3.7741   248
 3.7841   221
 3.7941   154
 3.8041   143
 3.8141   107
 3.8241    80
 3.8341    77
 3.8441    75
 3.8541    72
 3.8641    84
 3.8741    77
 3.8841    63
 3.8941    82
 3.9041    85
 3.9141    83
 3.9241    93
 3.9341   104
 3.9441   102
 3.9541   120
 3.9641   139
 3.9741   143
 3.9841   161
 3.9941   169
 4.0041   187
 4.0141   175
 4.0241   166
 4.0341   154
 4.0441   150
 4.0541   143
 4.0641   135
 4.0741   116
 4.0841   105
 4.0941    97
 4.1041    72
 4.1141    85
 4.1241    77
 4.1341    69
 4.1441    70
 4.1541    72
 4.1641    86
 4.1741    80
 4.1841    72
 4.1941    59
 4.2041    56
 4.2141    68
 4.2241    69
 4.2341    71
 4.2441    68
 4.2541    79
 4.2641    58
 4.2741    67
 4.2841    64
 4.2941    56
 4.3041    59
 4.3141    66
 4.3241    81
 4.3341    62
 4.3441    76
 4.3541    63
 4.3641    86
 4.3741    97
 4.3841   106
 4.3941   132
 4.4041   155
 4.4141   183
 4.4241   230
 4.4341   288
 4.4441   321
 4.4541   373
 4.4641   455
 4.4741   522
 4.4841   552
 4.4941   564
 4.5041   574
 4.5141   582
 4.5241   535
 4.5341   539
 4.5441   443
 4.5541   426
 4.5641   366
 4.5741   316
 4.5841   264
 4.5941   209
 4.6041   165
 4.6141   141
 4.6241    93
 4.6341   101
 4.6441    85
 4.6541   107
 4.6641    72
 4.6741    89
 4.6841    71
 4.6941    96
 4.7041    85
 4.7141    77
 4.7241    64
 4.7341    70
 4.7441    76
 4.7541    87
 4.7641    90
 4.7741    95
 4.7841    98
 4.7941   107
 4.8041   100
 4.8141   114
 4.8241   121
 4.8341   116
 4.8441   159
 4.8541   165
 4.8641   152
 4.8741   175
 4.8841   169
 4.8941   216
 4.9041   222
 4.9141   198
 4.9241   197
 4.9341   207
 4.9441   182
 4.9541   190
 4.9641   179
 4.9741   182
 4.9841   153
 4.9941   153
 5.0041   122
 5.0141   113
 5.0241   115
 5.0341   111
 5.0441    78
 5.0541    93
 5.0641    89
 5.0741    84
 5.0841    69
 5.0941    84
 5.1041    95
 5.1141    81
 5.1241    84
 5.1341    90
 5.1441    77
 5.1541    87
 5.1641    83
 5.1741    88
 5.1841    75
 5.1941   104
 5.2041    86
 5.2141    85
 5.2241    96
 5.2341    72
 5.2441    80
 5.2541    81
 5.2641    70
 5.2741    73
 5.2841    75
 5.2941    74
 5.3041    76
 5.3141    88
 5.3241    82
 5.3341   129
 5.3441   101
 5.3541   108
 5.3641   134
 5.3741   146
 5.3841   133
 5.3941   146
 5.4041   133
 5.4141   157
 5.4241   174
 5.4341   163
 5.4441   146
 5.4541   165
 5.4641   115
 5.4741   130
 5.4841   118
 5.4941   112
 5.5041   109
 5.5141   121
 5.5241    83
 5.5341   103
 5.5441   101
 5.5541   100
 5.5641    98
 5.5741    96
 5.5841    89
 5.5941   100
 5.6041   102
 5.6141    82
 5.6241    89
 5.6341    83
 5.6441    98
 5.6541    91
 5.6641    82
 5.6741    76
 5.6841   118
 5.6941    87
 5.7041    93
 5.7141    93
 5.7241    83
 5.7341   114
 5.7441   107
 5.7541   140
 5.7641   129
 5.7741   149
 5.7841   180
 5.7941   223
 5.8041   218
 5.8141   282
 5.8241   311
 5.8341   378
 5.8441   412
 5.8541   463
 5.8641   525
 5.8741   522
 5.8841   544
 5.8941   579
 5.9041   561
 5.9141   522
 5.9241   452
 5.9341   441
 5.9441   432
 5.9541   376
 5.9641   356
 5.9741   280
 5.9841   249
 5.9941   188
 6.0041   193
 6.0141   146
 6.0241   162
 6.0341   159
 6.0441   141
 6.0541   125
 6.0641   103
 6.0741   145
 6.0841   127
 6.0941   145
 6.1041   141
 6.1141   153
 6.1241   143
 6.1341   168
 6.1441   172
 6.1541   158
 6.1641   212
 6.1741   224
 6.1841   258
 6.1941   329
 6.2041   420
 6.2141   578
 6.2241   772
 6.2341  1138
 6.2441  1582
 6.2541  2226
 6.2641  3003
 6.2741  4141
 6.2841  5743
 6.2941  7445
 6.3041  9659
 6.3141 12244
 6.3241 15189
 6.3341 18340
 6.3441 21197
 6.3541 24148
 6.3641 27162
 6.3741 29145
 6.3841 30941
 6.3941 31383
 6.4041 31496
 6.4141 30200
 6.4241 28757
 6.4341 26367
 6.4441 23439
 6.4541 20274
 6.4641 17145
 6.4741 13953
 6.4841 11135
 6.4941  8757
 6.5041  6656
 6.5141  5018
 6.5241  3645
 6.5341  2519
 6.5441  1811
 6.5541  1267
 6.5641   895
 6.5741   601
 6.5841   435
 6.5941   306
 6.6041   275
 6.6141   202
 6.6241   210
 6.6341   178
 6.6441   175
 6.6541   160
 6.6641   161
 6.6741   160
 6.6841   158
 6.6941   177
 6.7041   179
 6.7141   140
 6.7241   172
 6.7341   174
 6.7441   170
 6.7541   190
 6.7641   160
 6.7741   183
 6.7841   191
 6.7941   195
 6.8041   228
 6.8141   240
 6.8241   238
 6.8341   255
 6.8441   263
 6.8541   286
 6.8641   338
 6.8741   392
 6.8841   455
 6.8941   548
 6.9041   656
 6.9141   833
 6.9241   954
 6.9341  1225
 6.9441  1438
 6.9541  1876
 6.9641  2237
 6.9741  2660
 6.9841  3070
 6.9941  3618
 7.0041  4041
 7.0141  4554
 7.0241  4958
 7.0341  5179
 7.0441  5411
 7.0541  5390
 7.0641  5204
 7.0741  5069
 7.0841  4793
 7.0941  4543
 7.1041  3974
 7.1141  3476
 7.1241  3016
 7.1341  2416
 7.1441  1998
 7.1541  1562
 7.1641  1298
 7.1741  1050
 7.1841   782
 7.1941   616
 7.2041   463
 7.2141   349
 7.2241   321
 7.2341   256
 7.2441   240
 7.2541   213
 7.2641   171
 7.2741   158
 7.2841   183
 7.2941   176
 7.3041   171
 7.3141   193
 7.3241   185
 7.3341   188
 7.3441   215
 7.3541   213
 7.3641   214
 7.3741   231
 7.3841   244
 7.3941   240
 7.4041   229
 7.4141   244
 7.4241   246
 7.4341   260
 7.4441   283
 7.4541   262
 7.4641   264
 7.4741   243
 7.4841   251
 7.4941   258
 7.5041   214
 7.5141   234
 7.5241   225
 7.5341   206
 7.5441   185
 7.5541   176
 7.5641   167
 7.5741   146
 7.5841   171
 7.5941   159
 7.6041   171
 7.6141   153
 7.6241   140
 7.6341   170
 7.6441   171
 7.6541   175
 7.6641   155
 7.6741   173
 7.6841   166
 7.6941   170
 7.7041   176
 7.7141   157
 7.7241   174
 7.7341   172
 7.7441   178
 7.7541   214
 7.7641   153
 7.7741   183
 7.7841   204
 7.7941   194
 7.8041   209
 7.8141   226
 7.8241   229
 7.8341   206
 7.8441   220
 7.8541   226
 7.8641   230
 7.8741   238
 7.8841   245
 7.8941   269
 7.9041   261
 7.9141   272
 7.9241   311
 7.9341   326
 7.9441   314
 7.9541   337
 7.9641   344
 7.9741   447
 7.9841   434
 7.9941   406
 8.0041   469
 8.0141   499
 8.0241   572
 8.0341   630
 8.0441   651
 8.0541   660
 8.0641   703
 8.0741   831
 8.0841   811
 8.0941   854
 8.1041   913
 8.1141   965
 8.1241   912
 8.1341  1003
 8.1441  1024
 8.1541   995
 8.1641  1088
 8.1741  1102
 8.1841  1133
 8.1941  1164
 8.2041  1177
 8.2141  1164
 8.2241  1131
 8.2341  1149
 8.2441  1239
 8.2541  1275
 8.2641  1295
 8.2741  1380
 8.2841  1418
 8.2941  1576
 8.3041  1662
 8.3141  1737
 8.3241  1929
 8.3341  2090
 8.3441  2255
 8.3541  2403
 8.3641  2486
 8.3741  2562
 8.3841  2530
 8.3941  2635
 8.4041  2476
 8.4141  2454
 8.4241  2200
 8.4341  2100
 8.4441  1832
 8.4541  1710
 8.4641  1514
 8.4741  1309
 8.4841  1159
 8.4941  1057
 8.5041   832
 8.5141   683
 8.5241   624
 8.5341   567
 8.5441   479
 8.5541   451
 8.5641   429
 8.5741   415
 8.5841   402
 8.5941   393
 8.6041   396
 8.6141   413
 8.6241   392
 8.6341   397
 8.6441   421
 8.6541   399
 8.6641   410
 8.6741   385
 8.6841   355
 8.6941   374
 8.7041   340
 8.7141   342
 8.7241   292
 8.7341   305
 8.7441   274
 8.7541   309
 8.7641   253
 8.7741   252
 8.7841   260
 8.7941   245
 8.8041   249
 8.8141   263
 8.8241   249
 8.8341   240
 8.8441   236
 8.8541   261
 8.8641   249
 8.8741   233
 8.8841   257
 8.8941   263
 8.9041   253
 8.9141   243
 8.9241   284
 8.9341   258
 8.9441   279
 8.9541   278
 8.9641   279
 8.9741   283
 8.9841   288
 8.9941   291
 9.0041   297
 9.0141   282
 9.0241   290
 9.0341   306
 9.0441   318
 9.0541   326
 9.0641   348
 9.0741   325
 9.0841   354
 9.0941   358
 9.1041   362
 9.1141   386
 9.1241   365
 9.1341   413
 9.1441   438
 9.1541   467
 9.1641   467
 9.1741   477
 9.1841   542
 9.1941   577
 9.2041   596
 9.2141   600
 9.2241   626
 9.2341   637
 9.2441   671
 9.2541   731
 9.2641   778
 9.2741   794
 9.2841   817
 9.2941   846
 9.3041   873
 9.3141   946
 9.3241   946
 9.3341   933
 9.3441   984
 9.3541  1000
 9.3641  1029
 9.3741  1059
 9.3841  1053
 9.3941  1078
 9.4041  1091
 9.4141  1108
 9.4241  1161
 9.4341  1145
 9.4441  1181
 9.4541  1165
 9.4641  1198
 9.4741  1168
 9.4841  1186
 9.4941  1295
 9.5041  1363
 9.5141  1310
 9.5241  1338
 9.5341  1397
 9.5441  1466
 9.5541  1505
 9.5641  1606
 9.5741  1692
 9.5841  1770
 9.5941  1870
 9.6041  2033
 9.6141  2046
 9.6241  2199
 9.6341  2224
 9.6441  2328
 9.6541  2323
 9.6641  2365
 9.6741  2388
 9.6841  2397
 9.6941  2299
 9.7041  2203
 9.7141  2105
 9.7241  1920
 9.7341  1771
 9.7441  1701
 9.7541  1533
 9.7641  1434
 9.7741  1329
 9.7841  1187
 9.7941  1155
 9.8041  1071
 9.8141  1050
 9.8241   966
 9.8341   968
 9.8441   921
 9.8541   902
 9.8641   924
 9.8741   905
 9.8841   971
 9.8941   973
 9.9041   966
 9.9141  1016
 9.9241  1046
 9.9341  1011
 9.9441  1031
 9.9541  1024
 9.9641  1008
 9.9741  1000
 9.9841   926
 9.9941   847
10.0041   860
10.0141   780
10.0241   695
10.0341   685
10.0441   609
10.0541   554
10.0641   477
10.0741   433
10.0841   380
10.0941   348
10.1041   310
10.1141   290
10.1241   264
10.1341   262
10.1441   219
10.1541   223
10.1641   234
10.1741   229
10.1841   211
10.1941   190
10.2041   165
10.2141   191
10.2241   177
10.2341   170
10.2441   163
10.2541   154
10.2641   149
10.2741   150
10.2841   139
10.2941   139
10.3041   134
10.3141   161
10.3241   147
10.3341   145
10.3441   140
10.3541   142
10.3641   143
10.3741   138
10.3841   128
10.3941   141
10.4041   120
10.4141   136
10.4241   147
10.4341   135
10.4441   153
10.4541   157
10.4641   148
10.4741   143
10.4841   153
10.4941   144
10.5041   149
10.5141   140
10.5241   137
10.5341   137
10.5441   162
10.5541   158
10.5641   150
10.5741   152
10.5841   162
10.5941   152
10.6041   166
10.6141   152
10.6241   148
10.6341   169
10.6441   157
10.6541   154
10.6641   157
10.6741   157
10.6841   176
10.6941   172
10.7041   170
10.7141   182
10.7241   188
10.7341   188
10.7441   187
10.7541   207
10.7641   212
10.7741   202
10.7841   205
10.7941   188
10.8041   204
10.8141   222
10.8241   226
10.8341   245
10.8441   231
10.8541   223
10.8641   238
10.8741   244
10.8841   233
10.8941   250
10.9041   256
10.9141   245
10.9241   254
10.9341   267
10.9441   250
10.9541   242
10.9641   251
10.9741   241
10.9841   231
10.9941   226
11.0041   236
11.0141   218
11.0241   216
11.0341   237
11.0441   221
11.0541   213
11.0641   220
11.0741   200
11.0841   215
11.0941   205
11.1041   197
11.1141   204
11.1241   205
11.1341   198
11.1441   228
11.1541   224
11.1641   256
11.1741   242
11.1841   245
11.1941   256
11.2041   286
11.2141   304
11.2241   309
11.2341   317
11.2441   310
11.2541   305
11.2641   298
11.2741   303
11.2841   311
11.2941   375
11.3041   353
11.3141   319
11.3241   292
11.3341   294
11.3441   294
11.3541   267
11.3641   267
11.3741   253
11.3841   239
11.3941   224
11.4041   206
11.4141   192
11.4241   187
11.4341   192
11.4441   168
11.4541   160
11.4641   168
11.4741   160
11.4841   186
11.4941   167
11.5041   174
11.5141   174
11.5241   178
11.5341   162
11.5441   169
11.5541   159
11.5641   161
11.5741   182
11.5841   182
11.5941   187
11.6041   181
11.6141   185
11.6241   180
11.6341   182
11.6441   198
11.6541   195
11.6641   171
11.6741   171
11.6841   173
11.6941   188
11.7041   172
11.7141   166
11.7241   177
11.7341   172
11.7441   164
11.7541   153
11.7641   158
11.7741   138
11.7841   145
11.7941   145
11.8041   141
11.8141   137
11.8241   125
11.8341   129
11.8441   125
11.8541   131
11.8641   141
11.8741   138
11.8841   120
11.8941   122
11.9041   130
11.9141   119
11.9241   118
11.9341   121
11.9441   124
11.9541   116
11.9641   127
11.9741   137
11.9841   125
11.9941   147
12.0041   146
12.0141   129
12.0241   125
12.0341   128
12.0441   129
12.0541   126
12.0641   129
12.0741   140
12.0841   131
12.0941   122
12.1041   137
12.1141   139
12.1241   137
12.1341   133
12.1441   123
12.1541   139
12.1641   142
12.1741   144
12.1841   137
12.1941   122
12.2041   110
12.2141   126
12.2241   131
12.2341   127
12.2441   128
12.2541   131
12.2641   125
12.2741   130
12.2841   133
12.2941   116
12.3041   114
12.3141   123
12.3241   122
12.3341   138
12.3441   136
12.3541   133
12.3641   138
12.3741   139
12.3841   132
12.3941   126
12.4041   128
12.4141   118
12.4241   127
12.4341   134
12.4441   138
12.4541   133
12.4641   130
12.4741   137
12.4841   132
12.4941   132
12.5041   123
12.5141   120
12.5241   121
12.5341   127
12.5441   137
12.5541   141
12.5641   144
12.5741   134
12.5841   132
12.5941   141
12.6041   137
12.6141   132
12.6241   131
12.6341   134
12.6441   135
12.6541   129
12.6641   127
12.6741   136
12.6841   149
12.6941   151
12.7041   140
12.7141   134
12.7241   142
12.7341   149
12.7441   146
12.7541   141
12.7641   140
12.7741   140
12.7841   139
12.7941   145
12.8041   151
12.8141   149
12.8241   143
12.8341   147
12.8441   152
12.8541   148
12.8641   143
12.8741   148
12.8841   151
12.8941   151
12.9041   159
12.9141   168
12.9241   168
12.9341   163
12.9441   157
12.9541   155
12.9641   150
12.9741   145
12.9841   151
12.9941   158
13.0041   158
13.0141   170
13.0241   168
13.0341   163
13.0441   162
13.0541   159
13.0641   147
13.0741   150
13.0841   162
13.0941   155
13.1041   164
13.1141   175
13.1241   170
13.1341   168
13.1441   155
13.1541   149
13.1641   159
13.1741   155
13.1841   156
13.1941   154
13.2041   152
13.2141   162
13.2241   162
13.2341   168
13.2441   180
13.2541   169
13.2641   184
13.2741   195
13.2841   186
13.2941   204
13.3041   208
13.3141   204
13.3241   209
13.3341   218
13.3441   227
13.3541   227
13.3641   227
13.3741   227
13.3841   225
13.3941   223
13.4041   221
13.4141   217
13.4241   213
13.4341   209
13.4441   210
13.4541   209
13.4641   202
13.4741   205
13.4841   215
13.4941   211
13.5041   199
13.5141   192
13.5241   193
13.5341   196
13.5441   194
13.5541   193
13.5641   193
13.5741   191
13.5841   194
13.5941   197
13.6041   190
13.6141   183
13.6241   185
13.6341   186
13.6441   191
13.6541   201
13.6641   191
13.6741   181
13.6841   181
13.6941   183
13.7041   184
13.7141   190
13.7241   201
13.7341   196
13.7441   184
13.7541   171
13.7641   159
13.7741   168
13.7841   192
13.7941   202
13.8041   200
13.8141   202
13.8241   209
13.8341   204
13.8441   203
13.8541   200
13.8641   196
13.8741   208
13.8841   196
13.8941   201
13.9041   207
13.9141   214
13.9241   224
13.9341   209
13.9441   203
13.9541   209
13.9641   221
13.9741   228
13.9841   237
13.9941   237
14.0041   228
14.0141   238
14.0241   272
14.0341   285
14.0441   293
14.0541   308
14.0641   318
14.0741   307
14.0841   295
14.0941   306
14.1041   316
14.1141   329
14.1241   334
14.1341   338
14.1441   346
14.1541   345
14.1641   343
14.1741   333
14.1841   339
14.1941   334
14.2041   305
14.2141   311
14.2241   306
14.2341   291
14.2441   291
14.2541   282
14.2641   272
14.2741   250
14.2841   258
14.2941   265
14.3041   240
14.3141   244
14.3241   246
14.3341   238
14.3441   241
14.3541   241
14.3641   230
14.3741   236
14.3841   238
14.3941   231
14.4041   232
14.4141   240
14.4241   225
14.4341   207
14.4441   221
14.4541   217
14.4641   226
14.4741   249
14.4841   258
14.4941   243
14.5041   234
14.5141   232
14.5241   219
14.5341   218
14.5441   237
14.5541   248
14.5641   247
14.5741   250
14.5841   217
14.5941   211
14.6041   232
14.6141   238
14.6241   237
14.6341   229
14.6441   243
14.6541   251
14.6641   251
14.6741   244
14.6841   234
14.6941   248
14.7041   256
14.7141   239
14.7241   235
14.7341   251
14.7441   259
14.7541   251
14.7641   244
14.7741   254
14.7841   265
14.7941   270
14.8041   267
14.8141   275
14.8241   268
14.8341   258
14.8441   277
14.8541   281
14.8641   287
14.8741   292
14.8841   270
14.8941   304
14.9041   318
14.9141   277
14.9241   275
14.9341   303
14.9441   297
14.9541   287
14.9641   292
14.9741   302
14.9841   291
14.9941   277
15.0041   288
15.0141   276
15.0241   283
15.0341   280
15.0441   275
15.0541   285
15.0641   257
15.0741   263
15.0841   285
15.0941   275
15.1041   265
15.1141   272
15.1241   266
15.1341   256
15.1441   272
15.1541   275
15.1641   261
15.1741   252
15.1841   263
15.1941   282
15.2041   280
15.2141   286
15.2241   290
15.2341   270
15.2441   276
15.2541   283
15.2641   282
15.2741   264
15.2841   271
15.2941   288
15.3041   293
15.3141   284
15.3241   263
15.3341   259
15.3441   278
15.3541   288
15.3641   281
15.3741   266
15.3841   279
15.3941   295
15.4041   276
15.4141   270
15.4241   286
15.4341   289
15.4441   291
15.4541   268
15.4641   267
15.4741   301
15.4841   291
15.4941   282
15.5041   305
15.5141   304
15.5241   297
15.5341   320
15.5441   332
15.5541   347
15.5641   332
15.5741   328
15.5841   366
15.5941   389
15.6041   377
15.6141   387
15.6241   403
15.6341   403
15.6441   435
15.6541   459
15.6641   485
15.6741   470
15.6841   502
15.6941   516
15.7041   505
15.7141   539
15.7241   563
15.7341   523
15.7441   539
15.7541   576
15.7641   559
15.7741   572
15.7841   566
15.7941   532
15.8041   513
15.8141   516
15.8241   489
15.8341   486
15.8441   477
15.8541   424
15.8641   412
15.8741   428
15.8841   434
15.8941   420
15.9041   412
15.9141   390
15.9241   372
15.9341   375
15.9441   372
15.9541   379
15.9641   350
15.9741   327
15.9841   338
15.9941   326
16.0041   329
16.0141   324
16.0241   305
16.0341   303
16.0441   315
16.0541   332
16.0641   328
16.0741   334
16.0841   328
16.0941   333
16.1041   326
16.1141   326
16.1241   332
16.1341   347
16.1441   351
16.1541   342
16.1641   330
16.1741   320
16.1841   332
16.1941   358
16.2041   329
16.2141   335
16.2241   321
16.2341   316
16.2441   322
16.2541   336
16.2641   334
16.2741   328
16.2841   313
16.2941   343
16.3041   337
16.3141   339
16.3241   341
16.3341   353
16.3441   348
16.3541   350
16.3641   337
16.3741   314
16.3841   319
16.3941   341
16.4041   339
16.4141   333
16.4241   318
16.4341   321
16.4441   324
16.4541   337
16.4641   358
16.4741   339
16.4841   344
16.4941   351
16.5041   358
16.5141   353
16.5241   355
16.5341   364
16.5441   375
16.5541   378
16.5641   361
16.5741   372
16.5841   371
16.5941   368
16.6041   367
16.6141   350
16.6241   361
16.6341   368
16.6441   373
16.6541   383
16.6641   371
16.6741   352
16.6841   351
16.6941   385
16.7041   372
16.7141   368
16.7241   372
16.7341   383
16.7441   364
16.7541   368
16.7641   374
16.7741   358
16.7841   369
16.7941   352
16.8041   353
16.8141   345
16.8241   378
16.8341   375
16.8441   367
16.8541   366
16.8641   378
16.8741   389
16.8841   382
16.8941   380
16.9041   363
16.9141   374
16.9241   382
16.9341   371
16.9441   389
16.9541   377
16.9641   416
16.9741   399
16.9841   392
16.9941   393
17.0041   375
17.0141   355
17.0241   382
17.0341   379
17.0441   380
17.0541   389
17.0641   388
17.0741   371
17.0841   383
17.0941   368
17.1041   394
17.1141   410
17.1241   367
17.1341   385
17.1441   369
17.1541   407
17.1641   399
17.1741   392
17.1841   414
17.1941   417
17.2041   383
17.2141   403
17.2241   380
17.2341   383
17.2441   410
17.2541   399
17.2641   395
17.2741   386
17.2841   395
17.2941   416
17.3041   388
17.3141   409
17.3241   398
17.3341   389
17.3441   401
17.3541   415
17.3641   405
17.3741   428
17.3841   414
17.3941   409
17.4041   407
17.4141   405
17.4241   397
17.4341   399
17.4441   412
17.4541   423
17.4641   395
17.4741   381
17.4841   419
17.4941   416
17.5041   421
17.5141   409
17.5241   466
17.5341   429
17.5441   401
17.5541   458
17.5641   426
17.5741   404
17.5841   442
17.5941   455
17.6041   434
17.6141   461
17.6241   462
17.6341   455
17.6441   452
17.6541   448
17.6641   436
17.6741   488
17.6841   482
17.6941   428
17.7041   427
17.7141   437
17.7241   423
17.7341   453
17.7441   451
17.7541   464
17.7641   447
17.7741   432
17.7841   435
17.7941   443
17.8041   442
17.8141   451
17.8241   453
17.8341   441
17.8441   441
17.8541   426
17.8641   452
17.8741   431
17.8841   453
17.8941   433
17.9041   435
17.9141   434
17.9241   434
17.9341   448
17.9441   416
17.9541   416
17.9641   438
17.9741   434
17.9841   439
17.9941   438
18.0041   440
18.0141   440
18.0241   425
18.0341   420
18.0441   430
18.0541   457
18.0641   472
18.0741   468
18.0841   453
18.0941   437
18.1041   450
18.1141   450
18.1241   471
18.1341   456
18.1441   453
18.1541   437
18.1641   446
18.1741   429
18.1841   438
18.1941   440
18.2041   442
18.2141   426
18.2241   475
18.2341   457
18.2441   463
18.2541   491
18.2641   458
18.2741   423
18.2841   429
18.2941   439
18.3041   446
18.3141   438
18.3241   493
18.3341   467
18.3441   473
18.3541   443
18.3641   441
18.3741   462
18.3841   464
18.3941   473
18.4041   437
18.4141   473
18.4241   468
18.4341   466
18.4441   422
18.4541   431
18.4641   470
18.4741   472
18.4841   472
18.4941   467
18.5041   449
18.5141   422
18.5241   462
18.5341   461
18.5441   438
18.5541   468
18.5641   478
18.5741   468
18.5841   473
18.5941   465
18.6041   456
18.6141   461
18.6241   485
18.6341   433
18.6441   486
18.6541   490
18.6641   489
18.6741   481
18.6841   454
18.6941   469
18.7041   492
18.7141   461
18.7241   433
18.7341   498
18.7441   481
18.7541   450
18.7641   482
18.7741   506
18.7841   489
18.7941   438
18.8041   478
18.8141   477
18.8241   489
18.8341   493
18.8441   465
18.8541   505
18.8641   460
18.8741   478
18.8841   487
18.8941   524
18.9041   477
18.9141   455
18.9241   474
18.9341   461
18.9441   476
18.9541   484
18.9641   465
18.9741   492
18.9841   459
18.9941   481
19.0041   457
19.0141   477
19.0241   469
19.0341   503
19.0441   491
19.0541   490
19.0641   490
19.0741   477
19.0841   497
19.0941   504
19.1041   514
19.1141   522
19.1241   484
19.1341   470
19.1441   498
19.1541   485
19.1641   492
19.1741   477
19.1841   523
19.1941   502
19.2041   487
19.2141   468
19.2241   480
19.2341   478
19.2441   456
19.2541   500
19.2641   479
19.2741   490
19.2841   492
19.2941   479
19.3041   469
19.3141   488
19.3241   497
19.3341   480
19.3441   522
19.3541   503
19.3641   450
19.3741   512
19.3841   539
19.3941   505
19.4041   469
19.4141   480
19.4241   517
19.4341   493
19.4441   501
19.4541   517
19.4641   476
19.4741   478
19.4841   487
19.4941   516
19.5041   488
19.5141   501
19.5241   524
19.5341   495
19.5441   503
19.5541   523
19.5641   527
19.5741   521
19.5841   486
19.5941   484
19.6041   484
19.6141   511
19.6241   515
19.6341   529
19.6441   455
19.6541   488
19.6641   509
19.6741   518
19.6841   529
19.6941   507
19.7041   479
19.7141   497
19.7241   472
19.7341   490
19.7441   492
19.7541   546
19.7641   515
19.7741   492
19.7841   472
19.7941   496
19.8041   468
19.8141   485
19.8241   515
19.8341   499
19.8441   494
19.8541   521
19.8641   475
19.8741   490
19.8841   505
19.8941   475
19.9041   507
19.9141   515
19.9241   517
19.9341   508
19.9441   516
19.9541   520
19.9641   497
19.9741   504
19.9841   484
19.9941   504
20.0041   511
20.0141   486
20.0241   504
20.0341   516
20.0441   517
20.0541   472
20.0641   512
20.0741   518
20.0841   503
20.0941   485
20.1041   502
20.1141   468
20.1241   517
20.1341   534
20.1441   508
20.1541   467
20.1641   485
20.1741   498
20.1841   494
20.1941   479
20.2041   462
20.2141   468
20.2241   505
20.2341   489
20.2441   532
20.2541   539
20.2641   499
20.2741   507
20.2841   559
20.2941   547
20.3041   513
20.3141   519
20.3241   513
20.3341   507
20.3441   500
20.3541   503
20.3641   476
20.3741   503
20.3841   491
20.3941   539
20.4041   489
20.4141   500
20.4241   477
20.4341   481
20.4441   471
20.4541   500
20.4641   514
20.4741   515
20.4841   519
20.4941   527
20.5041   523
20.5141   532
20.5241   515
20.5341   535
20.5441   489
20.5541   533
20.5641   509
20.5741   473
20.5841   479
20.5941   504
20.6041   506
20.6141   517
20.6241   516
20.6341   491
20.6441   524
20.6541   525
20.6641   542
20.6741   495
20.6841   504
20.6941   517
20.7041   527
20.7141   523
20.7241   529
20.7341   493
20.7441   540
20.7541   532
20.7641   480
20.7741   477
20.7841   514
20.7941   525
20.8041   545
20.8141   540
20.8241   543
20.8341   555
20.8441   570
20.8541   559
20.8641   583
20.8741   569
20.8841   593
20.8941   559
20.9041   559
20.9141   590
20.9241   588
20.9341   579
20.9441   632
20.9541   626
20.9641   635
20.9741   630
20.9841   639
20.9941   639
21.0041   689
21.0141   655
21.0241   717
21.0341   750
21.0441   656
21.0541   746
21.0641   690
21.0741   726
21.0841   730
21.0941   749
21.1041   738
21.1141   789
21.1241   779
21.1341   759
21.1441   779
21.1541   748
21.1641   722
21.1741   746
21.1841   689
21.1941   698
21.2041   715
21.2141   699
21.2241   754
21.2341   668
21.2441   712
21.2541   703
21.2641   674
21.2741   615
21.2841   618
21.2941   647
21.3041   580
21.3141   595
21.3241   569
21.3341   591
21.3441   559
21.3541   542
21.3641   561
21.3741   547
21.3841   530
21.3941   535
21.4041   517
21.4141   504
21.4241   531
21.4341   500
21.4441   500
21.4541   475
21.4641   569
21.4741   523
21.4841   513
21.4941   473
21.5041   519
21.5141   531
21.5241   517
21.5341   535
21.5441   513
21.5541   495
21.5641   490
21.5741   520
21.5841   512
21.5941   496
21.6041   493
21.6141   541
21.6241   543
21.6341   524
21.6441   508
21.6541   527
21.6641   513
21.6741   540
21.6841   558
21.6941   531
21.7041   507
21.7141   531
21.7241   515
21.7341   515
21.7441   522
21.7541   505
21.7641   500
21.7741   479
21.7841   494
21.7941   538
21.8041   557
21.8141   536
21.8241   495
21.8341   494
21.8441   485
21.8541   473
21.8641   522
21.8741   500
21.8841   495
21.8941   507
21.9041   507
21.9141   542
21.9241   543
21.9341   484
21.9441   530
21.9541   520
21.9641   515
21.9741   510
21.9841   504
21.9941   551
22.0041   545
22.0141   510
22.0241   524
22.0341   574
22.0441   496
22.0541   526
22.0641   511
22.0741   521
22.0841   527
22.0941   530
22.1041   487
22.1141   506
22.1241   519
22.1341   543
22.1441   502
22.1541   474
22.1641   540
22.1741   503
22.1841   521
22.1941   503
22.2041   486
22.2141   477
22.2241   508
22.2341   483
22.2441   493
22.2541   512
22.2641   494
22.2741   493
22.2841   493
22.2941   482
22.3041   493
22.3141   447
22.3241   464
22.3341   526
22.3441   477
22.3541   507
22.3641   521
22.3741   509
22.3841   530
22.3941   497
22.4041   493
22.4141   516
22.4241   501
22.4341   468
22.4441   491
22.4541   505
22.4641   496
22.4741   495
22.4841   504
22.4941   476
22.5041   520
22.5141   500
22.5241   483
22.5341   499
22.5441   516
22.5541   517
22.5641   476
22.5741   514
22.5841   477
22.5941   509
22.6041   514
22.6141   498
22.6241   455
22.6341   467
22.6441   485
22.6541   477
22.6641   499
22.6741   496
22.6841   521
22.6941   456
22.7041   498
22.7141   497
22.7241   476
22.7341   520
22.7441   491
22.7541   461
22.7641   531
22.7741   459
22.7841   480
22.7941   531
22.8041   514
22.8141   513
22.8241   495
22.8341   489
22.8441   497
22.8541   501
22.8641   489
22.8741   513
22.8841   491
22.8941   497
22.9041   478
22.9141   508
22.9241   517
22.9341   494
22.9441   471
22.9541   512
22.9641   474
22.9741   458
22.9841   490
22.9941   512
23.0041   460
23.0141   486
23.0241   478
23.0341   458
23.0441   461
23.0541   477
23.0641   488
23.0741   503
23.0841   467
23.0941   467
23.1041   512
23.1141   511
23.1241   482
23.1341   513
23.1441   476
23.1541   480
23.1641   470
23.1741   492
23.1841   481
23.1941   445
23.2041   500
23.2141   454
23.2241   456
23.2341   483
23.2441   482
23.2541   469
23.2641   482
23.2741   461
23.2841   519
23.2941   449
23.3041   460
23.3141   465
23.3241   483
23.3341   483
23.3441   496
23.3541   499
23.3641   490
23.3741   554
23.3841   458
23.3941   489
23.4041   522
23.4141   493
23.4241   446
23.4341   510
23.4441   410
23.4541   505
23.4641   473
23.4741   476
23.4841   461
23.4941   503
23.5041   444
23.5141   441
23.5241   447
23.5341   499
23.5441   474
23.5541   498
23.5641   498
23.5741   461
23.5841   507
23.5941   481
23.6041   474
23.6141   480
23.6241   440
23.6341   482
23.6441   462
23.6541   517
23.6641   495
23.6741   458
23.6841   493
23.6941   464
23.7041   471
23.7141   507
23.7241   491
23.7341   538
23.7441   584
23.7541   514
23.7641   515
23.7741   516
23.7841   484
23.7941   486
23.8041   497
23.8141   520
23.8241   482
23.8341   513
23.8441   541
23.8541   490
23.8641   490
23.8741   484
23.8841   505
23.8941   530
23.9041   473
23.9141   512
23.9241   513
23.9341   497
23.9441   476
23.9541   441
23.9641   466
23.9741   481
23.9841   472
23.9941   463
24.0041   473
24.0141   463
24.0241   437
24.0341   475
24.0441   500
24.0541   485
24.0641   464
24.0741   482
24.0841   513
24.0941   458
24.1041   481
24.1141   475
24.1241   435
24.1341   437
24.1441   494
24.1541   462
24.1641   477
24.1741   451
24.1841   438
24.1941   468
24.2041   450
24.2141   437
24.2241   448
24.2341   450
24.2441   437
24.2541   436
24.2641   460
24.2741   458
24.2841   461
24.2941   468
24.3041   399
24.3141   473
24.3241   453
24.3341   460
24.3441   494
24.3541   438
24.3641   450
24.3741   471
24.3841   457
24.3941   459
24.4041   455
24.4141   433
24.4241   467
24.4341   454
24.4441   442
24.4541   441
24.4641   450
24.4741   433
24.4841   456
24.4941   457
24.5041   434
24.5141   442
24.5241   458
24.5341   427
24.5441   430
24.5541   469
24.5641   424
24.5741   451
24.5841   426
24.5941   422
24.6041   428
24.6141   438
24.6241   439
24.6341   447
24.6441   446
24.6541   450
24.6641   406
24.6741   385
24.6841   453
24.6941   470
24.7041   451
24.7141   464
24.7241   414
24.7341   435
24.7441   443
24.7541   455
24.7641   419
24.7741   419
24.7841   442
24.7941   402
24.8041   432
24.8141   431
24.8241   429
24.8341   469
24.8441   450
24.8541   429
24.8641   417
24.8741   459
24.8841   439
24.8941   410
24.9041   458
24.9141   435
24.9241   424
24.9341   426
24.9441   415
24.9541   421
24.9641   438
24.9741   424
24.9841   419
24.9941   438
25.0041   444
25.0141   413
25.0241   451
25.0341   466
25.0441   461
25.0541   401
25.0641   417
25.0741   489
25.0841   430
25.0941   431
25.1041   407
25.1141   421
25.1241   432
25.1341   424
25.1441   458
25.1541   438
25.1641   470
25.1741   424
25.1841   456
25.1941   431
25.2041   493
25.2141   420
25.2241   423
25.2341   440
25.2441   469
25.2541   448
25.2641   451
25.2741   472
25.2841   438
25.2941   448
25.3041   404
25.3141   448
25.3241   447
25.3341   463
25.3441   415
25.3541   439
25.3641   407
25.3741   421
25.3841   379
25.3941   399
25.4041   429
25.4141   415
25.4241   441
25.4341   435
25.4441   396
25.4541   442
25.4641   402
25.4741   407
25.4841   412
25.4941   407
25.5041   403
25.5141   414
25.5241   414
25.5341   457
25.5441   400
25.5541   379
25.5641   399
25.5741   422
25.5841   446
25.5941   387
25.6041   415
25.6141   400
25.6241   373
25.6341   386
25.6441   392
25.6541   384
25.6641   394
25.6741   396
25.6841   402
25.6941   400
25.7041   437
25.7141   396
25.7241   427
25.7341   411
25.7441   389
25.7541   397
25.7641   407
25.7741   383
25.7841   400
25.7941   370
25.8041   407
25.8141   380
25.8241   386
25.8341   409
25.8441   420
25.8541   399
25.8641   371
25.8741   360
25.8841   367
25.8941   353
25.9041   418
25.9141   352
25.9241   429
25.9341   384
25.9441   405
25.9541   418
25.9641   382
25.9741   409
25.9841   389
25.9941   386
26.0041   418
26.0141   405
26.0241   358
26.0341   401
26.0441   401
26.0541   397
26.0641   374
26.0741   403
26.0841   375
26.0941   357
26.1041   405
26.1141   354
26.1241   348
26.1341   375
26.1441   359
26.1541   386
26.1641   389
26.1741   383
26.1841   397
26.1941   382
26.2041   395
26.2141   386
26.2241   376
26.2341   379
26.2441   387
26.2541   372
26.2641   380
26.2741   362
26.2841   383
26.2941   381
26.3041   387
26.3141   386
26.3241   395
26.3341   384
26.3441   372
26.3541   423
26.3641   387
26.3741   364
26.3841   390
26.3941   383
26.4041   345
26.4141   372
26.4241   361
26.4341   373
26.4441   372
26.4541   399
26.4641   374
26.4741   364
26.4841   401
26.4941   385
26.5041   364
26.5141   362
26.5241   364
26.5341   396
26.5441   348
26.5541   366
26.5641   368
26.5741   378
26.5841   350
26.5941   381
26.6041   360
26.6141   370
26.6241   335
26.6341   388
26.6441   360
26.6541   354
26.6641   359
26.6741   357
26.6841   368
26.6941   379
26.7041   358
26.7141   373
26.7241   386
26.7341   357
26.7441   354
26.7541   363
26.7641   366
26.7741   362
26.7841   381
26.7941   335
26.8041   369
26.8141   367
26.8241   333
26.8341   357
26.8441   350
26.8541   369
26.8641   343
26.8741   346
26.8841   349
26.8941   340
26.9041   348
26.9141   362
26.9241   334
26.9341   379
26.9441   343
26.9541   359
26.9641   337
26.9741   350
26.9841   336
26.9941   319
27.0041   346
27.0141   382
27.0241   371
27.0341   341
27.0441   372
27.0541   356
27.0641   358
27.0741   349
27.0841   351
27.0941   330
27.1041   359
27.1141   367
27.1241   337
27.1341   350
27.1441   356
27.1541   323
27.1641   341
27.1741   357
27.1841   369
27.1941   349
27.2041   354
27.2141   345
27.2241   337
27.2341   323
27.2441   360
27.2541   353
27.2641   328
27.2741   317
27.2841   349
27.2941   335
27.3041   349
27.3141   320
27.3241   336
27.3341   373
27.3441   379
27.3541   373
27.3641   342
27.3741   340
27.3841   332
27.3941   356
27.4041   361
27.4141   325
27.4241   356
27.4341   357
27.4441   320
27.4541   322
27.4641   341
27.4741   342
27.4841   337
27.4941   343
27.5041   330
27.5141   365
27.5241   327
27.5341   302
27.5441   328
27.5541   340
27.5641   319
27.5741   333
27.5841   339
27.5941   338
27.6041   304
27.6141   341
27.6241   312
27.6341   328
27.6441   303
27.6541   324
27.6641   304
27.6741   319
27.6841   334
27.6941   320
27.7041   322
27.7141   309
27.7241   295
27.7341   301
27.7441   320
27.7541   300
27.7641   294
27.7741   323
27.7841   340
27.7941   325
27.8041   332
27.8141   332
27.8241   277
27.8341   336
27.8441   321
27.8541   336
27.8641   349
27.8741   301
27.8841   283
27.8941   321
27.9041   331
27.9141   317
27.9241   286
27.9341   292
27.9441   319
27.9541   320
27.9641   309
27.9741   295
27.9841   325
27.9941   300
28.0041   299
28.0141   299
28.0241   322
28.0341   319
28.0441   334
28.0541   292
28.0641   310
28.0741   330
28.0841   298
28.0941   289
28.1041   327
28.1141   303
28.1241   326
28.1341   302
28.1441   296
28.1541   351
28.1641   303
28.1741   306
28.1841   308
28.1941   318
28.2041   311
28.2141   306
28.2241   297
28.2341   301
28.2441   291
28.2541   295
28.2641   315
28.2741   300
28.2841   279
28.2941   311
28.3041   297
28.3141   294
28.3241   298
28.3341   291
28.3441   311
28.3541   310
28.3641   308
28.3741   307
28.3841   298
28.3941   292
28.4041   269
28.4141   307
28.4241   304
28.4341   309
28.4441   324
28.4541   305
28.4641   288
28.4741   281
28.4841   318
28.4941   288
28.5041   274
28.5141   280
28.5241   282
28.5341   283
28.5441   298
28.5541   304
28.5641   277
28.5741   293
28.5841   295
28.5941   293
28.6041   285
28.6141   268
28.6241   326
28.6341   284
28.6441   261
28.6541   291
28.6641   278
28.6741   278
28.6841   296
28.6941   273
28.7041   291
28.7141   263
28.7241   281
28.7341   300
28.7441   299
28.7541   299
28.7641   292
28.7741   281
28.7841   285
28.7941   293
28.8041   292
28.8141   268
28.8241   275
28.8341   304
28.8441   257
28.8541   302
28.8641   284
28.8741   300
28.8841   289
28.8941   280
28.9041   270
28.9141   271
28.9241   250
28.9341   264
28.9441   295
28.9541   288
28.9641   274
28.9741   293
28.9841   283
28.9941   278
29.0041   313
29.0141   279
29.0241   243
29.0341   262
29.0441   269
29.0541   284
29.0641   257
29.0741   275
29.0841   279
29.0941   283
29.1041   254
29.1141   272
29.1241   247
29.1341   264
29.1441   274
29.1541   244
29.1641   254
29.1741   264
29.1841   278
29.1941   258
29.2041   261
29.2141   253
29.2241   291
29.2341   277
29.2441   251
29.2541   236
29.2641   267
29.2741   270
29.2841   260
29.2941   253
29.3041   269
29.3141   256
29.3241   240
29.3341   270
29.3441   247
29.3541   254
29.3641   262
29.3741   266
29.3841   226
29.3941   266
29.4041   262
29.4141   279
29.4241   267
29.4341   250
29.4441   240
29.4541   264
29.4641   262
29.4741   260
29.4841   251
29.4941   266
29.5041   276
29.5141   254
29.5241   274
29.5341   247
29.5441   284
29.5541   258
29.5641   244
29.5741   272
29.5841   276
29.5941   235
29.6041   224
29.6141   257
29.6241   249
29.6341   284
29.6441   277
29.6541   281
29.6641   227
29.6741   245
29.6841   244
29.6941   222
29.7041   246
29.7141   242
29.7241   217
29.7341   228
29.7441   258
29.7541   251
29.7641   249
29.7741   258
29.7841   244
29.7941   241
29.8041   255
29.8141   239
29.8241   232
29.8341   268
29.8441   245
29.8541   249
29.8641   245
29.8741   226
29.8841   245
29.8941   215
29.9041   236
29.9141   242
29.9241   237
29.9341   235
29.9441   233
29.9541   240
29.9641   237
29.9741   229
29.9841   218
29.9941   254
30.0041   239
30.0141   262
30.0241   220
30.0341   242
30.0441   229
30.0541   233
30.0641   216
30.0741   266
30.0841   247
30.0941   226
30.1041   233
30.1141   235
30.1241   248
30.1341   249
30.1441   238
30.1541   233
30.1641   217
30.1741   225
30.1841   224
30.1941   218
30.2041   251
30.2141   263
30.2241   221
30.2341   250
30.2441   244
30.2541   235
30.2641   214
30.2741   211
30.2841   196
30.2941   225
30.3041   221
30.3141   228
30.3241   218
30.3341   194
30.3441   220
30.3541   223
30.3641   235
30.3741   233
30.3841   208
30.3941   220
30.4041   201
30.4141   224
30.4241   238
30.4341   206
30.4441   200
30.4541   217
30.4641   225
30.4741   231
30.4841   201
30.4941   203
30.5041   219
30.5141   208
30.5241   200
30.5341   200
30.5441   217
30.5541   242
30.5641   209
30.5741   227
30.5841   212
30.5941   229
30.6041   201
30.6141   207
30.6241   207
30.6341   239
30.6441   211
30.6541   205
30.6641   204
30.6741   216
30.6841   228
30.6941   210
30.7041   188
30.7141   209
30.7241   217
30.7341   211
30.7441   219
30.7541   193
30.7641   206
30.7741   214
30.7841   228
30.7941   213
30.8041   190
30.8141   196
30.8241   217
30.8341   218
30.8441   210
30.8541   209
30.8641   188
30.8741   209
30.8841   194
30.8941   216
30.9041   210
30.9141   210
30.9241   213
30.9341   181
30.9441   198
30.9541   186
30.9641   221
30.9741   214
30.9841   226
30.9941   224
31.0041   202
31.0141   230
31.0241   207
31.0341   190
31.0441   197
31.0541   205
31.0641   193
31.0741   183
31.0841   204
31.0941   202
31.1041   196
31.1141   188
31.1241   185
31.1341   210
31.1441   203
31.1541   219
31.1641   209
31.1741   188
31.1841   186
31.1941   161
31.2041   208
31.2141   225
31.2241   197
31.2341   185
31.2441   194
31.2541   190
31.2641   190
31.2741   191
31.2841   188
31.2941   198
31.3041   190
31.3141   185
31.3241   169
31.3341   202
31.3441   190
31.3541   177
31.3641   183
31.3741   195
31.3841   188
31.3941   202
31.4041   170
31.4141   195
31.4241   211
31.4341   198
31.4441   202
31.4541   204
31.4641   176
31.4741   180
31.4841   175
31.4941   187
31.5041   199
31.5141   194
31.5241   192
31.5341   205
31.5441   201
31.5541   169
31.5641   178
31.5741   182
31.5841   173
31.5941   188
31.6041   192
31.6141   170
31.6241   195
31.6341   176
31.6441   224
31.6541   193
31.6641   186
31.6741   193
31.6841   174
31.6941   188
31.7041   178
31.7141   203
31.7241   169
31.7341   159
31.7441   193
31.7541   192
31.7641   195
31.7741   202
31.7841   181
31.7941   184
31.8041   199
31.8141   180
31.8241   175
31.8341   187
31.8441   192
31.8541   175
31.8641   188
31.8741   214
31.8841   195
31.8941   201
31.9041   166
31.9141   177
31.9241   181
31.9341   209
31.9441   177
31.9541   178
31.9641   172
31.9741   193
31.9841   199
31.9941   194
32.0041   175
32.0141   182
32.0241   194
32.0341   184
32.0441   174
32.0541   193
32.0641   191
32.0741   176
32.0841   198
32.0941   189
32.1041   195
32.1141   207
32.1241   198
32.1341   191
32.1441   166
32.1541   198
32.1641   179
32.1741   159
32.1841   171
32.1941   166
32.2041   191
32.2141   196
32.2241   187
32.2341   178
32.2441   175
32.2541   176
32.2641   155
32.2741   160
32.2841   189
32.2941   188
32.3041   187
32.3141   176
32.3241   175
32.3341   171
32.3441   171
32.3541   181
32.3641   154
32.3741   155
32.3841   167
32.3941   173
32.4041   161
32.4141   165
32.4241   170
32.4341   161
32.4441   155
32.4541   147
32.4641   166
32.4741   163
32.4841   179
32.4941   163
32.5041   163
32.5141   141
32.5241   167
32.5341   162
32.5441   168
32.5541   147
32.5641   142
32.5741   151
32.5841   168
32.5941   152
32.6041   163
32.6141   130
32.6241   152
32.6341   152
32.6441   141
32.6541   170
32.6641   161
32.6741   174
32.6841   160
32.6941   142
32.7041   146
32.7141   152
32.7241   143
32.7341   145
32.7441   140
32.7541   142
32.7641   150
32.7741   153
32.7841   149
32.7941   136
32.8041   156
32.8141   146
32.8241   148
32.8341   143
32.8441   170
32.8541   150
32.8641   150
32.8741   135
32.8841   141
32.8941   148
32.9041   144
32.9141   170
32.9241   139
32.9341   140
32.9441   149
32.9541   142
32.9641   124
32.9741   138
32.9841   134
32.9941   164
33.0041   131
33.0141   129
33.0241   151
33.0341   166
33.0441   146
33.0541   133
33.0641   123
33.0741   150
33.0841   144
33.0941   139
33.1041   130
33.1141   130
33.1241   141
33.1341   150
33.1441   144
33.1541   143
33.1641   123
33.1741   141
33.1841   139
33.1941   143
33.2041   142
33.2141   153
33.2241   135
33.2341   120
33.2441   127
33.2541   130
33.2641   137
33.2741   134
33.2841   137
33.2941   126
33.3041   132
33.3141   140
33.3241   142
33.3341   137
33.3441   142
33.3541   134
33.3641   122
33.3741   136
33.3841   121
33.3941   141
33.4041   129
33.4141   136
33.4241   141
33.4341   125
33.4441   143
33.4541   145
33.4641   138
33.4741   114
33.4841   127
33.4941   142
33.5041   136
33.5141   130
33.5241   103
33.5341   131
33.5441   129
33.5541   151
33.5641   121
33.5741   146
33.5841   134
33.5941   122
33.6041   139
33.6141   147
33.6241   111
33.6341   117
33.6441   106
33.6541   125
33.6641   130
33.6741   114
33.6841   111
33.6941   126
33.7041   139
33.7141   117
33.7241   131
33.7341   129
33.7441   124
33.7541   130
33.7641   116
33.7741   121
33.7841   121
33.7941   115
33.8041   112
33.8141   139
33.8241   118
33.8341   133
33.8441   140
33.8541   113
33.8641   123
33.8741   130
33.8841   123
33.8941   114
33.9041   124
33.9141   109
33.9241   103
33.9341   118
33.9441   113
33.9541   100
33.9641   120
33.9741   130
33.9841   109
33.9941   134
34.0041   129
34.0141   110
34.0241   123
34.0341   134
34.0441   131
34.0541   104
34.0641   127
34.0741   103
34.0841   122
34.0941   128
34.1041   118
34.1141   108
34.1241   114
34.1341   128
34.1441   124
34.1541   107
34.1641   106
34.1741   126
34.1841   119
34.1941   114
34.2041   118
34.2141   135
34.2241   126
34.2341   117
34.2441   136
34.2541   124
34.2641   116
34.2741   107
34.2841   128
34.2941   122
34.3041   110
34.3141   101
34.3241   124
34.3341   113
34.3441   121
34.3541   120
34.3641   119
34.3741   118
34.3841   108
34.3941   104
34.4041    97
34.4141    99
34.4241   100
34.4341   105
34.4441   112
34.4541    95
34.4641    98
34.4741   106
34.4841   111
34.4941   118
34.5041   107
34.5141   115
34.5241   122
34.5341   110
34.5441   116
34.5541    95
34.5641    92
34.5741   112
34.5841   110
34.5941    96
34.6041   113
34.6141   109
34.6241   109
34.6341   102
34.6441    96
34.6541   113
34.6641    96
34.6741   101
34.6841   100
34.6941    96
34.7041   100
34.7141   108
34.7241   121
34.7341    84
34.7441   119
34.7541   107
34.7641   104
34.7741    94
34.7841   107
34.7941   102
34.8041    88
34.8141   102
34.8241   110
34.8341   103
34.8441   101
34.8541    98
34.8641   116
34.8741   110
34.8841   110
34.8941   129
34.9041   108
34.9141   101
34.9241   109
34.9341   116
34.9441   108
34.9541   102
34.9641    88
34.9741    97
34.9841   100
34.9941    79
35.0041    99
35.0141   109
35.0241    84
35.0341    84
35.0441    93
35.0541    85
35.0641    94
35.0741   100
35.0841    69
35.0941    94
35.1041    96
35.1141    76
35.1241    98
35.1341    91
35.1441    96
35.1541   106
35.1641    95
35.1741    93
35.1841    88
35.1941    82
35.2041    96
35.2141    90
35.2241   112
35.2341    91
35.2441    84
35.2541    91
35.2641    94
35.2741    87
35.2841    92
35.2941   114
35.3041    93
35.3141   101
35.3241    79
35.3341    90
35.3441   101
35.3541    80
35.3641    93
35.3741   104
35.3841    93
35.3941    99
35.4041    81
35.4141    89
35.4241    91
35.4341    90
35.4441    91
35.4541    80
35.4641    83
35.4741   102
35.4841   107
35.4941    88
35.5041    67
35.5141    67
35.5241    84
35.5341    87
35.5441    84
35.5541    87
35.5641    68
35.5741    96
35.5841    81
35.5941    75
35.6041    98
35.6141    92
35.6241    97
35.6341    86
35.6441   101
35.6541    88
35.6641    81
35.6741    82
35.6841    76
35.6941    64
35.7041    89
35.7141    93
35.7241   101
35.7341    90
35.7441    80
35.7541    99
35.7641    83
35.7741    77
35.7841    85
35.7941    85
35.8041    76
35.8141    98
35.8241    84
35.8341    84
35.8441    84
35.8541    89
35.8641    80
35.8741    68
35.8841    68
35.8941    73
35.9041    89
35.9141    99
35.9241    81
35.9341    68
35.9441    80
35.9541    76
35.9641    74
35.9741    77
35.9841    82
35.9941    81
36.0041    79
36.0141    79
36.0241    72
36.0341    71
36.0441    70
36.0541    82
36.0641   100
36.0741    93
36.0841    81
36.0941    76
36.1041    89
36.1141    77
36.1241    88
36.1341    77
36.1441    78
36.1541    78
36.1641    72
36.1741    79
36.1841    75
36.1941    84
36.2041    70
36.2141    72
36.2241    85
36.2341    80
36.2441    81
36.2541    66
36.2641    67
36.2741    74
36.2841    62
36.2941    57
36.3041    80
36.3141    77
36.3241    71
36.3341    90
36.3441    84
36.3541    66
36.3641    84
36.3741    71
36.3841    82
36.3941    75
36.4041    77
36.4141    62
36.4241    77
36.4341    66
36.4441    80
36.4541    73
36.4641    85
36.4741    60
36.4841    72
36.4941    80
36.5041    69
36.5141    68
36.5241    60
36.5341    78
36.5441    75
36.5541    70
36.5641    64
36.5741    60
36.5841    77
36.5941    69
36.6041    70
36.6141    72
36.6241    82
36.6341    76
36.6441    75
36.6541    59
36.6641    69
36.6741    68
36.6841    79
36.6941    48
36.7041    71
36.7141    62
36.7241    59
36.7341    67
36.7441    64
36.7541    64
36.7641    56
36.7741    75
36.7841    61
36.7941    59
36.8041    63
36.8141    55
36.8241    58
36.8341    76
36.8441    72
36.8541    71
36.8641    65
36.8741    80
36.8841    63
36.8941    64
36.9041    69
36.9141    60
36.9241    69
36.9341    58
36.9441    52
36.9541    69
36.9641    59
36.9741    59
36.9841    58
36.9941    70
37.0041    52
37.0141    63
37.0241    46
37.0341    48
37.0441    76
37.0541    71
37.0641    61
37.0741    67
37.0841    53
37.0941    58
37.1041    70
37.1141    53
37.1241    52
37.1341    49
37.1441    56
37.1541    64
37.1641    57
37.1741    69
37.1841    68
37.1941    75
37.2041    69
37.2141    57
37.2241    60
37.2341    50
37.2441    59
37.2541    57
37.2641    60
37.2741    67
37.2841    65
37.2941    53
37.3041    53
37.3141    54
37.3241    44
37.3341    61
37.3441    71
37.3541    58
37.3641    47
37.3741    50
37.3841    58
37.3941    49
37.4041    50
37.4141    57
37.4241    55
37.4341    53
37.4441    56
37.4541    62
37.4641    50
37.4741    53
37.4841    54
37.4941    52
37.5041    48
37.5141    52
37.5241    47
37.5341    59
37.5441    50
37.5541    55
37.5641    28
37.5741    46
37.5841    55
37.5941    45
37.6041    55
37.6141    50
37.6241    52
37.6341    50
37.6441    60
37.6541    55
37.6641    52
37.6741    44
37.6841    55
37.6941    50
37.7041    57
37.7141    50
37.7241    53
37.7341    45
37.7441    61
37.7541    46
37.7641    47
37.7741    50
37.7841    55
37.7941    35
37.8041    47
37.8141    60
37.8241    57
37.8341    44
37.8441    45
37.8541    61
37.8641    40
37.8741    40
37.8841    39
37.8941    55
37.9041    50
37.9141    70
37.9241    59
37.9341    48
37.9441    56
37.9541    55
37.9641    42
37.9741    49
37.9841    54
37.9941    63
38.0041    41
38.0141    48
38.0241    45
38.0341    53
38.0441    44
38.0541    49
38.0641    52
38.0741    46
38.0841    48
38.0941    40
38.1041    45
38.1141    47
38.1241    47
38.1341    49
38.1441    37
38.1541    47
38.1641    38
38.1741    37
38.1841    45
38.1941    58
38.2041    40
38.2141    45
38.2241    44
38.2341    44
38.2441    46
38.2541    47
38.2641    41
38.2741    40
38.2841    35
38.2941    54
38.3041    43
38.3141    43
38.3241    47
38.3341    41
38.3441    52
38.3541    45
38.3641    46
38.3741    30
38.3841    36
38.3941    47
38.4041    53
38.4141    41
38.4241    36
38.4341    41
38.4441    41
38.4541    41
38.4641    35
38.4741    49
38.4841    40
38.4941    49
38.5041    45
38.5141    40
38.5241    40
38.5341    31
38.5441    40
38.5541    35
38.5641    44
38.5741    29
38.5841    51
38.5941    46
38.6041    45
38.6141    48
38.6241    40
38.6341    40
38.6441    35
38.6541    41
38.6641    36
38.6741    33
38.6841    49
38.6941    37
38.7041    39
38.7141    36
38.7241    39
38.7341    40
38.7441    42
38.7541    38
38.7641    34
38.7741    31
38.7841    31
38.7941    39
38.8041    46
38.8141    28
38.8241    34
38.8341    36
38.8441    35
38.8541    44
38.8641    49
38.8741    34
38.8841    35
38.8941    45
38.9041    42
38.9141    39
38.9241    42
38.9341    30
38.9441    31
38.9541    32
38.9641    40
38.9741    40
38.9841    39
38.9941    28
39.0041    36
39.0141    34
39.0241    34
39.0341    30
39.0441    35
39.0541    43
39.0641    33
39.0741    25
39.0841    26
39.0941    28
39.1041    32
39.1141    37
39.1241    31
39.1341    27
39.1441    32
39.1541    25
39.1641    38
39.1741    30
39.1841    30
39.1941    27
39.2041    34
39.2141    22
39.2241    29
39.2341    28
39.2441    32
39.2541    27
39.2641    18
39.2741    28
39.2841    36
39.2941    36
39.3041    36
39.3141    23
39.3241    33
39.3341    35
39.3441    34
39.3541    32
39.3641    32
39.3741    32
39.3841    23
39.3941    30
39.4041    31
39.4141    24
39.4241    34
39.4341    23
39.4441    44
39.4541    25
39.4641    25
39.4741    33
39.4841    31
39.4941    26
39.5041    29
39.5141    36
39.5241    26
39.5341    34
39.5441    34
39.5541    33
39.5641    26
39.5741    29
39.5841    22
39.5941    27
39.6041    32
39.6141    22
39.6241    26
39.6341    29
39.6441    26
39.6541    43
39.6641    27
39.6741    21
39.6841    28
39.6941    30
39.7041    30
39.7141    18
39.7241    20
39.7341    24
39.7441    23
39.7541    31
39.7641    27
39.7741    21
39.7841    25
39.7941    18
39.8041    21
39.8141    25
39.8241    18
39.8341    20
39.8441    21
39.8541    26
39.8641    21
39.8741    22
39.8841    25
39.8941    26
39.9041    20
39.9141    20
39.9241    20
39.9341    23
39.9441    24
39.9541    20
39.9641    28
39.9741    28
39.9841    33
