Bruker Nano GmbH Berlin, Germany
Esprit 1.9

Date: 4/1/2021 4:23:03 PM
Real time: 23658
Life time: 22247
Pulse density: 87607


Detector type: XFlash 430
Window type: Custom type
Detector thickness: 0.45
Si dead layer:0.029

Calibration, lin.: 10
Calibration, abs.: -955.9
Mn FWHM: 137.05
Fano factor: 0.121
Channels: 4095

Energy Counts
-0.9559     0
-0.9459     0
-0.9359     0
-0.9259     0
-0.9159     0
-0.9059     0
-0.8959     0
-0.8859     0
-0.8759     0
-0.8659     0
-0.8559     0
-0.8459     0
-0.8359     0
-0.8259     0
-0.8159     0
-0.8059     0
-0.7959     0
-0.7859     0
-0.7759     0
-0.7659     0
-0.7559     0
-0.7459     0
-0.7359     0
-0.7259     0
-0.7159     0
-0.7059     0
-0.6959     0
-0.6859     0
-0.6759     0
-0.6659     0
-0.6559     0
-0.6459     0
-0.6359     0
-0.6259     0
-0.6159     0
-0.6059     0
-0.5959     0
-0.5859     0
-0.5759     0
-0.5659     0
-0.5559     0
-0.5459     0
-0.5359     0
-0.5259     0
-0.5159     0
-0.5059     0
-0.4959     0
-0.4859     0
-0.4759     0
-0.4659     0
-0.4559     0
-0.4459     0
-0.4359     0
-0.4259     0
-0.4159     0
-0.4059     0
-0.3959     0
-0.3859     0
-0.3759     0
-0.3659     0
-0.3559     0
-0.3459     0
-0.3359     0
-0.3259     0
-0.3159     0
-0.3059     0
-0.2959     0
-0.2859     0
-0.2759     0
-0.2659     0
-0.2559     0
-0.2459     0
-0.2359     0
-0.2259     0
-0.2159     0
-0.2059     0
-0.1959     0
-0.1859     0
-0.1759     0
-0.1659     0
-0.1559     0
-0.1459     0
-0.1359     0
-0.1259     2
-0.1159     4
-0.1059    13
-0.0959    67
-0.0859   241
-0.0759   874
-0.0659  2551
-0.0559  6422
-0.0459 14182
-0.0359 26417
-0.0259 42118
-0.0159 57886
-0.0059 68116
 0.0041 69054
 0.0141 59345
 0.0241 43686
 0.0341 27439
 0.0441 14822
 0.0541  6921
 0.0641  2823
 0.0741   937
 0.0841   293
 0.0941    78
 0.1041    25
 0.1141    14
 0.1241     8
 0.1341     6
 0.1441     9
 0.1541     3
 0.1641     0
 0.1741    26
 0.1841   183
 0.1941   357
 0.2041   329
 0.2141   348
 0.2241   324
 0.2341   337
 0.2441   318
 0.2541   330
 0.2641   327
 0.2741   335
 0.2841   334
 0.2941   344
 0.3041   315
 0.3141   337
 0.3241   315
 0.3341   317
 0.3441   314
 0.3541   325
 0.3641   304
 0.3741   332
 0.3841   305
 0.3941   272
 0.4041   289
 0.4141   318
 0.4241   309
 0.4341   277
 0.4441   281
 0.4541   297
 0.4641   280
 0.4741   288
 0.4841   294
 0.4941   287
 0.5041   294
 0.5141   294
 0.5241   283
 0.5341   294
 0.5441   306
 0.5541   281
 0.5641   268
 0.5741   277
 0.5841   267
 0.5941   247
 0.6041   263
 0.6141   278
 0.6241   277
 0.6341   278
 0.6441   271
 0.6541   253
 0.6641   252
 0.6741   263
 0.6841   254
 0.6941   250
 0.7041   249
 0.7141   276
 0.7241   262
 0.7341   253
 0.7441   248
 0.7541   246
 0.7641   261
 0.7741   258
 0.7841   248
 0.7941   251
 0.8041   252
 0.8141   236
 0.8241   247
 0.8341   251
 0.8441   242
 0.8541   238
 0.8641   220
 0.8741   229
 0.8841   249
 0.8941   257
 0.9041   236
 0.9141   234
 0.9241   246
 0.9341   252
 0.9441   243
 0.9541   239
 0.9641   242
 0.9741   214
 0.9841   236
 0.9941   223
 1.0041   224
 1.0141   231
 1.0241   232
 1.0341   216
 1.0441   219
 1.0541   210
 1.0641   226
 1.0741   219
 1.0841   227
 1.0941   197
 1.1041   220
 1.1141   211
 1.1241   218
 1.1341   234
 1.1441   229
 1.1541   204
 1.1641   190
 1.1741   185
 1.1841   217
 1.1941   237
 1.2041   220
 1.2141   225
 1.2241   215
 1.2341   211
 1.2441   196
 1.2541   210
 1.2641   192
 1.2741   186
 1.2841   193
 1.2941   243
 1.3041   207
 1.3141   214
 1.3241   221
 1.3341   214
 1.3441   200
 1.3541   201
 1.3641   187
 1.3741   197
 1.3841   203
 1.3941   193
 1.4041   178
 1.4141   188
 1.4241   188
 1.4341   209
 1.4441   180
 1.4541   195
 1.4641   184
 1.4741   199
 1.4841   198
 1.4941   190
 1.5041   196
 1.5141   170
 1.5241   197
 1.5341   172
 1.5441   195
 1.5541   213
 1.5641   191
 1.5741   192
 1.5841   182
 1.5941   209
 1.6041   194
 1.6141   178
 1.6241   227
 1.6341   187
 1.6441   211
 1.6541   233
 1.6641   301
 1.6741   360
 1.6841   437
 1.6941   523
 1.7041   639
 1.7141   719
 1.7241   874
 1.7341   836
 1.7441   852
 1.7541   786
 1.7641   751
 1.7741   647
 1.7841   519
 1.7941   395
 1.8041   365
 1.8141   332
 1.8241   261
 1.8341   268
 1.8441   245
 1.8541   217
 1.8641   216
 1.8741   241
 1.8841   220
 1.8941   223
 1.9041   194
 1.9141   193
 1.9241   204
 1.9341   222
 1.9441   209
 1.9541   201
 1.9641   234
 1.9741   213
 1.9841   217
 1.9941   246
 2.0041   244
 2.0141   264
 2.0241   227
 2.0341   236
 2.0441   199
 2.0541   233
 2.0641   201
 2.0741   197
 2.0841   181
 2.0941   200
 2.1041   183
 2.1141   201
 2.1241   185
 2.1341   177
 2.1441   200
 2.1541   195
 2.1641   180
 2.1741   178
 2.1841   182
 2.1941   173
 2.2041   165
 2.2141   157
 2.2241   179
 2.2341   163
 2.2441   152
 2.2541   179
 2.2641   156
 2.2741   186
 2.2841   147
 2.2941   178
 2.3041   177
 2.3141   150
 2.3241   166
 2.3341   181
 2.3441   164
 2.3541   161
 2.3641   167
 2.3741   144
 2.3841   158
 2.3941   165
 2.4041   151
 2.4141   149
 2.4241   147
 2.4341   150
 2.4441   141
 2.4541   148
 2.4641   161
 2.4741   162
 2.4841   174
 2.4941   144
 2.5041   141
 2.5141   139
 2.5241   154
 2.5341   143
 2.5441   150
 2.5541   135
 2.5641   142
 2.5741   131
 2.5841   140
 2.5941   133
 2.6041   153
 2.6141   154
 2.6241   156
 2.6341   139
 2.6441   130
 2.6541   140
 2.6641   131
 2.6741   137
 2.6841   132
 2.6941   141
 2.7041   137
 2.7141   128
 2.7241   149
 2.7341   140
 2.7441   152
 2.7541   130
 2.7641   143
 2.7741   125
 2.7841   139
 2.7941   127
 2.8041   167
 2.8141   159
 2.8241   153
 2.8341   167
 2.8441   164
 2.8541   150
 2.8641   146
 2.8741   147
 2.8841   161
 2.8941   146
 2.9041   125
 2.9141   161
 2.9241   137
 2.9341   131
 2.9441   147
 2.9541   115
 2.9641   136
 2.9741   160
 2.9841   150
 2.9941   132
 3.0041   130
 3.0141   145
 3.0241   146
 3.0341   121
 3.0441   122
 3.0541   113
 3.0641   137
 3.0741   124
 3.0841   116
 3.0941   117
 3.1041   111
 3.1141   114
 3.1241   129
 3.1341   128
 3.1441   130
 3.1541   147
 3.1641   140
 3.1741   103
 3.1841   129
 3.1941   144
 3.2041   147
 3.2141   169
 3.2241   204
 3.2341   228
 3.2441   273
 3.2541   286
 3.2641   391
 3.2741   433
 3.2841   464
 3.2941   550
 3.3041   566
 3.3141   563
 3.3241   547
 3.3341   497
 3.3441   451
 3.3541   417
 3.3641   355
 3.3741   314
 3.3841   244
 3.3941   194
 3.4041   198
 3.4141   151
 3.4241   146
 3.4341   136
 3.4441   118
 3.4541   118
 3.4641   127
 3.4741    99
 3.4841   124
 3.4941   119
 3.5041   136
 3.5141   162
 3.5241   168
 3.5341   197
 3.5441   210
 3.5541   200
 3.5641   239
 3.5741   304
 3.5841   394
 3.5941   462
 3.6041   553
 3.6141   671
 3.6241   817
 3.6341  1024
 3.6441  1211
 3.6541  1395
 3.6641  1557
 3.6741  1726
 3.6841  1721
 3.6941  1690
 3.7041  1612
 3.7141  1534
 3.7241  1381
 3.7341  1159
 3.7441  1020
 3.7541   796
 3.7641   611
 3.7741   445
 3.7841   359
 3.7941   248
 3.8041   189
 3.8141   168
 3.8241   133
 3.8341   114
 3.8441   117
 3.8541   105
 3.8641   116
 3.8741   121
 3.8841   119
 3.8941   112
 3.9041   127
 3.9141   156
 3.9241   153
 3.9341   170
 3.9441   200
 3.9541   238
 3.9641   253
 3.9741   275
 3.9841   308
 3.9941   312
 4.0041   349
 4.0141   341
 4.0241   347
 4.0341   311
 4.0441   284
 4.0541   275
 4.0641   236
 4.0741   217
 4.0841   193
 4.0941   168
 4.1041   135
 4.1141   133
 4.1241   110
 4.1341   112
 4.1441    99
 4.1541    98
 4.1641   105
 4.1741    96
 4.1841    93
 4.1941    78
 4.2041    78
 4.2141    82
 4.2241    88
 4.2341    86
 4.2441    85
 4.2541    79
 4.2641    87
 4.2741    88
 4.2841    92
 4.2941    95
 4.3041    90
 4.3141    95
 4.3241    83
 4.3341    90
 4.3441    87
 4.3541    94
 4.3641   113
 4.3741   108
 4.3841   120
 4.3941   165
 4.4041   183
 4.4141   231
 4.4241   281
 4.4341   332
 4.4441   373
 4.4541   439
 4.4641   501
 4.4741   515
 4.4841   564
 4.4941   600
 4.5041   638
 4.5141   590
 4.5241   554
 4.5341   498
 4.5441   500
 4.5541   425
 4.5641   350
 4.5741   316
 4.5841   261
 4.5941   219
 4.6041   195
 4.6141   160
 4.6241   138
 4.6341   118
 4.6441   110
 4.6541   129
 4.6641   101
 4.6741   109
 4.6841   107
 4.6941   110
 4.7041    99
 4.7141   103
 4.7241   107
 4.7341   100
 4.7441   116
 4.7541   109
 4.7641   110
 4.7741   135
 4.7841   111
 4.7941   132
 4.8041   151
 4.8141   168
 4.8241   165
 4.8341   162
 4.8441   168
 4.8541   161
 4.8641   176
 4.8741   179
 4.8841   196
 4.8941   204
 4.9041   206
 4.9141   192
 4.9241   218
 4.9341   207
 4.9441   207
 4.9541   210
 4.9641   189
 4.9741   179
 4.9841   182
 4.9941   134
 5.0041   146
 5.0141   133
 5.0241   144
 5.0341   125
 5.0441   125
 5.0541   118
 5.0641   107
 5.0741   102
 5.0841   114
 5.0941   106
 5.1041   125
 5.1141   107
 5.1241   114
 5.1341   115
 5.1441   103
 5.1541   115
 5.1641   101
 5.1741   104
 5.1841   119
 5.1941   106
 5.2041   140
 5.2141   122
 5.2241    91
 5.2341   109
 5.2441    92
 5.2541   123
 5.2641   112
 5.2741    99
 5.2841   100
 5.2941   122
 5.3041   126
 5.3141   142
 5.3241   164
 5.3341   177
 5.3441   198
 5.3541   214
 5.3641   261
 5.3741   259
 5.3841   262
 5.3941   301
 5.4041   298
 5.4141   275
 5.4241   288
 5.4341   312
 5.4441   302
 5.4541   238
 5.4641   209
 5.4741   207
 5.4841   173
 5.4941   188
 5.5041   156
 5.5141   130
 5.5241   111
 5.5341   131
 5.5441   132
 5.5541   119
 5.5641   115
 5.5741   101
 5.5841   120
 5.5941   112
 5.6041   151
 5.6141   102
 5.6241   138
 5.6341   104
 5.6441   123
 5.6541   117
 5.6641   127
 5.6741   114
 5.6841   114
 5.6941   106
 5.7041   115
 5.7141   127
 5.7241   146
 5.7341   114
 5.7441   144
 5.7541   157
 5.7641   207
 5.7741   223
 5.7841   292
 5.7941   302
 5.8041   356
 5.8141   438
 5.8241   494
 5.8341   571
 5.8441   661
 5.8541   738
 5.8641   808
 5.8741   874
 5.8841   862
 5.8941   898
 5.9041   839
 5.9141   900
 5.9241   804
 5.9341   761
 5.9441   680
 5.9541   579
 5.9641   490
 5.9741   436
 5.9841   375
 5.9941   320
 6.0041   287
 6.0141   228
 6.0241   184
 6.0341   168
 6.0441   169
 6.0541   167
 6.0641   168
 6.0741   165
 6.0841   129
 6.0941   164
 6.1041   160
 6.1141   177
 6.1241   178
 6.1341   174
 6.1441   177
 6.1541   182
 6.1641   184
 6.1741   218
 6.1841   261
 6.1941   286
 6.2041   356
 6.2141   425
 6.2241   569
 6.2341   763
 6.2441  1028
 6.2541  1398
 6.2641  2059
 6.2741  2618
 6.2841  3652
 6.2941  4736
 6.3041  6170
 6.3141  7659
 6.3241  9659
 6.3341 11532
 6.3441 13659
 6.3541 15524
 6.3641 17283
 6.3741 18741
 6.3841 19699
 6.3941 20247
 6.4041 20178
 6.4141 19322
 6.4241 18413
 6.4341 16674
 6.4441 15089
 6.4541 13001
 6.4641 11026
 6.4741  9003
 6.4841  7286
 6.4941  5709
 6.5041  4350
 6.5141  3231
 6.5241  2415
 6.5341  1776
 6.5441  1262
 6.5541   887
 6.5641   647
 6.5741   479
 6.5841   368
 6.5941   267
 6.6041   227
 6.6141   210
 6.6241   202
 6.6341   194
 6.6441   165
 6.6541   159
 6.6641   178
 6.6741   150
 6.6841   173
 6.6941   181
 6.7041   195
 6.7141   177
 6.7241   172
 6.7341   199
 6.7441   173
 6.7541   189
 6.7641   206
 6.7741   195
 6.7841   215
 6.7941   212
 6.8041   197
 6.8141   205
 6.8241   233
 6.8341   233
 6.8441   269
 6.8541   247
 6.8641   319
 6.8741   331
 6.8841   354
 6.8941   389
 6.9041   478
 6.9141   562
 6.9241   630
 6.9341   840
 6.9441  1023
 6.9541  1238
 6.9641  1471
 6.9741  1721
 6.9841  2043
 6.9941  2356
 7.0041  2766
 7.0141  2941
 7.0241  3085
 7.0341  3307
 7.0441  3503
 7.0541  3466
 7.0641  3529
 7.0741  3256
 7.0841  2987
 7.0941  2852
 7.1041  2510
 7.1141  2208
 7.1241  2015
 7.1341  1639
 7.1441  1430
 7.1541  1108
 7.1641   955
 7.1741   742
 7.1841   610
 7.1941   492
 7.2041   457
 7.2141   351
 7.2241   292
 7.2341   281
 7.2441   267
 7.2541   239
 7.2641   226
 7.2741   240
 7.2841   232
 7.2941   245
 7.3041   249
 7.3141   270
 7.3241   305
 7.3341   290
 7.3441   379
 7.3541   382
 7.3641   385
 7.3741   402
 7.3841   444
 7.3941   466
 7.4041   527
 7.4141   584
 7.4241   606
 7.4341   620
 7.4441   629
 7.4541   667
 7.4641   658
 7.4741   605
 7.4841   672
 7.4941   590
 7.5041   617
 7.5141   531
 7.5241   512
 7.5341   443
 7.5441   418
 7.5541   383
 7.5641   342
 7.5741   324
 7.5841   294
 7.5941   284
 7.6041   277
 7.6141   289
 7.6241   250
 7.6341   246
 7.6441   244
 7.6541   230
 7.6641   252
 7.6741   238
 7.6841   248
 7.6941   255
 7.7041   243
 7.7141   260
 7.7241   252
 7.7341   268
 7.7441   260
 7.7541   270
 7.7641   262
 7.7741   298
 7.7841   274
 7.7941   274
 7.8041   286
 7.8141   301
 7.8241   283
 7.8341   324
 7.8441   324
 7.8541   299
 7.8641   345
 7.8741   374
 7.8841   367
 7.8941   369
 7.9041   381
 7.9141   411
 7.9241   417
 7.9341   430
 7.9441   484
 7.9541   483
 7.9641   574
 7.9741   573
 7.9841   635
 7.9941   680
 8.0041   697
 8.0141   718
 8.0241   797
 8.0341   862
 8.0441   855
 8.0541   936
 8.0641   989
 8.0741  1074
 8.0841  1109
 8.0941  1204
 8.1041  1285
 8.1141  1341
 8.1241  1383
 8.1341  1425
 8.1441  1486
 8.1541  1486
 8.1641  1545
 8.1741  1640
 8.1841  1602
 8.1941  1624
 8.2041  1631
 8.2141  1720
 8.2241  1712
 8.2341  1770
 8.2441  1775
 8.2541  1848
 8.2641  1917
 8.2741  2111
 8.2841  2110
 8.2941  2360
 8.3041  2523
 8.3141  2741
 8.3241  2999
 8.3341  3158
 8.3441  3383
 8.3541  3507
 8.3641  3689
 8.3741  3903
 8.3841  3820
 8.3941  3903
 8.4041  3758
 8.4141  3686
 8.4241  3399
 8.4341  3200
 8.4441  2900
 8.4541  2615
 8.4641  2347
 8.4741  2021
 8.4841  1704
 8.4941  1473
 8.5041  1213
 8.5141  1007
 8.5241   858
 8.5341   758
 8.5441   632
 8.5541   568
 8.5641   508
 8.5741   441
 8.5841   445
 8.5941   442
 8.6041   434
 8.6141   437
 8.6241   420
 8.6341   406
 8.6441   418
 8.6541   423
 8.6641   393
 8.6741   393
 8.6841   415
 8.6941   388
 8.7041   409
 8.7141   397
 8.7241   391
 8.7341   413
 8.7441   376
 8.7541   356
 8.7641   406
 8.7741   369
 8.7841   380
 8.7941   351
 8.8041   360
 8.8141   354
 8.8241   326
 8.8341   370
 8.8441   331
 8.8541   314
 8.8641   376
 8.8741   386
 8.8841   374
 8.8941   356
 8.9041   364
 8.9141   383
 8.9241   379
 8.9341   367
 8.9441   390
 8.9541   374
 8.9641   351
 8.9741   355
 8.9841   401
 8.9941   444
 9.0041   422
 9.0141   428
 9.0241   408
 9.0341   468
 9.0441   448
 9.0541   452
 9.0641   467
 9.0741   466
 9.0841   507
 9.0941   519
 9.1041   513
 9.1141   563
 9.1241   588
 9.1341   574
 9.1441   601
 9.1541   623
 9.1641   696
 9.1741   745
 9.1841   734
 9.1941   811
 9.2041   835
 9.2141   825
 9.2241   869
 9.2341   949
 9.2441  1027
 9.2541  1035
 9.2641  1079
 9.2741  1129
 9.2841  1178
 9.2941  1215
 9.3041  1260
 9.3141  1312
 9.3241  1345
 9.3341  1393
 9.3441  1425
 9.3541  1484
 9.3641  1476
 9.3741  1492
 9.3841  1563
 9.3941  1576
 9.4041  1594
 9.4141  1598
 9.4241  1539
 9.4341  1581
 9.4441  1641
 9.4541  1712
 9.4641  1705
 9.4741  1662
 9.4841  1717
 9.4941  1722
 9.5041  1782
 9.5141  1822
 9.5241  1936
 9.5341  1938
 9.5441  2051
 9.5541  2208
 9.5641  2325
 9.5741  2472
 9.5841  2605
 9.5941  2730
 9.6041  2953
 9.6141  3010
 9.6241  3252
 9.6341  3292
 9.6441  3362
 9.6541  3460
 9.6641  3488
 9.6741  3481
 9.6841  3445
 9.6941  3312
 9.7041  3129
 9.7141  2981
 9.7241  2705
 9.7341  2669
 9.7441  2476
 9.7541  2220
 9.7641  2092
 9.7741  1961
 9.7841  1788
 9.7941  1700
 9.8041  1635
 9.8141  1530
 9.8241  1509
 9.8341  1414
 9.8441  1383
 9.8541  1401
 9.8641  1396
 9.8741  1368
 9.8841  1401
 9.8941  1477
 9.9041  1477
 9.9141  1542
 9.9241  1538
 9.9341  1597
 9.9441  1600
 9.9541  1524
 9.9641  1545
 9.9741  1475
 9.9841  1412
 9.9941  1369
10.0041  1252
10.0141  1180
10.0241  1145
10.0341   986
10.0441   918
10.0541   824
10.0641   688
10.0741   642
10.0841   616
10.0941   512
10.1041   480
10.1141   433
10.1241   379
10.1341   356
10.1441   334
10.1541   330
10.1641   327
10.1741   300
10.1841   264
10.1941   269
10.2041   276
10.2141   256
10.2241   271
10.2341   253
10.2441   237
10.2541   214
10.2641   217
10.2741   227
10.2841   219
10.2941   213
10.3041   193
10.3141   217
10.3241   197
10.3341   189
10.3441   203
10.3541   186
10.3641   203
10.3741   182
10.3841   201
10.3941   212
10.4041   201
10.4141   194
10.4241   197
10.4341   220
10.4441   208
10.4541   202
10.4641   215
10.4741   210
10.4841   227
10.4941   215
10.5041   199
10.5141   201
10.5241   221
10.5341   226
10.5441   215
10.5541   238
10.5641   238
10.5741   224
10.5841   233
10.5941   234
10.6041   220
10.6141   236
10.6241   238
10.6341   236
10.6441   235
10.6541   240
10.6641   216
10.6741   220
10.6841   247
10.6941   256
10.7041   241
10.7141   265
10.7241   258
10.7341   263
10.7441   283
10.7541   280
10.7641   288
10.7741   303
10.7841   299
10.7941   301
10.8041   311
10.8141   295
10.8241   302
10.8341   306
10.8441   308
10.8541   330
10.8641   319
10.8741   339
10.8841   354
10.8941   335
10.9041   341
10.9141   351
10.9241   332
10.9341   324
10.9441   314
10.9541   347
10.9641   346
10.9741   328
10.9841   340
10.9941   347
11.0041   323
11.0141   316
11.0241   303
11.0341   287
11.0441   299
11.0541   286
11.0641   293
11.0741   306
11.0841   309
11.0941   314
11.1041   301
11.1141   324
11.1241   333
11.1341   330
11.1441   314
11.1541   332
11.1641   335
11.1741   337
11.1841   377
11.1941   383
11.2041   405
11.2141   460
11.2241   446
11.2341   473
11.2441   484
11.2541   479
11.2641   455
11.2741   463
11.2841   481
11.2941   492
11.3041   490
11.3141   474
11.3241   434
11.3341   425
11.3441   436
11.3541   431
11.3641   400
11.3741   370
11.3841   359
11.3941   342
11.4041   326
11.4141   302
11.4241   295
11.4341   270
11.4441   264
11.4541   255
11.4641   252
11.4741   259
11.4841   250
11.4941   230
11.5041   229
11.5141   235
11.5241   228
11.5341   246
11.5441   245
11.5541   248
11.5641   255
11.5741   254
11.5841   253
11.5941   260
11.6041   256
11.6141   270
11.6241   274
11.6341   258
11.6441   260
11.6541   252
11.6641   255
11.6741   239
11.6841   232
11.6941   254
11.7041   254
11.7141   220
11.7241   211
11.7341   229
11.7441   206
11.7541   199
11.7641   202
11.7741   187
11.7841   172
11.7941   177
11.8041   188
11.8141   202
11.8241   198
11.8341   186
11.8441   188
11.8541   188
11.8641   190
11.8741   187
11.8841   183
11.8941   185
11.9041   183
11.9141   186
11.9241   203
11.9341   187
11.9441   183
11.9541   170
11.9641   188
11.9741   179
11.9841   165
11.9941   175
12.0041   185
12.0141   186
12.0241   180
12.0341   184
12.0441   192
12.0541   199
12.0641   192
12.0741   166
12.0841   175
12.0941   177
12.1041   176
12.1141   183
12.1241   194
12.1341   195
12.1441   168
12.1541   170
12.1641   166
12.1741   165
12.1841   167
12.1941   171
12.2041   165
12.2141   174
12.2241   180
12.2341   171
12.2441   166
12.2541   157
12.2641   177
12.2741   166
12.2841   160
12.2941   165
12.3041   163
12.3141   169
12.3241   172
12.3341   166
12.3441   175
12.3541   186
12.3641   183
12.3741   170
12.3841   156
12.3941   170
12.4041   175
12.4141   188
12.4241   182
12.4341   163
12.4441   175
12.4541   179
12.4641   203
12.4741   191
12.4841   169
12.4941   170
12.5041   181
12.5141   184
12.5241   193
12.5341   177
12.5441   183
12.5541   186
12.5641   188
12.5741   193
12.5841   196
12.5941   200
12.6041   213
12.6141   197
12.6241   195
12.6341   200
12.6441   198
12.6541   201
12.6641   206
12.6741   201
12.6841   197
12.6941   199
12.7041   192
12.7141   179
12.7241   188
12.7341   195
12.7441   195
12.7541   191
12.7641   184
12.7741   184
12.7841   190
12.7941   198
12.8041   205
12.8141   208
12.8241   205
12.8341   203
12.8441   202
12.8541   196
12.8641   188
12.8741   183
12.8841   183
12.8941   188
12.9041   192
12.9141   182
12.9241   179
12.9341   191
12.9441   207
12.9541   198
12.9641   203
12.9741   218
12.9841   204
12.9941   193
13.0041   214
13.0141   221
13.0241   208
13.0341   199
13.0441   200
13.0541   200
13.0641   202
13.0741   207
13.0841   220
13.0941   210
13.1041   207
13.1141   218
13.1241   238
13.1341   237
13.1441   228
13.1541   235
13.1641   245
13.1741   258
13.1841   275
13.1941   290
13.2041   304
13.2141   318
13.2241   332
13.2341   347
13.2441   358
13.2541   363
13.2641   379
13.2741   420
13.2841   461
13.2941   492
13.3041   513
13.3141   522
13.3241   537
13.3341   564
13.3441   606
13.3541   619
13.3641   631
13.3741   619
13.3841   617
13.3941   639
13.4041   624
13.4141   593
13.4241   576
13.4341   557
13.4441   531
13.4541   504
13.4641   485
13.4741   455
13.4841   413
13.4941   372
13.5041   362
13.5141   368
13.5241   329
13.5341   310
13.5441   308
13.5541   311
13.5641   307
13.5741   278
13.5841   271
13.5941   272
13.6041   264
13.6141   258
13.6241   254
13.6341   230
13.6441   222
13.6541   236
13.6641   246
13.6741   244
13.6841   226
13.6941   222
13.7041   238
13.7141   244
13.7241   236
13.7341   248
13.7441   253
13.7541   253
13.7641   256
13.7741   254
13.7841   249
13.7941   262
13.8041   272
13.8141   262
13.8241   248
13.8341   243
13.8441   246
13.8541   244
13.8641   260
13.8741   270
13.8841   265
13.8941   265
13.9041   263
13.9141   278
13.9241   303
13.9341   307
13.9441   323
13.9541   350
13.9641   350
13.9741   363
13.9841   397
13.9941   430
14.0041   484
14.0141   500
14.0241   529
14.0341   564
14.0441   574
14.0541   632
14.0641   678
14.0741   717
14.0841   772
14.0941   806
14.1041   832
14.1141   857
14.1241   879
14.1341   907
14.1441   886
14.1541   865
14.1641   859
14.1741   851
14.1841   840
14.1941   789
14.2041   743
14.2141   686
14.2241   643
14.2341   642
14.2441   615
14.2541   590
14.2641   542
14.2741   477
14.2841   427
14.2941   413
14.3041   409
14.3141   376
14.3241   366
14.3341   360
14.3441   328
14.3541   317
14.3641   316
14.3741   304
14.3841   294
14.3941   299
14.4041   298
14.4141   286
14.4241   290
14.4341   295
14.4441   290
14.4541   280
14.4641   274
14.4741   276
14.4841   280
14.4941   281
14.5041   305
14.5141   308
14.5241   284
14.5341   293
14.5441   303
14.5541   306
14.5641   294
14.5741   287
14.5841   289
14.5941   293
14.6041   276
14.6141   292
14.6241   324
14.6341   314
14.6441   290
14.6541   294
14.6641   297
14.6741   296
14.6841   308
14.6941   299
14.7041   303
14.7141   311
14.7241   305
14.7341   302
14.7441   306
14.7541   319
14.7641   327
14.7741   319
14.7841   317
14.7941   312
14.8041   327
14.8141   330
14.8241   332
14.8341   350
14.8441   353
14.8541   341
14.8641   352
14.8741   370
14.8841   370
14.8941   385
14.9041   402
14.9141   413
14.9241   423
14.9341   388
14.9441   393
14.9541   414
14.9641   438
14.9741   419
14.9841   404
14.9941   408
15.0041   392
15.0141   384
15.0241   404
15.0341   368
15.0441   336
15.0541   349
15.0641   363
15.0741   360
15.0841   329
15.0941   331
15.1041   346
15.1141   334
15.1241   309
15.1341   338
15.1441   355
15.1541   350
15.1641   342
15.1741   341
15.1841   343
15.1941   340
15.2041   331
15.2141   324
15.2241   342
15.2341   342
15.2441   332
15.2541   327
15.2641   342
15.2741   355
15.2841   352
15.2941   323
15.3041   344
15.3141   355
15.3241   336
15.3341   319
15.3441   334
15.3541   345
15.3641   354
15.3741   337
15.3841   321
15.3941   330
15.4041   330
15.4141   349
15.4241   353
15.4341   354
15.4441   362
15.4541   349
15.4641   375
15.4741   364
15.4841   328
15.4941   341
15.5041   362
15.5141   376
15.5241   368
15.5341   353
15.5441   358
15.5541   362
15.5641   374
15.5741   398
15.5841   402
15.5941   423
15.6041   447
15.6141   433
15.6241   448
15.6341   455
15.6441   456
15.6541   486
15.6641   512
15.6741   528
15.6841   547
15.6941   558
15.7041   562
15.7141   574
15.7241   580
15.7341   588
15.7441   572
15.7541   597
15.7641   657
15.7741   642
15.7841   625
15.7941   629
15.8041   602
15.8141   613
15.8241   644
15.8341   613
15.8441   583
15.8541   580
15.8641   586
15.8741   550
15.8841   515
15.8941   504
15.9041   477
15.9141   476
15.9241   492
15.9341   481
15.9441   453
15.9541   446
15.9641   432
15.9741   437
15.9841   422
15.9941   423
16.0041   418
16.0141   404
16.0241   391
16.0341   417
16.0441   397
16.0541   412
16.0641   383
16.0741   381
16.0841   408
16.0941   412
16.1041   420
16.1141   418
16.1241   378
16.1341   388
16.1441   385
16.1541   397
16.1641   402
16.1741   403
16.1841   405
16.1941   410
16.2041   433
16.2141   424
16.2241   395
16.2341   405
16.2441   395
16.2541   384
16.2641   361
16.2741   380
16.2841   384
16.2941   385
16.3041   362
16.3141   392
16.3241   410
16.3341   384
16.3441   392
16.3541   411
16.3641   422
16.3741   413
16.3841   405
16.3941   405
16.4041   391
16.4141   396
16.4241   424
16.4341   412
16.4441   412
16.4541   441
16.4641   442
16.4741   432
16.4841   407
16.4941   408
16.5041   432
16.5141   410
16.5241   419
16.5341   410
16.5441   433
16.5541   469
16.5641   434
16.5741   434
16.5841   456
16.5941   419
16.6041   424
16.6141   434
16.6241   459
16.6341   443
16.6441   427
16.6541   419
16.6641   420
16.6741   439
16.6841   466
16.6941   437
16.7041   436
16.7141   440
16.7241   411
16.7341   411
16.7441   439
16.7541   452
16.7641   430
16.7741   454
16.7841   447
16.7941   438
16.8041   426
16.8141   429
16.8241   443
16.8341   438
16.8441   433
16.8541   444
16.8641   445
16.8741   453
16.8841   472
16.8941   460
16.9041   449
16.9141   419
16.9241   415
16.9341   426
16.9441   416
16.9541   445
16.9641   473
16.9741   459
16.9841   445
16.9941   466
17.0041   485
17.0141   466
17.0241   451
17.0341   447
17.0441   458
17.0541   475
17.0641   448
17.0741   464
17.0841   456
17.0941   469
17.1041   498
17.1141   457
17.1241   428
17.1341   481
17.1441   460
17.1541   470
17.1641   478
17.1741   454
17.1841   471
17.1941   445
17.2041   463
17.2141   481
17.2241   478
17.2341   476
17.2441   458
17.2541   443
17.2641   467
17.2741   459
17.2841   489
17.2941   476
17.3041   477
17.3141   500
17.3241   507
17.3341   466
17.3441   470
17.3541   495
17.3641   512
17.3741   477
17.3841   493
17.3941   454
17.4041   461
17.4141   483
17.4241   479
17.4341   506
17.4441   523
17.4541   506
17.4641   479
17.4741   499
17.4841   466
17.4941   486
17.5041   530
17.5141   535
17.5241   530
17.5341   530
17.5441   514
17.5541   533
17.5641   516
17.5741   544
17.5841   529
17.5941   499
17.6041   546
17.6141   543
17.6241   517
17.6341   524
17.6441   514
17.6541   530
17.6641   519
17.6741   539
17.6841   540
17.6941   518
17.7041   549
17.7141   556
17.7241   535
17.7341   527
17.7441   530
17.7541   489
17.7641   505
17.7741   520
17.7841   530
17.7941   529
17.8041   521
17.8141   524
17.8241   548
17.8341   532
17.8441   537
17.8541   518
17.8641   488
17.8741   516
17.8841   522
17.8941   528
17.9041   564
17.9141   529
17.9241   499
17.9341   525
17.9441   517
17.9541   522
17.9641   555
17.9741   552
17.9841   521
17.9941   512
18.0041   509
18.0141   521
18.0241   509
18.0341   526
18.0441   546
18.0541   563
18.0641   554
18.0741   538
18.0841   514
18.0941   537
18.1041   514
18.1141   557
18.1241   569
18.1341   543
18.1441   534
18.1541   517
18.1641   529
18.1741   509
18.1841   535
18.1941   518
18.2041   517
18.2141   510
18.2241   537
18.2341   563
18.2441   546
18.2541   531
18.2641   532
18.2741   561
18.2841   514
18.2941   529
18.3041   561
18.3141   545
18.3241   524
18.3341   541
18.3441   540
18.3541   528
18.3641   508
18.3741   539
18.3841   554
18.3941   528
18.4041   539
18.4141   541
18.4241   591
18.4341   584
18.4441   544
18.4541   546
18.4641   536
18.4741   521
18.4841   562
18.4941   548
18.5041   533
18.5141   541
18.5241   580
18.5341   572
18.5441   543
18.5541   554
18.5641   570
18.5741   521
18.5841   571
18.5941   567
18.6041   577
18.6141   539
18.6241   558
18.6341   553
18.6441   543
18.6541   546
18.6641   558
18.6741   586
18.6841   592
18.6941   574
18.7041   572
18.7141   585
18.7241   540
18.7341   537
18.7441   547
18.7541   582
18.7641   588
18.7741   578
18.7841   539
18.7941   577
18.8041   547
18.8141   550
18.8241   570
18.8341   576
18.8441   576
18.8541   584
18.8641   562
18.8741   562
18.8841   559
18.8941   561
18.9041   603
18.9141   592
18.9241   582
18.9341   586
18.9441   585
18.9541   567
18.9641   581
18.9741   587
18.9841   575
18.9941   561
19.0041   578
19.0141   606
19.0241   554
19.0341   577
19.0441   589
19.0541   596
19.0641   577
19.0741   570
19.0841   610
19.0941   596
19.1041   574
19.1141   584
19.1241   598
19.1341   613
19.1441   563
19.1541   559
19.1641   562
19.1741   596
19.1841   584
19.1941   595
19.2041   605
19.2141   583
19.2241   600
19.2341   621
19.2441   616
19.2541   579
19.2641   621
19.2741   581
19.2841   629
19.2941   607
19.3041   553
19.3141   551
19.3241   599
19.3341   590
19.3441   572
19.3541   592
19.3641   608
19.3741   613
19.3841   585
19.3941   600
19.4041   594
19.4141   615
19.4241   602
19.4341   612
19.4441   618
19.4541   597
19.4641   611
19.4741   599
19.4841   621
19.4941   614
19.5041   625
19.5141   603
19.5241   626
19.5341   614
19.5441   625
19.5541   626
19.5641   626
19.5741   595
19.5841   597
19.5941   592
19.6041   593
19.6141   588
19.6241   614
19.6341   611
19.6441   585
19.6541   631
19.6641   648
19.6741   605
19.6841   634
19.6941   607
19.7041   598
19.7141   614
19.7241   643
19.7341   645
19.7441   640
19.7541   627
19.7641   585
19.7741   639
19.7841   619
19.7941   615
19.8041   638
19.8141   603
19.8241   626
19.8341   648
19.8441   619
19.8541   617
19.8641   585
19.8741   621
19.8841   602
19.8941   612
19.9041   639
19.9141   612
19.9241   608
19.9341   643
19.9441   655
19.9541   633
19.9641   606
19.9741   602
19.9841   623
19.9941   658
20.0041   642
20.0141   640
20.0241   646
20.0341   631
20.0441   585
20.0541   604
20.0641   618
20.0741   605
20.0841   590
20.0941   610
20.1041   608
20.1141   635
20.1241   674
20.1341   579
20.1441   637
20.1541   643
20.1641   638
20.1741   589
20.1841   624
20.1941   598
20.2041   621
20.2141   627
20.2241   653
20.2341   641
20.2441   645
20.2541   650
20.2641   602
20.2741   650
20.2841   654
20.2941   623
20.3041   650
20.3141   637
20.3241   655
20.3341   626
20.3441   629
20.3541   628
20.3641   645
20.3741   630
20.3841   628
20.3941   594
20.4041   601
20.4141   651
20.4241   628
20.4341   605
20.4441   649
20.4541   705
20.4641   680
20.4741   650
20.4841   624
20.4941   604
20.5041   668
20.5141   653
20.5241   644
20.5341   637
20.5441   643
20.5541   623
20.5641   634
20.5741   622
20.5841   622
20.5941   677
20.6041   628
20.6141   648
20.6241   621
20.6341   630
20.6441   633
20.6541   626
20.6641   627
20.6741   648
20.6841   595
20.6941   628
20.7041   610
20.7141   617
20.7241   608
20.7341   615
20.7441   649
20.7541   666
20.7641   631
20.7741   635
20.7841   644
20.7941   638
20.8041   602
20.8141   660
20.8241   691
20.8341   669
20.8441   642
20.8541   706
20.8641   681
20.8741   714
20.8841   691
20.8941   730
20.9041   755
20.9141   793
20.9241   782
20.9341   798
20.9441   795
20.9541   750
20.9641   771
20.9741   849
20.9841   848
20.9941   855
21.0041   837
21.0141   902
21.0241   845
21.0341   889
21.0441   904
21.0541   901
21.0641   955
21.0741   969
21.0841   951
21.0941   924
21.1041   936
21.1141   951
21.1241   937
21.1341   925
21.1441   949
21.1541   909
21.1641   973
21.1741   922
21.1841   955
21.1941   938
21.2041   937
21.2141   935
21.2241   903
21.2341   919
21.2441   854
21.2541   862
21.2641   795
21.2741   758
21.2841   809
21.2941   785
21.3041   724
21.3141   765
21.3241   719
21.3341   694
21.3441   762
21.3541   740
21.3641   669
21.3741   714
21.3841   705
21.3941   661
21.4041   677
21.4141   630
21.4241   655
21.4341   674
21.4441   662
21.4541   615
21.4641   666
21.4741   649
21.4841   630
21.4941   635
21.5041   655
21.5141   650
21.5241   633
21.5341   672
21.5441   636
21.5541   643
21.5641   654
21.5741   662
21.5841   621
21.5941   651
21.6041   609
21.6141   677
21.6241   622
21.6341   619
21.6441   633
21.6541   645
21.6641   642
21.6741   644
21.6841   665
21.6941   654
21.7041   632
21.7141   669
21.7241   671
21.7341   634
21.7441   686
21.7541   664
21.7641   638
21.7741   622
21.7841   609
21.7941   640
21.8041   680
21.8141   656
21.8241   654
21.8341   606
21.8441   596
21.8541   639
21.8641   613
21.8741   615
21.8841   607
21.8941   651
21.9041   639
21.9141   643
21.9241   651
21.9341   651
21.9441   649
21.9541   672
21.9641   605
21.9741   618
21.9841   645
21.9941   667
22.0041   614
22.0141   612
22.0241   643
22.0341   631
22.0441   651
22.0541   617
22.0641   646
22.0741   626
22.0841   620
22.0941   638
22.1041   645
22.1141   660
22.1241   634
22.1341   647
22.1441   661
22.1541   631
22.1641   657
22.1741   612
22.1841   641
22.1941   637
22.2041   654
22.2141   606
22.2241   659
22.2341   671
22.2441   647
22.2541   641
22.2641   667
22.2741   660
22.2841   655
22.2941   616
22.3041   647
22.3141   632
22.3241   637
22.3341   640
22.3441   652
22.3541   630
22.3641   643
22.3741   607
22.3841   628
22.3941   669
22.4041   641
22.4141   619
22.4241   588
22.4341   640
22.4441   632
22.4541   640
22.4641   659
22.4741   618
22.4841   629
22.4941   657
22.5041   661
22.5141   614
22.5241   649
22.5341   635
22.5441   639
22.5541   608
22.5641   645
22.5741   646
22.5841   675
22.5941   644
22.6041   667
22.6141   619
22.6241   599
22.6341   640
22.6441   583
22.6541   655
22.6641   632
22.6741   645
22.6841   670
22.6941   662
22.7041   639
22.7141   623
22.7241   619
22.7341   656
22.7441   657
22.7541   651
22.7641   636
22.7741   676
22.7841   627
22.7941   659
22.8041   572
22.8141   623
22.8241   685
22.8341   666
22.8441   599
22.8541   616
22.8641   649
22.8741   608
22.8841   699
22.8941   636
22.9041   634
22.9141   663
22.9241   628
22.9341   676
22.9441   610
22.9541   659
22.9641   637
22.9741   599
22.9841   640
22.9941   609
23.0041   622
23.0141   637
23.0241   608
23.0341   648
23.0441   629
23.0541   615
23.0641   671
23.0741   599
23.0841   630
23.0941   607
23.1041   679
23.1141   614
23.1241   620
23.1341   658
23.1441   648
23.1541   603
23.1641   661
23.1741   641
23.1841   624
23.1941   593
23.2041   600
23.2141   619
23.2241   615
23.2341   627
23.2441   612
23.2541   622
23.2641   685
23.2741   638
23.2841   581
23.2941   588
23.3041   642
23.3141   584
23.3241   615
23.3341   645
23.3441   636
23.3541   609
23.3641   635
23.3741   636
23.3841   588
23.3941   619
23.4041   610
23.4141   612
23.4241   615
23.4341   639
23.4441   585
23.4541   619
23.4641   638
23.4741   604
23.4841   600
23.4941   547
23.5041   598
23.5141   607
23.5241   620
23.5341   607
23.5441   637
23.5541   652
23.5641   594
23.5741   614
23.5841   651
23.5941   593
23.6041   614
23.6141   680
23.6241   626
23.6341   616
23.6441   636
23.6541   629
23.6641   646
23.6741   642
23.6841   620
23.6941   640
23.7041   638
23.7141   616
23.7241   641
23.7341   614
23.7441   658
23.7541   628
23.7641   650
23.7741   673
23.7841   662
23.7941   653
23.8041   667
23.8141   675
23.8241   661
23.8341   632
23.8441   665
23.8541   621
23.8641   640
23.8741   639
23.8841   602
23.8941   650
23.9041   644
23.9141   643
23.9241   603
23.9341   620
23.9441   620
23.9541   633
23.9641   643
23.9741   594
23.9841   637
23.9941   606
24.0041   577
24.0141   620
24.0241   619
24.0341   566
24.0441   594
24.0541   591
24.0641   565
24.0741   548
24.0841   586
24.0941   586
24.1041   623
24.1141   592
24.1241   589
24.1341   644
24.1441   571
24.1541   588
24.1641   614
24.1741   600
24.1841   574
24.1941   601
24.2041   606
24.2141   628
24.2241   583
24.2341   626
24.2441   553
24.2541   617
24.2641   593
24.2741   585
24.2841   582
24.2941   609
24.3041   598
24.3141   609
24.3241   584
24.3341   568
24.3441   586
24.3541   633
24.3641   612
24.3741   585
24.3841   571
24.3941   564
24.4041   596
24.4141   625
24.4241   581
24.4341   573
24.4441   578
24.4541   616
24.4641   578
24.4741   565
24.4841   561
24.4941   586
24.5041   580
24.5141   592
24.5241   594
24.5341   557
24.5441   580
24.5541   600
24.5641   570
24.5741   612
24.5841   566
24.5941   553
24.6041   594
24.6141   589
24.6241   590
24.6341   605
24.6441   588
24.6541   542
24.6641   584
24.6741   578
24.6841   591
24.6941   573
24.7041   568
24.7141   601
24.7241   568
24.7341   539
24.7441   538
24.7541   586
24.7641   557
24.7741   534
24.7841   576
24.7941   565
24.8041   544
24.8141   533
24.8241   556
24.8341   569
24.8441   576
24.8541   558
24.8641   571
24.8741   564
24.8841   592
24.8941   570
24.9041   557
24.9141   577
24.9241   559
24.9341   580
24.9441   596
24.9541   528
24.9641   522
24.9741   579
24.9841   569
24.9941   556
25.0041   592
25.0141   590
25.0241   519
25.0341   563
25.0441   609
25.0541   573
25.0641   559
25.0741   546
25.0841   557
25.0941   572
25.1041   565
25.1141   573
25.1241   587
25.1341   575
25.1441   537
25.1541   561
25.1641   588
25.1741   587
25.1841   562
25.1941   555
25.2041   567
25.2141   583
25.2241   550
25.2341   559
25.2441   543
25.2541   572
25.2641   563
25.2741   545
25.2841   576
25.2941   522
25.3041   592
25.3141   581
25.3241   561
25.3341   508
25.3441   565
25.3541   539
25.3641   574
25.3741   520
25.3841   538
25.3941   563
25.4041   543
25.4141   584
25.4241   559
25.4341   562
25.4441   558
25.4541   509
25.4641   519
25.4741   526
25.4841   553
25.4941   523
25.5041   525
25.5141   536
25.5241   538
25.5341   540
25.5441   554
25.5541   563
25.5641   548
25.5741   555
25.5841   554
25.5941   556
25.6041   532
25.6141   495
25.6241   504
25.6341   499
25.6441   538
25.6541   522
25.6641   562
25.6741   529
25.6841   508
25.6941   522
25.7041   523
25.7141   511
25.7241   560
25.7341   515
25.7441   503
25.7541   518
25.7641   495
25.7741   536
25.7841   486
25.7941   533
25.8041   500
25.8141   491
25.8241   510
25.8341   480
25.8441   468
25.8541   495
25.8641   543
25.8741   520
25.8841   505
25.8941   525
25.9041   483
25.9141   509
25.9241   495
25.9341   483
25.9441   481
25.9541   554
25.9641   489
25.9741   522
25.9841   502
25.9941   504
26.0041   489
26.0141   530
26.0241   505
26.0341   529
26.0441   478
26.0541   522
26.0641   536
26.0741   554
26.0841   533
26.0941   496
26.1041   513
26.1141   497
26.1241   521
26.1341   534
26.1441   535
26.1541   514
26.1641   532
26.1741   542
26.1841   539
26.1941   538
26.2041   508
26.2141   546
26.2241   532
26.2341   498
26.2441   486
26.2541   481
26.2641   482
26.2741   509
26.2841   492
26.2941   494
26.3041   488
26.3141   495
26.3241   477
26.3341   501
26.3441   504
26.3541   451
26.3641   501
26.3741   485
26.3841   479
26.3941   487
26.4041   497
26.4141   463
26.4241   450
26.4341   497
26.4441   479
26.4541   475
26.4641   511
26.4741   481
26.4841   531
26.4941   466
26.5041   493
26.5141   479
26.5241   486
26.5341   478
26.5441   487
26.5541   519
26.5641   483
26.5741   457
26.5841   459
26.5941   448
26.6041   439
26.6141   483
26.6241   509
26.6341   494
26.6441   477
26.6541   510
26.6641   460
26.6741   432
26.6841   474
26.6941   461
26.7041   485
26.7141   505
26.7241   469
26.7341   461
26.7441   457
26.7541   446
26.7641   469
26.7741   459
26.7841   441
26.7941   471
26.8041   459
26.8141   469
26.8241   456
26.8341   439
26.8441   468
26.8541   502
26.8641   448
26.8741   469
26.8841   461
26.8941   445
26.9041   464
26.9141   492
26.9241   422
26.9341   475
26.9441   452
26.9541   452
26.9641   456
26.9741   492
26.9841   462
26.9941   464
27.0041   470
27.0141   473
27.0241   440
27.0341   463
27.0441   464
27.0541   467
27.0641   453
27.0741   459
27.0841   461
27.0941   488
27.1041   429
27.1141   480
27.1241   433
27.1341   463
27.1441   468
27.1541   430
27.1641   418
27.1741   443
27.1841   472
27.1941   423
27.2041   453
27.2141   499
27.2241   451
27.2341   432
27.2441   477
27.2541   465
27.2641   471
27.2741   457
27.2841   440
27.2941   452
27.3041   465
27.3141   460
27.3241   470
27.3341   453
27.3441   430
27.3541   414
27.3641   434
27.3741   495
27.3841   459
27.3941   438
27.4041   448
27.4141   428
27.4241   413
27.4341   434
27.4441   432
27.4541   434
27.4641   464
27.4741   479
27.4841   455
27.4941   433
27.5041   446
27.5141   428
27.5241   418
27.5341   449
27.5441   423
27.5541   423
27.5641   407
27.5741   418
27.5841   404
27.5941   428
27.6041   442
27.6141   414
27.6241   415
27.6341   419
27.6441   429
27.6541   438
27.6641   435
27.6741   462
27.6841   407
27.6941   435
27.7041   408
27.7141   444
27.7241   446
27.7341   429
27.7441   453
27.7541   426
27.7641   446
27.7741   427
27.7841   428
27.7941   424
27.8041   413
27.8141   413
27.8241   421
27.8341   414
27.8441   433
27.8541   406
27.8641   408
27.8741   447
27.8841   442
27.8941   406
27.9041   420
27.9141   409
27.9241   392
27.9341   405
27.9441   400
27.9541   391
27.9641   383
27.9741   419
27.9841   401
27.9941   397
28.0041   414
28.0141   382
28.0241   426
28.0341   387
28.0441   395
28.0541   384
28.0641   416
28.0741   460
28.0841   421
28.0941   396
28.1041   398
28.1141   406
28.1241   376
28.1341   424
28.1441   403
28.1541   412
28.1641   395
28.1741   423
28.1841   427
28.1941   438
28.2041   412
28.2141   409
28.2241   419
28.2341   427
28.2441   382
28.2541   392
28.2641   414
28.2741   420
28.2841   406
28.2941   381
28.3041   393
28.3141   396
28.3241   362
28.3341   379
28.3441   404
28.3541   375
28.3641   404
28.3741   415
28.3841   419
28.3941   403
28.4041   364
28.4141   383
28.4241   394
28.4341   410
28.4441   385
28.4541   403
28.4641   410
28.4741   412
28.4841   400
28.4941   397
28.5041   392
28.5141   393
28.5241   412
28.5341   360
28.5441   382
28.5541   405
28.5641   390
28.5741   368
28.5841   399
28.5941   396
28.6041   380
28.6141   378
28.6241   373
28.6341   384
28.6441   390
28.6541   413
28.6641   386
28.6741   367
28.6841   387
28.6941   390
28.7041   369
28.7141   377
28.7241   395
28.7341   400
28.7441   380
28.7541   355
28.7641   353
28.7741   338
28.7841   365
28.7941   401
28.8041   376
28.8141   367
28.8241   351
28.8341   362
28.8441   404
28.8541   390
28.8641   354
28.8741   353
28.8841   368
28.8941   359
28.9041   351
28.9141   375
28.9241   360
28.9341   368
28.9441   390
28.9541   354
28.9641   365
28.9741   360
28.9841   393
28.9941   392
29.0041   381
29.0141   331
29.0241   353
29.0341   348
29.0441   338
29.0541   366
29.0641   385
29.0741   359
29.0841   366
29.0941   364
29.1041   351
29.1141   365
29.1241   359
29.1341   380
29.1441   337
29.1541   348
29.1641   368
29.1741   348
29.1841   350
29.1941   335
29.2041   384
29.2141   358
29.2241   332
29.2341   349
29.2441   373
29.2541   379
29.2641   380
29.2741   352
29.2841   345
29.2941   362
29.3041   324
29.3141   346
29.3241   363
29.3341   368
29.3441   331
29.3541   345
29.3641   374
29.3741   373
29.3841   345
29.3941   342
29.4041   372
29.4141   336
29.4241   355
29.4341   346
29.4441   334
29.4541   321
29.4641   343
29.4741   361
29.4841   338
29.4941   344
29.5041   338
29.5141   332
29.5241   365
29.5341   347
29.5441   321
29.5541   366
29.5641   330
29.5741   349
29.5841   309
29.5941   330
29.6041   333
29.6141   351
29.6241   331
29.6341   344
29.6441   300
29.6541   346
29.6641   332
29.6741   332
29.6841   325
29.6941   316
29.7041   303
29.7141   306
29.7241   312
29.7341   310
29.7441   326
29.7541   331
29.7641   310
29.7741   355
29.7841   345
29.7941   342
29.8041   315
29.8141   364
29.8241   351
29.8341   347
29.8441   304
29.8541   325
29.8641   332
29.8741   301
29.8841   290
29.8941   292
29.9041   323
29.9141   316
29.9241   306
29.9341   306
29.9441   313
29.9541   320
29.9641   302
29.9741   306
29.9841   335
29.9941   319
30.0041   307
30.0141   321
30.0241   311
30.0341   280
30.0441   293
30.0541   319
30.0641   305
30.0741   297
30.0841   341
30.0941   318
30.1041   320
30.1141   309
30.1241   313
30.1341   294
30.1441   318
30.1541   308
30.1641   278
30.1741   314
30.1841   327
30.1941   296
30.2041   316
30.2141   298
30.2241   292
30.2341   309
30.2441   290
30.2541   290
30.2641   299
30.2741   299
30.2841   331
30.2941   306
30.3041   300
30.3141   293
30.3241   320
30.3341   315
30.3441   303
30.3541   295
30.3641   295
30.3741   289
30.3841   328
30.3941   274
30.4041   275
30.4141   288
30.4241   276
30.4341   306
30.4441   300
30.4541   278
30.4641   283
30.4741   289
30.4841   259
30.4941   294
30.5041   324
30.5141   309
30.5241   282
30.5341   299
30.5441   313
30.5541   320
30.5641   302
30.5741   261
30.5841   300
30.5941   289
30.6041   275
30.6141   290
30.6241   290
30.6341   292
30.6441   298
30.6541   298
30.6641   293
30.6741   309
30.6841   292
30.6941   278
30.7041   291
30.7141   293
30.7241   281
30.7341   309
30.7441   277
30.7541   274
30.7641   283
30.7741   290
30.7841   239
30.7941   278
30.8041   283
30.8141   293
30.8241   284
30.8341   287
30.8441   289
30.8541   309
30.8641   282
30.8741   300
30.8841   286
30.8941   308
30.9041   276
30.9141   262
30.9241   246
30.9341   278
30.9441   283
30.9541   268
30.9641   272
30.9741   280
30.9841   277
30.9941   281
31.0041   285
31.0141   262
31.0241   254
31.0341   264
31.0441   273
31.0541   263
31.0641   256
31.0741   258
31.0841   261
31.0941   262
31.1041   289
31.1141   276
31.1241   266
31.1341   266
31.1441   279
31.1541   285
31.1641   246
31.1741   266
31.1841   274
31.1941   254
31.2041   284
31.2141   256
31.2241   239
31.2341   268
31.2441   252
31.2541   254
31.2641   252
31.2741   237
31.2841   233
31.2941   262
31.3041   266
31.3141   251
31.3241   258
31.3341   299
31.3441   274
31.3541   239
31.3641   254
31.3741   236
31.3841   276
31.3941   236
31.4041   252
31.4141   273
31.4241   234
31.4341   228
31.4441   227
31.4541   273
31.4641   248
31.4741   259
31.4841   255
31.4941   249
31.5041   240
31.5141   246
31.5241   258
31.5341   264
31.5441   233
31.5541   232
31.5641   266
31.5741   255
31.5841   259
31.5941   265
31.6041   307
31.6141   279
31.6241   270
31.6341   241
31.6441   252
31.6541   272
31.6641   259
31.6741   269
31.6841   275
31.6941   247
31.7041   253
31.7141   278
31.7241   266
31.7341   253
31.7441   267
31.7541   284
31.7641   250
31.7741   267
31.7841   262
31.7941   224
31.8041   262
31.8141   249
31.8241   276
31.8341   262
31.8441   284
31.8541   280
31.8641   284
31.8741   255
31.8841   281
31.8941   268
31.9041   262
31.9141   255
31.9241   252
31.9341   259
31.9441   249
31.9541   237
31.9641   269
31.9741   269
31.9841   266
31.9941   244
32.0041   250
32.0141   253
32.0241   241
32.0341   250
32.0441   253
32.0541   250
32.0641   256
32.0741   287
32.0841   256
32.0941   272
32.1041   259
32.1141   279
32.1241   288
32.1341   272
32.1441   265
32.1541   267
32.1641   274
32.1741   271
32.1841   293
32.1941   260
32.2041   283
32.2141   292
32.2241   285
32.2341   271
32.2441   251
32.2541   240
32.2641   264
32.2741   267
32.2841   288
32.2941   278
32.3041   242
32.3141   265
32.3241   229
32.3341   242
32.3441   249
32.3541   219
32.3641   237
32.3741   270
32.3841   255
32.3941   228
32.4041   237
32.4141   193
32.4241   226
32.4341   231
32.4441   219
32.4541   237
32.4641   232
32.4741   251
32.4841   249
32.4941   227
32.5041   220
32.5141   203
32.5241   209
32.5341   216
32.5441   200
32.5541   215
32.5641   225
32.5741   203
32.5841   205
32.5941   213
32.6041   203
32.6141   217
32.6241   212
32.6341   206
32.6441   198
32.6541   211
32.6641   230
32.6741   191
32.6841   204
32.6941   219
32.7041   194
32.7141   200
32.7241   229
32.7341   209
32.7441   221
32.7541   205
32.7641   196
32.7741   205
32.7841   201
32.7941   179
32.8041   217
32.8141   199
32.8241   200
32.8341   201
32.8441   211
32.8541   203
32.8641   200
32.8741   183
32.8841   194
32.8941   221
32.9041   228
32.9141   220
32.9241   217
32.9341   192
32.9441   184
32.9541   205
32.9641   168
32.9741   203
32.9841   189
32.9941   163
33.0041   178
33.0141   177
33.0241   172
33.0341   206
33.0441   191
33.0541   191
33.0641   189
33.0741   204
33.0841   205
33.0941   209
33.1041   174
33.1141   183
33.1241   185
33.1341   181
33.1441   183
33.1541   208
33.1641   195
33.1741   208
33.1841   188
33.1941   184
33.2041   193
33.2141   194
33.2241   179
33.2341   183
33.2441   177
33.2541   211
33.2641   198
33.2741   173
33.2841   166
33.2941   172
33.3041   170
33.3141   180
33.3241   190
33.3341   179
33.3441   195
33.3541   170
33.3641   177
33.3741   190
33.3841   184
33.3941   167
33.4041   166
33.4141   184
33.4241   170
33.4341   189
33.4441   164
33.4541   185
33.4641   203
33.4741   153
33.4841   165
33.4941   177
33.5041   187
33.5141   201
33.5241   185
33.5341   187
33.5441   181
33.5541   187
33.5641   166
33.5741   164
33.5841   174
33.5941   166
33.6041   174
33.6141   195
33.6241   183
33.6341   172
33.6441   187
33.6541   175
33.6641   165
33.6741   173
33.6841   165
33.6941   184
33.7041   147
33.7141   187
33.7241   171
33.7341   201
33.7441   151
33.7541   170
33.7641   164
33.7741   161
33.7841   161
33.7941   179
33.8041   186
33.8141   161
33.8241   154
33.8341   160
33.8441   170
33.8541   169
33.8641   177
33.8741   159
33.8841   149
33.8941   157
33.9041   153
33.9141   174
33.9241   179
33.9341   151
33.9441   173
33.9541   162
33.9641   157
33.9741   153
33.9841   143
33.9941   162
34.0041   167
34.0141   159
34.0241   176
34.0341   175
34.0441   132
34.0541   162
34.0641   161
34.0741   168
34.0841   163
34.0941   157
34.1041   159
34.1141   168
34.1241   142
34.1341   156
34.1441   186
34.1541   153
34.1641   129
34.1741   174
34.1841   167
34.1941   156
34.2041   160
34.2141   142
34.2241   124
34.2341   162
34.2441   147
34.2541   156
34.2641   157
34.2741   168
34.2841   164
34.2941   156
34.3041   151
34.3141   161
34.3241   162
34.3341   165
34.3441   146
34.3541   144
34.3641   160
34.3741   153
34.3841   141
34.3941   131
34.4041   166
34.4141   142
34.4241   135
34.4341   138
34.4441   164
34.4541   145
34.4641   135
34.4741   145
34.4841   142
34.4941   148
34.5041   141
34.5141   142
34.5241   145
34.5341   139
34.5441   142
34.5541   154
34.5641   127
34.5741   140
34.5841   135
34.5941   145
34.6041   153
34.6141   144
34.6241   160
34.6341   125
34.6441   140
34.6541   125
34.6641   136
34.6741   130
34.6841   141
34.6941   163
34.7041   147
34.7141   151
34.7241   142
34.7341   139
34.7441   139
34.7541   158
34.7641   156
34.7741   138
34.7841   158
34.7941   124
34.8041   158
34.8141   131
34.8241   123
34.8341   142
34.8441   137
34.8541   130
34.8641   138
34.8741   142
34.8841   143
34.8941   136
34.9041   134
34.9141   136
34.9241   148
34.9341   143
34.9441   139
34.9541   150
34.9641   130
34.9741   132
34.9841   138
34.9941   132
35.0041   147
35.0141   120
35.0241   130
35.0341   153
35.0441   127
35.0541   151
35.0641   130
35.0741   120
35.0841   115
35.0941   123
35.1041   131
35.1141   132
35.1241   135
35.1341   112
35.1441   138
35.1541   138
35.1641   147
35.1741   137
35.1841   132
35.1941   132
35.2041   134
35.2141   115
35.2241   136
35.2341   134
35.2441   140
35.2541   132
35.2641   127
35.2741   123
35.2841   136
35.2941   109
35.3041   120
35.3141   134
35.3241   122
35.3341   112
35.3441   126
35.3541   115
35.3641   113
35.3741   133
35.3841   121
35.3941   106
35.4041   123
35.4141   112
35.4241   124
35.4341   111
35.4441   127
35.4541   136
35.4641   120
35.4741   130
35.4841   113
35.4941   134
35.5041   132
35.5141   139
35.5241   146
35.5341   113
35.5441   100
35.5541   122
35.5641   122
35.5741   113
35.5841   103
35.5941   120
35.6041   116
35.6141   107
35.6241   115
35.6341   108
35.6441    99
35.6541   122
35.6641   108
35.6741   115
35.6841   110
35.6941   116
35.7041   112
35.7141    97
35.7241   108
35.7341   108
35.7441   134
35.7541   100
35.7641   110
35.7741   122
35.7841   133
35.7941   115
35.8041   107
35.8141   116
35.8241   111
35.8341   119
35.8441   116
35.8541   114
35.8641   105
35.8741   106
35.8841   113
35.8941   127
35.9041   122
35.9141    96
35.9241    96
35.9341   106
35.9441    94
35.9541   107
35.9641   114
35.9741   102
35.9841   105
35.9941   116
36.0041   104
36.0141   110
36.0241    98
36.0341   103
36.0441   107
36.0541   109
36.0641   120
36.0741   102
36.0841   106
36.0941   113
36.1041    95
36.1141   111
36.1241   110
36.1341   126
36.1441   105
36.1541    99
36.1641    96
36.1741   105
36.1841   102
36.1941   127
36.2041   115
36.2141   118
36.2241   100
36.2341   103
36.2441   118
36.2541   102
36.2641   122
36.2741   103
36.2841   123
36.2941   124
36.3041   103
36.3141   120
36.3241   115
36.3341   103
36.3441   118
36.3541   124
36.3641   111
36.3741   102
36.3841   101
36.3941   109
36.4041   108
36.4141   116
36.4241   107
36.4341   104
36.4441    90
36.4541    91
36.4641   109
36.4741   112
36.4841    93
36.4941   117
36.5041    89
36.5141   103
36.5241   110
36.5341   107
36.5441    97
36.5541   101
36.5641    96
36.5741    90
36.5841   106
36.5941   113
36.6041   105
36.6141    97
36.6241    90
36.6341    84
36.6441   100
36.6541    99
36.6641   101
36.6741   104
36.6841    99
36.6941    96
36.7041    76
36.7141    94
36.7241    96
36.7341    96
36.7441    74
36.7541    80
36.7641    83
36.7741    64
36.7841    81
36.7941    76
36.8041    79
36.8141    95
36.8241    81
36.8341    87
36.8441    84
36.8541    83
36.8641    75
36.8741    88
36.8841    69
36.8941    80
36.9041    83
36.9141    82
36.9241    98
36.9341   100
36.9441    91
36.9541    84
36.9641    75
36.9741    76
36.9841    85
36.9941    73
37.0041    91
37.0141    98
37.0241    89
37.0341    88
37.0441    87
37.0541    92
37.0641    96
37.0741    96
37.0841    59
37.0941   100
37.1041    76
37.1141    79
37.1241    89
37.1341    89
37.1441    67
37.1541    89
37.1641    78
37.1741    84
37.1841    94
37.1941    83
37.2041    99
37.2141    77
37.2241    92
37.2341    93
37.2441    82
37.2541    92
37.2641    81
37.2741    72
37.2841    77
37.2941    81
37.3041    91
37.3141    90
37.3241    91
37.3341    84
37.3441    72
37.3541    76
37.3641    92
37.3741    86
37.3841    84
37.3941    76
37.4041    73
37.4141    79
37.4241    89
37.4341    86
37.4441    81
37.4541    79
37.4641    72
37.4741    78
37.4841    72
37.4941    75
37.5041    82
37.5141    78
37.5241    69
37.5341    71
37.5441    77
37.5541    75
37.5641    76
37.5741    84
37.5841    74
37.5941    73
37.6041   101
37.6141    83
37.6241    61
37.6341    83
37.6441    81
37.6541    89
37.6641    59
37.6741    74
37.6841    72
37.6941    72
37.7041    68
37.7141    68
37.7241    85
37.7341    79
37.7441    77
37.7541    74
37.7641    75
37.7741    70
37.7841    64
37.7941    73
37.8041    68
37.8141    79
37.8241    65
37.8341    54
37.8441    68
37.8541    62
37.8641    63
37.8741    74
37.8841    81
37.8941    77
37.9041    65
37.9141    65
37.9241    69
37.9341    61
37.9441    62
37.9541    55
37.9641    80
37.9741    60
37.9841    64
37.9941    72
38.0041    90
38.0141    61
38.0241    65
38.0341    64
38.0441    48
38.0541    66
38.0641    74
38.0741    66
38.0841    64
38.0941    56
38.1041    49
38.1141    54
38.1241    42
38.1341    78
38.1441    70
38.1541    63
38.1641    58
38.1741    72
38.1841    62
38.1941    66
38.2041    53
38.2141    62
38.2241    59
38.2341    61
38.2441    57
38.2541    63
38.2641    60
38.2741    66
38.2841    63
38.2941    57
38.3041    67
38.3141    52
38.3241    60
38.3341    59
38.3441    66
38.3541    71
38.3641    53
38.3741    53
38.3841    47
38.3941    54
38.4041    62
38.4141    56
38.4241    54
38.4341    59
38.4441    63
38.4541    65
38.4641    66
38.4741    65
38.4841    62
38.4941    61
38.5041    54
38.5141    62
38.5241    47
38.5341    51
38.5441    43
38.5541    55
38.5641    60
38.5741    58
38.5841    53
38.5941    66
38.6041    48
38.6141    50
38.6241    53
38.6341    59
38.6441    51
38.6541    67
38.6641    64
38.6741    65
38.6841    40
38.6941    61
38.7041    55
38.7141    51
38.7241    39
38.7341    63
38.7441    47
38.7541    59
38.7641    59
38.7741    54
38.7841    52
38.7941    39
38.8041    47
38.8141    50
38.8241    49
38.8341    36
38.8441    47
38.8541    46
38.8641    50
38.8741    44
38.8841    43
38.8941    54
38.9041    52
38.9141    46
38.9241    49
38.9341    47
38.9441    52
38.9541    56
38.9641    41
38.9741    52
38.9841    46
38.9941    53
39.0041    56
39.0141    48
39.0241    43
39.0341    51
39.0441    61
39.0541    38
39.0641    57
39.0741    43
39.0841    51
39.0941    53
39.1041    49
39.1141    46
39.1241    54
39.1341    43
39.1441    43
39.1541    46
39.1641    49
39.1741    41
39.1841    57
39.1941    51
39.2041    46
39.2141    48
39.2241    48
39.2341    52
39.2441    45
39.2541    54
39.2641    41
39.2741    44
39.2841    42
39.2941    48
39.3041    45
39.3141    50
39.3241    41
39.3341    49
39.3441    53
39.3541    30
39.3641    34
39.3741    54
39.3841    40
39.3941    46
39.4041    44
39.4141    55
39.4241    46
39.4341    48
39.4441    40
39.4541    46
39.4641    46
39.4741    41
39.4841    30
39.4941    48
39.5041    36
39.5141    33
39.5241    34
39.5341    34
39.5441    36
39.5541    41
39.5641    44
39.5741    45
39.5841    34
39.5941    41
39.6041    49
39.6141    32
39.6241    36
39.6341    34
39.6441    36
39.6541    29
39.6641    43
39.6741    51
39.6841    33
39.6941    35
39.7041    31
39.7141    30
39.7241    44
39.7341    46
39.7441    48
39.7541    34
39.7641    42
39.7741    39
39.7841    36
39.7941    27
39.8041    31
39.8141    23
39.8241    29
39.8341    35
39.8441    40
39.8541    33
39.8641    37
39.8741    37
39.8841    39
39.8941    34
39.9041    29
39.9141    28
39.9241    42
39.9341    29
39.9441    33
39.9541    40
39.9641    41
39.9741    44
39.9841    25
