Bruker Nano GmbH Berlin, Germany
Esprit 1.9

Date: 5/14/2021 1:31:27 PM
Real time: 20591
Life time: 19314
Pulse density: 88338


Detector type: XFlash 430
Window type: Custom type
Detector thickness: 0.45
Si dead layer:0.029

Calibration, lin.: 10
Calibration, abs.: -955.9
Mn FWHM: 137.05
Fano factor: 0.121
Channels: 4096

Energy Counts
-0.9559     0
-0.9459     0
-0.9359     0
-0.9259     0
-0.9159     0
-0.9059     0
-0.8959     0
-0.8859     0
-0.8759     0
-0.8659     0
-0.8559     0
-0.8459     0
-0.8359     0
-0.8259     0
-0.8159     0
-0.8059     0
-0.7959     0
-0.7859     0
-0.7759     0
-0.7659     0
-0.7559     0
-0.7459     0
-0.7359     0
-0.7259     0
-0.7159     0
-0.7059     0
-0.6959     0
-0.6859     0
-0.6759     0
-0.6659     0
-0.6559     0
-0.6459     0
-0.6359     0
-0.6259     0
-0.6159     0
-0.6059     0
-0.5959     0
-0.5859     0
-0.5759     0
-0.5659     0
-0.5559     0
-0.5459     0
-0.5359     0
-0.5259     0
-0.5159     0
-0.5059     0
-0.4959     0
-0.4859     0
-0.4759     0
-0.4659     0
-0.4559     0
-0.4459     0
-0.4359     0
-0.4259     0
-0.4159     0
-0.4059     0
-0.3959     0
-0.3859     0
-0.3759     0
-0.3659     0
-0.3559     0
-0.3459     0
-0.3359     0
-0.3259     0
-0.3159     0
-0.3059     0
-0.2959     0
-0.2859     0
-0.2759     0
-0.2659     0
-0.2559     0
-0.2459     0
-0.2359     0
-0.2259     0
-0.2159     0
-0.2059     0
-0.1959     0
-0.1859     0
-0.1759     0
-0.1659     0
-0.1559     0
-0.1459     0
-0.1359     0
-0.1259     0
-0.1159     0
-0.1059     9
-0.0959    55
-0.0859   237
-0.0759   710
-0.0659  2199
-0.0559  5731
-0.0459 12488
-0.0359 22902
-0.0259 37074
-0.0159 50308
-0.0059 58900
 0.0041 59214
 0.0141 51565
 0.0241 37940
 0.0341 23865
 0.0441 12898
 0.0541  6029
 0.0641  2382
 0.0741   860
 0.0841   262
 0.0941    82
 0.1041    21
 0.1141    18
 0.1241     7
 0.1341     6
 0.1441     5
 0.1541     5
 0.1641    10
 0.1741    25
 0.1841   183
 0.1941   366
 0.2041   333
 0.2141   327
 0.2241   326
 0.2341   354
 0.2441   353
 0.2541   338
 0.2641   341
 0.2741   345
 0.2841   318
 0.2941   311
 0.3041   302
 0.3141   318
 0.3241   327
 0.3341   335
 0.3441   321
 0.3541   331
 0.3641   308
 0.3741   307
 0.3841   307
 0.3941   305
 0.4041   324
 0.4141   322
 0.4241   319
 0.4341   302
 0.4441   285
 0.4541   315
 0.4641   297
 0.4741   295
 0.4841   282
 0.4941   284
 0.5041   291
 0.5141   281
 0.5241   293
 0.5341   290
 0.5441   296
 0.5541   299
 0.5641   299
 0.5741   297
 0.5841   275
 0.5941   268
 0.6041   275
 0.6141   278
 0.6241   279
 0.6341   265
 0.6441   281
 0.6541   287
 0.6641   263
 0.6741   259
 0.6841   287
 0.6941   287
 0.7041   261
 0.7141   247
 0.7241   255
 0.7341   257
 0.7441   252
 0.7541   245
 0.7641   235
 0.7741   247
 0.7841   245
 0.7941   227
 0.8041   246
 0.8141   248
 0.8241   239
 0.8341   246
 0.8441   251
 0.8541   236
 0.8641   223
 0.8741   231
 0.8841   228
 0.8941   232
 0.9041   224
 0.9141   212
 0.9241   244
 0.9341   241
 0.9441   244
 0.9541   260
 0.9641   254
 0.9741   238
 0.9841   230
 0.9941   231
 1.0041   215
 1.0141   224
 1.0241   219
 1.0341   220
 1.0441   222
 1.0541   230
 1.0641   218
 1.0741   189
 1.0841   206
 1.0941   227
 1.1041   209
 1.1141   230
 1.1241   225
 1.1341   198
 1.1441   225
 1.1541   205
 1.1641   210
 1.1741   199
 1.1841   206
 1.1941   215
 1.2041   201
 1.2141   190
 1.2241   204
 1.2341   181
 1.2441   186
 1.2541   204
 1.2641   215
 1.2741   200
 1.2841   214
 1.2941   201
 1.3041   217
 1.3141   203
 1.3241   221
 1.3341   228
 1.3441   209
 1.3541   205
 1.3641   207
 1.3741   200
 1.3841   210
 1.3941   213
 1.4041   181
 1.4141   200
 1.4241   217
 1.4341   207
 1.4441   189
 1.4541   185
 1.4641   220
 1.4741   196
 1.4841   214
 1.4941   216
 1.5041   209
 1.5141   191
 1.5241   201
 1.5341   194
 1.5441   172
 1.5541   169
 1.5641   185
 1.5741   188
 1.5841   186
 1.5941   185
 1.6041   194
 1.6141   208
 1.6241   173
 1.6341   209
 1.6441   214
 1.6541   218
 1.6641   288
 1.6741   308
 1.6841   381
 1.6941   469
 1.7041   553
 1.7141   614
 1.7241   720
 1.7341   725
 1.7441   708
 1.7541   671
 1.7641   593
 1.7741   530
 1.7841   460
 1.7941   391
 1.8041   320
 1.8141   305
 1.8241   256
 1.8341   254
 1.8441   230
 1.8541   229
 1.8641   204
 1.8741   200
 1.8841   194
 1.8941   199
 1.9041   185
 1.9141   198
 1.9241   193
 1.9341   208
 1.9441   197
 1.9541   219
 1.9641   206
 1.9741   217
 1.9841   217
 1.9941   220
 2.0041   220
 2.0141   236
 2.0241   215
 2.0341   236
 2.0441   204
 2.0541   212
 2.0641   209
 2.0741   206
 2.0841   180
 2.0941   192
 2.1041   186
 2.1141   216
 2.1241   233
 2.1341   208
 2.1441   207
 2.1541   185
 2.1641   178
 2.1741   181
 2.1841   194
 2.1941   193
 2.2041   184
 2.2141   169
 2.2241   147
 2.2341   173
 2.2441   180
 2.2541   166
 2.2641   155
 2.2741   188
 2.2841   168
 2.2941   158
 2.3041   150
 2.3141   158
 2.3241   163
 2.3341   159
 2.3441   164
 2.3541   166
 2.3641   177
 2.3741   147
 2.3841   166
 2.3941   162
 2.4041   135
 2.4141   145
 2.4241   164
 2.4341   150
 2.4441   142
 2.4541   176
 2.4641   165
 2.4741   141
 2.4841   153
 2.4941   167
 2.5041   154
 2.5141   155
 2.5241   160
 2.5341   157
 2.5441   159
 2.5541   144
 2.5641   149
 2.5741   146
 2.5841   137
 2.5941   142
 2.6041   166
 2.6141   158
 2.6241   146
 2.6341   155
 2.6441   174
 2.6541   156
 2.6641   149
 2.6741   136
 2.6841   143
 2.6941   120
 2.7041   148
 2.7141   143
 2.7241   143
 2.7341   137
 2.7441   147
 2.7541   136
 2.7641   146
 2.7741   138
 2.7841   152
 2.7941   147
 2.8041   130
 2.8141   145
 2.8241   153
 2.8341   160
 2.8441   148
 2.8541   152
 2.8641   159
 2.8741   138
 2.8841   163
 2.8941   150
 2.9041   142
 2.9141   125
 2.9241   129
 2.9341   144
 2.9441   127
 2.9541   130
 2.9641   121
 2.9741   127
 2.9841   146
 2.9941   125
 3.0041   143
 3.0141   133
 3.0241   126
 3.0341   161
 3.0441   118
 3.0541   142
 3.0641   137
 3.0741   113
 3.0841   141
 3.0941   116
 3.1041   141
 3.1141   128
 3.1241   141
 3.1341   125
 3.1441   119
 3.1541   129
 3.1641   122
 3.1741   121
 3.1841   134
 3.1941   135
 3.2041   127
 3.2141   129
 3.2241   175
 3.2341   185
 3.2441   206
 3.2541   247
 3.2641   264
 3.2741   291
 3.2841   358
 3.2941   361
 3.3041   389
 3.3141   387
 3.3241   372
 3.3341   390
 3.3441   331
 3.3541   323
 3.3641   269
 3.3741   231
 3.3841   197
 3.3941   168
 3.4041   144
 3.4141   137
 3.4241   132
 3.4341   130
 3.4441   108
 3.4541   126
 3.4641   118
 3.4741   126
 3.4841   129
 3.4941   116
 3.5041   115
 3.5141   118
 3.5241   137
 3.5341   155
 3.5441   178
 3.5541   171
 3.5641   191
 3.5741   222
 3.5841   271
 3.5941   342
 3.6041   433
 3.6141   555
 3.6241   669
 3.6341   758
 3.6441   886
 3.6541  1078
 3.6641  1222
 3.6741  1290
 3.6841  1370
 3.6941  1382
 3.7041  1270
 3.7141  1167
 3.7241  1007
 3.7341   841
 3.7441   776
 3.7541   587
 3.7641   465
 3.7741   377
 3.7841   286
 3.7941   200
 3.8041   163
 3.8141   127
 3.8241   131
 3.8341   122
 3.8441   106
 3.8541   104
 3.8641    89
 3.8741    97
 3.8841   120
 3.8941    93
 3.9041   120
 3.9141   112
 3.9241   155
 3.9341   168
 3.9441   144
 3.9541   186
 3.9641   204
 3.9741   240
 3.9841   214
 3.9941   249
 4.0041   273
 4.0141   304
 4.0241   262
 4.0341   250
 4.0441   233
 4.0541   233
 4.0641   196
 4.0741   166
 4.0841   161
 4.0941   140
 4.1041   131
 4.1141   103
 4.1241    82
 4.1341    96
 4.1441   102
 4.1541    93
 4.1641    87
 4.1741    85
 4.1841    77
 4.1941    81
 4.2041    70
 4.2141    70
 4.2241    69
 4.2341    73
 4.2441    68
 4.2541    61
 4.2641    96
 4.2741    87
 4.2841    83
 4.2941    88
 4.3041    91
 4.3141    85
 4.3241    88
 4.3341    84
 4.3441    94
 4.3541    94
 4.3641    90
 4.3741   107
 4.3841   118
 4.3941   136
 4.4041   155
 4.4141   145
 4.4241   211
 4.4341   200
 4.4441   256
 4.4541   282
 4.4641   326
 4.4741   348
 4.4841   361
 4.4941   379
 4.5041   378
 4.5141   395
 4.5241   371
 4.5341   328
 4.5441   317
 4.5541   262
 4.5641   223
 4.5741   198
 4.5841   188
 4.5941   156
 4.6041   137
 4.6141   109
 4.6241   111
 4.6341   112
 4.6441   116
 4.6541   123
 4.6641   104
 4.6741    91
 4.6841    85
 4.6941    94
 4.7041    94
 4.7141    95
 4.7241   104
 4.7341   106
 4.7441    95
 4.7541    91
 4.7641    88
 4.7741   110
 4.7841   116
 4.7941   128
 4.8041   149
 4.8141   141
 4.8241   140
 4.8341   157
 4.8441   156
 4.8541   159
 4.8641   160
 4.8741   150
 4.8841   179
 4.8941   158
 4.9041   147
 4.9141   162
 4.9241   150
 4.9341   163
 4.9441   151
 4.9541   151
 4.9641   144
 4.9741   134
 4.9841   121
 4.9941   134
 5.0041   112
 5.0141   108
 5.0241   108
 5.0341   134
 5.0441   110
 5.0541   108
 5.0641    96
 5.0741    93
 5.0841    84
 5.0941   110
 5.1041    97
 5.1141   109
 5.1241   105
 5.1341   105
 5.1441   119
 5.1541   104
 5.1641   117
 5.1741   109
 5.1841   122
 5.1941   105
 5.2041    89
 5.2141   109
 5.2241    94
 5.2341   102
 5.2441   100
 5.2541    94
 5.2641   113
 5.2741   108
 5.2841   110
 5.2941   108
 5.3041   112
 5.3141    91
 5.3241   120
 5.3341   109
 5.3441   125
 5.3541    99
 5.3641   111
 5.3741   102
 5.3841   131
 5.3941   132
 5.4041   118
 5.4141   119
 5.4241   121
 5.4341   111
 5.4441   123
 5.4541   126
 5.4641   120
 5.4741   114
 5.4841   101
 5.4941   125
 5.5041   111
 5.5141   115
 5.5241   106
 5.5341   124
 5.5441   100
 5.5541   108
 5.5641   103
 5.5741    87
 5.5841   108
 5.5941    93
 5.6041    97
 5.6141    93
 5.6241    97
 5.6341   108
 5.6441   110
 5.6541    90
 5.6641   113
 5.6741   109
 5.6841    90
 5.6941    94
 5.7041    85
 5.7141   111
 5.7241   103
 5.7341   128
 5.7441   111
 5.7541   126
 5.7641   125
 5.7741   117
 5.7841   135
 5.7941   152
 5.8041   164
 5.8141   163
 5.8241   198
 5.8341   194
 5.8441   228
 5.8541   237
 5.8641   258
 5.8741   270
 5.8841   270
 5.8941   263
 5.9041   279
 5.9141   264
 5.9241   236
 5.9341   230
 5.9441   213
 5.9541   216
 5.9641   184
 5.9741   162
 5.9841   160
 5.9941   148
 6.0041   139
 6.0141   101
 6.0241   102
 6.0341   118
 6.0441   131
 6.0541   101
 6.0641   105
 6.0741   124
 6.0841   111
 6.0941   132
 6.1041   112
 6.1141   120
 6.1241   135
 6.1341   141
 6.1441   134
 6.1541   121
 6.1641   151
 6.1741   155
 6.1841   171
 6.1941   203
 6.2041   208
 6.2141   269
 6.2241   302
 6.2341   441
 6.2441   639
 6.2541   764
 6.2641  1143
 6.2741  1524
 6.2841  2046
 6.2941  2680
 6.3041  3364
 6.3141  4201
 6.3241  5314
 6.3341  6345
 6.3441  7459
 6.3541  8515
 6.3641  9358
 6.3741 10162
 6.3841 10801
 6.3941 11001
 6.4041 10742
 6.4141 10733
 6.4241 10239
 6.4341  9270
 6.4441  8300
 6.4541  6980
 6.4641  6021
 6.4741  5096
 6.4841  4058
 6.4941  3153
 6.5041  2449
 6.5141  1860
 6.5241  1388
 6.5341   968
 6.5441   680
 6.5541   546
 6.5641   370
 6.5741   290
 6.5841   261
 6.5941   202
 6.6041   166
 6.6141   136
 6.6241   158
 6.6341   136
 6.6441   121
 6.6541   138
 6.6641   161
 6.6741   150
 6.6841   143
 6.6941   169
 6.7041   150
 6.7141   139
 6.7241   156
 6.7341   150
 6.7441   156
 6.7541   150
 6.7641   152
 6.7741   167
 6.7841   124
 6.7941   159
 6.8041   141
 6.8141   164
 6.8241   174
 6.8341   148
 6.8441   186
 6.8541   199
 6.8641   193
 6.8741   208
 6.8841   217
 6.8941   258
 6.9041   312
 6.9141   333
 6.9241   414
 6.9341   513
 6.9441   582
 6.9541   700
 6.9641   825
 6.9741   953
 6.9841  1090
 6.9941  1268
 7.0041  1353
 7.0141  1623
 7.0241  1731
 7.0341  1814
 7.0441  1803
 7.0541  1841
 7.0641  1932
 7.0741  1801
 7.0841  1775
 7.0941  1592
 7.1041  1416
 7.1141  1298
 7.1241  1098
 7.1341   943
 7.1441   781
 7.1541   682
 7.1641   565
 7.1741   454
 7.1841   343
 7.1941   332
 7.2041   275
 7.2141   226
 7.2241   238
 7.2341   213
 7.2441   211
 7.2541   195
 7.2641   206
 7.2741   201
 7.2841   213
 7.2941   201
 7.3041   211
 7.3141   224
 7.3241   232
 7.3341   240
 7.3441   245
 7.3541   217
 7.3641   251
 7.3741   249
 7.3841   266
 7.3941   264
 7.4041   268
 7.4141   274
 7.4241   286
 7.4341   261
 7.4441   231
 7.4541   263
 7.4641   246
 7.4741   255
 7.4841   229
 7.4941   248
 7.5041   237
 7.5141   239
 7.5241   209
 7.5341   196
 7.5441   201
 7.5541   223
 7.5641   214
 7.5741   183
 7.5841   200
 7.5941   187
 7.6041   170
 7.6141   188
 7.6241   210
 7.6341   184
 7.6441   189
 7.6541   178
 7.6641   179
 7.6741   213
 7.6841   221
 7.6941   199
 7.7041   220
 7.7141   212
 7.7241   188
 7.7341   214
 7.7441   199
 7.7541   212
 7.7641   214
 7.7741   259
 7.7841   244
 7.7941   238
 7.8041   249
 7.8141   265
 7.8241   272
 7.8341   248
 7.8441   265
 7.8541   273
 7.8641   289
 7.8741   285
 7.8841   319
 7.8941   309
 7.9041   310
 7.9141   308
 7.9241   331
 7.9341   337
 7.9441   400
 7.9541   410
 7.9641   440
 7.9741   455
 7.9841   514
 7.9941   530
 8.0041   616
 8.0141   631
 8.0241   673
 8.0341   692
 8.0441   779
 8.0541   820
 8.0641   845
 8.0741   903
 8.0841   951
 8.0941  1048
 8.1041  1074
 8.1141  1099
 8.1241  1187
 8.1341  1228
 8.1441  1311
 8.1541  1261
 8.1641  1289
 8.1741  1256
 8.1841  1326
 8.1941  1342
 8.2041  1405
 8.2141  1364
 8.2241  1346
 8.2341  1355
 8.2441  1449
 8.2541  1498
 8.2641  1622
 8.2741  1668
 8.2841  1851
 8.2941  1957
 8.3041  2012
 8.3141  2278
 8.3241  2498
 8.3341  2636
 8.3441  2771
 8.3541  2899
 8.3641  3065
 8.3741  3183
 8.3841  3277
 8.3941  3249
 8.4041  3187
 8.4141  3092
 8.4241  2932
 8.4341  2748
 8.4441  2493
 8.4541  2328
 8.4641  1988
 8.4741  1643
 8.4841  1468
 8.4941  1203
 8.5041  1049
 8.5141   883
 8.5241   715
 8.5341   690
 8.5441   594
 8.5541   446
 8.5641   454
 8.5741   417
 8.5841   379
 8.5941   373
 8.6041   375
 8.6141   350
 8.6241   330
 8.6341   346
 8.6441   342
 8.6541   352
 8.6641   358
 8.6741   345
 8.6841   335
 8.6941   357
 8.7041   350
 8.7141   341
 8.7241   321
 8.7341   337
 8.7441   360
 8.7541   333
 8.7641   335
 8.7741   299
 8.7841   343
 8.7941   327
 8.8041   305
 8.8141   307
 8.8241   335
 8.8341   286
 8.8441   287
 8.8541   275
 8.8641   299
 8.8741   322
 8.8841   290
 8.8941   324
 8.9041   317
 8.9141   324
 8.9241   291
 8.9341   337
 8.9441   320
 8.9541   344
 8.9641   310
 8.9741   334
 8.9841   330
 8.9941   366
 9.0041   359
 9.0141   387
 9.0241   355
 9.0341   402
 9.0441   381
 9.0541   389
 9.0641   405
 9.0741   393
 9.0841   416
 9.0941   460
 9.1041   507
 9.1141   466
 9.1241   481
 9.1341   553
 9.1441   571
 9.1541   532
 9.1641   587
 9.1741   607
 9.1841   650
 9.1941   661
 9.2041   710
 9.2141   773
 9.2241   752
 9.2341   816
 9.2441   871
 9.2541   905
 9.2641   921
 9.2741   963
 9.2841  1036
 9.2941  1025
 9.3041  1047
 9.3141  1092
 9.3241  1181
 9.3341  1181
 9.3441  1195
 9.3541  1219
 9.3641  1268
 9.3741  1308
 9.3841  1321
 9.3941  1300
 9.4041  1367
 9.4141  1358
 9.4241  1405
 9.4341  1370
 9.4441  1325
 9.4541  1416
 9.4641  1424
 9.4741  1413
 9.4841  1499
 9.4941  1505
 9.5041  1501
 9.5141  1576
 9.5241  1677
 9.5341  1668
 9.5441  1767
 9.5541  1912
 9.5641  1935
 9.5741  2046
 9.5841  2214
 9.5941  2297
 9.6041  2455
 9.6141  2609
 9.6241  2699
 9.6341  2846
 9.6441  2881
 9.6541  2958
 9.6641  3053
 9.6741  3055
 9.6841  2971
 9.6941  2892
 9.7041  2790
 9.7141  2613
 9.7241  2526
 9.7341  2287
 9.7441  2154
 9.7541  2000
 9.7641  1874
 9.7741  1733
 9.7841  1630
 9.7941  1456
 9.8041  1405
 9.8141  1282
 9.8241  1233
 9.8341  1235
 9.8441  1229
 9.8541  1204
 9.8641  1257
 9.8741  1330
 9.8841  1274
 9.8941  1286
 9.9041  1303
 9.9141  1383
 9.9241  1343
 9.9341  1361
 9.9441  1363
 9.9541  1320
 9.9641  1383
 9.9741  1334
 9.9841  1258
 9.9941  1213
10.0041  1136
10.0141  1067
10.0241   968
10.0341   882
10.0441   787
10.0541   764
10.0641   671
10.0741   601
10.0841   519
10.0941   459
10.1041   413
10.1141   408
10.1241   351
10.1341   301
10.1441   279
10.1541   295
10.1641   247
10.1741   242
10.1841   248
10.1941   262
10.2041   215
10.2141   196
10.2241   196
10.2341   192
10.2441   197
10.2541   196
10.2641   180
10.2741   192
10.2841   196
10.2941   176
10.3041   159
10.3141   177
10.3241   190
10.3341   168
10.3441   172
10.3541   166
10.3641   160
10.3741   161
10.3841   189
10.3941   181
10.4041   161
10.4141   177
10.4241   173
10.4341   174
10.4441   161
10.4541   158
10.4641   186
10.4741   184
10.4841   203
10.4941   186
10.5041   176
10.5141   195
10.5241   191
10.5341   184
10.5441   175
10.5541   215
10.5641   197
10.5741   187
10.5841   217
10.5941   223
10.6041   196
10.6141   185
10.6241   195
10.6341   192
10.6441   191
10.6541   199
10.6641   202
10.6741   216
10.6841   222
10.6941   220
10.7041   218
10.7141   227
10.7241   221
10.7341   222
10.7441   244
10.7541   247
10.7641   267
10.7741   286
10.7841   272
10.7941   249
10.8041   281
10.8141   268
10.8241   266
10.8341   281
10.8441   289
10.8541   258
10.8641   291
10.8741   293
10.8841   279
10.8941   304
10.9041   299
10.9141   293
10.9241   281
10.9341   290
10.9441   291
10.9541   283
10.9641   284
10.9741   287
10.9841   304
10.9941   285
11.0041   277
11.0141   293
11.0241   287
11.0341   283
11.0441   278
11.0541   257
11.0641   256
11.0741   269
11.0841   254
11.0941   254
11.1041   237
11.1141   239
11.1241   252
11.1341   283
11.1441   265
11.1541   283
11.1641   294
11.1741   296
11.1841   304
11.1941   339
11.2041   359
11.2141   337
11.2241   352
11.2341   362
11.2441   401
11.2541   446
11.2641   416
11.2741   408
11.2841   443
11.2941   444
11.3041   413
11.3141   413
11.3241   378
11.3341   369
11.3441   345
11.3541   340
11.3641   319
11.3741   303
11.3841   282
11.3941   278
11.4041   275
11.4141   257
11.4241   247
11.4341   239
11.4441   237
11.4541   253
11.4641   232
11.4741   217
11.4841   215
11.4941   202
11.5041   216
11.5141   212
11.5241   219
11.5341   237
11.5441   204
11.5541   217
11.5641   207
11.5741   209
11.5841   229
11.5941   227
11.6041   218
11.6141   220
11.6241   217
11.6341   215
11.6441   231
11.6541   231
11.6641   222
11.6741   215
11.6841   212
11.6941   196
11.7041   181
11.7141   198
11.7241   200
11.7341   192
11.7441   194
11.7541   181
11.7641   161
11.7741   161
11.7841   169
11.7941   158
11.8041   137
11.8141   145
11.8241   158
11.8341   162
11.8441   152
11.8541   144
11.8641   141
11.8741   165
11.8841   175
11.8941   167
11.9041   161
11.9141   157
11.9241   149
11.9341   154
11.9441   162
11.9541   166
11.9641   156
11.9741   151
11.9841   142
11.9941   140
12.0041   155
12.0141   173
12.0241   182
12.0341   164
12.0441   157
12.0541   159
12.0641   161
12.0741   162
12.0841   168
12.0941   162
12.1041   159
12.1141   165
12.1241   158
12.1341   148
12.1441   146
12.1541   147
12.1641   160
12.1741   150
12.1841   148
12.1941   138
12.2041   143
12.2141   155
12.2241   160
12.2341   151
12.2441   158
12.2541   166
12.2641   158
12.2741   150
12.2841   148
12.2941   139
12.3041   146
12.3141   157
12.3241   172
12.3341   161
12.3441   146
12.3541   166
12.3641   159
12.3741   155
12.3841   156
12.3941   156
12.4041   174
12.4141   183
12.4241   167
12.4341   169
12.4441   174
12.4541   163
12.4641   160
12.4741   162
12.4841   167
12.4941   170
12.5041   176
12.5141   173
12.5241   176
12.5341   186
12.5441   186
12.5541   188
12.5641   177
12.5741   173
12.5841   189
12.5941   185
12.6041   199
12.6141   210
12.6241   193
12.6341   202
12.6441   195
12.6541   178
12.6641   185
12.6741   203
12.6841   193
12.6941   185
12.7041   187
12.7141   184
12.7241   188
12.7341   183
12.7441   176
12.7541   180
12.7641   190
12.7741   192
12.7841   193
12.7941   181
12.8041   172
12.8141   185
12.8241   193
12.8341   204
12.8441   201
12.8541   185
12.8641   198
12.8741   209
12.8841   201
12.8941   190
12.9041   194
12.9141   192
12.9241   199
12.9341   208
12.9441   206
12.9541   197
12.9641   198
12.9741   208
12.9841   216
12.9941   220
13.0041   215
13.0141   198
13.0241   206
13.0341   212
13.0441   203
13.0541   212
13.0641   214
13.0741   189
13.0841   181
13.0941   205
13.1041   205
13.1141   205
13.1241   233
13.1341   228
13.1441   212
13.1541   216
13.1641   218
13.1741   222
13.1841   223
13.1941   230
13.2041   238
13.2141   251
13.2241   261
13.2341   267
13.2441   280
13.2541   293
13.2641   321
13.2741   353
13.2841   378
13.2941   376
13.3041   385
13.3141   423
13.3241   442
13.3341   458
13.3441   491
13.3541   491
13.3641   472
13.3741   494
13.3841   500
13.3941   477
13.4041   457
13.4141   446
13.4241   452
13.4341   444
13.4441   416
13.4541   415
13.4641   409
13.4741   370
13.4841   334
13.4941   301
13.5041   296
13.5141   298
13.5241   276
13.5341   272
13.5441   270
13.5541   262
13.5641   262
13.5741   246
13.5841   241
13.5941   241
13.6041   233
13.6141   225
13.6241   242
13.6341   246
13.6441   236
13.6541   246
13.6641   232
13.6741   234
13.6841   227
13.6941   219
13.7041   229
13.7141   237
13.7241   245
13.7341   236
13.7441   241
13.7541   238
13.7641   230
13.7741   245
13.7841   238
13.7941   230
13.8041   239
13.8141   237
13.8241   248
13.8341   246
13.8441   245
13.8541   271
13.8641   263
13.8741   254
13.8841   253
13.8941   273
13.9041   300
13.9141   301
13.9241   316
13.9341   341
13.9441   367
13.9541   393
13.9641   415
13.9741   450
13.9841   480
13.9941   518
14.0041   570
14.0141   619
14.0241   636
14.0341   705
14.0441   816
14.0541   872
14.0641   922
14.0741  1022
14.0841  1064
14.0941  1083
14.1041  1124
14.1141  1158
14.1241  1209
14.1341  1217
14.1441  1272
14.1541  1268
14.1641  1193
14.1741  1197
14.1841  1184
14.1941  1139
14.2041  1094
14.2141  1019
14.2241   970
14.2341   901
14.2441   833
14.2541   763
14.2641   707
14.2741   651
14.2841   564
14.2941   537
14.3041   510
14.3141   457
14.3241   431
14.3341   398
14.3441   372
14.3541   341
14.3641   313
14.3741   298
14.3841   302
14.3941   299
14.4041   306
14.4141   314
14.4241   299
14.4341   276
14.4441   286
14.4541   290
14.4641   275
14.4741   270
14.4841   282
14.4941   282
14.5041   287
14.5141   293
14.5241   284
14.5341   274
14.5441   289
14.5541   294
14.5641   285
14.5741   297
14.5841   288
14.5941   283
14.6041   284
14.6141   300
14.6241   304
14.6341   285
14.6441   274
14.6541   279
14.6641   281
14.6741   275
14.6841   291
14.6941   304
14.7041   309
14.7141   306
14.7241   307
14.7341   308
14.7441   288
14.7541   293
14.7641   309
14.7741   312
14.7841   298
14.7941   301
14.8041   320
14.8141   316
14.8241   323
14.8341   347
14.8441   360
14.8541   335
14.8641   343
14.8741   364
14.8841   365
14.8941   377
14.9041   387
14.9141   385
14.9241   370
14.9341   390
14.9441   400
14.9541   394
14.9641   384
14.9741   390
14.9841   377
14.9941   356
15.0041   382
15.0141   367
15.0241   353
15.0341   373
15.0441   365
15.0541   354
15.0641   344
15.0741   354
15.0841   338
15.0941   337
15.1041   354
15.1141   344
15.1241   349
15.1341   343
15.1441   312
15.1541   328
15.1641   334
15.1741   328
15.1841   336
15.1941   332
15.2041   329
15.2141   316
15.2241   324
15.2341   330
15.2441   351
15.2541   344
15.2641   323
15.2741   317
15.2841   308
15.2941   321
15.3041   328
15.3141   316
15.3241   325
15.3341   339
15.3441   330
15.3541   311
15.3641   313
15.3741   331
15.3841   339
15.3941   344
15.4041   352
15.4141   337
15.4241   333
15.4341   343
15.4441   343
15.4541   355
15.4641   359
15.4741   361
15.4841   353
15.4941   360
15.5041   357
15.5141   326
15.5241   351
15.5341   369
15.5441   371
15.5541   380
15.5641   378
15.5741   410
15.5841   410
15.5941   376
15.6041   407
15.6141   432
15.6241   447
15.6341   439
15.6441   440
15.6541   486
15.6641   491
15.6741   494
15.6841   519
15.6941   515
15.7041   530
15.7141   552
15.7241   558
15.7341   592
15.7441   617
15.7541   632
15.7641   623
15.7741   642
15.7841   632
15.7941   640
15.8041   651
15.8141   652
15.8241   651
15.8341   640
15.8441   591
15.8541   578
15.8641   603
15.8741   568
15.8841   566
15.8941   565
15.9041   551
15.9141   505
15.9241   486
15.9341   492
15.9441   490
15.9541   464
15.9641   459
15.9741   419
15.9841   431
15.9941   447
16.0041   430
16.0141   420
16.0241   425
16.0341   426
16.0441   445
16.0541   438
16.0641   424
16.0741   407
16.0841   423
16.0941   412
16.1041   397
16.1141   411
16.1241   412
16.1341   418
16.1441   426
16.1541   417
16.1641   431
16.1741   427
16.1841   385
16.1941   389
16.2041   402
16.2141   403
16.2241   420
16.2341   414
16.2441   426
16.2541   389
16.2641   351
16.2741   378
16.2841   411
16.2941   391
16.3041   413
16.3141   400
16.3241   412
16.3341   429
16.3441   433
16.3541   431
16.3641   419
16.3741   439
16.3841   402
16.3941   390
16.4041   400
16.4141   403
16.4241   403
16.4341   423
16.4441   433
16.4541   435
16.4641   410
16.4741   414
16.4841   429
16.4941   437
16.5041   426
16.5141   431
16.5241   445
16.5341   452
16.5441   450
16.5541   435
16.5641   452
16.5741   437
16.5841   448
16.5941   444
16.6041   478
16.6141   462
16.6241   446
16.6341   430
16.6441   440
16.6541   450
16.6641   454
16.6741   452
16.6841   443
16.6941   440
16.7041   444
16.7141   432
16.7241   443
16.7341   459
16.7441   446
16.7541   423
16.7641   449
16.7741   448
16.7841   438
16.7941   421
16.8041   424
16.8141   427
16.8241   415
16.8341   425
16.8441   443
16.8541   446
16.8641   456
16.8741   472
16.8841   448
16.8941   454
16.9041   435
16.9141   446
16.9241   457
16.9341   463
16.9441   456
16.9541   460
16.9641   458
16.9741   463
16.9841   462
16.9941   464
17.0041   445
17.0141   473
17.0241   478
17.0341   471
17.0441   472
17.0541   486
17.0641   469
17.0741   474
17.0841   470
17.0941   480
17.1041   470
17.1141   472
17.1241   447
17.1341   456
17.1441   461
17.1541   476
17.1641   473
17.1741   463
17.1841   474
17.1941   477
17.2041   464
17.2141   478
17.2241   472
17.2341   469
17.2441   470
17.2541   468
17.2641   472
17.2741   495
17.2841   471
17.2941   472
17.3041   485
17.3141   478
17.3241   471
17.3341   473
17.3441   473
17.3541   484
17.3641   497
17.3741   459
17.3841   467
17.3941   489
17.4041   511
17.4141   519
17.4241   503
17.4341   513
17.4441   498
17.4541   505
17.4641   478
17.4741   481
17.4841   505
17.4941   510
17.5041   497
17.5141   523
17.5241   516
17.5341   482
17.5441   515
17.5541   542
17.5641   510
17.5741   511
17.5841   507
17.5941   548
17.6041   539
17.6141   525
17.6241   507
17.6341   553
17.6441   502
17.6541   507
17.6641   512
17.6741   496
17.6841   536
17.6941   526
17.7041   501
17.7141   560
17.7241   548
17.7341   502
17.7441   528
17.7541   553
17.7641   543
17.7741   530
17.7841   525
17.7941   508
17.8041   519
17.8141   540
17.8241   539
17.8341   503
17.8441   534
17.8541   546
17.8641   545
17.8741   543
17.8841   517
17.8941   528
17.9041   522
17.9141   529
17.9241   533
17.9341   543
17.9441   525
17.9541   516
17.9641   542
17.9741   546
17.9841   552
17.9941   532
18.0041   550
18.0141   539
18.0241   517
18.0341   525
18.0441   552
18.0541   554
18.0641   543
18.0741   535
18.0841   540
18.0941   536
18.1041   529
18.1141   560
18.1241   541
18.1341   524
18.1441   563
18.1541   537
18.1641   517
18.1741   552
18.1841   552
18.1941   525
18.2041   533
18.2141   510
18.2241   521
18.2341   558
18.2441   554
18.2541   538
18.2641   562
18.2741   558
18.2841   533
18.2941   517
18.3041   519
18.3141   603
18.3241   589
18.3341   585
18.3441   575
18.3541   538
18.3641   554
18.3741   571
18.3841   578
18.3941   560
18.4041   554
18.4141   585
18.4241   578
18.4341   601
18.4441   548
18.4541   546
18.4641   553
18.4741   567
18.4841   581
18.4941   552
18.5041   545
18.5141   527
18.5241   576
18.5341   571
18.5441   541
18.5541   542
18.5641   572
18.5741   541
18.5841   542
18.5941   529
18.6041   569
18.6141   562
18.6241   548
18.6341   568
18.6441   547
18.6541   598
18.6641   549
18.6741   562
18.6841   597
18.6941   559
18.7041   568
18.7141   576
18.7241   563
18.7341   562
18.7441   583
18.7541   583
18.7641   592
18.7741   580
18.7841   609
18.7941   559
18.8041   576
18.8141   563
18.8241   595
18.8341   594
18.8441   582
18.8541   558
18.8641   575
18.8741   592
18.8841   598
18.8941   623
18.9041   589
18.9141   564
18.9241   582
18.9341   576
18.9441   559
18.9541   592
18.9641   617
18.9741   648
18.9841   611
18.9941   556
19.0041   583
19.0141   579
19.0241   583
19.0341   605
19.0441   562
19.0541   565
19.0641   587
19.0741   617
19.0841   578
19.0941   589
19.1041   571
19.1141   569
19.1241   574
19.1341   571
19.1441   599
19.1541   594
19.1641   606
19.1741   577
19.1841   559
19.1941   577
19.2041   554
19.2141   596
19.2241   615
19.2341   635
19.2441   591
19.2541   597
19.2641   618
19.2741   596
19.2841   574
19.2941   597
19.3041   592
19.3141   596
19.3241   623
19.3341   626
19.3441   590
19.3541   581
19.3641   596
19.3741   622
19.3841   606
19.3941   619
19.4041   588
19.4141   589
19.4241   603
19.4341   601
19.4441   598
19.4541   633
19.4641   617
19.4741   618
19.4841   645
19.4941   644
19.5041   619
19.5141   598
19.5241   624
19.5341   578
19.5441   611
19.5541   619
19.5641   613
19.5741   606
19.5841   622
19.5941   643
19.6041   596
19.6141   598
19.6241   591
19.6341   618
19.6441   618
19.6541   606
19.6641   629
19.6741   629
19.6841   590
19.6941   606
19.7041   606
19.7141   605
19.7241   605
19.7341   602
19.7441   597
19.7541   651
19.7641   618
19.7741   586
19.7841   598
19.7941   576
19.8041   635
19.8141   627
19.8241   634
19.8341   609
19.8441   635
19.8541   637
19.8641   631
19.8741   602
19.8841   619
19.8941   616
19.9041   595
19.9141   627
19.9241   607
19.9341   603
19.9441   574
19.9541   646
19.9641   657
19.9741   645
19.9841   585
19.9941   603
20.0041   596
20.0141   614
20.0241   629
20.0341   607
20.0441   594
20.0541   624
20.0641   653
20.0741   655
20.0841   637
20.0941   636
20.1041   644
20.1141   645
20.1241   581
20.1341   637
20.1441   654
20.1541   636
20.1641   646
20.1741   615
20.1841   640
20.1941   627
20.2041   606
20.2141   625
20.2241   633
20.2341   650
20.2441   633
20.2541   607
20.2641   592
20.2741   622
20.2841   649
20.2941   633
20.3041   639
20.3141   619
20.3241   646
20.3341   635
20.3441   637
20.3541   641
20.3641   569
20.3741   601
20.3841   657
20.3941   631
20.4041   652
20.4141   639
20.4241   588
20.4341   607
20.4441   622
20.4541   633
20.4641   650
20.4741   643
20.4841   663
20.4941   640
20.5041   616
20.5141   630
20.5241   628
20.5341   646
20.5441   626
20.5541   635
20.5641   660
20.5741   587
20.5841   663
20.5941   620
20.6041   628
20.6141   637
20.6241   618
20.6341   628
20.6441   630
20.6541   645
20.6641   675
20.6741   624
20.6841   653
20.6941   669
20.7041   633
20.7141   644
20.7241   705
20.7341   689
20.7441   630
20.7541   645
20.7641   662
20.7741   641
20.7841   650
20.7941   661
20.8041   717
20.8141   650
20.8241   678
20.8341   647
20.8441   687
20.8541   718
20.8641   697
20.8741   737
20.8841   746
20.8941   752
20.9041   813
20.9141   766
20.9241   771
20.9341   775
20.9441   764
20.9541   799
20.9641   796
20.9741   842
20.9841   815
20.9941   858
21.0041   874
21.0141   930
21.0241   891
21.0341   879
21.0441   917
21.0541   899
21.0641   898
21.0741   953
21.0841  1047
21.0941   966
21.1041   938
21.1141   950
21.1241  1000
21.1341   977
21.1441   994
21.1541   932
21.1641   960
21.1741   917
21.1841   950
21.1941   885
21.2041   949
21.2141   931
21.2241   846
21.2341   841
21.2441   898
21.2541   854
21.2641   848
21.2741   821
21.2841   787
21.2941   799
21.3041   800
21.3141   750
21.3241   707
21.3341   716
21.3441   737
21.3541   733
21.3641   679
21.3741   673
21.3841   682
21.3941   688
21.4041   674
21.4141   656
21.4241   690
21.4341   648
21.4441   663
21.4541   684
21.4641   653
21.4741   616
21.4841   641
21.4941   626
21.5041   614
21.5141   668
21.5241   612
21.5341   632
21.5441   613
21.5541   687
21.5641   643
21.5741   667
21.5841   658
21.5941   657
21.6041   605
21.6141   646
21.6241   625
21.6341   642
21.6441   646
21.6541   638
21.6641   646
21.6741   645
21.6841   617
21.6941   623
21.7041   658
21.7141   665
21.7241   659
21.7341   638
21.7441   658
21.7541   608
21.7641   636
21.7741   631
21.7841   607
21.7941   645
21.8041   658
21.8141   683
21.8241   643
21.8341   653
21.8441   660
21.8541   667
21.8641   642
21.8741   679
21.8841   657
21.8941   636
21.9041   595
21.9141   654
21.9241   648
21.9341   638
21.9441   615
21.9541   590
21.9641   619
21.9741   657
21.9841   621
21.9941   628
22.0041   638
22.0141   637
22.0241   648
22.0341   686
22.0441   609
22.0541   680
22.0641   654
22.0741   667
22.0841   656
22.0941   658
22.1041   631
22.1141   592
22.1241   637
22.1341   673
22.1441   604
22.1541   631
22.1641   641
22.1741   615
22.1841   644
22.1941   622
22.2041   670
22.2141   637
22.2241   671
22.2341   654
22.2441   657
22.2541   660
22.2641   636
22.2741   593
22.2841   681
22.2941   690
22.3041   638
22.3141   636
22.3241   650
22.3341   656
22.3441   640
22.3541   652
22.3641   638
22.3741   652
22.3841   655
22.3941   662
22.4041   642
22.4141   648
22.4241   652
22.4341   658
22.4441   634
22.4541   646
22.4641   649
22.4741   645
22.4841   627
22.4941   629
22.5041   623
22.5141   654
22.5241   653
22.5341   627
22.5441   574
22.5541   618
22.5641   616
22.5741   591
22.5841   627
22.5941   632
22.6041   663
22.6141   603
22.6241   650
22.6341   677
22.6441   678
22.6541   636
22.6641   635
22.6741   667
22.6841   614
22.6941   647
22.7041   607
22.7141   631
22.7241   645
22.7341   624
22.7441   648
22.7541   616
22.7641   661
22.7741   686
22.7841   626
22.7941   651
22.8041   679
22.8141   602
22.8241   596
22.8341   605
22.8441   620
22.8541   625
22.8641   613
22.8741   632
22.8841   585
22.8941   635
22.9041   600
22.9141   599
22.9241   644
22.9341   646
22.9441   670
22.9541   635
22.9641   634
22.9741   630
22.9841   626
22.9941   672
23.0041   581
23.0141   621
23.0241   634
23.0341   661
23.0441   601
23.0541   614
23.0641   578
23.0741   628
23.0841   620
23.0941   634
23.1041   639
23.1141   592
23.1241   682
23.1341   659
23.1441   616
23.1541   653
23.1641   593
23.1741   633
23.1841   612
23.1941   625
23.2041   594
23.2141   617
23.2241   584
23.2341   647
23.2441   587
23.2541   608
23.2641   671
23.2741   626
23.2841   593
23.2941   611
23.3041   600
23.3141   612
23.3241   620
23.3341   619
23.3441   598
23.3541   618
23.3641   637
23.3741   606
23.3841   617
23.3941   545
23.4041   661
23.4141   644
23.4241   603
23.4341   621
23.4441   579
23.4541   606
23.4641   594
23.4741   665
23.4841   629
23.4941   666
23.5041   619
23.5141   606
23.5241   630
23.5341   616
23.5441   612
23.5541   638
23.5641   660
23.5741   627
23.5841   626
23.5941   643
23.6041   607
23.6141   598
23.6241   616
23.6341   628
23.6441   604
23.6541   659
23.6641   664
23.6741   635
23.6841   641
23.6941   614
23.7041   602
23.7141   624
23.7241   636
23.7341   640
23.7441   629
23.7541   639
23.7641   658
23.7741   678
23.7841   671
23.7941   659
23.8041   673
23.8141   649
23.8241   649
23.8341   664
23.8441   650
23.8541   628
23.8641   674
23.8741   664
23.8841   679
23.8941   624
23.9041   612
23.9141   621
23.9241   659
23.9341   624
23.9441   636
23.9541   629
23.9641   583
23.9741   610
23.9841   656
23.9941   596
24.0041   593
24.0141   617
24.0241   570
24.0341   595
24.0441   628
24.0541   560
24.0641   610
24.0741   589
24.0841   549
24.0941   593
24.1041   612
24.1141   586
24.1241   616
24.1341   557
24.1441   576
24.1541   559
24.1641   606
24.1741   591
24.1841   621
24.1941   567
24.2041   592
24.2141   535
24.2241   581
24.2341   573
24.2441   630
24.2541   605
24.2641   598
24.2741   597
24.2841   617
24.2941   597
24.3041   602
24.3141   586
24.3241   603
24.3341   625
24.3441   607
24.3541   615
24.3641   608
24.3741   565
24.3841   580
24.3941   597
24.4041   583
24.4141   588
24.4241   565
24.4341   593
24.4441   561
24.4541   583
24.4641   578
24.4741   595
24.4841   640
24.4941   599
24.5041   567
24.5141   543
24.5241   562
24.5341   616
24.5441   550
24.5541   593
24.5641   593
24.5741   584
24.5841   592
24.5941   562
24.6041   600
24.6141   596
24.6241   557
24.6341   572
24.6441   541
24.6541   558
24.6641   541
24.6741   547
24.6841   547
24.6941   568
24.7041   565
24.7141   570
24.7241   571
24.7341   571
24.7441   578
24.7541   588
24.7641   544
24.7741   587
24.7841   564
24.7941   543
24.8041   548
24.8141   554
24.8241   544
24.8341   593
24.8441   542
24.8541   553
24.8641   603
24.8741   588
24.8841   563
24.8941   586
24.9041   569
24.9141   536
24.9241   561
24.9341   522
24.9441   582
24.9541   592
24.9641   553
24.9741   575
24.9841   520
24.9941   527
25.0041   561
25.0141   581
25.0241   589
25.0341   585
25.0441   579
25.0541   562
25.0641   583
25.0741   607
25.0841   569
25.0941   610
25.1041   591
25.1141   603
25.1241   566
25.1341   535
25.1441   548
25.1541   610
25.1641   575
25.1741   563
25.1841   565
25.1941   579
25.2041   537
25.2141   571
25.2241   576
25.2341   581
25.2441   584
25.2541   561
25.2641   570
25.2741   585
25.2841   587
25.2941   545
25.3041   585
25.3141   627
25.3241   555
25.3341   587
25.3441   560
25.3541   599
25.3641   557
25.3741   580
25.3841   559
25.3941   572
25.4041   504
25.4141   571
25.4241   568
25.4341   509
25.4441   542
25.4541   553
25.4641   523
25.4741   519
25.4841   515
25.4941   540
25.5041   589
25.5141   537
25.5241   537
25.5341   525
25.5441   523
25.5541   542
25.5641   568
25.5741   526
25.5841   583
25.5941   561
25.6041   547
25.6141   535
25.6241   577
25.6341   554
25.6441   559
25.6541   537
25.6641   514
25.6741   541
25.6841   497
25.6941   498
25.7041   543
25.7141   511
25.7241   503
25.7341   543
25.7441   541
25.7541   513
25.7641   536
25.7741   533
25.7841   538
25.7941   538
25.8041   489
25.8141   507
25.8241   524
25.8341   476
25.8441   464
25.8541   517
25.8641   514
25.8741   510
25.8841   508
25.8941   569
25.9041   519
25.9141   550
25.9241   532
25.9341   544
25.9441   503
25.9541   503
25.9641   493
25.9741   541
25.9841   522
25.9941   523
26.0041   529
26.0141   508
26.0241   521
26.0341   520
26.0441   504
26.0541   533
26.0641   514
26.0741   533
26.0841   481
26.0941   537
26.1041   512
26.1141   516
26.1241   503
26.1341   505
26.1441   495
26.1541   489
26.1641   519
26.1741   521
26.1841   534
26.1941   503
26.2041   501
26.2141   510
26.2241   513
26.2341   489
26.2441   527
26.2541   520
26.2641   506
26.2741   537
26.2841   550
26.2941   494
26.3041   511
26.3141   488
26.3241   522
26.3341   494
26.3441   509
26.3541   480
26.3641   481
26.3741   544
26.3841   516
26.3941   504
26.4041   539
26.4141   500
26.4241   520
26.4341   503
26.4441   468
26.4541   513
26.4641   474
26.4741   471
26.4841   512
26.4941   486
26.5041   466
26.5141   518
26.5241   510
26.5341   502
26.5441   506
26.5541   487
26.5641   506
26.5741   484
26.5841   501
26.5941   466
26.6041   501
26.6141   480
26.6241   465
26.6341   456
26.6441   471
26.6541   492
26.6641   463
26.6741   475
26.6841   477
26.6941   465
26.7041   458
26.7141   473
26.7241   452
26.7341   472
26.7441   443
26.7541   484
26.7641   490
26.7741   506
26.7841   446
26.7941   468
26.8041   457
26.8141   462
26.8241   479
26.8341   487
26.8441   479
26.8541   457
26.8641   451
26.8741   457
26.8841   461
26.8941   489
26.9041   464
26.9141   442
26.9241   482
26.9341   483
26.9441   490
26.9541   497
26.9641   471
26.9741   444
26.9841   457
26.9941   427
27.0041   464
27.0141   478
27.0241   463
27.0341   440
27.0441   444
27.0541   460
27.0641   440
27.0741   483
27.0841   418
27.0941   437
27.1041   466
27.1141   433
27.1241   444
27.1341   516
27.1441   460
27.1541   469
27.1641   497
27.1741   481
27.1841   440
27.1941   436
27.2041   513
27.2141   473
27.2241   457
27.2341   480
27.2441   462
27.2541   445
27.2641   457
27.2741   447
27.2841   415
27.2941   448
27.3041   466
27.3141   459
27.3241   456
27.3341   433
27.3441   448
27.3541   447
27.3641   448
27.3741   488
27.3841   462
27.3941   486
27.4041   470
27.4141   448
27.4241   438
27.4341   433
27.4441   462
27.4541   441
27.4641   471
27.4741   456
27.4841   464
27.4941   436
27.5041   427
27.5141   442
27.5241   430
27.5341   465
27.5441   398
27.5541   411
27.5641   415
27.5741   472
27.5841   435
27.5941   407
27.6041   443
27.6141   433
27.6241   432
27.6341   424
27.6441   405
27.6541   439
27.6641   423
27.6741   442
27.6841   417
27.6941   430
27.7041   457
27.7141   422
27.7241   476
27.7341   449
27.7441   451
27.7541   449
27.7641   408
27.7741   430
27.7841   433
27.7941   433
27.8041   396
27.8141   475
27.8241   459
27.8341   457
27.8441   427
27.8541   413
27.8641   407
27.8741   401
27.8841   415
27.8941   427
27.9041   421
27.9141   403
27.9241   439
27.9341   441
27.9441   415
27.9541   429
27.9641   409
27.9741   411
27.9841   441
27.9941   411
28.0041   415
28.0141   433
28.0241   393
28.0341   415
28.0441   441
28.0541   419
28.0641   434
28.0741   394
28.0841   448
28.0941   413
28.1041   439
28.1141   449
28.1241   416
28.1341   405
28.1441   425
28.1541   413
28.1641   397
28.1741   427
28.1841   410
28.1941   419
28.2041   428
28.2141   386
28.2241   441
28.2341   419
28.2441   408
28.2541   366
28.2641   413
28.2741   426
28.2841   416
28.2941   395
28.3041   388
28.3141   413
28.3241   422
28.3341   418
28.3441   389
28.3541   369
28.3641   395
28.3741   381
28.3841   407
28.3941   426
28.4041   413
28.4141   430
28.4241   413
28.4341   396
28.4441   408
28.4541   401
28.4641   415
28.4741   412
28.4841   397
28.4941   416
28.5041   436
28.5141   424
28.5241   427
28.5341   414
28.5441   386
28.5541   400
28.5641   411
28.5741   419
28.5841   423
28.5941   405
28.6041   395
28.6141   416
28.6241   404
28.6341   392
28.6441   401
28.6541   385
28.6641   384
28.6741   395
28.6841   373
28.6941   369
28.7041   392
28.7141   389
28.7241   359
28.7341   356
28.7441   397
28.7541   405
28.7641   401
28.7741   368
28.7841   379
28.7941   373
28.8041   373
28.8141   374
28.8241   379
28.8341   373
28.8441   383
28.8541   348
28.8641   402
28.8741   416
28.8841   381
28.8941   428
28.9041   370
28.9141   383
28.9241   370
28.9341   361
28.9441   399
28.9541   368
28.9641   362
28.9741   347
28.9841   362
28.9941   376
29.0041   385
29.0141   383
29.0241   361
29.0341   385
29.0441   405
29.0541   373
29.0641   370
29.0741   395
29.0841   369
29.0941   410
29.1041   383
29.1141   385
29.1241   337
29.1341   319
29.1441   336
29.1541   358
29.1641   379
29.1741   360
29.1841   383
29.1941   347
29.2041   363
29.2141   339
29.2241   332
29.2341   342
29.2441   356
29.2541   353
29.2641   388
29.2741   362
29.2841   368
29.2941   383
29.3041   335
29.3141   381
29.3241   355
29.3341   325
29.3441   343
29.3541   368
29.3641   355
29.3741   349
29.3841   385
29.3941   328
29.4041   384
29.4141   386
29.4241   381
29.4341   354
29.4441   361
29.4541   345
29.4641   333
29.4741   360
29.4841   358
29.4941   333
29.5041   332
29.5141   322
29.5241   351
29.5341   348
29.5441   346
29.5541   345
29.5641   349
29.5741   332
29.5841   330
29.5941   328
29.6041   365
29.6141   375
29.6241   371
29.6341   337
29.6441   350
29.6541   324
29.6641   356
29.6741   345
29.6841   361
29.6941   349
29.7041   332
29.7141   354
29.7241   345
29.7341   331
29.7441   314
29.7541   342
29.7641   320
29.7741   345
29.7841   324
29.7941   321
29.8041   342
29.8141   333
29.8241   360
29.8341   332
29.8441   340
29.8541   307
29.8641   353
29.8741   317
29.8841   343
29.8941   342
29.9041   335
29.9141   343
29.9241   359
29.9341   315
29.9441   325
29.9541   333
29.9641   361
29.9741   333
29.9841   337
29.9941   320
30.0041   332
30.0141   327
30.0241   333
30.0341   316
30.0441   332
30.0541   299
30.0641   319
30.0741   333
30.0841   295
30.0941   344
30.1041   309
30.1141   329
30.1241   317
30.1341   328
30.1441   301
30.1541   327
30.1641   307
30.1741   304
30.1841   308
30.1941   303
30.2041   313
30.2141   332
30.2241   318
30.2341   307
30.2441   323
30.2541   339
30.2641   305
30.2741   306
30.2841   341
30.2941   298
30.3041   297
30.3141   298
30.3241   321
30.3341   313
30.3441   307
30.3541   336
30.3641   329
30.3741   302
30.3841   309
30.3941   317
30.4041   321
30.4141   314
30.4241   315
30.4341   286
30.4441   304
30.4541   304
30.4641   295
30.4741   311
30.4841   299
30.4941   275
30.5041   285
30.5141   317
30.5241   326
30.5341   306
30.5441   298
30.5541   256
30.5641   292
30.5741   278
30.5841   287
30.5941   281
30.6041   287
30.6141   266
30.6241   298
30.6341   312
30.6441   296
30.6541   273
30.6641   286
30.6741   282
30.6841   307
30.6941   284
30.7041   301
30.7141   307
30.7241   279
30.7341   302
30.7441   281
30.7541   310
30.7641   295
30.7741   315
30.7841   279
30.7941   278
30.8041   280
30.8141   272
30.8241   278
30.8341   282
30.8441   294
30.8541   274
30.8641   316
30.8741   278
30.8841   257
30.8941   266
30.9041   279
30.9141   285
30.9241   249
30.9341   274
30.9441   269
30.9541   292
30.9641   255
30.9741   275
30.9841   292
30.9941   271
31.0041   269
31.0141   320
31.0241   297
31.0341   285
31.0441   284
31.0541   291
31.0641   302
31.0741   276
31.0841   285
31.0941   308
31.1041   318
31.1141   279
31.1241   298
31.1341   262
31.1441   249
31.1541   293
31.1641   272
31.1741   269
31.1841   258
31.1941   235
31.2041   276
31.2141   276
31.2241   271
31.2341   287
31.2441   278
31.2541   259
31.2641   277
31.2741   266
31.2841   292
31.2941   277
31.3041   290
31.3141   277
31.3241   282
31.3341   265
31.3441   260
31.3541   281
31.3641   261
31.3741   260
31.3841   267
31.3941   273
31.4041   281
31.4141   232
31.4241   271
31.4341   252
31.4441   257
31.4541   259
31.4641   262
31.4741   244
31.4841   265
31.4941   273
31.5041   272
31.5141   252
31.5241   241
31.5341   248
31.5441   264
31.5541   260
31.5641   265
31.5741   233
31.5841   240
31.5941   280
31.6041   260
31.6141   253
31.6241   251
31.6341   271
31.6441   285
31.6541   269
31.6641   247
31.6741   286
31.6841   290
31.6941   291
31.7041   284
31.7141   270
31.7241   293
31.7341   270
31.7441   285
31.7541   274
31.7641   285
31.7741   255
31.7841   261
31.7941   287
31.8041   274
31.8141   258
31.8241   290
31.8341   257
31.8441   283
31.8541   288
31.8641   288
31.8741   247
31.8841   277
31.8941   282
31.9041   279
31.9141   270
31.9241   281
31.9341   280
31.9441   258
31.9541   280
31.9641   274
31.9741   263
31.9841   267
31.9941   254
32.0041   248
32.0141   266
32.0241   255
32.0341   266
32.0441   281
32.0541   279
32.0641   264
32.0741   265
32.0841   312
32.0941   278
32.1041   287
32.1141   315
32.1241   272
32.1341   290
32.1441   302
32.1541   299
32.1641   304
32.1741   304
32.1841   263
32.1941   289
32.2041   293
32.2141   290
32.2241   293
32.2341   285
32.2441   275
32.2541   303
32.2641   309
32.2741   299
32.2841   273
32.2941   275
32.3041   264
32.3141   257
32.3241   260
32.3341   268
32.3441   226
32.3541   238
32.3641   290
32.3741   253
32.3841   250
32.3941   253
32.4041   261
32.4141   251
32.4241   259
32.4341   229
32.4441   225
32.4541   228
32.4641   241
32.4741   217
32.4841   214
32.4941   222
32.5041   226
32.5141   216
32.5241   244
32.5341   211
32.5441   229
32.5541   257
32.5641   230
32.5741   243
32.5841   249
32.5941   200
32.6041   211
32.6141   209
32.6241   206
32.6341   196
32.6441   202
32.6541   235
32.6641   205
32.6741   214
32.6841   227
32.6941   229
32.7041   200
32.7141   206
32.7241   218
32.7341   214
32.7441   213
32.7541   238
32.7641   228
32.7741   201
32.7841   206
32.7941   200
32.8041   193
32.8141   198
32.8241   204
32.8341   187
32.8441   204
32.8541   205
32.8641   202
32.8741   221
32.8841   236
32.8941   216
32.9041   188
32.9141   194
32.9241   191
32.9341   228
32.9441   230
32.9541   199
32.9641   187
32.9741   187
32.9841   205
32.9941   203
33.0041   189
33.0141   198
33.0241   194
33.0341   218
33.0441   187
33.0541   198
33.0641   198
33.0741   201
33.0841   217
33.0941   216
33.1041   203
33.1141   196
33.1241   191
33.1341   208
33.1441   179
33.1541   195
33.1641   209
33.1741   212
33.1841   192
33.1941   221
33.2041   223
33.2141   202
33.2241   205
33.2341   189
33.2441   194
33.2541   189
33.2641   173
33.2741   202
33.2841   194
33.2941   190
33.3041   176
33.3141   198
33.3241   205
33.3341   156
33.3441   195
33.3541   206
33.3641   182
33.3741   176
33.3841   166
33.3941   177
33.4041   201
33.4141   176
33.4241   182
33.4341   188
33.4441   189
33.4541   198
33.4641   185
33.4741   171
33.4841   198
33.4941   194
33.5041   185
33.5141   188
33.5241   188
33.5341   190
33.5441   179
33.5541   172
33.5641   169
33.5741   189
33.5841   188
33.5941   188
33.6041   200
33.6141   201
33.6241   180
33.6341   179
33.6441   163
33.6541   181
33.6641   178
33.6741   193
33.6841   194
33.6941   174
33.7041   186
33.7141   189
33.7241   185
33.7341   185
33.7441   156
33.7541   192
33.7641   199
33.7741   164
33.7841   191
33.7941   214
33.8041   178
33.8141   176
33.8241   188
33.8341   161
33.8441   197
33.8541   200
33.8641   195
33.8741   187
33.8841   160
33.8941   201
33.9041   167
33.9141   186
33.9241   172
33.9341   142
33.9441   172
33.9541   186
33.9641   178
33.9741   183
33.9841   167
33.9941   179
34.0041   185
34.0141   160
34.0241   181
34.0341   167
34.0441   177
34.0541   155
34.0641   156
34.0741   152
34.0841   165
34.0941   174
34.1041   156
34.1141   155
34.1241   167
34.1341   156
34.1441   175
34.1541   177
34.1641   193
34.1741   190
34.1841   165
34.1941   154
34.2041   149
34.2141   161
34.2241   171
34.2341   150
34.2441   170
34.2541   169
34.2641   177
34.2741   171
34.2841   157
34.2941   168
34.3041   143
34.3141   159
34.3241   163
34.3341   165
34.3441   155
34.3541   164
34.3641   171
34.3741   151
34.3841   144
34.3941   193
34.4041   179
34.4141   165
34.4241   162
34.4341   147
34.4441   168
34.4541   142
34.4641   160
34.4741   160
34.4841   147
34.4941   182
34.5041   158
34.5141   119
34.5241   139
34.5341   157
34.5441   147
34.5541   161
34.5641   155
34.5741   157
34.5841   148
34.5941   140
34.6041   162
34.6141   160
34.6241   150
34.6341   139
34.6441   150
34.6541   137
34.6641   142
34.6741   135
34.6841   154
34.6941   132
34.7041   167
34.7141   168
34.7241   144
34.7341   125
34.7441   154
34.7541   141
34.7641   153
34.7741   160
34.7841   171
34.7941   145
34.8041   145
34.8141   144
34.8241   137
34.8341   140
34.8441   166
34.8541   128
34.8641   143
34.8741   148
34.8841   149
34.8941   142
34.9041   143
34.9141   162
34.9241   155
34.9341   144
34.9441   145
34.9541   126
34.9641   129
34.9741   146
34.9841   153
34.9941   140
35.0041   157
35.0141   149
35.0241   128
35.0341   144
35.0441   150
35.0541   137
35.0641   142
35.0741   150
35.0841   136
35.0941   146
35.1041   124
35.1141   121
35.1241   150
35.1341   146
35.1441   127
35.1541   109
35.1641   135
35.1741   128
35.1841   150
35.1941   134
35.2041   139
35.2141   146
35.2241   136
35.2341   123
35.2441   134
35.2541   145
35.2641   139
35.2741   133
35.2841   136
35.2941   121
35.3041   136
35.3141   115
35.3241   141
35.3341   147
35.3441   124
35.3541   147
35.3641   133
35.3741   125
35.3841   145
35.3941   117
35.4041   138
35.4141   153
35.4241   125
35.4341   124
35.4441   129
35.4541   137
35.4641   130
35.4741   120
35.4841   124
35.4941   120
35.5041   137
35.5141   132
35.5241   122
35.5341   124
35.5441   111
35.5541   120
35.5641   121
35.5741   129
35.5841   119
35.5941   124
35.6041   146
35.6141   132
35.6241   124
35.6341   135
35.6441   125
35.6541   134
35.6641   111
35.6741   121
35.6841   117
35.6941   122
35.7041   120
35.7141   115
35.7241   108
35.7341   127
35.7441   129
35.7541   131
35.7641   138
35.7741   137
35.7841   113
35.7941   130
35.8041    97
35.8141   102
35.8241   129
35.8341   111
35.8441   120
35.8541   122
35.8641   116
35.8741   116
35.8841    91
35.8941   121
35.9041   128
35.9141   137
35.9241   116
35.9341   114
35.9441   119
35.9541   109
35.9641   106
35.9741   106
35.9841    98
35.9941   110
36.0041   115
36.0141   127
36.0241   107
36.0341   120
36.0441   111
36.0541   110
36.0641   117
36.0741   107
36.0841   133
36.0941   112
36.1041   125
36.1141   120
36.1241   116
36.1341   126
36.1441   119
36.1541   111
36.1641   114
36.1741   107
36.1841   112
36.1941   116
36.2041   129
36.2141   137
36.2241   119
36.2341   116
36.2441   118
36.2541   113
36.2641   118
36.2741   113
36.2841   113
36.2941   119
36.3041   123
36.3141   116
36.3241   118
36.3341   130
36.3441    98
36.3541   120
36.3641   129
36.3741   111
36.3841   105
36.3941   114
36.4041    88
36.4141   116
36.4241    97
36.4341   115
36.4441   105
36.4541   136
36.4641    97
36.4741   106
36.4841   107
36.4941    99
36.5041   125
36.5141   109
36.5241    93
36.5341    99
36.5441   112
36.5541   105
36.5641    97
36.5741    89
36.5841   109
36.5941   102
36.6041    97
36.6141   112
36.6241   120
36.6341   103
36.6441   110
36.6541   108
36.6641   103
36.6741    85
36.6841    99
36.6941   115
36.7041    91
36.7141   114
36.7241    88
36.7341   109
36.7441   102
36.7541   110
36.7641   109
36.7741    95
36.7841    93
36.7941   108
36.8041    94
36.8141    89
36.8241    95
36.8341   103
36.8441    94
36.8541    97
36.8641   102
36.8741    84
36.8841    93
36.8941    93
36.9041    99
36.9141    89
36.9241   105
36.9341    89
36.9441   101
36.9541    75
36.9641   104
36.9741    86
36.9841    73
36.9941    91
37.0041    90
37.0141    97
37.0241    64
37.0341    97
37.0441    95
37.0541    90
37.0641    84
37.0741    84
37.0841    86
37.0941    90
37.1041   100
37.1141    97
37.1241    95
37.1341    81
37.1441    99
37.1541   103
37.1641    85
37.1741   110
37.1841   103
37.1941    85
37.2041    83
37.2141    90
37.2241    81
37.2341    89
37.2441    71
37.2541    74
37.2641    86
37.2741    86
37.2841    81
37.2941   104
37.3041    95
37.3141    74
37.3241    87
37.3341    80
37.3441    72
37.3541    94
37.3641    88
37.3741    97
37.3841    98
37.3941    84
37.4041    72
37.4141    85
37.4241    96
37.4341    72
37.4441   100
37.4541    79
37.4641    68
37.4741    75
37.4841    76
37.4941    87
37.5041    80
37.5141    67
37.5241    77
37.5341    81
37.5441    76
37.5541    72
37.5641    95
37.5741    71
37.5841    74
37.5941    90
37.6041    79
37.6141    66
37.6241    75
37.6341    81
37.6441    64
37.6541    87
37.6641    82
37.6741    74
37.6841    66
37.6941    79
37.7041    69
37.7141    72
37.7241    70
37.7341    81
37.7441    79
37.7541    83
37.7641    74
37.7741    78
37.7841    73
37.7941    80
37.8041    85
37.8141    73
37.8241    67
37.8341    78
37.8441    80
37.8541    67
37.8641    86
37.8741    68
37.8841    76
37.8941    75
37.9041    64
37.9141    67
37.9241    61
37.9341    66
37.9441    75
37.9541    59
37.9641    64
37.9741    59
37.9841    62
37.9941    57
38.0041    76
38.0141    83
38.0241    69
38.0341    68
38.0441    91
38.0541    57
38.0641    70
38.0741    53
38.0841    69
38.0941    63
38.1041    71
38.1141    71
38.1241    50
38.1341    73
38.1441    66
38.1541    71
38.1641    73
38.1741    65
38.1841    70
38.1941    81
38.2041    66
38.2141    74
38.2241    69
38.2341    77
38.2441    63
38.2541    63
38.2641    71
38.2741    62
38.2841    69
38.2941    52
38.3041    65
38.3141    60
38.3241    62
38.3341    61
38.3441    63
38.3541    61
38.3641    79
38.3741    61
38.3841    61
38.3941    70
38.4041    66
38.4141    49
38.4241    59
38.4341    67
38.4441    68
38.4541    55
38.4641    52
38.4741    63
38.4841    62
38.4941    60
38.5041    47
38.5141    63
38.5241    59
38.5341    53
38.5441    54
38.5541    64
38.5641    48
38.5741    56
38.5841    47
38.5941    62
38.6041    59
38.6141    57
38.6241    49
38.6341    59
38.6441    58
38.6541    55
38.6641    62
38.6741    51
38.6841    63
38.6941    45
38.7041    57
38.7141    54
38.7241    59
38.7341    60
38.7441    57
38.7541    64
38.7641    63
38.7741    52
38.7841    59
38.7941    67
38.8041    58
38.8141    59
38.8241    48
38.8341    45
38.8441    51
38.8541    49
38.8641    51
38.8741    52
38.8841    45
38.8941    44
38.9041    51
38.9141    54
38.9241    51
38.9341    49
38.9441    57
38.9541    63
38.9641    58
38.9741    63
38.9841    62
38.9941    45
39.0041    62
39.0141    63
39.0241    44
39.0341    45
39.0441    49
39.0541    55
39.0641    55
39.0741    43
39.0841    42
39.0941    51
39.1041    48
39.1141    50
39.1241    50
39.1341    66
39.1441    53
39.1541    43
39.1641    52
39.1741    56
39.1841    39
39.1941    41
39.2041    56
39.2141    47
39.2241    36
39.2341    37
39.2441    42
39.2541    51
39.2641    47
39.2741    43
39.2841    48
39.2941    38
39.3041    49
39.3141    49
39.3241    46
39.3341    46
39.3441    50
39.3541    46
39.3641    44
39.3741    44
39.3841    53
39.3941    49
39.4041    48
39.4141    38
39.4241    40
39.4341    57
39.4441    44
39.4541    49
39.4641    41
39.4741    43
39.4841    33
39.4941    54
39.5041    41
39.5141    48
39.5241    57
39.5341    39
39.5441    34
39.5541    45
39.5641    43
39.5741    40
39.5841    39
39.5941    43
39.6041    42
39.6141    40
39.6241    36
39.6341    45
39.6441    38
39.6541    31
39.6641    44
39.6741    37
39.6841    39
39.6941    43
39.7041    46
39.7141    58
39.7241    49
39.7341    32
39.7441    36
39.7541    28
39.7641    40
39.7741    46
39.7841    44
39.7941    41
39.8041    38
39.8141    42
39.8241    44
39.8341    35
39.8441    33
39.8541    45
39.8641    39
39.8741    38
39.8841    36
39.8941    48
39.9041    49
39.9141    36
39.9241    41
39.9341    48
39.9441    49
39.9541    48
39.9641    37
39.9741    47
39.9841    41
39.9941    40
