Bruker Nano GmbH Berlin, Germany
Esprit 1.9

Date: 4/1/2021 4:11:18 PM
Real time: 26128
Life time: 24550
Pulse density: 88213


Detector type: XFlash 430
Window type: Custom type
Detector thickness: 0.45
Si dead layer:0.029

Calibration, lin.: 10
Calibration, abs.: -955.9
Mn FWHM: 137.05
Fano factor: 0.121
Channels: 4096

Energy Counts
-0.9559     0
-0.9459     0
-0.9359     0
-0.9259     0
-0.9159     0
-0.9059     0
-0.8959     0
-0.8859     0
-0.8759     0
-0.8659     0
-0.8559     0
-0.8459     0
-0.8359     0
-0.8259     0
-0.8159     0
-0.8059     0
-0.7959     0
-0.7859     0
-0.7759     0
-0.7659     0
-0.7559     0
-0.7459     0
-0.7359     0
-0.7259     0
-0.7159     0
-0.7059     0
-0.6959     0
-0.6859     0
-0.6759     0
-0.6659     0
-0.6559     0
-0.6459     0
-0.6359     0
-0.6259     0
-0.6159     0
-0.6059     0
-0.5959     0
-0.5859     0
-0.5759     0
-0.5659     0
-0.5559     0
-0.5459     0
-0.5359     0
-0.5259     0
-0.5159     0
-0.5059     0
-0.4959     0
-0.4859     0
-0.4759     0
-0.4659     0
-0.4559     0
-0.4459     0
-0.4359     0
-0.4259     0
-0.4159     0
-0.4059     0
-0.3959     0
-0.3859     0
-0.3759     0
-0.3659     0
-0.3559     0
-0.3459     0
-0.3359     0
-0.3259     0
-0.3159     0
-0.3059     0
-0.2959     0
-0.2859     0
-0.2759     0
-0.2659     0
-0.2559     0
-0.2459     0
-0.2359     0
-0.2259     0
-0.2159     0
-0.2059     0
-0.1959     0
-0.1859     0
-0.1759     0
-0.1659     0
-0.1559     1
-0.1459     0
-0.1359     0
-0.1259     0
-0.1159     5
-0.1059    16
-0.0959    83
-0.0859   267
-0.0759   972
-0.0659  2839
-0.0559  7248
-0.0459 15436
-0.0359 29295
-0.0259 46984
-0.0159 64146
-0.0059 75302
 0.0041 75496
 0.0141 65260
 0.0241 48049
 0.0341 30154
 0.0441 16502
 0.0541  7668
 0.0641  3061
 0.0741  1030
 0.0841   307
 0.0941   103
 0.1041    28
 0.1141    11
 0.1241    14
 0.1341     8
 0.1441    13
 0.1541     3
 0.1641     5
 0.1741     1
 0.1841   234
 0.1941   407
 0.2041   405
 0.2141   391
 0.2241   392
 0.2341   391
 0.2441   423
 0.2541   373
 0.2641   404
 0.2741   429
 0.2841   392
 0.2941   373
 0.3041   388
 0.3141   389
 0.3241   375
 0.3341   363
 0.3441   381
 0.3541   344
 0.3641   359
 0.3741   344
 0.3841   361
 0.3941   352
 0.4041   356
 0.4141   350
 0.4241   350
 0.4341   354
 0.4441   348
 0.4541   333
 0.4641   328
 0.4741   352
 0.4841   359
 0.4941   343
 0.5041   330
 0.5141   328
 0.5241   331
 0.5341   333
 0.5441   333
 0.5541   331
 0.5641   347
 0.5741   335
 0.5841   327
 0.5941   340
 0.6041   313
 0.6141   289
 0.6241   302
 0.6341   301
 0.6441   304
 0.6541   303
 0.6641   314
 0.6741   337
 0.6841   311
 0.6941   291
 0.7041   293
 0.7141   295
 0.7241   278
 0.7341   266
 0.7441   285
 0.7541   287
 0.7641   302
 0.7741   315
 0.7841   282
 0.7941   278
 0.8041   283
 0.8141   292
 0.8241   300
 0.8341   293
 0.8441   310
 0.8541   286
 0.8641   280
 0.8741   293
 0.8841   261
 0.8941   258
 0.9041   258
 0.9141   269
 0.9241   268
 0.9341   284
 0.9441   262
 0.9541   266
 0.9641   277
 0.9741   264
 0.9841   265
 0.9941   267
 1.0041   229
 1.0141   266
 1.0241   288
 1.0341   252
 1.0441   281
 1.0541   240
 1.0641   267
 1.0741   277
 1.0841   259
 1.0941   245
 1.1041   255
 1.1141   246
 1.1241   247
 1.1341   253
 1.1441   255
 1.1541   254
 1.1641   253
 1.1741   264
 1.1841   253
 1.1941   255
 1.2041   248
 1.2141   247
 1.2241   253
 1.2341   231
 1.2441   253
 1.2541   239
 1.2641   252
 1.2741   236
 1.2841   230
 1.2941   215
 1.3041   233
 1.3141   245
 1.3241   245
 1.3341   231
 1.3441   240
 1.3541   225
 1.3641   227
 1.3741   236
 1.3841   216
 1.3941   221
 1.4041   217
 1.4141   209
 1.4241   233
 1.4341   230
 1.4441   224
 1.4541   232
 1.4641   228
 1.4741   227
 1.4841   216
 1.4941   240
 1.5041   238
 1.5141   240
 1.5241   231
 1.5341   208
 1.5441   219
 1.5541   222
 1.5641   211
 1.5741   240
 1.5841   200
 1.5941   208
 1.6041   212
 1.6141   231
 1.6241   223
 1.6341   250
 1.6441   270
 1.6541   263
 1.6641   323
 1.6741   384
 1.6841   467
 1.6941   605
 1.7041   669
 1.7141   802
 1.7241   902
 1.7341   919
 1.7441   920
 1.7541   857
 1.7641   786
 1.7741   667
 1.7841   588
 1.7941   475
 1.8041   420
 1.8141   334
 1.8241   297
 1.8341   274
 1.8441   282
 1.8541   241
 1.8641   281
 1.8741   251
 1.8841   214
 1.8941   242
 1.9041   249
 1.9141   237
 1.9241   218
 1.9341   201
 1.9441   232
 1.9541   240
 1.9641   247
 1.9741   244
 1.9841   259
 1.9941   269
 2.0041   259
 2.0141   278
 2.0241   292
 2.0341   263
 2.0441   283
 2.0541   272
 2.0641   234
 2.0741   215
 2.0841   231
 2.0941   227
 2.1041   225
 2.1141   224
 2.1241   200
 2.1341   208
 2.1441   196
 2.1541   229
 2.1641   185
 2.1741   182
 2.1841   202
 2.1941   217
 2.2041   203
 2.2141   192
 2.2241   177
 2.2341   206
 2.2441   207
 2.2541   194
 2.2641   191
 2.2741   189
 2.2841   175
 2.2941   196
 2.3041   198
 2.3141   194
 2.3241   177
 2.3341   169
 2.3441   187
 2.3541   185
 2.3641   172
 2.3741   181
 2.3841   177
 2.3941   186
 2.4041   172
 2.4141   178
 2.4241   189
 2.4341   183
 2.4441   189
 2.4541   185
 2.4641   171
 2.4741   169
 2.4841   178
 2.4941   170
 2.5041   186
 2.5141   176
 2.5241   190
 2.5341   161
 2.5441   174
 2.5541   169
 2.5641   176
 2.5741   173
 2.5841   173
 2.5941   161
 2.6041   175
 2.6141   151
 2.6241   154
 2.6341   155
 2.6441   164
 2.6541   148
 2.6641   148
 2.6741   149
 2.6841   148
 2.6941   144
 2.7041   172
 2.7141   158
 2.7241   170
 2.7341   151
 2.7441   149
 2.7541   170
 2.7641   162
 2.7741   139
 2.7841   177
 2.7941   166
 2.8041   166
 2.8141   181
 2.8241   175
 2.8341   163
 2.8441   158
 2.8541   162
 2.8641   159
 2.8741   174
 2.8841   155
 2.8941   157
 2.9041   154
 2.9141   167
 2.9241   147
 2.9341   158
 2.9441   142
 2.9541   132
 2.9641   148
 2.9741   169
 2.9841   140
 2.9941   170
 3.0041   154
 3.0141   147
 3.0241   149
 3.0341   142
 3.0441   166
 3.0541   149
 3.0641   152
 3.0741   141
 3.0841   143
 3.0941   168
 3.1041   164
 3.1141   131
 3.1241   149
 3.1341   151
 3.1441   131
 3.1541   144
 3.1641   123
 3.1741   135
 3.1841   116
 3.1941   143
 3.2041   134
 3.2141   150
 3.2241   157
 3.2341   158
 3.2441   179
 3.2541   171
 3.2641   197
 3.2741   215
 3.2841   242
 3.2941   269
 3.3041   237
 3.3141   215
 3.3241   255
 3.3341   235
 3.3441   207
 3.3541   201
 3.3641   197
 3.3741   191
 3.3841   164
 3.3941   139
 3.4041   139
 3.4141   160
 3.4241   137
 3.4341   130
 3.4441   125
 3.4541   126
 3.4641   107
 3.4741   130
 3.4841   130
 3.4941   141
 3.5041   150
 3.5141   151
 3.5241   143
 3.5341   141
 3.5441   151
 3.5541   178
 3.5641   222
 3.5741   246
 3.5841   269
 3.5941   320
 3.6041   372
 3.6141   497
 3.6241   659
 3.6341   752
 3.6441   921
 3.6541  1052
 3.6641  1187
 3.6741  1289
 3.6841  1367
 3.6941  1379
 3.7041  1350
 3.7141  1180
 3.7241  1092
 3.7341  1012
 3.7441   780
 3.7541   634
 3.7641   469
 3.7741   373
 3.7841   292
 3.7941   240
 3.8041   187
 3.8141   159
 3.8241   149
 3.8341   138
 3.8441   121
 3.8541    99
 3.8641   108
 3.8741   109
 3.8841   104
 3.8941   120
 3.9041   128
 3.9141   129
 3.9241   136
 3.9341   152
 3.9441   165
 3.9541   179
 3.9641   206
 3.9741   211
 3.9841   244
 3.9941   252
 4.0041   278
 4.0141   261
 4.0241   248
 4.0341   254
 4.0441   254
 4.0541   216
 4.0641   171
 4.0741   176
 4.0841   158
 4.0941   138
 4.1041   157
 4.1141   136
 4.1241   120
 4.1341   134
 4.1441   121
 4.1541    94
 4.1641   116
 4.1741   100
 4.1841   106
 4.1941    90
 4.2041   100
 4.2141    79
 4.2241    93
 4.2341    79
 4.2441    90
 4.2541   111
 4.2641    90
 4.2741    90
 4.2841    87
 4.2941    98
 4.3041   106
 4.3141    82
 4.3241   102
 4.3341    92
 4.3441   102
 4.3541   114
 4.3641   103
 4.3741   120
 4.3841   133
 4.3941   123
 4.4041   157
 4.4141   165
 4.4241   208
 4.4341   249
 4.4441   289
 4.4541   314
 4.4641   330
 4.4741   380
 4.4841   397
 4.4941   414
 4.5041   457
 4.5141   421
 4.5241   406
 4.5341   362
 4.5441   363
 4.5541   301
 4.5641   252
 4.5741   227
 4.5841   244
 4.5941   179
 4.6041   150
 4.6141   150
 4.6241   133
 4.6341   138
 4.6441   112
 4.6541   124
 4.6641   106
 4.6741   137
 4.6841   124
 4.6941   114
 4.7041   101
 4.7141   109
 4.7241   116
 4.7341    92
 4.7441    91
 4.7541   125
 4.7641   100
 4.7741   109
 4.7841   107
 4.7941   112
 4.8041   111
 4.8141   121
 4.8241   110
 4.8341   156
 4.8441   129
 4.8541   139
 4.8641   159
 4.8741   157
 4.8841   149
 4.8941   170
 4.9041   147
 4.9141   160
 4.9241   177
 4.9341   167
 4.9441   171
 4.9541   180
 4.9641   171
 4.9741   163
 4.9841   159
 4.9941   170
 5.0041   142
 5.0141   144
 5.0241   134
 5.0341   125
 5.0441   134
 5.0541   102
 5.0641   118
 5.0741   119
 5.0841   115
 5.0941   116
 5.1041   101
 5.1141   115
 5.1241   107
 5.1341   121
 5.1441   112
 5.1541   107
 5.1641   105
 5.1741   120
 5.1841   100
 5.1941    99
 5.2041   134
 5.2141   107
 5.2241   102
 5.2341   148
 5.2441   117
 5.2541   118
 5.2641   126
 5.2741   113
 5.2841    96
 5.2941   106
 5.3041   118
 5.3141   114
 5.3241   120
 5.3341   125
 5.3441   121
 5.3541   121
 5.3641   129
 5.3741   128
 5.3841   153
 5.3941   152
 5.4041   149
 5.4141   133
 5.4241   141
 5.4341   153
 5.4441   124
 5.4541   139
 5.4641   152
 5.4741   136
 5.4841   136
 5.4941   119
 5.5041   113
 5.5141   114
 5.5241   120
 5.5341   128
 5.5441   121
 5.5541   119
 5.5641   132
 5.5741   112
 5.5841   119
 5.5941   113
 5.6041   117
 5.6141   122
 5.6241   118
 5.6341   131
 5.6441   134
 5.6541   109
 5.6641   121
 5.6741   132
 5.6841   117
 5.6941   122
 5.7041   116
 5.7141   121
 5.7241   130
 5.7341   124
 5.7441   145
 5.7541   150
 5.7641   150
 5.7741   145
 5.7841   199
 5.7941   186
 5.8041   194
 5.8141   242
 5.8241   267
 5.8341   284
 5.8441   296
 5.8541   357
 5.8641   358
 5.8741   404
 5.8841   392
 5.8941   380
 5.9041   380
 5.9141   374
 5.9241   350
 5.9341   334
 5.9441   335
 5.9541   291
 5.9641   288
 5.9741   237
 5.9841   237
 5.9941   209
 6.0041   184
 6.0141   145
 6.0241   176
 6.0341   161
 6.0441   161
 6.0541   168
 6.0641   163
 6.0741   160
 6.0841   203
 6.0941   147
 6.1041   158
 6.1141   175
 6.1241   154
 6.1341   159
 6.1441   180
 6.1541   188
 6.1641   172
 6.1741   193
 6.1841   226
 6.1941   251
 6.2041   315
 6.2141   361
 6.2241   473
 6.2341   656
 6.2441   878
 6.2541  1155
 6.2641  1652
 6.2741  2165
 6.2841  2868
 6.2941  3932
 6.3041  5003
 6.3141  6279
 6.3241  7656
 6.3341  9111
 6.3441 10588
 6.3541 12217
 6.3641 13504
 6.3741 14809
 6.3841 15325
 6.3941 15678
 6.4041 15513
 6.4141 15215
 6.4241 14435
 6.4341 13202
 6.4441 11596
 6.4541 10299
 6.4641  8656
 6.4741  7203
 6.4841  5779
 6.4941  4500
 6.5041  3378
 6.5141  2585
 6.5241  1919
 6.5341  1386
 6.5441  1002
 6.5541   723
 6.5641   495
 6.5741   424
 6.5841   317
 6.5941   249
 6.6041   232
 6.6141   203
 6.6241   187
 6.6341   173
 6.6441   200
 6.6541   210
 6.6641   187
 6.6741   194
 6.6841   187
 6.6941   200
 6.7041   185
 6.7141   198
 6.7241   221
 6.7341   174
 6.7441   185
 6.7541   188
 6.7641   216
 6.7741   187
 6.7841   230
 6.7941   198
 6.8041   213
 6.8141   220
 6.8241   226
 6.8341   238
 6.8441   228
 6.8541   246
 6.8641   287
 6.8741   301
 6.8841   335
 6.8941   353
 6.9041   438
 6.9141   462
 6.9241   549
 6.9341   674
 6.9441   804
 6.9541  1024
 6.9641  1196
 6.9741  1411
 6.9841  1608
 6.9941  1947
 7.0041  2129
 7.0141  2300
 7.0241  2464
 7.0341  2560
 7.0441  2597
 7.0541  2676
 7.0641  2637
 7.0741  2604
 7.0841  2436
 7.0941  2101
 7.1041  2022
 7.1141  1798
 7.1241  1508
 7.1341  1323
 7.1441  1150
 7.1541   910
 7.1641   786
 7.1741   614
 7.1841   550
 7.1941   450
 7.2041   390
 7.2141   343
 7.2241   331
 7.2341   285
 7.2441   277
 7.2541   279
 7.2641   305
 7.2741   274
 7.2841   278
 7.2941   282
 7.3041   284
 7.3141   287
 7.3241   311
 7.3341   315
 7.3441   319
 7.3541   324
 7.3641   350
 7.3741   372
 7.3841   346
 7.3941   354
 7.4041   350
 7.4141   349
 7.4241   346
 7.4341   362
 7.4441   364
 7.4541   357
 7.4641   326
 7.4741   303
 7.4841   282
 7.4941   319
 7.5041   272
 7.5141   300
 7.5241   282
 7.5341   260
 7.5441   261
 7.5541   293
 7.5641   249
 7.5741   251
 7.5841   254
 7.5941   259
 7.6041   273
 7.6141   269
 7.6241   268
 7.6341   286
 7.6441   275
 7.6541   281
 7.6641   277
 7.6741   304
 7.6841   297
 7.6941   316
 7.7041   305
 7.7141   290
 7.7241   293
 7.7341   323
 7.7441   337
 7.7541   321
 7.7641   347
 7.7741   314
 7.7841   316
 7.7941   348
 7.8041   349
 7.8141   361
 7.8241   401
 7.8341   389
 7.8441   384
 7.8541   423
 7.8641   403
 7.8741   380
 7.8841   407
 7.8941   438
 7.9041   476
 7.9141   437
 7.9241   508
 7.9341   506
 7.9441   566
 7.9541   596
 7.9641   613
 7.9741   684
 7.9841   693
 7.9941   749
 8.0041   837
 8.0141   916
 8.0241   957
 8.0341   986
 8.0441  1039
 8.0541  1082
 8.0641  1169
 8.0741  1320
 8.0841  1411
 8.0941  1517
 8.1041  1570
 8.1141  1589
 8.1241  1680
 8.1341  1758
 8.1441  1694
 8.1541  1848
 8.1641  1895
 8.1741  1864
 8.1841  1965
 8.1941  2008
 8.2041  1980
 8.2141  2051
 8.2241  2079
 8.2341  2202
 8.2441  2224
 8.2541  2226
 8.2641  2379
 8.2741  2512
 8.2841  2747
 8.2941  2963
 8.3041  3302
 8.3141  3482
 8.3241  3747
 8.3341  4059
 8.3441  4254
 8.3541  4384
 8.3641  4617
 8.3741  4728
 8.3841  4843
 8.3941  4771
 8.4041  4666
 8.4141  4456
 8.4241  4391
 8.4341  3976
 8.4441  3529
 8.4541  3267
 8.4641  2795
 8.4741  2416
 8.4841  2111
 8.4941  1838
 8.5041  1537
 8.5141  1291
 8.5241  1085
 8.5341   908
 8.5441   793
 8.5541   698
 8.5641   643
 8.5741   560
 8.5841   545
 8.5941   521
 8.6041   534
 8.6141   486
 8.6241   485
 8.6341   500
 8.6441   488
 8.6541   508
 8.6641   476
 8.6741   473
 8.6841   469
 8.6941   459
 8.7041   469
 8.7141   465
 8.7241   445
 8.7341   452
 8.7441   460
 8.7541   453
 8.7641   463
 8.7741   437
 8.7841   442
 8.7941   456
 8.8041   443
 8.8141   430
 8.8241   435
 8.8341   437
 8.8441   435
 8.8541   464
 8.8641   448
 8.8741   454
 8.8841   474
 8.8941   476
 8.9041   483
 8.9141   475
 8.9241   491
 8.9341   473
 8.9441   503
 8.9541   480
 8.9641   500
 8.9741   520
 8.9841   526
 8.9941   523
 9.0041   511
 9.0141   508
 9.0241   576
 9.0341   521
 9.0441   545
 9.0541   564
 9.0641   663
 9.0741   624
 9.0841   603
 9.0941   649
 9.1041   699
 9.1141   706
 9.1241   706
 9.1341   744
 9.1441   816
 9.1541   810
 9.1641   861
 9.1741   877
 9.1841   924
 9.1941   957
 9.2041  1034
 9.2141  1024
 9.2241  1116
 9.2341  1185
 9.2441  1270
 9.2541  1312
 9.2641  1358
 9.2741  1410
 9.2841  1359
 9.2941  1504
 9.3041  1566
 9.3141  1608
 9.3241  1601
 9.3341  1720
 9.3441  1815
 9.3541  1832
 9.3641  1902
 9.3741  1986
 9.3841  2014
 9.3941  1943
 9.4041  2048
 9.4141  1940
 9.4241  1994
 9.4341  2136
 9.4441  2156
 9.4541  2105
 9.4641  2180
 9.4741  2237
 9.4841  2244
 9.4941  2312
 9.5041  2338
 9.5141  2440
 9.5241  2462
 9.5341  2602
 9.5441  2694
 9.5541  2754
 9.5641  3040
 9.5741  3140
 9.5841  3295
 9.5941  3463
 9.6041  3641
 9.6141  3776
 9.6241  4071
 9.6341  4243
 9.6441  4239
 9.6541  4341
 9.6641  4324
 9.6741  4209
 9.6841  4187
 9.6941  4168
 9.7041  4013
 9.7141  3782
 9.7241  3575
 9.7341  3282
 9.7441  3054
 9.7541  2832
 9.7641  2706
 9.7741  2422
 9.7841  2222
 9.7941  2106
 9.8041  1974
 9.8141  1874
 9.8241  1791
 9.8341  1795
 9.8441  1701
 9.8541  1684
 9.8641  1655
 9.8741  1727
 9.8841  1759
 9.8941  1823
 9.9041  1914
 9.9141  1886
 9.9241  1946
 9.9341  1968
 9.9441  1953
 9.9541  1932
 9.9641  1936
 9.9741  1874
 9.9841  1781
 9.9941  1691
10.0041  1637
10.0141  1511
10.0241  1378
10.0341  1289
10.0441  1192
10.0541  1044
10.0641   909
10.0741   787
10.0841   759
10.0941   693
10.1041   634
10.1141   542
10.1241   490
10.1341   459
10.1441   433
10.1541   422
10.1641   403
10.1741   388
10.1841   369
10.1941   359
10.2041   338
10.2141   317
10.2241   305
10.2341   315
10.2441   293
10.2541   274
10.2641   280
10.2741   284
10.2841   276
10.2941   301
10.3041   268
10.3141   254
10.3241   237
10.3341   233
10.3441   241
10.3541   260
10.3641   247
10.3741   277
10.3841   274
10.3941   252
10.4041   228
10.4141   257
10.4241   261
10.4341   254
10.4441   259
10.4541   272
10.4641   275
10.4741   249
10.4841   275
10.4941   269
10.5041   281
10.5141   309
10.5241   305
10.5341   283
10.5441   251
10.5541   259
10.5641   284
10.5741   303
10.5841   300
10.5941   288
10.6041   260
10.6141   280
10.6241   297
10.6341   304
10.6441   295
10.6541   317
10.6641   295
10.6741   318
10.6841   293
10.6941   315
10.7041   333
10.7141   359
10.7241   347
10.7341   322
10.7441   343
10.7541   361
10.7641   373
10.7741   373
10.7841   370
10.7941   365
10.8041   387
10.8141   421
10.8241   438
10.8341   420
10.8441   429
10.8541   438
10.8641   447
10.8741   467
10.8841   446
10.8941   452
10.9041   451
10.9141   480
10.9241   469
10.9341   462
10.9441   472
10.9541   450
10.9641   446
10.9741   456
10.9841   443
10.9941   423
11.0041   431
11.0141   439
11.0241   430
11.0341   428
11.0441   420
11.0541   438
11.0641   410
11.0741   389
11.0841   390
11.0941   388
11.1041   399
11.1141   402
11.1241   407
11.1341   403
11.1441   425
11.1541   426
11.1641   440
11.1741   437
11.1841   479
11.1941   492
11.2041   505
11.2141   526
11.2241   605
11.2341   626
11.2441   620
11.2541   622
11.2641   636
11.2741   684
11.2841   667
11.2941   638
11.3041   612
11.3141   641
11.3241   612
11.3341   577
11.3441   543
11.3541   492
11.3641   482
11.3741   476
11.3841   436
11.3941   397
11.4041   383
11.4141   369
11.4241   346
11.4341   331
11.4441   325
11.4541   329
11.4641   339
11.4741   320
11.4841   322
11.4941   307
11.5041   308
11.5141   330
11.5241   321
11.5341   321
11.5441   304
11.5541   289
11.5641   295
11.5741   324
11.5841   318
11.5941   327
11.6041   350
11.6141   317
11.6241   316
11.6341   303
11.6441   323
11.6541   350
11.6641   329
11.6741   315
11.6841   316
11.6941   305
11.7041   289
11.7141   279
11.7241   279
11.7341   273
11.7441   248
11.7541   242
11.7641   261
11.7741   257
11.7841   231
11.7941   228
11.8041   237
11.8141   245
11.8241   241
11.8341   234
11.8441   236
11.8541   223
11.8641   235
11.8741   230
11.8841   216
11.8941   222
11.9041   226
11.9141   233
11.9241   219
11.9341   236
11.9441   249
11.9541   216
11.9641   213
11.9741   225
11.9841   240
11.9941   233
12.0041   228
12.0141   250
12.0241   256
12.0341   251
12.0441   256
12.0541   255
12.0641   254
12.0741   250
12.0841   243
12.0941   252
12.1041   241
12.1141   237
12.1241   240
12.1341   252
12.1441   244
12.1541   226
12.1641   246
12.1741   245
12.1841   240
12.1941   236
12.2041   222
12.2141   222
12.2241   218
12.2341   228
12.2441   241
12.2541   239
12.2641   227
12.2741   234
12.2841   225
12.2941   225
12.3041   224
12.3141   212
12.3241   217
12.3341   243
12.3441   244
12.3541   233
12.3641   224
12.3741   239
12.3841   251
12.3941   242
12.4041   237
12.4141   234
12.4241   224
12.4341   247
12.4441   240
12.4541   230
12.4641   242
12.4741   251
12.4841   241
12.4941   220
12.5041   238
12.5141   245
12.5241   233
12.5341   239
12.5441   249
12.5541   246
12.5641   248
12.5741   266
12.5841   256
12.5941   255
12.6041   259
12.6141   247
12.6241   252
12.6341   255
12.6441   259
12.6541   275
12.6641   260
12.6741   276
12.6841   286
12.6941   266
12.7041   249
12.7141   237
12.7241   252
12.7341   268
12.7441   268
12.7541   272
12.7641   264
12.7741   266
12.7841   263
12.7941   268
12.8041   256
12.8141   262
12.8241   247
12.8341   229
12.8441   250
12.8541   260
12.8641   254
12.8741   260
12.8841   264
12.8941   266
12.9041   272
12.9141   282
12.9241   273
12.9341   260
12.9441   267
12.9541   278
12.9641   269
12.9741   257
12.9841   253
12.9941   271
13.0041   277
13.0141   264
13.0241   270
13.0341   282
13.0441   278
13.0541   279
13.0641   278
13.0741   279
13.0841   283
13.0941   274
13.1041   262
13.1141   265
13.1241   287
13.1341   278
13.1441   270
13.1541   293
13.1641   280
13.1741   293
13.1841   292
13.1941   297
13.2041   317
13.2141   312
13.2241   312
13.2341   329
13.2441   368
13.2541   359
13.2641   345
13.2741   354
13.2841   350
13.2941   366
13.3041   387
13.3141   405
13.3241   407
13.3341   397
13.3441   405
13.3541   415
13.3641   434
13.3741   436
13.3841   408
13.3941   404
13.4041   416
13.4141   408
13.4241   393
13.4341   388
13.4441   384
13.4541   374
13.4641   366
13.4741   359
13.4841   361
13.4941   365
13.5041   334
13.5141   312
13.5241   318
13.5341   317
13.5441   294
13.5541   305
13.5641   325
13.5741   313
13.5841   312
13.5941   317
13.6041   312
13.6141   298
13.6241   306
13.6341   318
13.6441   320
13.6541   319
13.6641   318
13.6741   316
13.6841   314
13.6941   311
13.7041   328
13.7141   335
13.7241   326
13.7341   328
13.7441   328
13.7541   323
13.7641   340
13.7741   344
13.7841   321
13.7941   333
13.8041   336
13.8141   317
13.8241   319
13.8341   326
13.8441   322
13.8541   325
13.8641   349
13.8741   356
13.8841   343
13.8941   330
13.9041   337
13.9141   343
13.9241   341
13.9341   356
13.9441   355
13.9541   338
13.9641   337
13.9741   363
13.9841   371
13.9941   372
14.0041   404
14.0141   418
14.0241   404
14.0341   394
14.0441   395
14.0541   391
14.0641   403
14.0741   431
14.0841   431
14.0941   432
14.1041   438
14.1141   440
14.1241   453
14.1341   465
14.1441   457
14.1541   444
14.1641   437
14.1741   437
14.1841   454
14.1941   452
14.2041   454
14.2141   470
14.2241   460
14.2341   426
14.2441   427
14.2541   429
14.2641   407
14.2741   421
14.2841   413
14.2941   391
14.3041   405
14.3141   393
14.3241   382
14.3341   379
14.3441   387
14.3541   399
14.3641   393
14.3741   383
14.3841   370
14.3941   381
14.4041   395
14.4141   381
14.4241   367
14.4341   382
14.4441   388
14.4541   373
14.4641   365
14.4741   383
14.4841   397
14.4941   388
14.5041   383
14.5141   380
14.5241   373
14.5341   378
14.5441   395
14.5541   392
14.5641   384
14.5741   390
14.5841   381
14.5941   379
14.6041   378
14.6141   386
14.6241   409
14.6341   405
14.6441   409
14.6541   408
14.6641   411
14.6741   422
14.6841   408
14.6941   416
14.7041   419
14.7141   412
14.7241   425
14.7341   425
14.7441   427
14.7541   418
14.7641   424
14.7741   421
14.7841   417
14.7941   421
14.8041   439
14.8141   460
14.8241   433
14.8341   414
14.8441   444
14.8541   470
14.8641   467
14.8741   454
14.8841   453
14.8941   452
14.9041   470
14.9141   478
14.9241   464
14.9341   472
14.9441   459
14.9541   463
14.9641   443
14.9741   459
14.9841   465
14.9941   476
15.0041   498
15.0141   475
15.0241   447
15.0341   447
15.0441   457
15.0541   433
15.0641   425
15.0741   442
15.0841   448
15.0941   438
15.1041   447
15.1141   448
15.1241   423
15.1341   455
15.1441   455
15.1541   435
15.1641   435
15.1741   426
15.1841   430
15.1941   418
15.2041   417
15.2141   433
15.2241   442
15.2341   473
15.2441   461
15.2541   431
15.2641   439
15.2741   437
15.2841   414
15.2941   422
15.3041   439
15.3141   451
15.3241   453
15.3341   431
15.3441   436
15.3541   471
15.3641   470
15.3741   474
15.3841   467
15.3941   430
15.4041   448
15.4141   467
15.4241   471
15.4341   483
15.4441   497
15.4541   482
15.4641   494
15.4741   497
15.4841   513
15.4941   529
15.5041   557
15.5141   563
15.5241   570
15.5341   614
15.5441   667
15.5541   730
15.5641   795
15.5741   844
15.5841   913
15.5941   969
15.6041  1084
15.6141  1135
15.6241  1213
15.6341  1312
15.6441  1348
15.6541  1468
15.6641  1570
15.6741  1640
15.6841  1791
15.6941  1854
15.7041  1873
15.7141  1896
15.7241  1971
15.7341  2033
15.7441  2040
15.7541  2053
15.7641  2002
15.7741  1943
15.7841  1902
15.7941  1848
15.8041  1798
15.8141  1721
15.8241  1609
15.8341  1573
15.8441  1513
15.8541  1423
15.8641  1331
15.8741  1198
15.8841  1075
15.8941  1015
15.9041   929
15.9141   857
15.9241   815
15.9341   752
15.9441   700
15.9541   663
15.9641   637
15.9741   584
15.9841   566
15.9941   563
16.0041   549
16.0141   547
16.0241   523
16.0341   507
16.0441   531
16.0541   530
16.0641   526
16.0741   521
16.0841   509
16.0941   499
16.1041   516
16.1141   520
16.1241   532
16.1341   528
16.1441   511
16.1541   546
16.1641   562
16.1741   531
16.1841   519
16.1941   520
16.2041   542
16.2141   530
16.2241   511
16.2341   508
16.2441   539
16.2541   507
16.2641   489
16.2741   496
16.2841   522
16.2941   523
16.3041   530
16.3141   512
16.3241   516
16.3341   559
16.3441   557
16.3541   540
16.3641   520
16.3741   533
16.3841   563
16.3941   552
16.4041   554
16.4141   537
16.4241   520
16.4341   537
16.4441   537
16.4541   554
16.4641   554
16.4741   544
16.4841   555
16.4941   574
16.5041   585
16.5141   546
16.5241   559
16.5341   582
16.5441   580
16.5541   549
16.5641   540
16.5741   536
16.5841   546
16.5941   578
16.6041   619
16.6141   597
16.6241   573
16.6341   553
16.6441   553
16.6541   573
16.6641   601
16.6741   577
16.6841   572
16.6941   590
16.7041   566
16.7141   575
16.7241   574
16.7341   577
16.7441   576
16.7541   575
16.7641   588
16.7741   593
16.7841   593
16.7941   572
16.8041   535
16.8141   565
16.8241   567
16.8341   551
16.8441   556
16.8541   569
16.8641   594
16.8741   600
16.8841   611
16.8941   593
16.9041   590
16.9141   589
16.9241   590
16.9341   592
16.9441   609
16.9541   618
16.9641   579
16.9741   572
16.9841   597
16.9941   606
17.0041   581
17.0141   590
17.0241   566
17.0341   579
17.0441   609
17.0541   608
17.0641   625
17.0741   606
17.0841   601
17.0941   606
17.1041   602
17.1141   606
17.1241   614
17.1341   601
17.1441   604
17.1541   610
17.1641   602
17.1741   603
17.1841   619
17.1941   618
17.2041   630
17.2141   590
17.2241   614
17.2341   605
17.2441   599
17.2541   594
17.2641   606
17.2741   623
17.2841   605
17.2941   625
17.3041   650
17.3141   611
17.3241   620
17.3341   588
17.3441   614
17.3541   615
17.3641   605
17.3741   598
17.3841   596
17.3941   624
17.4041   633
17.4141   644
17.4241   624
17.4341   619
17.4441   629
17.4541   647
17.4641   651
17.4741   664
17.4841   667
17.4941   675
17.5041   680
17.5141   741
17.5241   749
17.5341   750
17.5441   737
17.5541   768
17.5641   783
17.5741   797
17.5841   793
17.5941   851
17.6041   865
17.6141   817
17.6241   851
17.6341   902
17.6441   899
17.6541   889
17.6641   899
17.6741   879
17.6841   925
17.6941   886
17.7041   871
17.7141   850
17.7241   837
17.7341   836
17.7441   856
17.7541   843
17.7641   797
17.7741   769
17.7841   762
17.7941   733
17.8041   715
17.8141   734
17.8241   742
17.8341   712
17.8441   737
17.8541   732
17.8641   696
17.8741   703
17.8841   709
17.8941   728
17.9041   665
17.9141   691
17.9241   699
17.9341   703
17.9441   721
17.9541   705
17.9641   674
17.9741   696
17.9841   711
17.9941   700
18.0041   694
18.0141   704
18.0241   722
18.0341   698
18.0441   692
18.0541   704
18.0641   697
18.0741   687
18.0841   667
18.0941   684
18.1041   701
18.1141   652
18.1241   700
18.1341   661
18.1441   678
18.1541   661
18.1641   692
18.1741   648
18.1841   635
18.1941   731
18.2041   749
18.2141   674
18.2241   671
18.2341   667
18.2441   656
18.2541   673
18.2641   650
18.2741   707
18.2841   691
18.2941   693
18.3041   697
18.3141   671
18.3241   686
18.3341   681
18.3441   687
18.3541   682
18.3641   675
18.3741   694
18.3841   690
18.3941   695
18.4041   669
18.4141   675
18.4241   688
18.4341   683
18.4441   675
18.4541   706
18.4641   704
18.4741   702
18.4841   756
18.4941   710
18.5041   698
18.5141   676
18.5241   715
18.5341   690
18.5441   737
18.5541   722
18.5641   685
18.5741   716
18.5841   709
18.5941   709
18.6041   715
18.6141   704
18.6241   725
18.6341   750
18.6441   720
18.6541   681
18.6641   682
18.6741   674
18.6841   733
18.6941   694
18.7041   748
18.7141   718
18.7241   725
18.7341   688
18.7441   712
18.7541   725
18.7641   695
18.7741   733
18.7841   739
18.7941   687
18.8041   696
18.8141   704
18.8241   704
18.8341   768
18.8441   753
18.8541   710
18.8641   709
18.8741   716
18.8841   689
18.8941   731
18.9041   749
18.9141   744
18.9241   726
18.9341   737
18.9441   790
18.9541   744
18.9641   714
18.9741   762
18.9841   799
18.9941   729
19.0041   732
19.0141   737
19.0241   716
19.0341   739
19.0441   750
19.0541   734
19.0641   699
19.0741   763
19.0841   735
19.0941   736
19.1041   776
19.1141   711
19.1241   712
19.1341   738
19.1441   704
19.1541   704
19.1641   712
19.1741   755
19.1841   766
19.1941   754
19.2041   741
19.2141   757
19.2241   740
19.2341   760
19.2441   731
19.2541   747
19.2641   743
19.2741   780
19.2841   741
19.2941   745
19.3041   718
19.3141   702
19.3241   743
19.3341   760
19.3441   781
19.3541   771
19.3641   734
19.3741   773
19.3841   779
19.3941   778
19.4041   739
19.4141   755
19.4241   771
19.4341   776
19.4441   732
19.4541   712
19.4641   713
19.4741   773
19.4841   734
19.4941   775
19.5041   751
19.5141   740
19.5241   731
19.5341   739
19.5441   738
19.5541   748
19.5641   730
19.5741   737
19.5841   761
19.5941   746
19.6041   756
19.6141   776
19.6241   745
19.6341   735
19.6441   752
19.6541   748
19.6641   750
19.6741   741
19.6841   739
19.6941   797
19.7041   774
19.7141   769
19.7241   767
19.7341   771
19.7441   759
19.7541   714
19.7641   738
19.7741   741
19.7841   778
19.7941   749
19.8041   769
19.8141   748
19.8241   735
19.8341   704
19.8441   759
19.8541   789
19.8641   769
19.8741   716
19.8841   732
19.8941   751
19.9041   778
19.9141   748
19.9241   735
19.9341   781
19.9441   760
19.9541   746
19.9641   801
19.9741   758
19.9841   746
19.9941   744
20.0041   784
20.0141   809
20.0241   764
20.0341   713
20.0441   764
20.0541   725
20.0641   741
20.0741   795
20.0841   818
20.0941   744
20.1041   749
20.1141   754
20.1241   770
20.1341   757
20.1441   756
20.1541   713
20.1641   732
20.1741   787
20.1841   795
20.1941   833
20.2041   790
20.2141   780
20.2241   748
20.2341   778
20.2441   766
20.2541   751
20.2641   801
20.2741   753
20.2841   783
20.2941   788
20.3041   771
20.3141   782
20.3241   788
20.3341   796
20.3441   786
20.3541   787
20.3641   780
20.3741   763
20.3841   764
20.3941   784
20.4041   792
20.4141   796
20.4241   759
20.4341   793
20.4441   756
20.4541   802
20.4641   783
20.4741   743
20.4841   776
20.4941   759
20.5041   738
20.5141   750
20.5241   759
20.5341   774
20.5441   738
20.5541   756
20.5641   778
20.5741   778
20.5841   794
20.5941   758
20.6041   793
20.6141   801
20.6241   771
20.6341   761
20.6441   773
20.6541   763
20.6641   757
20.6741   777
20.6841   788
20.6941   776
20.7041   742
20.7141   785
20.7241   767
20.7341   763
20.7441   766
20.7541   800
20.7641   751
20.7741   782
20.7841   805
20.7941   794
20.8041   838
20.8141   803
20.8241   765
20.8341   788
20.8441   856
20.8541   842
20.8641   828
20.8741   821
20.8841   859
20.8941   843
20.9041   894
20.9141   901
20.9241   982
20.9341   892
20.9441   912
20.9541   924
20.9641   943
20.9741   987
20.9841   929
20.9941  1059
21.0041  1040
21.0141   967
21.0241  1052
21.0341  1049
21.0441  1036
21.0541  1120
21.0641  1079
21.0741  1125
21.0841  1121
21.0941  1150
21.1041  1128
21.1141  1070
21.1241  1122
21.1341  1161
21.1441  1135
21.1541  1114
21.1641  1104
21.1741  1204
21.1841  1077
21.1941  1115
21.2041  1072
21.2141  1020
21.2241  1031
21.2341   999
21.2441  1008
21.2541  1024
21.2641   987
21.2741  1021
21.2841   938
21.2941   917
21.3041   896
21.3141   899
21.3241   883
21.3341   890
21.3441   896
21.3541   813
21.3641   829
21.3741   846
21.3841   796
21.3941   801
21.4041   811
21.4141   748
21.4241   796
21.4341   797
21.4441   783
21.4541   762
21.4641   782
21.4741   819
21.4841   803
21.4941   787
21.5041   852
21.5141   773
21.5241   788
21.5341   815
21.5441   795
21.5541   831
21.5641   756
21.5741   775
21.5841   783
21.5941   786
21.6041   788
21.6141   763
21.6241   784
21.6341   796
21.6441   755
21.6541   721
21.6641   753
21.6741   774
21.6841   748
21.6941   791
21.7041   781
21.7141   757
21.7241   734
21.7341   773
21.7441   792
21.7541   789
21.7641   782
21.7741   738
21.7841   760
21.7941   765
21.8041   709
21.8141   820
21.8241   802
21.8341   787
21.8441   786
21.8541   792
21.8641   763
21.8741   774
21.8841   811
21.8941   783
21.9041   803
21.9141   785
21.9241   791
21.9341   738
21.9441   836
21.9541   830
21.9641   750
21.9741   760
21.9841   811
21.9941   760
22.0041   754
22.0141   795
22.0241   777
22.0341   798
22.0441   779
22.0541   782
22.0641   814
22.0741   772
22.0841   802
22.0941   791
22.1041   757
22.1141   817
22.1241   795
22.1341   765
22.1441   792
22.1541   758
22.1641   785
22.1741   760
22.1841   732
22.1941   741
22.2041   789
22.2141   771
22.2241   738
22.2341   804
22.2441   767
22.2541   780
22.2641   777
22.2741   790
22.2841   782
22.2941   762
22.3041   758
22.3141   767
22.3241   799
22.3341   765
22.3441   736
22.3541   767
22.3641   807
22.3741   782
22.3841   737
22.3941   768
22.4041   806
22.4141   765
22.4241   785
22.4341   766
22.4441   769
22.4541   728
22.4641   712
22.4741   783
22.4841   745
22.4941   765
22.5041   740
22.5141   735
22.5241   765
22.5341   745
22.5441   729
22.5541   758
22.5641   776
22.5741   750
22.5841   747
22.5941   818
22.6041   758
22.6141   799
22.6241   741
22.6341   782
22.6441   750
22.6541   717
22.6641   741
22.6741   774
22.6841   779
22.6941   745
22.7041   794
22.7141   777
22.7241   756
22.7341   786
22.7441   734
22.7541   764
22.7641   763
22.7741   788
22.7841   737
22.7941   741
22.8041   769
22.8141   754
22.8241   708
22.8341   786
22.8441   715
22.8541   776
22.8641   759
22.8741   739
22.8841   776
22.8941   743
22.9041   801
22.9141   722
22.9241   732
22.9341   716
22.9441   724
22.9541   720
22.9641   705
22.9741   728
22.9841   756
22.9941   749
23.0041   762
23.0141   797
23.0241   701
23.0341   724
23.0441   711
23.0541   756
23.0641   731
23.0741   754
23.0841   772
23.0941   773
23.1041   740
23.1141   740
23.1241   784
23.1341   725
23.1441   719
23.1541   765
23.1641   729
23.1741   734
23.1841   754
23.1941   768
23.2041   760
23.2141   707
23.2241   689
23.2341   758
23.2441   704
23.2541   687
23.2641   708
23.2741   656
23.2841   754
23.2941   721
23.3041   727
23.3141   785
23.3241   729
23.3341   723
23.3441   722
23.3541   728
23.3641   689
23.3741   713
23.3841   770
23.3941   741
23.4041   675
23.4141   668
23.4241   713
23.4341   701
23.4441   719
23.4541   785
23.4641   721
23.4741   735
23.4841   738
23.4941   706
23.5041   740
23.5141   707
23.5241   729
23.5341   670
23.5441   693
23.5541   748
23.5641   735
23.5741   756
23.5841   763
23.5941   737
23.6041   767
23.6141   750
23.6241   715
23.6341   726
23.6441   723
23.6541   741
23.6641   746
23.6741   749
23.6841   731
23.6941   772
23.7041   756
23.7141   733
23.7241   765
23.7341   821
23.7441   791
23.7541   760
23.7641   782
23.7741   732
23.7841   750
23.7941   789
23.8041   791
23.8141   772
23.8241   775
23.8341   740
23.8441   751
23.8541   763
23.8641   757
23.8741   742
23.8841   797
23.8941   760
23.9041   737
23.9141   759
23.9241   743
23.9341   744
23.9441   800
23.9541   755
23.9641   732
23.9741   705
23.9841   723
23.9941   732
24.0041   705
24.0141   708
24.0241   739
24.0341   725
24.0441   734
24.0541   663
24.0641   705
24.0741   699
24.0841   683
24.0941   695
24.1041   731
24.1141   735
24.1241   715
24.1341   679
24.1441   719
24.1541   677
24.1641   739
24.1741   702
24.1841   690
24.1941   717
24.2041   681
24.2141   724
24.2241   699
24.2341   693
24.2441   763
24.2541   682
24.2641   680
24.2741   692
24.2841   639
24.2941   719
24.3041   697
24.3141   741
24.3241   701
24.3341   688
24.3441   650
24.3541   669
24.3641   732
24.3741   707
24.3841   697
24.3941   714
24.4041   648
24.4141   704
24.4241   713
24.4341   716
24.4441   672
24.4541   670
24.4641   726
24.4741   677
24.4841   681
24.4941   656
24.5041   708
24.5141   673
24.5241   639
24.5341   658
24.5441   627
24.5541   689
24.5641   678
24.5741   722
24.5841   670
24.5941   651
24.6041   651
24.6141   637
24.6241   654
24.6341   709
24.6441   671
24.6541   698
24.6641   704
24.6741   700
24.6841   675
24.6941   650
24.7041   653
24.7141   707
24.7241   668
24.7341   665
24.7441   694
24.7541   658
24.7641   671
24.7741   687
24.7841   669
24.7941   686
24.8041   654
24.8141   646
24.8241   633
24.8341   625
24.8441   653
24.8541   610
24.8641   678
24.8741   687
24.8841   696
24.8941   691
24.9041   657
24.9141   630
24.9241   627
24.9341   672
24.9441   686
24.9541   694
24.9641   676
24.9741   657
24.9841   648
24.9941   666
25.0041   662
25.0141   680
25.0241   668
25.0341   701
25.0441   665
25.0541   692
25.0641   689
25.0741   677
25.0841   649
25.0941   667
25.1041   676
25.1141   702
25.1241   659
25.1341   655
25.1441   669
25.1541   663
25.1641   668
25.1741   622
25.1841   647
25.1941   653
25.2041   637
25.2141   640
25.2241   683
25.2341   661
25.2441   684
25.2541   666
25.2641   689
25.2741   699
25.2841   668
25.2941   643
25.3041   701
25.3141   622
25.3241   660
25.3341   631
25.3441   622
25.3541   651
25.3641   668
25.3741   666
25.3841   692
25.3941   653
25.4041   632
25.4141   619
25.4241   633
25.4341   642
25.4441   631
25.4541   633
25.4641   644
25.4741   611
25.4841   652
25.4941   638
25.5041   594
25.5141   639
25.5241   637
25.5341   650
25.5441   585
25.5541   633
25.5641   609
25.5741   611
25.5841   582
25.5941   607
25.6041   599
25.6141   635
25.6241   609
25.6341   599
25.6441   587
25.6541   593
25.6641   618
25.6741   604
25.6841   601
25.6941   613
25.7041   634
25.7141   638
25.7241   630
25.7341   611
25.7441   586
25.7541   595
25.7641   608
25.7741   612
25.7841   631
25.7941   623
25.8041   621
25.8141   642
25.8241   597
25.8341   602
25.8441   555
25.8541   603
25.8641   562
25.8741   577
25.8841   650
25.8941   625
25.9041   639
25.9141   576
25.9241   601
25.9341   612
25.9441   599
25.9541   578
25.9641   611
25.9741   626
25.9841   568
25.9941   611
26.0041   597
26.0141   573
26.0241   603
26.0341   578
26.0441   596
26.0541   579
26.0641   589
26.0741   586
26.0841   540
26.0941   594
26.1041   568
26.1141   546
26.1241   588
26.1341   568
26.1441   560
26.1541   568
26.1641   566
26.1741   598
26.1841   593
26.1941   568
26.2041   579
26.2141   583
26.2241   591
26.2341   602
26.2441   546
26.2541   597
26.2641   604
26.2741   582
26.2841   586
26.2941   574
26.3041   567
26.3141   540
26.3241   590
26.3341   597
26.3441   564
26.3541   577
26.3641   586
26.3741   600
26.3841   561
26.3941   606
26.4041   615
26.4141   620
26.4241   598
26.4341   593
26.4441   573
26.4541   522
26.4641   541
26.4741   557
26.4841   594
26.4941   567
26.5041   560
26.5141   567
26.5241   556
26.5341   598
26.5441   560
26.5541   581
26.5641   533
26.5741   573
26.5841   578
26.5941   551
26.6041   535
26.6141   588
26.6241   544
26.6341   561
26.6441   532
26.6541   574
26.6641   558
26.6741   534
26.6841   529
26.6941   543
26.7041   577
26.7141   548
26.7241   556
26.7341   563
26.7441   523
26.7541   549
26.7641   561
26.7741   561
26.7841   558
26.7941   505
26.8041   552
26.8141   539
26.8241   567
26.8341   518
26.8441   573
26.8541   549
26.8641   554
26.8741   508
26.8841   523
26.8941   538
26.9041   575
26.9141   518
26.9241   518
26.9341   533
26.9441   503
26.9541   517
26.9641   545
26.9741   519
26.9841   529
26.9941   529
27.0041   580
27.0141   541
27.0241   537
27.0341   588
27.0441   519
27.0541   513
27.0641   549
27.0741   526
27.0841   520
27.0941   557
27.1041   561
27.1141   540
27.1241   573
27.1341   510
27.1441   530
27.1541   473
27.1641   518
27.1741   544
27.1841   539
27.1941   551
27.2041   568
27.2141   567
27.2241   546
27.2341   488
27.2441   550
27.2541   528
27.2641   507
27.2741   545
27.2841   504
27.2941   521
27.3041   505
27.3141   536
27.3241   545
27.3341   496
27.3441   507
27.3541   503
27.3641   502
27.3741   509
27.3841   527
27.3941   545
27.4041   498
27.4141   534
27.4241   491
27.4341   524
27.4441   485
27.4541   542
27.4641   498
27.4741   509
27.4841   508
27.4941   502
27.5041   513
27.5141   518
27.5241   509
27.5341   525
27.5441   503
27.5541   531
27.5641   500
27.5741   505
27.5841   512
27.5941   496
27.6041   480
27.6141   477
27.6241   499
27.6341   490
27.6441   477
27.6541   483
27.6641   485
27.6741   489
27.6841   468
27.6941   484
27.7041   482
27.7141   504
27.7241   508
27.7341   474
27.7441   482
27.7541   540
27.7641   473
27.7741   457
27.7841   473
27.7941   461
27.8041   508
27.8141   482
27.8241   494
27.8341   482
27.8441   467
27.8541   452
27.8641   456
27.8741   499
27.8841   462
27.8941   469
27.9041   485
27.9141   487
27.9241   468
27.9341   465
27.9441   503
27.9541   499
27.9641   471
27.9741   475
27.9841   476
27.9941   499
28.0041   479
28.0141   468
28.0241   495
28.0341   434
28.0441   461
28.0541   438
28.0641   487
28.0741   448
28.0841   453
28.0941   477
28.1041   452
28.1141   458
28.1241   494
28.1341   465
28.1441   479
28.1541   450
28.1641   478
28.1741   475
28.1841   456
28.1941   443
28.2041   431
28.2141   474
28.2241   513
28.2341   427
28.2441   490
28.2541   455
28.2641   439
28.2741   434
28.2841   482
28.2941   484
28.3041   449
28.3141   464
28.3241   489
28.3341   461
28.3441   473
28.3541   444
28.3641   448
28.3741   476
28.3841   467
28.3941   452
28.4041   457
28.4141   443
28.4241   456
28.4341   452
28.4441   467
28.4541   469
28.4641   441
28.4741   452
28.4841   471
28.4941   464
28.5041   486
28.5141   457
28.5241   456
28.5341   460
28.5441   436
28.5541   417
28.5641   415
28.5741   432
28.5841   405
28.5941   476
28.6041   448
28.6141   411
28.6241   445
28.6341   453
28.6441   468
28.6541   410
28.6641   434
28.6741   471
28.6841   431
28.6941   436
28.7041   425
28.7141   431
28.7241   409
28.7341   415
28.7441   378
28.7541   409
28.7641   432
28.7741   436
28.7841   423
28.7941   445
28.8041   433
28.8141   417
28.8241   407
28.8341   426
28.8441   436
28.8541   440
28.8641   423
28.8741   441
28.8841   406
28.8941   407
28.9041   423
28.9141   399
28.9241   404
28.9341   419
28.9441   433
28.9541   417
28.9641   414
28.9741   388
28.9841   427
28.9941   401
29.0041   421
29.0141   431
29.0241   395
29.0341   381
29.0441   410
29.0541   404
29.0641   418
29.0741   431
29.0841   424
29.0941   406
29.1041   369
29.1141   408
29.1241   388
29.1341   425
29.1441   435
29.1541   394
29.1641   371
29.1741   409
29.1841   385
29.1941   425
29.2041   447
29.2141   401
29.2241   411
29.2341   400
29.2441   416
29.2541   394
29.2641   373
29.2741   388
29.2841   366
29.2941   396
29.3041   400
29.3141   415
29.3241   411
29.3341   382
29.3441   408
29.3541   427
29.3641   410
29.3741   366
29.3841   382
29.3941   385
29.4041   375
29.4141   364
29.4241   395
29.4341   428
29.4441   361
29.4541   362
29.4641   413
29.4741   367
29.4841   365
29.4941   388
29.5041   386
29.5141   398
29.5241   404
29.5341   386
29.5441   380
29.5541   398
29.5641   388
29.5741   360
29.5841   388
29.5941   434
29.6041   404
29.6141   396
29.6241   365
29.6341   360
29.6441   376
29.6541   392
29.6641   363
29.6741   387
29.6841   340
29.6941   378
29.7041   385
29.7141   386
29.7241   395
29.7341   376
29.7441   341
29.7541   392
29.7641   392
29.7741   348
29.7841   402
29.7941   353
29.8041   379
29.8141   394
29.8241   354
29.8341   356
29.8441   373
29.8541   376
29.8641   342
29.8741   371
29.8841   378
29.8941   335
29.9041   362
29.9141   352
29.9241   374
29.9341   382
29.9441   367
29.9541   362
29.9641   369
29.9741   345
29.9841   366
29.9941   393
30.0041   387
30.0141   367
30.0241   357
30.0341   355
30.0441   375
30.0541   384
30.0641   346
30.0741   356
30.0841   358
30.0941   390
30.1041   366
30.1141   333
30.1241   327
30.1341   343
30.1441   331
30.1541   362
30.1641   346
30.1741   360
30.1841   339
30.1941   355
30.2041   360
30.2141   349
30.2241   360
30.2341   346
30.2441   361
30.2541   358
30.2641   327
30.2741   320
30.2841   346
30.2941   349
30.3041   354
30.3141   328
30.3241   343
30.3341   340
30.3441   328
30.3541   365
30.3641   349
30.3741   341
30.3841   325
30.3941   309
30.4041   332
30.4141   328
30.4241   339
30.4341   353
30.4441   329
30.4541   334
30.4641   353
30.4741   321
30.4841   337
30.4941   337
30.5041   322
30.5141   348
30.5241   325
30.5341   320
30.5441   336
30.5541   335
30.5641   344
30.5741   326
30.5841   326
30.5941   344
30.6041   317
30.6141   332
30.6241   345
30.6341   318
30.6441   303
30.6541   290
30.6641   363
30.6741   318
30.6841   344
30.6941   329
30.7041   322
30.7141   350
30.7241   328
30.7341   298
30.7441   330
30.7541   331
30.7641   287
30.7741   322
30.7841   326
30.7941   355
30.8041   342
30.8141   326
30.8241   330
30.8341   333
30.8441   333
30.8541   350
30.8641   346
30.8741   308
30.8841   322
30.8941   336
30.9041   312
30.9141   310
30.9241   337
30.9341   317
30.9441   346
30.9541   319
30.9641   333
30.9741   292
30.9841   306
30.9941   319
31.0041   307
31.0141   330
31.0241   321
31.0341   301
31.0441   332
31.0541   279
31.0641   300
31.0741   283
31.0841   306
31.0941   283
31.1041   276
31.1141   285
31.1241   298
31.1341   320
31.1441   320
31.1541   313
31.1641   330
31.1741   278
31.1841   306
31.1941   301
31.2041   292
31.2141   273
31.2241   267
31.2341   303
31.2441   302
31.2541   288
31.2641   292
31.2741   280
31.2841   302
31.2941   306
31.3041   280
31.3141   292
31.3241   312
31.3341   292
31.3441   283
31.3541   275
31.3641   298
31.3741   260
31.3841   303
31.3941   311
31.4041   293
31.4141   291
31.4241   310
31.4341   279
31.4441   266
31.4541   271
31.4641   297
31.4741   280
31.4841   322
31.4941   270
31.5041   258
31.5141   290
31.5241   274
31.5341   274
31.5441   299
31.5541   284
31.5641   289
31.5741   315
31.5841   295
31.5941   268
31.6041   252
31.6141   271
31.6241   311
31.6341   291
31.6441   276
31.6541   274
31.6641   305
31.6741   296
31.6841   300
31.6941   314
31.7041   282
31.7141   293
31.7241   277
31.7341   284
31.7441   287
31.7541   290
31.7641   259
31.7741   273
31.7841   275
31.7941   309
31.8041   277
31.8141   279
31.8241   294
31.8341   295
31.8441   276
31.8541   256
31.8641   290
31.8741   284
31.8841   264
31.8941   270
31.9041   235
31.9141   272
31.9241   282
31.9341   298
31.9441   282
31.9541   259
31.9641   269
31.9741   266
31.9841   278
31.9941   298
32.0041   276
32.0141   250
32.0241   252
32.0341   263
32.0441   300
32.0541   257
32.0641   254
32.0741   299
32.0841   271
32.0941   271
32.1041   282
32.1141   289
32.1241   262
32.1341   286
32.1441   271
32.1541   281
32.1641   256
32.1741   284
32.1841   263
32.1941   291
32.2041   283
32.2141   259
32.2241   247
32.2341   278
32.2441   243
32.2541   249
32.2641   266
32.2741   262
32.2841   240
32.2941   251
32.3041   273
32.3141   293
32.3241   259
32.3341   245
32.3441   282
32.3541   258
32.3641   225
32.3741   255
32.3841   278
32.3941   259
32.4041   247
32.4141   231
32.4241   229
32.4341   234
32.4441   275
32.4541   254
32.4641   270
32.4741   236
32.4841   261
32.4941   219
32.5041   238
32.5141   222
32.5241   217
32.5341   251
32.5441   241
32.5541   231
32.5641   238
32.5741   240
32.5841   243
32.5941   255
32.6041   237
32.6141   231
32.6241   237
32.6341   257
32.6441   235
32.6541   252
32.6641   245
32.6741   252
32.6841   269
32.6941   235
32.7041   242
32.7141   213
32.7241   246
32.7341   232
32.7441   230
32.7541   215
32.7641   217
32.7741   246
32.7841   220
32.7941   226
32.8041   217
32.8141   218
32.8241   256
32.8341   235
32.8441   217
32.8541   228
32.8641   240
32.8741   226
32.8841   218
32.8941   246
32.9041   225
32.9141   243
32.9241   218
32.9341   199
32.9441   209
32.9541   204
32.9641   214
32.9741   206
32.9841   217
32.9941   223
33.0041   231
33.0141   221
33.0241   219
33.0341   203
33.0441   202
33.0541   197
33.0641   224
33.0741   220
33.0841   214
33.0941   190
33.1041   200
33.1141   206
33.1241   249
33.1341   244
33.1441   200
33.1541   219
33.1641   211
33.1741   209
33.1841   215
33.1941   210
33.2041   215
33.2141   197
33.2241   221
33.2341   217
33.2441   208
33.2541   173
33.2641   212
33.2741   218
33.2841   195
33.2941   213
33.3041   217
33.3141   221
33.3241   210
33.3341   198
33.3441   211
33.3541   217
33.3641   204
33.3741   189
33.3841   194
33.3941   224
33.4041   228
33.4141   196
33.4241   180
33.4341   212
33.4441   217
33.4541   216
33.4641   189
33.4741   173
33.4841   208
33.4941   214
33.5041   215
33.5141   228
33.5241   192
33.5341   174
33.5441   194
33.5541   203
33.5641   204
33.5741   186
33.5841   200
33.5941   210
33.6041   218
33.6141   215
33.6241   176
33.6341   192
33.6441   186
33.6541   189
33.6641   191
33.6741   188
33.6841   183
33.6941   189
33.7041   212
33.7141   195
33.7241   199
33.7341   223
33.7441   198
33.7541   176
33.7641   210
33.7741   214
33.7841   197
33.7941   197
33.8041   187
33.8141   197
33.8241   194
33.8341   228
33.8441   190
33.8541   188
33.8641   190
33.8741   212
33.8841   222
33.8941   200
33.9041   178
33.9141   178
33.9241   182
33.9341   177
33.9441   175
33.9541   198
33.9641   168
33.9741   210
33.9841   155
33.9941   186
34.0041   191
34.0141   195
34.0241   179
34.0341   185
34.0441   189
34.0541   175
34.0641   182
34.0741   166
34.0841   173
34.0941   193
34.1041   158
34.1141   174
34.1241   189
34.1341   197
34.1441   200
34.1541   176
34.1641   174
34.1741   153
34.1841   161
34.1941   195
34.2041   186
34.2141   179
34.2241   190
34.2341   189
34.2441   171
34.2541   164
34.2641   189
34.2741   176
34.2841   177
34.2941   172
34.3041   172
34.3141   172
34.3241   168
34.3341   154
34.3441   190
34.3541   167
34.3641   173
34.3741   185
34.3841   193
34.3941   177
34.4041   160
34.4141   154
34.4241   168
34.4341   164
34.4441   151
34.4541   171
34.4641   174
34.4741   168
34.4841   167
34.4941   161
34.5041   185
34.5141   172
34.5241   173
34.5341   177
34.5441   187
34.5541   155
34.5641   172
34.5741   159
34.5841   189
34.5941   172
34.6041   176
34.6141   157
34.6241   159
34.6341   173
34.6441   170
34.6541   166
34.6641   162
34.6741   160
34.6841   151
34.6941   164
34.7041   161
34.7141   142
34.7241   156
34.7341   152
34.7441   170
34.7541   152
34.7641   141
34.7741   159
34.7841   161
34.7941   152
34.8041   160
34.8141   155
34.8241   160
34.8341   155
34.8441   172
34.8541   182
34.8641   183
34.8741   168
34.8841   150
34.8941   156
34.9041   171
34.9141   170
34.9241   150
34.9341   152
34.9441   187
34.9541   162
34.9641   146
34.9741   132
34.9841   159
34.9941   153
35.0041   161
35.0141   150
35.0241   164
35.0341   154
35.0441   166
35.0541   153
35.0641   147
35.0741   140
35.0841   141
35.0941   141
35.1041   138
35.1141   146
35.1241   141
35.1341   171
35.1441   145
35.1541   157
35.1641   151
35.1741   144
35.1841   151
35.1941   150
35.2041   146
35.2141   144
35.2241   137
35.2341   115
35.2441   140
35.2541   144
35.2641   175
35.2741   157
35.2841   148
35.2941   137
35.3041   133
35.3141   154
35.3241   130
35.3341   146
35.3441   160
35.3541   122
35.3641   134
35.3741   149
35.3841   123
35.3941   154
35.4041   133
35.4141   145
35.4241   135
35.4341   155
35.4441   112
35.4541   132
35.4641   136
35.4741   140
35.4841   116
35.4941   128
35.5041   139
35.5141   133
35.5241   138
35.5341   142
35.5441   142
35.5541   119
35.5641   132
35.5741   126
35.5841   135
35.5941   135
35.6041   143
35.6141   140
35.6241   132
35.6341   137
35.6441   141
35.6541   123
35.6641   139
35.6741   133
35.6841   128
35.6941   123
35.7041   147
35.7141   113
35.7241   134
35.7341   136
35.7441   143
35.7541   121
35.7641   122
35.7741   144
35.7841   120
35.7941   145
35.8041   134
35.8141   128
35.8241   134
35.8341   122
35.8441   125
35.8541   111
35.8641   127
35.8741   106
35.8841   121
35.8941   118
35.9041   130
35.9141   125
35.9241   125
35.9341   112
35.9441   133
35.9541   116
35.9641   120
35.9741   120
35.9841   120
35.9941   137
36.0041   141
36.0141   117
36.0241   151
36.0341   109
36.0441   117
36.0541   139
36.0641   107
36.0741   131
36.0841   135
36.0941    94
36.1041   129
36.1141   124
36.1241   120
36.1341   123
36.1441   128
36.1541   125
36.1641   126
36.1741   128
36.1841   114
36.1941   113
36.2041   113
36.2141   118
36.2241    96
36.2341   108
36.2441   116
36.2541   106
36.2641   130
36.2741   130
36.2841   117
36.2941   119
36.3041   126
36.3141   105
36.3241   112
36.3341   112
36.3441   106
36.3541   119
36.3641   108
36.3741   111
36.3841   125
36.3941   124
36.4041   111
36.4141    99
36.4241   107
36.4341    93
36.4441    97
36.4541   109
36.4641   137
36.4741   120
36.4841   121
36.4941   110
36.5041   100
36.5141   108
36.5241   130
36.5341   106
36.5441    98
36.5541   126
36.5641    90
36.5741   119
36.5841    89
36.5941   101
36.6041   108
36.6141   108
36.6241   100
36.6341    92
36.6441   124
36.6541    99
36.6641   109
36.6741   103
36.6841   106
36.6941   116
36.7041   107
36.7141    86
36.7241    99
36.7341   108
36.7441   111
36.7541    88
36.7641   108
36.7741   113
36.7841   105
36.7941    97
36.8041   107
36.8141   111
36.8241   103
36.8341    94
36.8441    96
36.8541    88
36.8641    98
36.8741    97
36.8841   105
36.8941    92
36.9041   105
36.9141    94
36.9241   110
36.9341   104
36.9441    98
36.9541   112
36.9641    97
36.9741    87
36.9841    79
36.9941    91
37.0041    98
37.0141    89
37.0241   102
37.0341    99
37.0441   114
37.0541   101
37.0641   109
37.0741    97
37.0841   101
37.0941    90
37.1041    93
37.1141    75
37.1241    88
37.1341   102
37.1441   105
37.1541    93
37.1641    72
37.1741    81
37.1841    89
37.1941   103
37.2041    96
37.2141   105
37.2241    96
37.2341    95
37.2441    89
37.2541    97
37.2641   101
37.2741    83
37.2841   100
37.2941    99
37.3041    81
37.3141   100
37.3241    97
37.3341    93
37.3441    95
37.3541    87
37.3641    85
37.3741    84
37.3841   100
37.3941    78
37.4041    82
37.4141    88
37.4241    88
37.4341    92
37.4441    76
37.4541    76
37.4641    80
37.4741    72
37.4841    99
37.4941    76
37.5041    93
37.5141    77
37.5241   100
37.5341    78
37.5441    92
37.5541    87
37.5641    83
37.5741    93
37.5841    90
37.5941    81
37.6041    97
37.6141    82
37.6241    71
37.6341    75
37.6441    87
37.6541    79
37.6641    91
37.6741    83
37.6841    75
37.6941    95
37.7041    86
37.7141    62
37.7241    85
37.7341    87
37.7441    66
37.7541    82
37.7641    77
37.7741    83
37.7841    76
37.7941    71
37.8041    93
37.8141    61
37.8241    76
37.8341    81
37.8441    77
37.8541    67
37.8641    74
37.8741    87
37.8841    96
37.8941    74
37.9041    91
37.9141   102
37.9241    72
37.9341    61
37.9441    74
37.9541    86
37.9641    83
37.9741    77
37.9841    82
37.9941    79
38.0041    71
38.0141    65
38.0241    95
38.0341    82
38.0441    74
38.0541    66
38.0641    72
38.0741    79
38.0841    74
38.0941    74
38.1041    85
38.1141    59
38.1241    74
38.1341    65
38.1441    65
38.1541    79
38.1641    68
38.1741    75
38.1841    69
38.1941    94
38.2041    65
38.2141    72
38.2241    78
38.2341    59
38.2441    68
38.2541    69
38.2641    66
38.2741    84
38.2841    77
38.2941    69
38.3041    81
38.3141    80
38.3241    61
38.3341    61
38.3441    63
38.3541    70
38.3641    69
38.3741    61
38.3841    71
38.3941    72
38.4041    57
38.4141    57
38.4241    63
38.4341    61
38.4441    57
38.4541    66
38.4641    63
38.4741    60
38.4841    59
38.4941    63
38.5041    61
38.5141    68
38.5241    59
38.5341    61
38.5441    77
38.5541    71
38.5641    68
38.5741    67
38.5841    58
38.5941    67
38.6041    44
38.6141    71
38.6241    56
38.6341    66
38.6441    65
38.6541    59
38.6641    64
38.6741    60
38.6841    58
38.6941    69
38.7041    62
38.7141    57
38.7241    67
38.7341    59
38.7441    53
38.7541    45
38.7641    61
38.7741    57
38.7841    65
38.7941    65
38.8041    54
38.8141    56
38.8241    56
38.8341    72
38.8441    63
38.8541    61
38.8641    52
38.8741    72
38.8841    74
38.8941    55
38.9041    58
38.9141    54
38.9241    57
38.9341    62
38.9441    65
38.9541    64
38.9641    56
38.9741    60
38.9841    59
38.9941    60
39.0041    54
39.0141    67
39.0241    48
39.0341    49
39.0441    38
39.0541    60
39.0641    54
39.0741    53
39.0841    63
39.0941    55
39.1041    51
39.1141    60
39.1241    58
39.1341    48
39.1441    51
39.1541    56
39.1641    46
39.1741    66
39.1841    59
39.1941    53
39.2041    52
39.2141    60
39.2241    55
39.2341    46
39.2441    53
39.2541    54
39.2641    59
39.2741    55
39.2841    50
39.2941    53
39.3041    44
39.3141    45
39.3241    49
39.3341    46
39.3441    60
39.3541    41
39.3641    39
39.3741    48
39.3841    51
39.3941    47
39.4041    51
39.4141    45
39.4241    46
39.4341    49
39.4441    61
39.4541    38
39.4641    54
39.4741    40
39.4841    57
39.4941    39
39.5041    52
39.5141    45
39.5241    52
39.5341    51
39.5441    50
39.5541    48
39.5641    42
39.5741    32
39.5841    51
39.5941    45
39.6041    44
39.6141    45
39.6241    55
39.6341    41
39.6441    53
39.6541    46
39.6641    32
39.6741    53
39.6841    47
39.6941    38
39.7041    47
39.7141    45
39.7241    37
39.7341    44
39.7441    51
39.7541    37
39.7641    46
39.7741    38
39.7841    46
39.7941    38
39.8041    42
39.8141    47
39.8241    46
39.8341    35
39.8441    39
39.8541    40
39.8641    29
39.8741    34
39.8841    41
39.8941    34
39.9041    41
39.9141    41
39.9241    46
39.9341    42
39.9441    35
39.9541    40
39.9641    37
39.9741    32
39.9841    39
39.9941    42
