Bruker Nano GmbH Berlin, Germany
Esprit 1.9

Date: 4/1/2021 4:57:32 PM
Real time: 15317
Life time: 14039
Pulse density: 124718


Detector type: XFlash 430
Window type: Custom type
Detector thickness: 0.45
Si dead layer:0.029

Calibration, lin.: 10
Calibration, abs.: -955.9
Mn FWHM: 137.05
Fano factor: 0.121
Channels: 4095

Energy Counts
-0.9559     0
-0.9459     0
-0.9359     0
-0.9259     0
-0.9159     0
-0.9059     0
-0.8959     0
-0.8859     0
-0.8759     0
-0.8659     0
-0.8559     0
-0.8459     0
-0.8359     0
-0.8259     0
-0.8159     0
-0.8059     0
-0.7959     0
-0.7859     0
-0.7759     0
-0.7659     0
-0.7559     0
-0.7459     0
-0.7359     0
-0.7259     0
-0.7159     0
-0.7059     0
-0.6959     0
-0.6859     0
-0.6759     0
-0.6659     0
-0.6559     0
-0.6459     0
-0.6359     0
-0.6259     0
-0.6159     0
-0.6059     0
-0.5959     0
-0.5859     0
-0.5759     0
-0.5659     0
-0.5559     0
-0.5459     0
-0.5359     0
-0.5259     0
-0.5159     0
-0.5059     0
-0.4959     0
-0.4859     0
-0.4759     0
-0.4659     0
-0.4559     0
-0.4459     0
-0.4359     0
-0.4259     0
-0.4159     0
-0.4059     0
-0.3959     0
-0.3859     0
-0.3759     0
-0.3659     0
-0.3559     0
-0.3459     0
-0.3359     0
-0.3259     0
-0.3159     0
-0.3059     0
-0.2959     0
-0.2859     0
-0.2759     0
-0.2659     0
-0.2559     0
-0.2459     0
-0.2359     0
-0.2259     0
-0.2159     0
-0.2059     0
-0.1959     0
-0.1859     0
-0.1759     0
-0.1659     0
-0.1559     0
-0.1459     0
-0.1359     0
-0.1259     1
-0.1159     2
-0.1059    12
-0.0959    34
-0.0859   168
-0.0759   556
-0.0659  1630
-0.0559  4050
-0.0459  8981
-0.0359 16627
-0.0259 26660
-0.0159 36783
-0.0059 42761
 0.0041 43542
 0.0141 36939
 0.0241 27708
 0.0341 17393
 0.0441  9463
 0.0541  4441
 0.0641  1784
 0.0741   605
 0.0841   212
 0.0941    53
 0.1041    14
 0.1141     5
 0.1241     4
 0.1341    12
 0.1441     8
 0.1541     1
 0.1641     4
 0.1741     0
 0.1841   153
 0.1941   291
 0.2041   258
 0.2141   243
 0.2241   248
 0.2341   230
 0.2441   242
 0.2541   230
 0.2641   260
 0.2741   276
 0.2841   262
 0.2941   280
 0.3041   266
 0.3141   252
 0.3241   231
 0.3341   227
 0.3441   235
 0.3541   228
 0.3641   229
 0.3741   245
 0.3841   241
 0.3941   241
 0.4041   224
 0.4141   245
 0.4241   210
 0.4341   216
 0.4441   202
 0.4541   221
 0.4641   215
 0.4741   201
 0.4841   230
 0.4941   215
 0.5041   208
 0.5141   228
 0.5241   221
 0.5341   197
 0.5441   194
 0.5541   195
 0.5641   208
 0.5741   218
 0.5841   214
 0.5941   214
 0.6041   213
 0.6141   207
 0.6241   191
 0.6341   186
 0.6441   204
 0.6541   213
 0.6641   197
 0.6741   184
 0.6841   195
 0.6941   198
 0.7041   190
 0.7141   183
 0.7241   183
 0.7341   185
 0.7441   192
 0.7541   184
 0.7641   189
 0.7741   190
 0.7841   182
 0.7941   183
 0.8041   176
 0.8141   180
 0.8241   186
 0.8341   195
 0.8441   190
 0.8541   197
 0.8641   162
 0.8741   169
 0.8841   166
 0.8941   167
 0.9041   179
 0.9141   185
 0.9241   167
 0.9341   171
 0.9441   178
 0.9541   177
 0.9641   154
 0.9741   146
 0.9841   153
 0.9941   145
 1.0041   166
 1.0141   164
 1.0241   141
 1.0341   150
 1.0441   162
 1.0541   174
 1.0641   163
 1.0741   161
 1.0841   161
 1.0941   153
 1.1041   168
 1.1141   159
 1.1241   151
 1.1341   159
 1.1441   155
 1.1541   161
 1.1641   165
 1.1741   161
 1.1841   163
 1.1941   166
 1.2041   158
 1.2141   154
 1.2241   147
 1.2341   142
 1.2441   139
 1.2541   169
 1.2641   152
 1.2741   133
 1.2841   165
 1.2941   160
 1.3041   147
 1.3141   142
 1.3241   139
 1.3341   148
 1.3441   163
 1.3541   148
 1.3641   146
 1.3741   119
 1.3841   151
 1.3941   135
 1.4041   136
 1.4141   142
 1.4241   146
 1.4341   142
 1.4441   155
 1.4541   139
 1.4641   133
 1.4741   155
 1.4841   144
 1.4941   139
 1.5041   158
 1.5141   133
 1.5241   159
 1.5341   137
 1.5441   134
 1.5541   132
 1.5641   145
 1.5741   120
 1.5841   127
 1.5941   137
 1.6041   138
 1.6141   121
 1.6241   120
 1.6341   151
 1.6441   170
 1.6541   157
 1.6641   191
 1.6741   235
 1.6841   304
 1.6941   376
 1.7041   412
 1.7141   515
 1.7241   518
 1.7341   586
 1.7441   630
 1.7541   538
 1.7641   487
 1.7741   436
 1.7841   363
 1.7941   298
 1.8041   236
 1.8141   227
 1.8241   201
 1.8341   182
 1.8441   175
 1.8541   155
 1.8641   149
 1.8741   155
 1.8841   136
 1.8941   148
 1.9041   167
 1.9141   141
 1.9241   129
 1.9341   160
 1.9441   139
 1.9541   159
 1.9641   164
 1.9741   167
 1.9841   179
 1.9941   169
 2.0041   187
 2.0141   166
 2.0241   170
 2.0341   174
 2.0441   165
 2.0541   169
 2.0641   148
 2.0741   161
 2.0841   115
 2.0941   136
 2.1041   134
 2.1141   126
 2.1241   130
 2.1341   132
 2.1441   130
 2.1541   127
 2.1641   130
 2.1741   133
 2.1841   133
 2.1941   112
 2.2041   118
 2.2141   122
 2.2241   131
 2.2341   126
 2.2441   120
 2.2541   119
 2.2641   129
 2.2741   128
 2.2841   112
 2.2941   117
 2.3041   118
 2.3141    97
 2.3241   137
 2.3341   112
 2.3441   121
 2.3541   120
 2.3641   117
 2.3741   124
 2.3841   116
 2.3941   115
 2.4041   108
 2.4141   115
 2.4241   105
 2.4341   102
 2.4441   125
 2.4541   106
 2.4641   113
 2.4741   120
 2.4841   115
 2.4941   135
 2.5041   111
 2.5141   122
 2.5241   112
 2.5341   106
 2.5441    91
 2.5541    85
 2.5641   103
 2.5741   105
 2.5841    98
 2.5941    96
 2.6041   117
 2.6141   111
 2.6241   107
 2.6341   102
 2.6441   101
 2.6541   105
 2.6641    89
 2.6741    90
 2.6841   117
 2.6941   103
 2.7041   110
 2.7141    94
 2.7241   104
 2.7341    90
 2.7441   101
 2.7541    92
 2.7641    89
 2.7741    96
 2.7841   109
 2.7941   121
 2.8041   109
 2.8141   109
 2.8241   125
 2.8341    93
 2.8441   102
 2.8541   108
 2.8641    99
 2.8741   104
 2.8841    88
 2.8941   111
 2.9041    96
 2.9141   109
 2.9241   103
 2.9341   100
 2.9441    91
 2.9541    83
 2.9641    97
 2.9741    95
 2.9841   103
 2.9941    85
 3.0041   109
 3.0141    87
 3.0241    88
 3.0341    91
 3.0441    93
 3.0541    78
 3.0641    75
 3.0741    85
 3.0841    76
 3.0941    94
 3.1041    87
 3.1141    83
 3.1241    81
 3.1341    88
 3.1441    90
 3.1541   101
 3.1641    79
 3.1741    85
 3.1841    81
 3.1941    97
 3.2041   101
 3.2141   111
 3.2241   100
 3.2341   110
 3.2441   119
 3.2541   121
 3.2641   161
 3.2741   166
 3.2841   179
 3.2941   179
 3.3041   211
 3.3141   187
 3.3241   188
 3.3341   193
 3.3441   149
 3.3541   150
 3.3641   150
 3.3741   125
 3.3841   110
 3.3941   107
 3.4041   116
 3.4141    87
 3.4241    74
 3.4341    78
 3.4441    80
 3.4541    75
 3.4641    81
 3.4741    94
 3.4841    78
 3.4941    81
 3.5041    85
 3.5141    86
 3.5241    88
 3.5341    95
 3.5441   108
 3.5541   128
 3.5641   135
 3.5741   160
 3.5841   233
 3.5941   252
 3.6041   300
 3.6141   416
 3.6241   547
 3.6341   648
 3.6441   729
 3.6541   911
 3.6641   951
 3.6741  1074
 3.6841  1121
 3.6941  1115
 3.7041  1079
 3.7141   972
 3.7241   873
 3.7341   781
 3.7441   588
 3.7541   505
 3.7641   364
 3.7741   283
 3.7841   242
 3.7941   166
 3.8041   142
 3.8141   104
 3.8241    81
 3.8341    77
 3.8441    88
 3.8541    80
 3.8641    68
 3.8741    80
 3.8841    67
 3.8941    86
 3.9041    83
 3.9141    94
 3.9241   106
 3.9341   135
 3.9441   133
 3.9541   147
 3.9641   178
 3.9741   187
 3.9841   196
 3.9941   220
 4.0041   215
 4.0141   238
 4.0241   215
 4.0341   211
 4.0441   187
 4.0541   193
 4.0641   145
 4.0741   133
 4.0841   126
 4.0941   114
 4.1041   110
 4.1141    77
 4.1241    88
 4.1341    65
 4.1441    71
 4.1541    51
 4.1641    66
 4.1741    58
 4.1841    47
 4.1941    61
 4.2041    54
 4.2141    64
 4.2241    70
 4.2341    64
 4.2441    68
 4.2541    58
 4.2641    58
 4.2741    69
 4.2841    71
 4.2941    77
 4.3041    69
 4.3141    54
 4.3241    76
 4.3341    60
 4.3441    61
 4.3541    60
 4.3641    70
 4.3741    83
 4.3841   101
 4.3941    99
 4.4041   115
 4.4141   144
 4.4241   185
 4.4341   213
 4.4441   258
 4.4541   308
 4.4641   353
 4.4741   367
 4.4841   419
 4.4941   444
 4.5041   465
 4.5141   454
 4.5241   408
 4.5341   384
 4.5441   338
 4.5541   316
 4.5641   255
 4.5741   200
 4.5841   172
 4.5941   133
 4.6041   137
 4.6141   123
 4.6241   105
 4.6341    87
 4.6441   108
 4.6541    86
 4.6641    73
 4.6741    77
 4.6841    77
 4.6941    54
 4.7041    70
 4.7141    78
 4.7241    76
 4.7341    84
 4.7441    80
 4.7541    62
 4.7641    92
 4.7741    99
 4.7841    98
 4.7941   107
 4.8041   104
 4.8141   121
 4.8241   110
 4.8341   131
 4.8441   110
 4.8541   126
 4.8641   153
 4.8741   131
 4.8841   146
 4.8941   148
 4.9041   152
 4.9141   164
 4.9241   148
 4.9341   177
 4.9441   173
 4.9541   151
 4.9641   143
 4.9741   133
 4.9841   120
 4.9941    99
 5.0041   111
 5.0141   121
 5.0241    76
 5.0341    93
 5.0441    90
 5.0541    74
 5.0641    73
 5.0741    76
 5.0841    85
 5.0941    81
 5.1041    76
 5.1141    83
 5.1241    72
 5.1341    84
 5.1441    95
 5.1541    69
 5.1641    99
 5.1741   105
 5.1841    85
 5.1941    89
 5.2041    98
 5.2141    88
 5.2241   102
 5.2341    90
 5.2441   100
 5.2541   115
 5.2641   112
 5.2741   111
 5.2841    95
 5.2941   107
 5.3041   116
 5.3141   120
 5.3241   138
 5.3341   139
 5.3441   150
 5.3541   198
 5.3641   185
 5.3741   207
 5.3841   237
 5.3941   232
 5.4041   233
 5.4141   237
 5.4241   208
 5.4341   216
 5.4441   226
 5.4541   194
 5.4641   199
 5.4741   150
 5.4841   139
 5.4941   145
 5.5041   119
 5.5141   112
 5.5241   110
 5.5341   114
 5.5441   108
 5.5541   126
 5.5641    85
 5.5741    88
 5.5841    92
 5.5941    77
 5.6041    75
 5.6141    98
 5.6241    92
 5.6341    92
 5.6441    90
 5.6541    65
 5.6641    91
 5.6741   105
 5.6841    82
 5.6941    96
 5.7041   102
 5.7141    94
 5.7241    97
 5.7341   114
 5.7441   122
 5.7541   104
 5.7641   135
 5.7741   164
 5.7841   176
 5.7941   194
 5.8041   240
 5.8141   321
 5.8241   342
 5.8341   397
 5.8441   457
 5.8541   464
 5.8641   531
 5.8741   595
 5.8841   591
 5.8941   638
 5.9041   631
 5.9141   547
 5.9241   575
 5.9341   537
 5.9441   487
 5.9541   430
 5.9641   374
 5.9741   300
 5.9841   287
 5.9941   228
 6.0041   198
 6.0141   160
 6.0241   177
 6.0341   144
 6.0441   139
 6.0541   147
 6.0641   146
 6.0741   154
 6.0841   124
 6.0941   145
 6.1041   132
 6.1141   149
 6.1241   168
 6.1341   174
 6.1441   167
 6.1541   190
 6.1641   201
 6.1741   237
 6.1841   274
 6.1941   356
 6.2041   456
 6.2141   547
 6.2241   797
 6.2341  1091
 6.2441  1518
 6.2541  2062
 6.2641  3037
 6.2741  4099
 6.2841  5468
 6.2941  7113
 6.3041  9087
 6.3141 11647
 6.3241 14293
 6.3341 17406
 6.3441 20281
 6.3541 23057
 6.3641 25436
 6.3741 27419
 6.3841 29167
 6.3941 29818
 6.4041 29846
 6.4141 28845
 6.4241 27236
 6.4341 24883
 6.4441 22309
 6.4541 19406
 6.4641 16308
 6.4741 13451
 6.4841 10674
 6.4941  8284
 6.5041  6337
 6.5141  4685
 6.5241  3412
 6.5341  2431
 6.5441  1719
 6.5541  1194
 6.5641   837
 6.5741   575
 6.5841   439
 6.5941   357
 6.6041   270
 6.6141   222
 6.6241   177
 6.6341   186
 6.6441   165
 6.6541   176
 6.6641   148
 6.6741   141
 6.6841   184
 6.6941   169
 6.7041   170
 6.7141   175
 6.7241   169
 6.7341   167
 6.7441   187
 6.7541   159
 6.7641   183
 6.7741   185
 6.7841   189
 6.7941   205
 6.8041   214
 6.8141   212
 6.8241   219
 6.8341   252
 6.8441   257
 6.8541   282
 6.8641   334
 6.8741   363
 6.8841   457
 6.8941   508
 6.9041   670
 6.9141   742
 6.9241   932
 6.9341  1210
 6.9441  1517
 6.9541  1770
 6.9641  2083
 6.9741  2485
 6.9841  3055
 6.9941  3491
 7.0041  3888
 7.0141  4365
 7.0241  4625
 7.0341  4987
 7.0441  5150
 7.0541  5114
 7.0641  5159
 7.0741  4919
 7.0841  4611
 7.0941  4132
 7.1041  3768
 7.1141  3249
 7.1241  2700
 7.1341  2321
 7.1441  1872
 7.1541  1566
 7.1641  1199
 7.1741  1031
 7.1841   767
 7.1941   587
 7.2041   455
 7.2141   386
 7.2241   309
 7.2341   262
 7.2441   234
 7.2541   206
 7.2641   202
 7.2741   198
 7.2841   159
 7.2941   201
 7.3041   210
 7.3141   199
 7.3241   224
 7.3341   244
 7.3441   243
 7.3541   292
 7.3641   325
 7.3741   338
 7.3841   341
 7.3941   383
 7.4041   388
 7.4141   426
 7.4241   442
 7.4341   488
 7.4441   543
 7.4541   511
 7.4641   496
 7.4741   513
 7.4841   511
 7.4941   487
 7.5041   448
 7.5141   408
 7.5241   400
 7.5341   359
 7.5441   303
 7.5541   291
 7.5641   299
 7.5741   243
 7.5841   233
 7.5941   205
 7.6041   203
 7.6141   171
 7.6241   199
 7.6341   168
 7.6441   177
 7.6541   178
 7.6641   161
 7.6741   167
 7.6841   153
 7.6941   162
 7.7041   202
 7.7141   176
 7.7241   195
 7.7341   177
 7.7441   196
 7.7541   197
 7.7641   189
 7.7741   210
 7.7841   208
 7.7941   207
 7.8041   219
 7.8141   198
 7.8241   198
 7.8341   222
 7.8441   217
 7.8541   239
 7.8641   217
 7.8741   255
 7.8841   264
 7.8941   251
 7.9041   299
 7.9141   299
 7.9241   293
 7.9341   307
 7.9441   364
 7.9541   392
 7.9641   394
 7.9741   413
 7.9841   454
 7.9941   501
 8.0041   541
 8.0141   578
 8.0241   611
 8.0341   648
 8.0441   751
 8.0541   740
 8.0641   774
 8.0741   870
 8.0841   871
 8.0941   905
 8.1041   998
 8.1141   997
 8.1241  1029
 8.1341  1072
 8.1441  1092
 8.1541  1135
 8.1641  1181
 8.1741  1208
 8.1841  1198
 8.1941  1242
 8.2041  1268
 8.2141  1259
 8.2241  1270
 8.2341  1255
 8.2441  1220
 8.2541  1349
 8.2641  1368
 8.2741  1430
 8.2841  1545
 8.2941  1601
 8.3041  1720
 8.3141  1867
 8.3241  1951
 8.3341  2181
 8.3441  2293
 8.3541  2338
 8.3641  2475
 8.3741  2673
 8.3841  2519
 8.3941  2507
 8.4041  2493
 8.4141  2493
 8.4241  2292
 8.4341  2169
 8.4441  2009
 8.4541  1795
 8.4641  1580
 8.4741  1346
 8.4841  1180
 8.4941  1007
 8.5041   885
 8.5141   744
 8.5241   631
 8.5341   589
 8.5441   532
 8.5541   506
 8.5641   470
 8.5741   433
 8.5841   431
 8.5941   442
 8.6041   442
 8.6141   451
 8.6241   461
 8.6341   448
 8.6441   459
 8.6541   467
 8.6641   445
 8.6741   424
 8.6841   398
 8.6941   389
 8.7041   388
 8.7141   351
 8.7241   345
 8.7341   305
 8.7441   282
 8.7541   282
 8.7641   269
 8.7741   249
 8.7841   295
 8.7941   251
 8.8041   248
 8.8141   244
 8.8241   270
 8.8341   250
 8.8441   248
 8.8541   261
 8.8641   250
 8.8741   251
 8.8841   258
 8.8941   269
 8.9041   269
 8.9141   275
 8.9241   249
 8.9341   277
 8.9441   284
 8.9541   259
 8.9641   262
 8.9741   271
 8.9841   278
 8.9941   274
 9.0041   275
 9.0141   275
 9.0241   287
 9.0341   313
 9.0441   333
 9.0541   347
 9.0641   332
 9.0741   341
 9.0841   338
 9.0941   362
 9.1041   385
 9.1141   396
 9.1241   423
 9.1341   398
 9.1441   465
 9.1541   477
 9.1641   518
 9.1741   545
 9.1841   556
 9.1941   589
 9.2041   622
 9.2141   632
 9.2241   688
 9.2341   697
 9.2441   771
 9.2541   777
 9.2641   798
 9.2741   798
 9.2841   873
 9.2941   921
 9.3041   931
 9.3141   955
 9.3241   975
 9.3341  1056
 9.3441  1100
 9.3541  1068
 9.3641  1118
 9.3741  1116
 9.3841  1122
 9.3941  1191
 9.4041  1183
 9.4141  1252
 9.4241  1181
 9.4341  1241
 9.4441  1216
 9.4541  1229
 9.4641  1248
 9.4741  1223
 9.4841  1235
 9.4941  1316
 9.5041  1336
 9.5141  1381
 9.5241  1417
 9.5341  1406
 9.5441  1531
 9.5541  1543
 9.5641  1596
 9.5741  1722
 9.5841  1775
 9.5941  1905
 9.6041  2023
 9.6141  2082
 9.6241  2285
 9.6341  2238
 9.6441  2252
 9.6541  2349
 9.6641  2400
 9.6741  2401
 9.6841  2275
 9.6941  2200
 9.7041  2131
 9.7141  2080
 9.7241  1908
 9.7341  1776
 9.7441  1656
 9.7541  1512
 9.7641  1432
 9.7741  1339
 9.7841  1208
 9.7941  1097
 9.8041  1088
 9.8141  1015
 9.8241  1006
 9.8341   956
 9.8441   916
 9.8541   934
 9.8641   944
 9.8741   916
 9.8841   962
 9.8941   993
 9.9041  1009
 9.9141  1010
 9.9241   978
 9.9341  1005
 9.9441  1033
 9.9541   997
 9.9641   977
 9.9741   951
 9.9841   894
 9.9941   850
10.0041   875
10.0141   802
10.0241   725
10.0341   603
10.0441   586
10.0541   519
10.0641   481
10.0741   468
10.0841   387
10.0941   346
10.1041   327
10.1141   290
10.1241   255
10.1341   247
10.1441   250
10.1541   215
10.1641   205
10.1741   201
10.1841   207
10.1941   197
10.2041   188
10.2141   175
10.2241   175
10.2341   181
10.2441   156
10.2541   177
10.2641   167
10.2741   158
10.2841   153
10.2941   159
10.3041   155
10.3141   144
10.3241   143
10.3341   158
10.3441   145
10.3541   140
10.3641   143
10.3741   134
10.3841   140
10.3941   146
10.4041   128
10.4141   147
10.4241   148
10.4341   156
10.4441   134
10.4541   150
10.4641   149
10.4741   137
10.4841   139
10.4941   141
10.5041   165
10.5141   152
10.5241   164
10.5341   180
10.5441   168
10.5541   164
10.5641   166
10.5741   185
10.5841   185
10.5941   180
10.6041   177
10.6141   169
10.6241   164
10.6341   175
10.6441   183
10.6541   157
10.6641   176
10.6741   191
10.6841   167
10.6941   177
10.7041   192
10.7141   192
10.7241   186
10.7341   194
10.7441   203
10.7541   220
10.7641   208
10.7741   201
10.7841   233
10.7941   219
10.8041   244
10.8141   254
10.8241   254
10.8341   240
10.8441   242
10.8541   254
10.8641   259
10.8741   258
10.8841   263
10.8941   284
10.9041   267
10.9141   246
10.9241   251
10.9341   263
10.9441   276
10.9541   263
10.9641   260
10.9741   240
10.9841   261
10.9941   227
11.0041   249
11.0141   236
11.0241   227
11.0341   235
11.0441   229
11.0541   226
11.0641   243
11.0741   237
11.0841   224
11.0941   224
11.1041   227
11.1141   220
11.1241   251
11.1341   237
11.1441   242
11.1541   240
11.1641   240
11.1741   252
11.1841   286
11.1941   273
11.2041   290
11.2141   299
11.2241   324
11.2341   320
11.2441   323
11.2541   351
11.2641   356
11.2741   369
11.2841   336
11.2941   325
11.3041   333
11.3141   339
11.3241   327
11.3341   312
11.3441   287
11.3541   265
11.3641   274
11.3741   259
11.3841   260
11.3941   236
11.4041   259
11.4141   239
11.4241   206
11.4341   194
11.4441   191
11.4541   194
11.4641   197
11.4741   196
11.4841   184
11.4941   178
11.5041   186
11.5141   191
11.5241   192
11.5341   206
11.5441   180
11.5541   175
11.5641   177
11.5741   203
11.5841   194
11.5941   210
11.6041   203
11.6141   199
11.6241   206
11.6341   196
11.6441   188
11.6541   188
11.6641   188
11.6741   202
11.6841   182
11.6941   174
11.7041   200
11.7141   205
11.7241   180
11.7341   157
11.7441   165
11.7541   165
11.7641   161
11.7741   165
11.7841   159
11.7941   161
11.8041   143
11.8141   147
11.8241   161
11.8341   155
11.8441   166
11.8541   194
11.8641   183
11.8741   180
11.8841   177
11.8941   178
11.9041   169
11.9141   173
11.9241   177
11.9341   173
11.9441   168
11.9541   172
11.9641   175
11.9741   165
11.9841   154
11.9941   165
12.0041   163
12.0141   154
12.0241   163
12.0341   157
12.0441   141
12.0541   144
12.0641   154
12.0741   148
12.0841   135
12.0941   150
12.1041   141
12.1141   134
12.1241   140
12.1341   134
12.1441   136
12.1541   142
12.1641   142
12.1741   137
12.1841   131
12.1941   131
12.2041   135
12.2141   119
12.2241   127
12.2341   150
12.2441   155
12.2541   147
12.2641   152
12.2741   139
12.2841   132
12.2941   143
12.3041   156
12.3141   148
12.3241   155
12.3341   161
12.3441   150
12.3541   152
12.3641   154
12.3741   134
12.3841   117
12.3941   132
12.4041   145
12.4141   150
12.4241   154
12.4341   151
12.4441   151
12.4541   145
12.4641   150
12.4741   142
12.4841   136
12.4941   149
12.5041   159
12.5141   157
12.5241   161
12.5341   160
12.5441   152
12.5541   144
12.5641   154
12.5741   147
12.5841   152
12.5941   171
12.6041   167
12.6141   168
12.6241   171
12.6341   161
12.6441   159
12.6541   168
12.6641   168
12.6741   154
12.6841   145
12.6941   151
12.7041   165
12.7141   172
12.7241   170
12.7341   170
12.7441   171
12.7541   167
12.7641   166
12.7741   168
12.7841   171
12.7941   174
12.8041   171
12.8141   162
12.8241   161
12.8341   168
12.8441   171
12.8541   171
12.8641   180
12.8741   184
12.8841   179
12.8941   180
12.9041   183
12.9141   181
12.9241   183
12.9341   189
12.9441   189
12.9541   188
12.9641   186
12.9741   182
12.9841   179
12.9941   176
13.0041   170
13.0141   164
13.0241   178
13.0341   191
13.0441   189
13.0541   183
13.0641   172
13.0741   176
13.0841   183
13.0941   188
13.1041   176
13.1141   170
13.1241   183
13.1341   190
13.1441   189
13.1541   189
13.1641   191
13.1741   204
13.1841   205
13.1941   187
13.2041   187
13.2141   199
13.2241   217
13.2341   224
13.2441   229
13.2541   226
13.2641   236
13.2741   256
13.2841   268
13.2941   287
13.3041   279
13.3141   273
13.3241   283
13.3341   283
13.3441   275
13.3541   279
13.3641   300
13.3741   308
13.3841   297
13.3941   285
13.4041   287
13.4141   295
13.4241   298
13.4341   304
13.4441   305
13.4541   288
13.4641   269
13.4741   255
13.4841   243
13.4941   240
13.5041   240
13.5141   233
13.5241   225
13.5341   224
13.5441   223
13.5541   214
13.5641   206
13.5741   212
13.5841   223
13.5941   225
13.6041   218
13.6141   210
13.6241   211
13.6341   213
13.6441   203
13.6541   199
13.6641   221
13.6741   216
13.6841   204
13.6941   222
13.7041   216
13.7141   214
13.7241   216
13.7341   202
13.7441   198
13.7541   208
13.7641   209
13.7741   203
13.7841   209
13.7941   218
13.8041   226
13.8141   218
13.8241   214
13.8341   223
13.8441   233
13.8541   226
13.8641   216
13.8741   226
13.8841   234
13.8941   230
13.9041   230
13.9141   246
13.9241   257
13.9341   254
13.9441   250
13.9541   255
13.9641   267
13.9741   283
13.9841   303
13.9941   320
14.0041   337
14.0141   361
14.0241   381
14.0341   385
14.0441   382
14.0541   397
14.0641   428
14.0741   457
14.0841   477
14.0941   495
14.1041   518
14.1141   549
14.1241   570
14.1341   561
14.1441   539
14.1541   528
14.1641   530
14.1741   529
14.1841   513
14.1941   490
14.2041   472
14.2141   460
14.2241   449
14.2341   427
14.2441   394
14.2541   376
14.2641   372
14.2741   365
14.2841   332
14.2941   327
14.3041   339
14.3141   309
14.3241   305
14.3341   304
14.3441   287
14.3541   265
14.3641   255
14.3741   258
14.3841   243
14.3941   255
14.4041   274
14.4141   263
14.4241   237
14.4341   240
14.4441   253
14.4541   255
14.4641   262
14.4741   258
14.4841   254
14.4941   270
14.5041   259
14.5141   251
14.5241   262
14.5341   250
14.5441   240
14.5541   239
14.5641   237
14.5741   248
14.5841   261
14.5941   255
14.6041   252
14.6141   285
14.6241   280
14.6341   260
14.6441   253
14.6541   264
14.6641   259
14.6741   255
14.6841   291
14.6941   297
14.7041   270
14.7141   261
14.7241   272
14.7341   280
14.7441   278
14.7541   282
14.7641   289
14.7741   279
14.7841   274
14.7941   310
14.8041   314
14.8141   298
14.8241   291
14.8341   301
14.8441   304
14.8541   325
14.8641   326
14.8741   311
14.8841   316
14.8941   336
14.9041   352
14.9141   320
14.9241   315
14.9341   340
14.9441   342
14.9541   363
14.9641   365
14.9741   351
14.9841   348
14.9941   338
15.0041   332
15.0141   327
15.0241   326
15.0341   327
15.0441   322
15.0541   329
15.0641   321
15.0741   317
15.0841   328
15.0941   327
15.1041   316
15.1141   301
15.1241   309
15.1341   299
15.1441   298
15.1541   303
15.1641   303
15.1741   314
15.1841   308
15.1941   306
15.2041   310
15.2141   312
15.2241   309
15.2341   300
15.2441   292
15.2541   307
15.2641   302
15.2741   289
15.2841   287
15.2941   297
15.3041   299
15.3141   304
15.3241   306
15.3341   304
15.3441   320
15.3541   319
15.3641   329
15.3741   311
15.3841   315
15.3941   336
15.4041   303
15.4141   274
15.4241   308
15.4341   317
15.4441   307
15.4541   321
15.4641   325
15.4741   331
15.4841   339
15.4941   333
15.5041   327
15.5141   346
15.5241   351
15.5341   359
15.5441   354
15.5541   348
15.5641   364
15.5741   384
15.5841   369
15.5941   375
15.6041   402
15.6141   405
15.6241   396
15.6341   401
15.6441   441
15.6541   452
15.6641   488
15.6741   511
15.6841   473
15.6941   478
15.7041   505
15.7141   511
15.7241   519
15.7341   513
15.7441   526
15.7541   537
15.7641   523
15.7741   551
15.7841   557
15.7941   530
15.8041   529
15.8141   517
15.8241   485
15.8341   476
15.8441   476
15.8541   484
15.8641   465
15.8741   460
15.8841   484
15.8941   450
15.9041   416
15.9141   416
15.9241   416
15.9341   389
15.9441   398
15.9541   389
15.9641   390
15.9741   383
15.9841   366
15.9941   367
16.0041   371
16.0141   367
16.0241   381
16.0341   380
16.0441   373
16.0541   383
16.0641   373
16.0741   365
16.0841   349
16.0941   352
16.1041   368
16.1141   393
16.1241   408
16.1341   400
16.1441   389
16.1541   367
16.1641   389
16.1741   389
16.1841   363
16.1941   367
16.2041   356
16.2141   368
16.2241   386
16.2341   393
16.2441   372
16.2541   370
16.2641   385
16.2741   376
16.2841   384
16.2941   385
16.3041   367
16.3141   403
16.3241   415
16.3341   392
16.3441   391
16.3541   374
16.3641   375
16.3741   383
16.3841   392
16.3941   396
16.4041   389
16.4141   403
16.4241   418
16.4341   416
16.4441   410
16.4541   391
16.4641   387
16.4741   394
16.4841   383
16.4941   395
16.5041   409
16.5141   387
16.5241   396
16.5341   428
16.5441   424
16.5541   415
16.5641   404
16.5741   404
16.5841   383
16.5941   390
16.6041   418
16.6141   437
16.6241   440
16.6341   417
16.6441   403
16.6541   424
16.6641   434
16.6741   406
16.6841   401
16.6941   427
16.7041   436
16.7141   406
16.7241   410
16.7341   408
16.7441   419
16.7541   428
16.7641   435
16.7741   431
16.7841   403
16.7941   397
16.8041   423
16.8141   421
16.8241   420
16.8341   425
16.8441   425
16.8541   395
16.8641   415
16.8741   408
16.8841   398
16.8941   423
16.9041   446
16.9141   436
16.9241   409
16.9341   409
16.9441   413
16.9541   429
16.9641   432
16.9741   419
16.9841   404
16.9941   407
17.0041   411
17.0141   418
17.0241   431
17.0341   450
17.0441   416
17.0541   401
17.0641   461
17.0741   440
17.0841   396
17.0941   409
17.1041   430
17.1141   431
17.1241   415
17.1341   427
17.1441   431
17.1541   405
17.1641   421
17.1741   457
17.1841   446
17.1941   418
17.2041   435
17.2141   442
17.2241   443
17.2341   429
17.2441   416
17.2541   424
17.2641   432
17.2741   433
17.2841   421
17.2941   445
17.3041   467
17.3141   468
17.3241   463
17.3341   456
17.3441   459
17.3541   453
17.3641   460
17.3741   464
17.3841   454
17.3941   447
17.4041   464
17.4141   467
17.4241   457
17.4341   442
17.4441   458
17.4541   471
17.4641   448
17.4741   447
17.4841   433
17.4941   447
17.5041   455
17.5141   473
17.5241   505
17.5341   499
17.5441   445
17.5541   454
17.5641   462
17.5741   489
17.5841   482
17.5941   511
17.6041   481
17.6141   472
17.6241   491
17.6341   467
17.6441   471
17.6541   489
17.6641   499
17.6741   489
17.6841   478
17.6941   477
17.7041   492
17.7141   466
17.7241   465
17.7341   477
17.7441   458
17.7541   479
17.7641   476
17.7741   470
17.7841   474
17.7941   466
17.8041   478
17.8141   499
17.8241   478
17.8341   471
17.8441   479
17.8541   455
17.8641   494
17.8741   463
17.8841   472
17.8941   474
17.9041   493
17.9141   483
17.9241   452
17.9341   433
17.9441   466
17.9541   461
17.9641   451
17.9741   457
17.9841   456
17.9941   464
18.0041   485
18.0141   476
18.0241   491
18.0341   510
18.0441   516
18.0541   474
18.0641   471
18.0741   490
18.0841   479
18.0941   463
18.1041   459
18.1141   480
18.1241   477
18.1341   458
18.1441   458
18.1541   493
18.1641   504
18.1741   490
18.1841   495
18.1941   479
18.2041   481
18.2141   476
18.2241   486
18.2341   488
18.2441   456
18.2541   475
18.2641   496
18.2741   510
18.2841   484
18.2941   471
18.3041   491
18.3141   516
18.3241   492
18.3341   490
18.3441   498
18.3541   500
18.3641   471
18.3741   481
18.3841   514
18.3941   521
18.4041   466
18.4141   512
18.4241   484
18.4341   457
18.4441   486
18.4541   534
18.4641   504
18.4741   467
18.4841   457
18.4941   505
18.5041   483
18.5141   495
18.5241   511
18.5341   505
18.5441   483
18.5541   488
18.5641   489
18.5741   476
18.5841   461
18.5941   475
18.6041   489
18.6141   511
18.6241   473
18.6341   478
18.6441   494
18.6541   486
18.6641   493
18.6741   480
18.6841   475
18.6941   467
18.7041   496
18.7141   484
18.7241   520
18.7341   529
18.7441   469
18.7541   491
18.7641   525
18.7741   519
18.7841   516
18.7941   532
18.8041   508
18.8141   509
18.8241   515
18.8341   491
18.8441   495
18.8541   515
18.8641   513
18.8741   488
18.8841   532
18.8941   515
18.9041   531
18.9141   533
18.9241   513
18.9341   519
18.9441   510
18.9541   524
18.9641   539
18.9741   541
18.9841   534
18.9941   508
19.0041   522
19.0141   528
19.0241   534
19.0341   509
19.0441   514
19.0541   530
19.0641   496
19.0741   505
19.0841   540
19.0941   495
19.1041   522
19.1141   498
19.1241   478
19.1341   520
19.1441   522
19.1541   542
19.1641   524
19.1741   509
19.1841   507
19.1941   478
19.2041   516
19.2141   507
19.2241   510
19.2341   528
19.2441   521
19.2541   539
19.2641   525
19.2741   510
19.2841   537
19.2941   548
19.3041   560
19.3141   562
19.3241   555
19.3341   486
19.3441   505
19.3541   490
19.3641   516
19.3741   513
19.3841   504
19.3941   509
19.4041   517
19.4141   488
19.4241   532
19.4341   537
19.4441   494
19.4541   503
19.4641   505
19.4741   508
19.4841   522
19.4941   537
19.5041   534
19.5141   537
19.5241   520
19.5341   501
19.5441   552
19.5541   518
19.5641   539
19.5741   479
19.5841   472
19.5941   520
19.6041   539
19.6141   580
19.6241   520
19.6341   546
19.6441   537
19.6541   516
19.6641   541
19.6741   517
19.6841   507
19.6941   522
19.7041   515
19.7141   502
19.7241   524
19.7341   520
19.7441   546
19.7541   516
19.7641   518
19.7741   512
19.7841   519
19.7941   490
19.8041   528
19.8141   563
19.8241   558
19.8341   551
19.8441   544
19.8541   502
19.8641   537
19.8741   512
19.8841   534
19.8941   542
19.9041   509
19.9141   510
19.9241   528
19.9341   515
19.9441   516
19.9541   487
19.9641   508
19.9741   516
19.9841   519
19.9941   550
20.0041   524
20.0141   536
20.0241   514
20.0341   511
20.0441   547
20.0541   530
20.0641   556
20.0741   562
20.0841   515
20.0941   543
20.1041   532
20.1141   521
20.1241   484
20.1341   523
20.1441   510
20.1541   496
20.1641   532
20.1741   562
20.1841   563
20.1941   527
20.2041   492
20.2141   489
20.2241   563
20.2341   547
20.2441   515
20.2541   524
20.2641   500
20.2741   534
20.2841   548
20.2941   547
20.3041   532
20.3141   519
20.3241   520
20.3341   519
20.3441   513
20.3541   514
20.3641   527
20.3741   510
20.3841   530
20.3941   554
20.4041   530
20.4141   537
20.4241   520
20.4341   497
20.4441   512
20.4541   514
20.4641   529
20.4741   553
20.4841   537
20.4941   504
20.5041   540
20.5141   549
20.5241   526
20.5341   519
20.5441   552
20.5541   513
20.5641   561
20.5741   506
20.5841   541
20.5941   480
20.6041   521
20.6141   516
20.6241   536
20.6341   536
20.6441   545
20.6541   536
20.6641   549
20.6741   571
20.6841   536
20.6941   516
20.7041   551
20.7141   511
20.7241   517
20.7341   539
20.7441   554
20.7541   545
20.7641   560
20.7741   548
20.7841   528
20.7941   528
20.8041   559
20.8141   524
20.8241   566
20.8341   585
20.8441   540
20.8541   519
20.8641   549
20.8741   584
20.8841   602
20.8941   568
20.9041   602
20.9141   615
20.9241   562
20.9341   564
20.9441   622
20.9541   632
20.9641   598
20.9741   637
20.9841   666
20.9941   686
21.0041   678
21.0141   673
21.0241   740
21.0341   769
21.0441   709
21.0541   723
21.0641   663
21.0741   739
21.0841   749
21.0941   749
21.1041   696
21.1141   716
21.1241   738
21.1341   753
21.1441   781
21.1541   715
21.1641   743
21.1741   710
21.1841   716
21.1941   744
21.2041   736
21.2141   754
21.2241   674
21.2341   719
21.2441   693
21.2541   672
21.2641   692
21.2741   610
21.2841   646
21.2941   641
21.3041   594
21.3141   618
21.3241   585
21.3341   585
21.3441   542
21.3541   542
21.3641   542
21.3741   526
21.3841   597
21.3941   547
21.4041   549
21.4141   549
21.4241   533
21.4341   517
21.4441   549
21.4541   522
21.4641   556
21.4741   551
21.4841   550
21.4941   530
21.5041   508
21.5141   499
21.5241   496
21.5341   520
21.5441   535
21.5541   522
21.5641   530
21.5741   535
21.5841   526
21.5941   525
21.6041   532
21.6141   532
21.6241   525
21.6341   529
21.6441   516
21.6541   524
21.6641   536
21.6741   533
21.6841   511
21.6941   515
21.7041   526
21.7141   499
21.7241   548
21.7341   512
21.7441   544
21.7541   547
21.7641   505
21.7741   527
21.7841   517
21.7941   538
21.8041   512
21.8141   506
21.8241   554
21.8341   535
21.8441   518
21.8541   510
21.8641   512
21.8741   560
21.8841   500
21.8941   509
21.9041   512
21.9141   506
21.9241   507
21.9341   480
21.9441   503
21.9541   518
21.9641   529
21.9741   523
21.9841   506
21.9941   527
22.0041   503
22.0141   564
22.0241   558
22.0341   544
22.0441   539
22.0541   535
22.0641   529
22.0741   515
22.0841   522
22.0941   497
22.1041   556
22.1141   522
22.1241   500
22.1341   543
22.1441   533
22.1541   531
22.1641   505
22.1741   498
22.1841   557
22.1941   521
22.2041   518
22.2141   515
22.2241   481
22.2341   535
22.2441   525
22.2541   511
22.2641   529
22.2741   479
22.2841   529
22.2941   448
22.3041   514
22.3141   541
22.3241   526
22.3341   503
22.3441   505
22.3541   517
22.3641   508
22.3741   506
22.3841   490
22.3941   511
22.4041   502
22.4141   505
22.4241   503
22.4341   501
22.4441   511
22.4541   526
22.4641   519
22.4741   520
22.4841   537
22.4941   506
22.5041   501
22.5141   482
22.5241   529
22.5341   501
22.5441   457
22.5541   512
22.5641   520
22.5741   545
22.5841   471
22.5941   497
22.6041   525
22.6141   503
22.6241   518
22.6341   545
22.6441   478
22.6541   516
22.6641   510
22.6741   526
22.6841   466
22.6941   454
22.7041   485
22.7141   489
22.7241   494
22.7341   506
22.7441   517
22.7541   538
22.7641   509
22.7741   530
22.7841   530
22.7941   515
22.8041   501
22.8141   491
22.8241   502
22.8341   489
22.8441   494
22.8541   477
22.8641   536
22.8741   478
22.8841   503
22.8941   507
22.9041   494
22.9141   496
22.9241   489
22.9341   480
22.9441   483
22.9541   473
22.9641   503
22.9741   468
22.9841   484
22.9941   482
23.0041   458
23.0141   509
23.0241   489
23.0341   433
23.0441   475
23.0541   469
23.0641   469
23.0741   496
23.0841   493
23.0941   476
23.1041   485
23.1141   490
23.1241   477
23.1341   475
23.1441   464
23.1541   515
23.1641   465
23.1741   454
23.1841   461
23.1941   478
23.2041   474
23.2141   491
23.2241   497
23.2341   469
23.2441   489
23.2541   505
23.2641   468
23.2741   472
23.2841   481
23.2941   467
23.3041   477
23.3141   471
23.3241   494
23.3341   490
23.3441   454
23.3541   499
23.3641   446
23.3741   518
23.3841   458
23.3941   470
23.4041   465
23.4141   487
23.4241   478
23.4341   456
23.4441   465
23.4541   470
23.4641   485
23.4741   469
23.4841   460
23.4941   465
23.5041   411
23.5141   465
23.5241   455
23.5341   466
23.5441   478
23.5541   450
23.5641   473
23.5741   512
23.5841   484
23.5941   438
23.6041   487
23.6141   446
23.6241   512
23.6341   488
23.6441   462
23.6541   494
23.6641   467
23.6741   524
23.6841   496
23.6941   493
23.7041   512
23.7141   469
23.7241   498
23.7341   482
23.7441   528
23.7541   518
23.7641   482
23.7741   539
23.7841   555
23.7941   498
23.8041   518
23.8141   488
23.8241   520
23.8341   496
23.8441   501
23.8541   523
23.8641   468
23.8741   541
23.8841   520
23.8941   488
23.9041   496
23.9141   466
23.9241   484
23.9341   481
23.9441   477
23.9541   507
23.9641   480
23.9741   491
23.9841   459
23.9941   486
24.0041   459
24.0141   489
24.0241   458
24.0341   452
24.0441   468
24.0541   491
24.0641   455
24.0741   471
24.0841   460
24.0941   453
24.1041   457
24.1141   484
24.1241   461
24.1341   484
24.1441   471
24.1541   466
24.1641   420
24.1741   416
24.1841   437
24.1941   445
24.2041   438
24.2141   433
24.2241   447
24.2341   489
24.2441   460
24.2541   450
24.2641   467
24.2741   454
24.2841   450
24.2941   519
24.3041   456
24.3141   413
24.3241   444
24.3341   439
24.3441   488
24.3541   450
24.3641   466
24.3741   452
24.3841   497
24.3941   454
24.4041   421
24.4141   428
24.4241   429
24.4341   437
24.4441   460
24.4541   432
24.4641   451
24.4741   460
24.4841   454
24.4941   450
24.5041   432
24.5141   418
24.5241   433
24.5341   431
24.5441   441
24.5541   464
24.5641   448
24.5741   481
24.5841   462
24.5941   416
24.6041   409
24.6141   424
24.6241   443
24.6341   452
24.6441   426
24.6541   445
24.6641   429
24.6741   432
24.6841   421
24.6941   418
24.7041   474
24.7141   433
24.7241   425
24.7341   439
24.7441   423
24.7541   419
24.7641   443
24.7741   462
24.7841   407
24.7941   437
24.8041   415
24.8141   406
24.8241   420
24.8341   393
24.8441   436
24.8541   418
24.8641   434
24.8741   389
24.8841   414
24.8941   433
24.9041   441
24.9141   387
24.9241   431
24.9341   400
24.9441   446
24.9541   415
24.9641   404
24.9741   434
24.9841   396
24.9941   418
25.0041   408
25.0141   444
25.0241   447
25.0341   419
25.0441   424
25.0541   451
25.0641   415
25.0741   417
25.0841   413
25.0941   427
25.1041   412
25.1141   418
25.1241   439
25.1341   412
25.1441   426
25.1541   423
25.1641   393
25.1741   414
25.1841   425
25.1941   405
25.2041   397
25.2141   449
25.2241   398
25.2341   406
25.2441   425
25.2541   438
25.2641   431
25.2741   455
25.2841   415
25.2941   414
25.3041   443
25.3141   421
25.3241   430
25.3341   374
25.3441   445
25.3541   409
25.3641   406
25.3741   430
25.3841   418
25.3941   390
25.4041   395
25.4141   403
25.4241   412
25.4341   385
25.4441   400
25.4541   418
25.4641   417
25.4741   390
25.4841   417
25.4941   421
25.5041   376
25.5141   405
25.5241   399
25.5341   423
25.5441   375
25.5541   387
25.5641   421
25.5741   382
25.5841   377
25.5941   352
25.6041   405
25.6141   409
25.6241   365
25.6341   399
25.6441   421
25.6541   391
25.6641   385
25.6741   420
25.6841   396
25.6941   388
25.7041   343
25.7141   393
25.7241   370
25.7341   364
25.7441   389
25.7541   386
25.7641   360
25.7741   376
25.7841   393
25.7941   384
25.8041   393
25.8141   392
25.8241   365
25.8341   380
25.8441   400
25.8541   395
25.8641   385
25.8741   392
25.8841   366
25.8941   353
25.9041   372
25.9141   382
25.9241   372
25.9341   357
25.9441   376
25.9541   395
25.9641   380
25.9741   378
25.9841   421
25.9941   373
26.0041   391
26.0141   390
26.0241   371
26.0341   363
26.0441   397
26.0541   393
26.0641   429
26.0741   357
26.0841   354
26.0941   364
26.1041   367
26.1141   388
26.1241   361
26.1341   394
26.1441   368
26.1541   340
26.1641   363
26.1741   394
26.1841   369
26.1941   385
26.2041   367
26.2141   354
26.2241   393
26.2341   350
26.2441   376
26.2541   381
26.2641   349
26.2741   395
26.2841   362
26.2941   366
26.3041   375
26.3141   375
26.3241   367
26.3341   359
26.3441   365
26.3541   374
26.3641   374
26.3741   363
26.3841   361
26.3941   374
26.4041   411
26.4141   337
26.4241   336
26.4341   344
26.4441   336
26.4541   325
26.4641   380
26.4741   366
26.4841   374
26.4941   352
26.5041   383
26.5141   392
26.5241   363
26.5341   365
26.5441   354
26.5541   367
26.5641   342
26.5741   338
26.5841   386
26.5941   347
26.6041   364
26.6141   365
26.6241   362
26.6341   383
26.6441   340
26.6541   333
26.6641   333
26.6741   352
26.6841   334
26.6941   351
26.7041   354
26.7141   350
26.7241   342
26.7341   342
26.7441   353
26.7541   339
26.7641   341
26.7741   332
26.7841   358
26.7941   339
26.8041   327
26.8141   335
26.8241   365
26.8341   334
26.8441   371
26.8541   380
26.8641   339
26.8741   350
26.8841   349
26.8941   344
26.9041   324
26.9141   325
26.9241   340
26.9341   337
26.9441   335
26.9541   333
26.9641   344
26.9741   346
26.9841   331
26.9941   345
27.0041   352
27.0141   336
27.0241   344
27.0341   342
27.0441   338
27.0541   350
27.0641   354
27.0741   329
27.0841   331
27.0941   327
27.1041   348
27.1141   308
27.1241   332
27.1341   326
27.1441   317
27.1541   353
27.1641   343
27.1741   333
27.1841   314
27.1941   336
27.2041   325
27.2141   358
27.2241   358
27.2341   318
27.2441   306
27.2541   314
27.2641   336
27.2741   326
27.2841   340
27.2941   341
27.3041   326
27.3141   318
27.3241   318
27.3341   333
27.3441   338
27.3541   310
27.3641   319
27.3741   304
27.3841   329
27.3941   309
27.4041   358
27.4141   292
27.4241   330
27.4341   338
27.4441   350
27.4541   339
27.4641   340
27.4741   313
27.4841   309
27.4941   317
27.5041   335
27.5141   309
27.5241   311
27.5341   318
27.5441   322
27.5541   309
27.5641   320
27.5741   318
27.5841   339
27.5941   305
27.6041   327
27.6141   306
27.6241   333
27.6341   351
27.6441   299
27.6541   338
27.6641   313
27.6741   324
27.6841   283
27.6941   284
27.7041   311
27.7141   286
27.7241   286
27.7341   321
27.7441   295
27.7541   326
27.7641   316
27.7741   302
27.7841   297
27.7941   305
27.8041   326
27.8141   325
27.8241   291
27.8341   278
27.8441   310
27.8541   302
27.8641   309
27.8741   261
27.8841   298
27.8941   287
27.9041   313
27.9141   282
27.9241   295
27.9341   295
27.9441   323
27.9541   296
27.9641   305
27.9741   298
27.9841   304
27.9941   286
28.0041   294
28.0141   296
28.0241   297
28.0341   272
28.0441   303
28.0541   313
28.0641   299
28.0741   315
28.0841   297
28.0941   283
28.1041   289
28.1141   321
28.1241   288
28.1341   306
28.1441   285
28.1541   287
28.1641   298
28.1741   258
28.1841   281
28.1941   286
28.2041   293
28.2141   287
28.2241   300
28.2341   277
28.2441   292
28.2541   288
28.2641   258
28.2741   295
28.2841   310
28.2941   263
28.3041   288
28.3141   261
28.3241   279
28.3341   271
28.3441   318
28.3541   313
28.3641   300
28.3741   289
28.3841   305
28.3941   284
28.4041   291
28.4141   316
28.4241   286
28.4341   263
28.4441   278
28.4541   311
28.4641   296
28.4741   315
28.4841   294
28.4941   307
28.5041   282
28.5141   285
28.5241   275
28.5341   287
28.5441   294
28.5541   245
28.5641   258
28.5741   286
28.5841   263
28.5941   273
28.6041   260
28.6141   283
28.6241   243
28.6341   278
28.6441   278
28.6541   269
28.6641   265
28.6741   281
28.6841   272
28.6941   263
28.7041   292
28.7141   276
28.7241   271
28.7341   288
28.7441   292
28.7541   266
28.7641   282
28.7741   273
28.7841   260
28.7941   240
28.8041   245
28.8141   241
28.8241   277
28.8341   257
28.8441   268
28.8541   277
28.8641   277
28.8741   278
28.8841   269
28.8941   274
28.9041   277
28.9141   259
28.9241   268
28.9341   265
28.9441   249
28.9541   276
28.9641   266
28.9741   250
28.9841   267
28.9941   266
29.0041   249
29.0141   276
29.0241   254
29.0341   260
29.0441   239
29.0541   264
29.0641   236
29.0741   252
29.0841   260
29.0941   277
29.1041   254
29.1141   239
29.1241   268
29.1341   236
29.1441   245
29.1541   235
29.1641   241
29.1741   238
29.1841   240
29.1941   229
29.2041   251
29.2141   267
29.2241   255
29.2341   240
29.2441   264
29.2541   244
29.2641   235
29.2741   249
29.2841   242
29.2941   238
29.3041   241
29.3141   238
29.3241   264
29.3341   239
29.3441   233
29.3541   246
29.3641   222
29.3741   227
29.3841   262
29.3941   261
29.4041   266
29.4141   270
29.4241   238
29.4341   257
29.4441   254
29.4541   222
29.4641   241
29.4741   247
29.4841   243
29.4941   261
29.5041   242
29.5141   215
29.5241   249
29.5341   215
29.5441   242
29.5541   231
29.5641   235
29.5741   241
29.5841   263
29.5941   245
29.6041   263
29.6141   231
29.6241   247
29.6341   234
29.6441   234
29.6541   227
29.6641   248
29.6741   214
29.6841   236
29.6941   249
29.7041   240
29.7141   247
29.7241   242
29.7341   235
29.7441   228
29.7541   243
29.7641   223
29.7741   250
29.7841   239
29.7941   243
29.8041   229
29.8141   214
29.8241   237
29.8341   228
29.8441   235
29.8541   230
29.8641   221
29.8741   202
29.8841   220
29.8941   226
29.9041   226
29.9141   209
29.9241   231
29.9341   220
29.9441   216
29.9541   210
29.9641   239
29.9741   205
29.9841   232
29.9941   226
30.0041   231
30.0141   242
30.0241   226
30.0341   226
30.0441   209
30.0541   204
30.0641   226
30.0741   228
30.0841   222
30.0941   236
30.1041   230
30.1141   195
30.1241   223
30.1341   214
30.1441   225
30.1541   212
30.1641   229
30.1741   213
30.1841   231
30.1941   211
30.2041   241
30.2141   215
30.2241   217
30.2341   201
30.2441   184
30.2541   202
30.2641   225
30.2741   203
30.2841   223
30.2941   208
30.3041   208
30.3141   229
30.3241   218
30.3341   196
30.3441   224
30.3541   207
30.3641   215
30.3741   212
30.3841   195
30.3941   191
30.4041   220
30.4141   216
30.4241   204
30.4341   201
30.4441   201
30.4541   203
30.4641   243
30.4741   214
30.4841   210
30.4941   232
30.5041   203
30.5141   195
30.5241   211
30.5341   222
30.5441   216
30.5541   229
30.5641   218
30.5741   201
30.5841   197
30.5941   206
30.6041   217
30.6141   218
30.6241   192
30.6341   205
30.6441   205
30.6541   195
30.6641   184
30.6741   199
30.6841   193
30.6941   196
30.7041   199
30.7141   205
30.7241   201
30.7341   195
30.7441   187
30.7541   190
30.7641   206
30.7741   164
30.7841   217
30.7941   197
30.8041   198
30.8141   206
30.8241   207
30.8341   205
30.8441   227
30.8541   211
30.8641   188
30.8741   203
30.8841   205
30.8941   203
30.9041   199
30.9141   205
30.9241   201
30.9341   189
30.9441   177
30.9541   179
30.9641   197
30.9741   186
30.9841   195
30.9941   200
31.0041   182
31.0141   188
31.0241   177
31.0341   210
31.0441   192
31.0541   182
31.0641   197
31.0741   196
31.0841   187
31.0941   194
31.1041   157
31.1141   186
31.1241   188
31.1341   193
31.1441   192
31.1541   191
31.1641   193
31.1741   182
31.1841   192
31.1941   165
31.2041   179
31.2141   199
31.2241   179
31.2341   201
31.2441   180
31.2541   190
31.2641   177
31.2741   197
31.2841   185
31.2941   175
31.3041   185
31.3141   201
31.3241   172
31.3341   169
31.3441   188
31.3541   165
31.3641   170
31.3741   177
31.3841   209
31.3941   182
31.4041   200
31.4141   167
31.4241   191
31.4341   174
31.4441   176
31.4541   199
31.4641   181
31.4741   183
31.4841   173
31.4941   192
31.5041   184
31.5141   180
31.5241   166
31.5341   168
31.5441   176
31.5541   181
31.5641   179
31.5741   170
31.5841   157
31.5941   155
31.6041   180
31.6141   182
31.6241   191
31.6341   184
31.6441   181
31.6541   168
31.6641   190
31.6741   150
31.6841   173
31.6941   172
31.7041   193
31.7141   208
31.7241   182
31.7341   159
31.7441   183
31.7541   174
31.7641   172
31.7741   183
31.7841   185
31.7941   172
31.8041   178
31.8141   148
31.8241   138
31.8341   167
31.8441   165
31.8541   167
31.8641   185
31.8741   163
31.8841   166
31.8941   171
31.9041   172
31.9141   185
31.9241   171
31.9341   168
31.9441   145
31.9541   160
31.9641   166
31.9741   174
31.9841   163
31.9941   164
32.0041   171
32.0141   170
32.0241   168
32.0341   178
32.0441   182
32.0541   158
32.0641   182
32.0741   185
32.0841   151
32.0941   175
32.1041   181
32.1141   161
32.1241   199
32.1341   155
32.1441   182
32.1541   166
32.1641   170
32.1741   166
32.1841   159
32.1941   165
32.2041   158
32.2141   151
32.2241   184
32.2341   167
32.2441   171
32.2541   150
32.2641   137
32.2741   143
32.2841   159
32.2941   165
32.3041   186
32.3141   161
32.3241   172
32.3341   148
32.3441   149
32.3541   153
32.3641   146
32.3741   156
32.3841   169
32.3941   150
32.4041   172
32.4141   169
32.4241   157
32.4341   164
32.4441   161
32.4541   149
32.4641   128
32.4741   168
32.4841   164
32.4941   144
32.5041   118
32.5141   150
32.5241   161
32.5341   162
32.5441   159
32.5541   158
32.5641   140
32.5741   132
32.5841   153
32.5941   123
32.6041   144
32.6141   155
32.6241   151
32.6341   130
32.6441   167
32.6541   142
32.6641   160
32.6741   129
32.6841   130
32.6941   140
32.7041   123
32.7141   130
32.7241   152
32.7341   142
32.7441   137
32.7541   144
32.7641   138
32.7741   164
32.7841   154
32.7941   134
32.8041   136
32.8141   144
32.8241   149
32.8341   141
32.8441   134
32.8541   148
32.8641   143
32.8741   142
32.8841   113
32.8941   126
32.9041   142
32.9141   132
32.9241   152
32.9341   151
32.9441   139
32.9541   133
32.9641   114
32.9741   143
32.9841   144
32.9941   135
33.0041   137
33.0141   122
33.0241   138
33.0341   131
33.0441   127
33.0541   146
33.0641   143
33.0741   131
33.0841   141
33.0941   140
33.1041   145
33.1141   141
33.1241   121
33.1341   132
33.1441   138
33.1541   125
33.1641   129
33.1741   133
33.1841   128
33.1941   113
33.2041   136
33.2141   148
33.2241   124
33.2341   132
33.2441   141
33.2541   125
33.2641   140
33.2741   131
33.2841   137
33.2941   140
33.3041   119
33.3141   146
33.3241   138
33.3341   132
33.3441   121
33.3541   113
33.3641   119
33.3741   124
33.3841   110
33.3941   124
33.4041   120
33.4141   110
33.4241   125
33.4341   129
33.4441   127
33.4541   127
33.4641   138
33.4741   140
33.4841   139
33.4941   127
33.5041   116
33.5141   139
33.5241   137
33.5341   125
33.5441   128
33.5541   113
33.5641   125
33.5741   128
33.5841   103
33.5941   130
33.6041   127
33.6141   120
33.6241   113
33.6341   111
33.6441   115
33.6541   113
33.6641   117
33.6741   116
33.6841   118
33.6941   121
33.7041   111
33.7141   130
33.7241   122
33.7341   106
33.7441   107
33.7541   142
33.7641   126
33.7741   128
33.7841   130
33.7941   121
33.8041   111
33.8141   117
33.8241   112
33.8341   124
33.8441   112
33.8541   101
33.8641   107
33.8741   112
33.8841   112
33.8941   102
33.9041   121
33.9141   109
33.9241   121
33.9341   127
33.9441   100
33.9541   109
33.9641   111
33.9741   103
33.9841    99
33.9941   125
34.0041    94
34.0141   109
34.0241   114
34.0341   111
34.0441   106
34.0541   107
34.0641   106
34.0741   118
34.0841    99
34.0941   116
34.1041   108
34.1141   106
34.1241   117
34.1341   127
34.1441   106
34.1541   118
34.1641   115
34.1741   117
34.1841   100
34.1941    91
34.2041    96
34.2141   121
34.2241   119
34.2341    93
34.2441   124
34.2541   100
34.2641   118
34.2741   108
34.2841   108
34.2941   109
34.3041   120
34.3141    99
34.3241   117
34.3341   103
34.3441   108
34.3541   106
34.3641   109
34.3741   104
34.3841    98
34.3941   116
34.4041   123
34.4141    85
34.4241   103
34.4341   109
34.4441   116
34.4541   119
34.4641   105
34.4741   109
34.4841    99
34.4941   103
34.5041    94
34.5141   114
34.5241   104
34.5341    96
34.5441    99
34.5541   105
34.5641   109
34.5741   119
34.5841    96
34.5941    82
34.6041    95
34.6141    98
34.6241   101
34.6341   117
34.6441    97
34.6541    96
34.6641    98
34.6741   108
34.6841   106
34.6941   107
34.7041    81
34.7141    79
34.7241    83
34.7341    96
34.7441   102
34.7541   104
34.7641   103
34.7741    95
34.7841    86
34.7941    94
34.8041   109
34.8141   101
34.8241    88
34.8341   104
34.8441    95
34.8541    93
34.8641    96
34.8741    99
34.8841    94
34.8941    79
34.9041   113
34.9141    91
34.9241   104
34.9341   113
34.9441   102
34.9541    82
34.9641    68
34.9741    95
34.9841    62
34.9941   101
35.0041    96
35.0141    96
35.0241    94
35.0341    88
35.0441   102
35.0541    83
35.0641   105
35.0741    91
35.0841    94
35.0941    85
35.1041    79
35.1141    82
35.1241    76
35.1341    71
35.1441    98
35.1541    94
35.1641    82
35.1741    99
35.1841    90
35.1941   101
35.2041    77
35.2141   104
35.2241    88
35.2341    93
35.2441    87
35.2541    88
35.2641    94
35.2741    79
35.2841    71
35.2941    84
35.3041    83
35.3141    83
35.3241    91
35.3341    74
35.3441    88
35.3541    96
35.3641    92
35.3741    94
35.3841    87
35.3941    74
35.4041   102
35.4141    86
35.4241    83
35.4341    97
35.4441    81
35.4541    79
35.4641    88
35.4741    95
35.4841    72
35.4941    66
35.5041    77
35.5141    93
35.5241    76
35.5341    79
35.5441    78
35.5541    86
35.5641    90
35.5741    74
35.5841    85
35.5941    86
35.6041    79
35.6141   107
35.6241    82
35.6341    82
35.6441    75
35.6541    77
35.6641    85
35.6741    77
35.6841    74
35.6941    78
35.7041    82
35.7141    70
35.7241    76
35.7341    95
35.7441    66
35.7541    80
35.7641    74
35.7741    66
35.7841    79
35.7941    90
35.8041    87
35.8141    74
35.8241    88
35.8341    89
35.8441    75
35.8541    60
35.8641    69
35.8741    75
35.8841    79
35.8941    73
35.9041    67
35.9141    86
35.9241    82
35.9341    75
35.9441    75
35.9541    63
35.9641    72
35.9741    75
35.9841    82
35.9941    76
36.0041    82
36.0141    83
36.0241    75
36.0341    76
36.0441    68
36.0541    71
36.0641    64
36.0741    73
36.0841    59
36.0941    82
36.1041    78
36.1141    64
36.1241    75
36.1341    69
36.1441    66
36.1541    77
36.1641    63
36.1741    69
36.1841    75
36.1941    69
36.2041    68
36.2141    68
36.2241    75
36.2341    66
36.2441    88
36.2541    55
36.2641    77
36.2741    64
36.2841    74
36.2941    73
36.3041    86
36.3141    77
36.3241    73
36.3341    63
36.3441    81
36.3541    67
36.3641    76
36.3741    71
36.3841    64
36.3941    63
36.4041    54
36.4141    74
36.4241    68
36.4341    65
36.4441    75
36.4541    56
36.4641    67
36.4741    61
36.4841    56
36.4941    67
36.5041    65
36.5141    68
36.5241    78
36.5341    73
36.5441    59
36.5541    58
36.5641    53
36.5741    66
36.5841    63
36.5941    46
36.6041    51
36.6141    62
36.6241    61
36.6341    52
36.6441    46
36.6541    74
36.6641    66
36.6741    60
36.6841    55
36.6941    71
36.7041    47
36.7141    62
36.7241    58
36.7341    63
36.7441    64
36.7541    61
36.7641    56
36.7741    62
36.7841    64
36.7941    62
36.8041    57
36.8141    57
36.8241    55
36.8341    59
36.8441    61
36.8541    55
36.8641    71
36.8741    51
36.8841    46
36.8941    61
36.9041    69
36.9141    65
36.9241    51
36.9341    46
36.9441    58
36.9541    55
36.9641    55
36.9741    57
36.9841    52
36.9941    56
37.0041    62
37.0141    51
37.0241    55
37.0341    58
37.0441    53
37.0541    56
37.0641    56
37.0741    55
37.0841    68
37.0941    57
37.1041    70
37.1141    44
37.1241    55
37.1341    51
37.1441    51
37.1541    58
37.1641    73
37.1741    61
37.1841    55
37.1941    61
37.2041    49
37.2141    54
37.2241    52
37.2341    57
37.2441    56
37.2541    47
37.2641    47
37.2741    52
37.2841    54
37.2941    44
37.3041    58
37.3141    50
37.3241    56
37.3341    60
37.3441    61
37.3541    55
37.3641    47
37.3741    60
37.3841    49
37.3941    63
37.4041    57
37.4141    44
37.4241    61
37.4341    57
37.4441    39
37.4541    47
37.4641    56
37.4741    61
37.4841    46
37.4941    45
37.5041    61
37.5141    44
37.5241    47
37.5341    44
37.5441    53
37.5541    61
37.5641    54
37.5741    49
37.5841    51
37.5941    48
37.6041    41
37.6141    49
37.6241    44
37.6341    45
37.6441    51
37.6541    41
37.6641    53
37.6741    48
37.6841    61
37.6941    45
37.7041    42
37.7141    39
37.7241    49
37.7341    35
37.7441    64
37.7541    41
37.7641    43
37.7741    52
37.7841    41
37.7941    59
37.8041    37
37.8141    48
37.8241    47
37.8341    41
37.8441    36
37.8541    35
37.8641    37
37.8741    50
37.8841    47
37.8941    36
37.9041    38
37.9141    48
37.9241    46
37.9341    49
37.9441    50
37.9541    47
37.9641    48
37.9741    56
37.9841    49
37.9941    38
38.0041    40
38.0141    44
38.0241    42
38.0341    41
38.0441    43
38.0541    37
38.0641    51
38.0741    36
38.0841    44
38.0941    46
38.1041    38
38.1141    40
38.1241    31
38.1341    45
38.1441    45
38.1541    33
38.1641    36
38.1741    35
38.1841    37
38.1941    42
38.2041    47
38.2141    34
38.2241    40
38.2341    42
38.2441    47
38.2541    38
38.2641    31
38.2741    33
38.2841    41
38.2941    35
38.3041    33
38.3141    52
38.3241    27
38.3341    42
38.3441    36
38.3541    43
38.3641    36
38.3741    44
38.3841    47
38.3941    39
38.4041    37
38.4141    32
38.4241    41
38.4341    48
38.4441    28
38.4541    41
38.4641    38
38.4741    41
38.4841    34
38.4941    26
38.5041    30
38.5141    44
38.5241    43
38.5341    38
38.5441    36
38.5541    35
38.5641    36
38.5741    38
38.5841    38
38.5941    37
38.6041    40
38.6141    40
38.6241    31
38.6341    39
38.6441    45
38.6541    39
38.6641    33
38.6741    35
38.6841    33
38.6941    37
38.7041    28
38.7141    28
38.7241    39
38.7341    28
38.7441    28
38.7541    32
38.7641    35
38.7741    34
38.7841    37
38.7941    29
38.8041    30
38.8141    33
38.8241    28
38.8341    37
38.8441    31
38.8541    37
38.8641    29
38.8741    31
38.8841    39
38.8941    37
38.9041    36
38.9141    35
38.9241    30
38.9341    40
38.9441    40
38.9541    39
38.9641    30
38.9741    28
38.9841    31
38.9941    35
39.0041    39
39.0141    30
39.0241    37
39.0341    37
39.0441    37
39.0541    43
39.0641    35
39.0741    37
39.0841    26
39.0941    30
39.1041    30
39.1141    31
39.1241    35
39.1341    31
39.1441    26
39.1541    25
39.1641    22
39.1741    34
39.1841    29
39.1941    28
39.2041    28
39.2141    29
39.2241    32
39.2341    28
39.2441    28
39.2541    34
39.2641    27
39.2741    25
39.2841    32
39.2941    28
39.3041    30
39.3141    30
39.3241    27
39.3341    29
39.3441    21
39.3541    18
39.3641    31
39.3741    32
39.3841    27
39.3941    20
39.4041    38
39.4141    23
39.4241    24
39.4341    23
39.4441    32
39.4541    29
39.4641    30
39.4741    33
39.4841    23
39.4941    41
39.5041    28
39.5141    23
39.5241    23
39.5341    21
39.5441    21
39.5541    25
39.5641    25
39.5741    18
39.5841    31
39.5941    27
39.6041    26
39.6141    27
39.6241    22
39.6341    29
39.6441    24
39.6541    30
39.6641    33
39.6741    26
39.6841    19
39.6941    20
39.7041    23
39.7141    25
39.7241    25
39.7341    21
39.7441    30
39.7541    19
39.7641    22
39.7741    31
39.7841    31
39.7941    24
39.8041    20
39.8141    22
39.8241    24
39.8341    26
39.8441    26
39.8541    23
39.8641    20
39.8741    19
39.8841    28
39.8941    25
39.9041    28
39.9141    26
39.9241    20
39.9341    16
39.9441    20
39.9541    25
39.9641    18
39.9741    18
39.9841    26
