Bruker Nano GmbH Berlin, Germany
Esprit 1.9

Date: 5/14/2021 1:29:21 PM
Real time: 21137
Life time: 19842
Pulse density: 87493


Detector type: XFlash 430
Window type: Custom type
Detector thickness: 0.45
Si dead layer:0.029

Calibration, lin.: 10
Calibration, abs.: -955.9
Mn FWHM: 137.05
Fano factor: 0.121
Channels: 4096

Energy Counts
-0.9559     0
-0.9459     0
-0.9359     0
-0.9259     0
-0.9159     0
-0.9059     0
-0.8959     0
-0.8859     0
-0.8759     0
-0.8659     0
-0.8559     0
-0.8459     0
-0.8359     0
-0.8259     0
-0.8159     0
-0.8059     0
-0.7959     0
-0.7859     0
-0.7759     0
-0.7659     0
-0.7559     0
-0.7459     0
-0.7359     0
-0.7259     0
-0.7159     0
-0.7059     0
-0.6959     0
-0.6859     0
-0.6759     0
-0.6659     0
-0.6559     0
-0.6459     0
-0.6359     0
-0.6259     0
-0.6159     0
-0.6059     0
-0.5959     0
-0.5859     0
-0.5759     0
-0.5659     0
-0.5559     0
-0.5459     0
-0.5359     0
-0.5259     0
-0.5159     0
-0.5059     0
-0.4959     0
-0.4859     0
-0.4759     0
-0.4659     0
-0.4559     0
-0.4459     0
-0.4359     0
-0.4259     0
-0.4159     0
-0.4059     0
-0.3959     0
-0.3859     0
-0.3759     0
-0.3659     0
-0.3559     0
-0.3459     0
-0.3359     0
-0.3259     0
-0.3159     0
-0.3059     0
-0.2959     0
-0.2859     0
-0.2759     0
-0.2659     0
-0.2559     0
-0.2459     0
-0.2359     0
-0.2259     0
-0.2159     0
-0.2059     0
-0.1959     0
-0.1859     0
-0.1759     0
-0.1659     0
-0.1559     0
-0.1459     0
-0.1359     1
-0.1259     0
-0.1159     6
-0.1059    13
-0.0959    66
-0.0859   224
-0.0759   777
-0.0659  2312
-0.0559  5763
-0.0459 12683
-0.0359 23856
-0.0259 37877
-0.0159 51713
-0.0059 60780
 0.0041 61388
 0.0141 52391
 0.0241 38545
 0.0341 24405
 0.0441 13586
 0.0541  6189
 0.0641  2434
 0.0741   846
 0.0841   244
 0.0941    92
 0.1041    18
 0.1141    11
 0.1241    10
 0.1341     6
 0.1441     8
 0.1541     8
 0.1641     6
 0.1741     4
 0.1841   213
 0.1941   398
 0.2041   334
 0.2141   371
 0.2241   357
 0.2341   373
 0.2441   372
 0.2541   341
 0.2641   373
 0.2741   361
 0.2841   361
 0.2941   339
 0.3041   353
 0.3141   379
 0.3241   344
 0.3341   336
 0.3441   340
 0.3541   332
 0.3641   356
 0.3741   349
 0.3841   330
 0.3941   338
 0.4041   368
 0.4141   347
 0.4241   345
 0.4341   297
 0.4441   268
 0.4541   296
 0.4641   316
 0.4741   295
 0.4841   323
 0.4941   292
 0.5041   283
 0.5141   290
 0.5241   296
 0.5341   301
 0.5441   293
 0.5541   280
 0.5641   294
 0.5741   289
 0.5841   283
 0.5941   280
 0.6041   284
 0.6141   279
 0.6241   275
 0.6341   278
 0.6441   276
 0.6541   269
 0.6641   281
 0.6741   284
 0.6841   272
 0.6941   261
 0.7041   250
 0.7141   256
 0.7241   257
 0.7341   258
 0.7441   262
 0.7541   272
 0.7641   250
 0.7741   239
 0.7841   239
 0.7941   251
 0.8041   250
 0.8141   243
 0.8241   230
 0.8341   240
 0.8441   240
 0.8541   260
 0.8641   248
 0.8741   232
 0.8841   243
 0.8941   232
 0.9041   251
 0.9141   248
 0.9241   240
 0.9341   245
 0.9441   241
 0.9541   240
 0.9641   246
 0.9741   235
 0.9841   253
 0.9941   243
 1.0041   244
 1.0141   225
 1.0241   240
 1.0341   233
 1.0441   233
 1.0541   232
 1.0641   217
 1.0741   227
 1.0841   227
 1.0941   240
 1.1041   219
 1.1141   215
 1.1241   224
 1.1341   218
 1.1441   213
 1.1541   229
 1.1641   228
 1.1741   224
 1.1841   215
 1.1941   230
 1.2041   247
 1.2141   212
 1.2241   215
 1.2341   220
 1.2441   220
 1.2541   224
 1.2641   225
 1.2741   199
 1.2841   200
 1.2941   218
 1.3041   219
 1.3141   230
 1.3241   221
 1.3341   221
 1.3441   229
 1.3541   221
 1.3641   215
 1.3741   218
 1.3841   203
 1.3941   182
 1.4041   203
 1.4141   199
 1.4241   188
 1.4341   201
 1.4441   209
 1.4541   227
 1.4641   233
 1.4741   203
 1.4841   223
 1.4941   219
 1.5041   183
 1.5141   189
 1.5241   199
 1.5341   215
 1.5441   200
 1.5541   197
 1.5641   190
 1.5741   186
 1.5841   192
 1.5941   216
 1.6041   217
 1.6141   178
 1.6241   196
 1.6341   212
 1.6441   207
 1.6541   234
 1.6641   303
 1.6741   357
 1.6841   443
 1.6941   488
 1.7041   583
 1.7141   690
 1.7241   730
 1.7341   819
 1.7441   824
 1.7541   736
 1.7641   705
 1.7741   610
 1.7841   526
 1.7941   404
 1.8041   367
 1.8141   324
 1.8241   269
 1.8341   267
 1.8441   242
 1.8541   233
 1.8641   242
 1.8741   220
 1.8841   207
 1.8941   217
 1.9041   222
 1.9141   221
 1.9241   205
 1.9341   197
 1.9441   240
 1.9541   184
 1.9641   210
 1.9741   220
 1.9841   224
 1.9941   240
 2.0041   234
 2.0141   243
 2.0241   231
 2.0341   220
 2.0441   221
 2.0541   216
 2.0641   200
 2.0741   201
 2.0841   184
 2.0941   193
 2.1041   188
 2.1141   172
 2.1241   194
 2.1341   185
 2.1441   182
 2.1541   169
 2.1641   179
 2.1741   189
 2.1841   195
 2.1941   171
 2.2041   183
 2.2141   175
 2.2241   170
 2.2341   146
 2.2441   170
 2.2541   147
 2.2641   174
 2.2741   170
 2.2841   159
 2.2941   151
 2.3041   175
 2.3141   146
 2.3241   159
 2.3341   167
 2.3441   173
 2.3541   180
 2.3641   162
 2.3741   153
 2.3841   155
 2.3941   167
 2.4041   157
 2.4141   149
 2.4241   177
 2.4341   168
 2.4441   160
 2.4541   149
 2.4641   171
 2.4741   169
 2.4841   179
 2.4941   142
 2.5041   152
 2.5141   179
 2.5241   189
 2.5341   171
 2.5441   154
 2.5541   143
 2.5641   160
 2.5741   166
 2.5841   161
 2.5941   151
 2.6041   147
 2.6141   126
 2.6241   149
 2.6341   151
 2.6441   137
 2.6541   154
 2.6641   150
 2.6741   172
 2.6841   163
 2.6941   178
 2.7041   165
 2.7141   143
 2.7241   146
 2.7341   131
 2.7441   133
 2.7541   130
 2.7641   156
 2.7741   128
 2.7841   132
 2.7941   155
 2.8041   138
 2.8141   147
 2.8241   132
 2.8341   144
 2.8441   154
 2.8541   146
 2.8641   146
 2.8741   148
 2.8841   143
 2.8941   147
 2.9041   134
 2.9141   150
 2.9241   146
 2.9341   147
 2.9441   146
 2.9541   145
 2.9641   135
 2.9741   152
 2.9841   131
 2.9941   120
 3.0041   141
 3.0141   120
 3.0241   144
 3.0341   133
 3.0441   148
 3.0541   118
 3.0641   117
 3.0741   103
 3.0841   128
 3.0941   130
 3.1041   136
 3.1141   129
 3.1241   126
 3.1341   123
 3.1441   156
 3.1541   112
 3.1641   122
 3.1741   128
 3.1841   125
 3.1941   114
 3.2041   146
 3.2141   143
 3.2241   144
 3.2341   150
 3.2441   154
 3.2541   165
 3.2641   221
 3.2741   238
 3.2841   261
 3.2941   263
 3.3041   305
 3.3141   289
 3.3241   251
 3.3341   269
 3.3441   253
 3.3541   237
 3.3641   202
 3.3741   182
 3.3841   132
 3.3941   142
 3.4041   130
 3.4141   134
 3.4241   126
 3.4341   100
 3.4441   120
 3.4541   120
 3.4641   112
 3.4741   120
 3.4841   105
 3.4941   125
 3.5041   134
 3.5141   118
 3.5241   141
 3.5341   146
 3.5441   139
 3.5541   137
 3.5641   175
 3.5741   198
 3.5841   254
 3.5941   295
 3.6041   370
 3.6141   461
 3.6241   601
 3.6341   688
 3.6441   756
 3.6541   886
 3.6641  1036
 3.6741  1090
 3.6841  1147
 3.6941  1150
 3.7041  1134
 3.7141  1028
 3.7241   919
 3.7341   726
 3.7441   638
 3.7541   545
 3.7641   446
 3.7741   324
 3.7841   255
 3.7941   189
 3.8041   164
 3.8141   127
 3.8241   128
 3.8341   116
 3.8441    94
 3.8541    94
 3.8641   108
 3.8741    93
 3.8841   107
 3.8941   102
 3.9041   112
 3.9141   116
 3.9241   131
 3.9341   120
 3.9441   157
 3.9541   176
 3.9641   198
 3.9741   191
 3.9841   182
 3.9941   233
 4.0041   223
 4.0141   226
 4.0241   227
 4.0341   212
 4.0441   215
 4.0541   207
 4.0641   170
 4.0741   156
 4.0841   126
 4.0941   129
 4.1041   103
 4.1141   100
 4.1241   102
 4.1341   103
 4.1441   102
 4.1541    83
 4.1641    97
 4.1741    75
 4.1841    88
 4.1941    82
 4.2041    90
 4.2141    99
 4.2241    95
 4.2341    81
 4.2441    71
 4.2541    75
 4.2641    86
 4.2741    82
 4.2841    89
 4.2941    74
 4.3041    81
 4.3141    93
 4.3241    86
 4.3341    98
 4.3441    74
 4.3541    76
 4.3641    89
 4.3741    89
 4.3841    99
 4.3941   101
 4.4041   110
 4.4141   104
 4.4241   129
 4.4341   139
 4.4441   146
 4.4541   174
 4.4641   182
 4.4741   198
 4.4841   197
 4.4941   222
 4.5041   209
 4.5141   220
 4.5241   229
 4.5341   220
 4.5441   184
 4.5541   173
 4.5641   165
 4.5741   139
 4.5841   125
 4.5941   117
 4.6041   109
 4.6141   103
 4.6241   104
 4.6341   107
 4.6441    83
 4.6541    99
 4.6641   100
 4.6741    95
 4.6841    83
 4.6941    62
 4.7041    99
 4.7141    97
 4.7241   103
 4.7341    93
 4.7441    82
 4.7541    88
 4.7641    78
 4.7741    72
 4.7841    82
 4.7941    96
 4.8041   107
 4.8141    95
 4.8241   111
 4.8341    90
 4.8441    86
 4.8541   111
 4.8641    99
 4.8741    98
 4.8841    94
 4.8941   123
 4.9041   111
 4.9141   114
 4.9241   107
 4.9341   109
 4.9441   123
 4.9541   103
 4.9641   113
 4.9741   110
 4.9841   113
 4.9941   112
 5.0041   111
 5.0141   106
 5.0241    85
 5.0341   104
 5.0441   101
 5.0541   118
 5.0641    87
 5.0741    94
 5.0841    77
 5.0941    88
 5.1041    79
 5.1141    99
 5.1241    99
 5.1341   105
 5.1441    87
 5.1541    79
 5.1641    91
 5.1741    99
 5.1841    94
 5.1941    92
 5.2041    91
 5.2141    85
 5.2241    69
 5.2341    80
 5.2441    91
 5.2541    90
 5.2641    99
 5.2741    83
 5.2841    98
 5.2941    90
 5.3041   104
 5.3141   121
 5.3241   124
 5.3341   115
 5.3441   114
 5.3541   115
 5.3641   126
 5.3741   145
 5.3841   150
 5.3941   155
 5.4041   154
 5.4141   171
 5.4241   147
 5.4341   151
 5.4441   162
 5.4541   168
 5.4641   134
 5.4741   137
 5.4841   123
 5.4941   121
 5.5041   109
 5.5141   124
 5.5241   114
 5.5341   122
 5.5441   100
 5.5541    95
 5.5641   101
 5.5741    91
 5.5841    99
 5.5941    88
 5.6041    84
 5.6141    91
 5.6241   101
 5.6341   107
 5.6441    99
 5.6541    99
 5.6641    99
 5.6741    80
 5.6841    98
 5.6941    97
 5.7041    98
 5.7141    93
 5.7241   109
 5.7341   119
 5.7441   107
 5.7541   102
 5.7641   101
 5.7741   118
 5.7841   103
 5.7941   123
 5.8041   145
 5.8141   133
 5.8241   140
 5.8341   165
 5.8441   159
 5.8541   190
 5.8641   181
 5.8741   201
 5.8841   218
 5.8941   195
 5.9041   203
 5.9141   225
 5.9241   186
 5.9341   197
 5.9441   161
 5.9541   162
 5.9641   163
 5.9741   151
 5.9841   149
 5.9941   140
 6.0041   119
 6.0141   135
 6.0241   111
 6.0341    93
 6.0441   118
 6.0541   104
 6.0641   130
 6.0741   126
 6.0841   101
 6.0941   110
 6.1041   136
 6.1141   118
 6.1241   129
 6.1341   134
 6.1441   126
 6.1541   121
 6.1641   129
 6.1741   123
 6.1841   135
 6.1941   170
 6.2041   184
 6.2141   200
 6.2241   263
 6.2341   326
 6.2441   466
 6.2541   600
 6.2641   832
 6.2741  1032
 6.2841  1412
 6.2941  1814
 6.3041  2386
 6.3141  2862
 6.3241  3597
 6.3341  4288
 6.3441  5157
 6.3541  5862
 6.3641  6478
 6.3741  7105
 6.3841  7479
 6.3941  7766
 6.4041  7778
 6.4141  7488
 6.4241  7098
 6.4341  6489
 6.4441  5909
 6.4541  4909
 6.4641  4265
 6.4741  3487
 6.4841  2754
 6.4941  2197
 6.5041  1731
 6.5141  1331
 6.5241  1017
 6.5341   725
 6.5441   549
 6.5541   407
 6.5641   316
 6.5741   228
 6.5841   197
 6.5941   186
 6.6041   151
 6.6141   155
 6.6241   170
 6.6341   133
 6.6441   138
 6.6541   149
 6.6641   131
 6.6741   146
 6.6841   113
 6.6941   140
 6.7041   146
 6.7141   144
 6.7241   162
 6.7341   150
 6.7441   159
 6.7541   152
 6.7641   145
 6.7741   169
 6.7841   183
 6.7941   174
 6.8041   149
 6.8141   167
 6.8241   153
 6.8341   199
 6.8441   166
 6.8541   188
 6.8641   178
 6.8741   203
 6.8841   226
 6.8941   210
 6.9041   264
 6.9141   293
 6.9241   327
 6.9341   363
 6.9441   438
 6.9541   510
 6.9641   576
 6.9741   677
 6.9841   833
 6.9941   963
 7.0041   984
 7.0141  1155
 7.0241  1227
 7.0341  1260
 7.0441  1369
 7.0541  1413
 7.0641  1362
 7.0741  1284
 7.0841  1216
 7.0941  1088
 7.1041  1079
 7.1141   946
 7.1241   823
 7.1341   751
 7.1441   620
 7.1541   530
 7.1641   448
 7.1741   407
 7.1841   323
 7.1941   295
 7.2041   288
 7.2141   244
 7.2241   236
 7.2341   236
 7.2441   232
 7.2541   218
 7.2641   210
 7.2741   224
 7.2841   215
 7.2941   218
 7.3041   215
 7.3141   226
 7.3241   250
 7.3341   256
 7.3441   274
 7.3541   323
 7.3641   327
 7.3741   317
 7.3841   313
 7.3941   322
 7.4041   347
 7.4141   338
 7.4241   351
 7.4341   333
 7.4441   340
 7.4541   350
 7.4641   282
 7.4741   309
 7.4841   327
 7.4941   329
 7.5041   312
 7.5141   304
 7.5241   304
 7.5341   286
 7.5441   273
 7.5541   205
 7.5641   241
 7.5741   237
 7.5841   238
 7.5941   219
 7.6041   249
 7.6141   224
 7.6241   220
 7.6341   229
 7.6441   236
 7.6541   248
 7.6641   225
 7.6741   236
 7.6841   251
 7.6941   240
 7.7041   225
 7.7141   260
 7.7241   278
 7.7341   271
 7.7441   246
 7.7541   256
 7.7641   247
 7.7741   291
 7.7841   281
 7.7941   280
 7.8041   274
 7.8141   281
 7.8241   284
 7.8341   327
 7.8441   312
 7.8541   355
 7.8641   333
 7.8741   340
 7.8841   335
 7.8941   361
 7.9041   368
 7.9141   403
 7.9241   390
 7.9341   392
 7.9441   427
 7.9541   457
 7.9641   506
 7.9741   538
 7.9841   587
 7.9941   620
 8.0041   651
 8.0141   735
 8.0241   816
 8.0341   825
 8.0441   815
 8.0541   931
 8.0641   952
 8.0741  1098
 8.0841  1138
 8.0941  1127
 8.1041  1236
 8.1141  1307
 8.1241  1361
 8.1341  1414
 8.1441  1388
 8.1541  1488
 8.1641  1467
 8.1741  1536
 8.1841  1532
 8.1941  1505
 8.2041  1503
 8.2141  1586
 8.2241  1607
 8.2341  1586
 8.2441  1730
 8.2541  1873
 8.2641  1931
 8.2741  2182
 8.2841  2243
 8.2941  2487
 8.3041  2717
 8.3141  3023
 8.3241  3272
 8.3341  3473
 8.3441  3744
 8.3541  4002
 8.3641  4250
 8.3741  4344
 8.3841  4541
 8.3941  4508
 8.4041  4485
 8.4141  4331
 8.4241  4150
 8.4341  3819
 8.4441  3450
 8.4541  3173
 8.4641  2752
 8.4741  2380
 8.4841  1945
 8.4941  1747
 8.5041  1464
 8.5141  1229
 8.5241   939
 8.5341   847
 8.5441   704
 8.5541   613
 8.5641   531
 8.5741   506
 8.5841   457
 8.5941   440
 8.6041   429
 8.6141   403
 8.6241   410
 8.6341   408
 8.6441   420
 8.6541   389
 8.6641   381
 8.6741   371
 8.6841   374
 8.6941   336
 8.7041   337
 8.7141   358
 8.7241   342
 8.7341   345
 8.7441   346
 8.7541   337
 8.7641   332
 8.7741   335
 8.7841   354
 8.7941   327
 8.8041   321
 8.8141   326
 8.8241   337
 8.8341   337
 8.8441   332
 8.8541   318
 8.8641   319
 8.8741   336
 8.8841   327
 8.8941   318
 8.9041   346
 8.9141   334
 8.9241   350
 8.9341   375
 8.9441   376
 8.9541   357
 8.9641   376
 8.9741   394
 8.9841   409
 8.9941   396
 9.0041   419
 9.0141   428
 9.0241   426
 9.0341   453
 9.0441   449
 9.0541   443
 9.0641   520
 9.0741   492
 9.0841   497
 9.0941   506
 9.1041   537
 9.1141   536
 9.1241   572
 9.1341   637
 9.1441   618
 9.1541   648
 9.1641   652
 9.1741   686
 9.1841   699
 9.1941   815
 9.2041   847
 9.2141   844
 9.2241   897
 9.2341   984
 9.2441   977
 9.2541   971
 9.2641  1021
 9.2741  1118
 9.2841  1152
 9.2941  1210
 9.3041  1272
 9.3141  1336
 9.3241  1374
 9.3341  1351
 9.3441  1386
 9.3541  1419
 9.3641  1527
 9.3741  1552
 9.3841  1524
 9.3941  1558
 9.4041  1525
 9.4141  1611
 9.4241  1580
 9.4341  1579
 9.4441  1679
 9.4541  1658
 9.4641  1683
 9.4741  1642
 9.4841  1652
 9.4941  1761
 9.5041  1754
 9.5141  1830
 9.5241  1869
 9.5341  1910
 9.5441  2041
 9.5541  2111
 9.5641  2227
 9.5741  2288
 9.5841  2487
 9.5941  2613
 9.6041  2674
 9.6141  2892
 9.6241  3035
 9.6341  3123
 9.6441  3136
 9.6541  3185
 9.6641  3257
 9.6741  3184
 9.6841  3309
 9.6941  3167
 9.7041  3092
 9.7141  2864
 9.7241  2686
 9.7341  2566
 9.7441  2449
 9.7541  2232
 9.7641  2020
 9.7741  1931
 9.7841  1790
 9.7941  1707
 9.8041  1586
 9.8141  1488
 9.8241  1430
 9.8341  1450
 9.8441  1403
 9.8541  1395
 9.8641  1467
 9.8741  1426
 9.8841  1376
 9.8941  1348
 9.9041  1364
 9.9141  1479
 9.9241  1471
 9.9341  1500
 9.9441  1492
 9.9541  1492
 9.9641  1497
 9.9741  1407
 9.9841  1355
 9.9941  1312
10.0041  1257
10.0141  1122
10.0241  1032
10.0341   947
10.0441   888
10.0541   854
10.0641   743
10.0741   648
10.0841   558
10.0941   487
10.1041   430
10.1141   420
10.1241   398
10.1341   384
10.1441   358
10.1541   321
10.1641   301
10.1741   308
10.1841   295
10.1941   289
10.2041   301
10.2141   284
10.2241   280
10.2341   253
10.2441   247
10.2541   232
10.2641   205
10.2741   189
10.2841   214
10.2941   218
10.3041   208
10.3141   214
10.3241   220
10.3341   211
10.3441   214
10.3541   195
10.3641   184
10.3741   176
10.3841   197
10.3941   193
10.4041   184
10.4141   181
10.4241   181
10.4341   189
10.4441   205
10.4541   209
10.4641   197
10.4741   189
10.4841   197
10.4941   214
10.5041   196
10.5141   205
10.5241   216
10.5341   201
10.5441   211
10.5541   194
10.5641   196
10.5741   203
10.5841   213
10.5941   235
10.6041   238
10.6141   201
10.6241   222
10.6341   215
10.6441   215
10.6541   230
10.6641   248
10.6741   245
10.6841   229
10.6941   248
10.7041   275
10.7141   275
10.7241   284
10.7341   258
10.7441   277
10.7541   278
10.7641   284
10.7741   272
10.7841   274
10.7941   300
10.8041   329
10.8141   320
10.8241   320
10.8341   320
10.8441   319
10.8541   364
10.8641   371
10.8741   373
10.8841   365
10.8941   380
10.9041   385
10.9141   364
10.9241   356
10.9341   365
10.9441   342
10.9541   340
10.9641   333
10.9741   322
10.9841   353
10.9941   335
11.0041   326
11.0141   336
11.0241   328
11.0341   314
11.0441   317
11.0541   301
11.0641   318
11.0741   290
11.0841   285
11.0941   321
11.1041   325
11.1141   334
11.1241   330
11.1341   319
11.1441   312
11.1541   327
11.1641   362
11.1741   367
11.1841   355
11.1941   376
11.2041   394
11.2141   409
11.2241   405
11.2341   423
11.2441   431
11.2541   472
11.2641   488
11.2741   435
11.2841   491
11.2941   485
11.3041   453
11.3141   455
11.3241   456
11.3341   418
11.3441   388
11.3541   392
11.3641   370
11.3741   348
11.3841   312
11.3941   302
11.4041   278
11.4141   283
11.4241   274
11.4341   257
11.4441   255
11.4541   258
11.4641   265
11.4741   245
11.4841   247
11.4941   259
11.5041   252
11.5141   232
11.5241   231
11.5341   247
11.5441   255
11.5541   253
11.5641   235
11.5741   247
11.5841   271
11.5941   253
11.6041   265
11.6141   277
11.6241   283
11.6341   290
11.6441   271
11.6541   276
11.6641   274
11.6741   262
11.6841   256
11.6941   255
11.7041   248
11.7141   228
11.7241   215
11.7341   205
11.7441   229
11.7541   231
11.7641   224
11.7741   211
11.7841   175
11.7941   190
11.8041   205
11.8141   198
11.8241   195
11.8341   165
11.8441   162
11.8541   189
11.8641   184
11.8741   165
11.8841   158
11.8941   168
11.9041   170
11.9141   166
11.9241   177
11.9341   188
11.9441   172
11.9541   173
11.9641   174
11.9741   182
11.9841   202
11.9941   207
12.0041   199
12.0141   186
12.0241   189
12.0341   173
12.0441   180
12.0541   181
12.0641   175
12.0741   179
12.0841   174
12.0941   175
12.1041   192
12.1141   177
12.1241   169
12.1341   178
12.1441   174
12.1541   178
12.1641   171
12.1741   184
12.1841   193
12.1941   200
12.2041   197
12.2141   183
12.2241   175
12.2341   181
12.2441   187
12.2541   170
12.2641   175
12.2741   182
12.2841   181
12.2941   191
12.3041   190
12.3141   193
12.3241   187
12.3341   190
12.3441   185
12.3541   174
12.3641   175
12.3741   188
12.3841   176
12.3941   179
12.4041   192
12.4141   187
12.4241   183
12.4341   183
12.4441   189
12.4541   200
12.4641   190
12.4741   181
12.4841   203
12.4941   198
12.5041   194
12.5141   185
12.5241   186
12.5341   202
12.5441   214
12.5541   219
12.5641   232
12.5741   221
12.5841   209
12.5941   215
12.6041   208
12.6141   195
12.6241   200
12.6341   219
12.6441   213
12.6541   191
12.6641   197
12.6741   214
12.6841   204
12.6941   197
12.7041   204
12.7141   201
12.7241   196
12.7341   213
12.7441   217
12.7541   205
12.7641   194
12.7741   193
12.7841   207
12.7941   215
12.8041   218
12.8141   221
12.8241   214
12.8341   198
12.8441   214
12.8541   217
12.8641   215
12.8741   206
12.8841   200
12.8941   225
12.9041   240
12.9141   217
12.9241   206
12.9341   222
12.9441   210
12.9541   203
12.9641   221
12.9741   228
12.9841   227
12.9941   215
13.0041   222
13.0141   235
13.0241   244
13.0341   239
13.0441   228
13.0541   223
13.0641   232
13.0741   244
13.0841   233
13.0941   216
13.1041   237
13.1141   266
13.1241   249
13.1341   245
13.1441   257
13.1541   250
13.1641   246
13.1741   245
13.1841   251
13.1941   265
13.2041   268
13.2141   296
13.2241   306
13.2341   297
13.2441   298
13.2541   290
13.2641   305
13.2741   329
13.2841   341
13.2941   354
13.3041   356
13.3141   370
13.3241   397
13.3341   417
13.3441   426
13.3541   406
13.3641   413
13.3741   380
13.3841   368
13.3941   393
13.4041   398
13.4141   395
13.4241   382
13.4341   376
13.4441   377
13.4541   346
13.4641   343
13.4741   364
13.4841   341
13.4941   323
13.5041   319
13.5141   296
13.5241   294
13.5341   303
13.5441   295
13.5541   273
13.5641   268
13.5741   265
13.5841   279
13.5941   277
13.6041   263
13.6141   268
13.6241   269
13.6341   273
13.6441   256
13.6541   270
13.6641   283
13.6741   285
13.6841   300
13.6941   297
13.7041   275
13.7141   270
13.7241   279
13.7341   278
13.7441   274
13.7541   293
13.7641   297
13.7741   255
13.7841   241
13.7941   250
13.8041   244
13.8141   257
13.8241   297
13.8341   312
13.8441   308
13.8541   301
13.8641   288
13.8741   292
13.8841   304
13.8941   290
13.9041   283
13.9141   291
13.9241   300
13.9341   306
13.9441   303
13.9541   315
13.9641   324
13.9741   322
13.9841   329
13.9941   348
14.0041   366
14.0141   378
14.0241   385
14.0341   404
14.0441   432
14.0541   453
14.0641   463
14.0741   475
14.0841   506
14.0941   540
14.1041   529
14.1141   512
14.1241   547
14.1341   568
14.1441   537
14.1541   543
14.1641   567
14.1741   545
14.1841   516
14.1941   506
14.2041   504
14.2141   508
14.2241   507
14.2341   473
14.2441   444
14.2541   427
14.2641   413
14.2741   392
14.2841   380
14.2941   369
14.3041   367
14.3141   361
14.3241   359
14.3341   370
14.3441   344
14.3541   318
14.3641   316
14.3741   326
14.3841   342
14.3941   335
14.4041   343
14.4141   328
14.4241   310
14.4341   319
14.4441   322
14.4541   304
14.4641   298
14.4741   308
14.4841   319
14.4941   345
14.5041   339
14.5141   316
14.5241   310
14.5341   327
14.5441   344
14.5541   324
14.5641   312
14.5741   319
14.5841   317
14.5941   339
14.6041   349
14.6141   338
14.6241   329
14.6341   329
14.6441   331
14.6541   319
14.6641   319
14.6741   327
14.6841   340
14.6941   346
14.7041   353
14.7141   343
14.7241   337
14.7341   354
14.7441   367
14.7541   353
14.7641   348
14.7741   365
14.7841   356
14.7941   341
14.8041   346
14.8141   350
14.8241   378
14.8341   372
14.8441   358
14.8541   345
14.8641   358
14.8741   367
14.8841   367
14.8941   382
14.9041   378
14.9141   367
14.9241   382
14.9341   383
14.9441   365
14.9541   375
14.9641   404
14.9741   400
14.9841   385
14.9941   382
15.0041   386
15.0141   384
15.0241   382
15.0341   389
15.0441   376
15.0541   379
15.0641   385
15.0741   370
15.0841   357
15.0941   373
15.1041   397
15.1141   374
15.1241   368
15.1341   362
15.1441   364
15.1541   385
15.1641   363
15.1741   353
15.1841   346
15.1941   357
15.2041   354
15.2141   361
15.2241   358
15.2341   368
15.2441   379
15.2541   385
15.2641   380
15.2741   371
15.2841   365
15.2941   360
15.3041   393
15.3141   404
15.3241   388
15.3341   390
15.3441   380
15.3541   385
15.3641   389
15.3741   400
15.3841   404
15.3941   397
15.4041   388
15.4141   383
15.4241   374
15.4341   394
15.4441   405
15.4541   399
15.4641   378
15.4741   357
15.4841   363
15.4941   355
15.5041   378
15.5141   396
15.5241   394
15.5341   390
15.5441   403
15.5541   422
15.5641   432
15.5741   431
15.5841   400
15.5941   381
15.6041   428
15.6141   438
15.6241   430
15.6341   453
15.6441   463
15.6541   457
15.6641   450
15.6741   482
15.6841   496
15.6941   471
15.7041   468
15.7141   490
15.7241   501
15.7341   504
15.7441   514
15.7541   510
15.7641   476
15.7741   517
15.7841   540
15.7941   518
15.8041   532
15.8141   492
15.8241   495
15.8341   490
15.8441   502
15.8541   521
15.8641   489
15.8741   471
15.8841   453
15.8941   459
15.9041   490
15.9141   474
15.9241   435
15.9341   439
15.9441   464
15.9541   465
15.9641   438
15.9741   429
15.9841   455
15.9941   453
16.0041   427
16.0141   432
16.0241   459
16.0341   426
16.0441   426
16.0541   425
16.0641   435
16.0741   427
16.0841   414
16.0941   436
16.1041   447
16.1141   469
16.1241   472
16.1341   457
16.1441   469
16.1541   469
16.1641   458
16.1741   438
16.1841   455
16.1941   465
16.2041   464
16.2141   471
16.2241   440
16.2341   464
16.2441   424
16.2541   434
16.2641   463
16.2741   452
16.2841   456
16.2941   473
16.3041   468
16.3141   449
16.3241   449
16.3341   461
16.3441   459
16.3541   460
16.3641   425
16.3741   458
16.3841   455
16.3941   427
16.4041   429
16.4141   436
16.4241   469
16.4341   498
16.4441   465
16.4541   467
16.4641   484
16.4741   469
16.4841   464
16.4941   493
16.5041   495
16.5141   477
16.5241   467
16.5341   480
16.5441   495
16.5541   488
16.5641   496
16.5741   478
16.5841   482
16.5941   472
16.6041   454
16.6141   455
16.6241   453
16.6341   461
16.6441   479
16.6541   475
16.6641   484
16.6741   486
16.6841   494
16.6941   464
16.7041   454
16.7141   482
16.7241   495
16.7341   487
16.7441   480
16.7541   480
16.7641   472
16.7741   474
16.7841   501
16.7941   510
16.8041   480
16.8141   487
16.8241   492
16.8341   485
16.8441   480
16.8541   488
16.8641   487
16.8741   502
16.8841   522
16.8941   499
16.9041   505
16.9141   488
16.9241   519
16.9341   534
16.9441   511
16.9541   506
16.9641   528
16.9741   511
16.9841   508
16.9941   532
17.0041   522
17.0141   506
17.0241   525
17.0341   516
17.0441   517
17.0541   552
17.0641   527
17.0741   524
17.0841   536
17.0941   528
17.1041   536
17.1141   506
17.1241   506
17.1341   499
17.1441   530
17.1541   545
17.1641   531
17.1741   510
17.1841   525
17.1941   505
17.2041   494
17.2141   502
17.2241   540
17.2341   538
17.2441   526
17.2541   539
17.2641   555
17.2741   546
17.2841   575
17.2941   538
17.3041   527
17.3141   529
17.3241   567
17.3341   534
17.3441   543
17.3541   564
17.3641   525
17.3741   515
17.3841   549
17.3941   533
17.4041   538
17.4141   533
17.4241   530
17.4341   525
17.4441   558
17.4541   542
17.4641   559
17.4741   566
17.4841   561
17.4941   577
17.5041   559
17.5141   545
17.5241   546
17.5341   576
17.5441   566
17.5541   541
17.5641   586
17.5741   573
17.5841   552
17.5941   565
17.6041   569
17.6141   556
17.6241   560
17.6341   553
17.6441   558
17.6541   559
17.6641   578
17.6741   575
17.6841   561
17.6941   602
17.7041   598
17.7141   544
17.7241   573
17.7341   570
17.7441   588
17.7541   576
17.7641   574
17.7741   582
17.7841   596
17.7941   557
17.8041   565
17.8141   580
17.8241   572
17.8341   549
17.8441   595
17.8541   616
17.8641   569
17.8741   590
17.8841   574
17.8941   554
17.9041   579
17.9141   592
17.9241   615
17.9341   618
17.9441   573
17.9541   572
17.9641   580
17.9741   559
17.9841   599
17.9941   593
18.0041   557
18.0141   547
18.0241   525
18.0341   578
18.0441   569
18.0541   586
18.0641   568
18.0741   605
18.0841   592
18.0941   579
18.1041   596
18.1141   604
18.1241   599
18.1341   596
18.1441   615
18.1541   601
18.1641   582
18.1741   595
18.1841   615
18.1941   631
18.2041   602
18.2141   588
18.2241   605
18.2341   613
18.2441   619
18.2541   592
18.2641   594
18.2741   571
18.2841   595
18.2941   616
18.3041   616
18.3141   614
18.3241   632
18.3341   607
18.3441   563
18.3541   588
18.3641   598
18.3741   589
18.3841   593
18.3941   616
18.4041   575
18.4141   572
18.4241   621
18.4341   583
18.4441   603
18.4541   651
18.4641   590
18.4741   589
18.4841   609
18.4941   599
18.5041   582
18.5141   612
18.5241   622
18.5341   646
18.5441   619
18.5541   638
18.5641   576
18.5741   580
18.5841   595
18.5941   615
18.6041   617
18.6141   621
18.6241   608
18.6341   611
18.6441   650
18.6541   625
18.6641   616
18.6741   630
18.6841   623
18.6941   621
18.7041   629
18.7141   649
18.7241   624
18.7341   623
18.7441   643
18.7541   619
18.7641   628
18.7741   632
18.7841   610
18.7941   653
18.8041   626
18.8141   608
18.8241   618
18.8341   615
18.8441   597
18.8541   601
18.8641   616
18.8741   633
18.8841   622
18.8941   634
18.9041   613
18.9141   605
18.9241   615
18.9341   627
18.9441   593
18.9541   637
18.9641   585
18.9741   628
18.9841   628
18.9941   651
19.0041   637
19.0141   617
19.0241   667
19.0341   656
19.0441   674
19.0541   630
19.0641   639
19.0741   639
19.0841   634
19.0941   623
19.1041   672
19.1141   632
19.1241   625
19.1341   667
19.1441   675
19.1541   644
19.1641   615
19.1741   628
19.1841   639
19.1941   648
19.2041   648
19.2141   652
19.2241   640
19.2341   654
19.2441   645
19.2541   650
19.2641   686
19.2741   681
19.2841   642
19.2941   655
19.3041   679
19.3141   636
19.3241   640
19.3341   670
19.3441   637
19.3541   633
19.3641   642
19.3741   621
19.3841   634
19.3941   606
19.4041   661
19.4141   667
19.4241   656
19.4341   653
19.4441   628
19.4541   608
19.4641   626
19.4741   654
19.4841   672
19.4941   665
19.5041   644
19.5141   665
19.5241   665
19.5341   691
19.5441   675
19.5541   657
19.5641   671
19.5741   657
19.5841   667
19.5941   693
19.6041   670
19.6141   636
19.6241   660
19.6341   692
19.6441   605
19.6541   623
19.6641   689
19.6741   669
19.6841   668
19.6941   706
19.7041   658
19.7141   659
19.7241   664
19.7341   659
19.7441   686
19.7541   654
19.7641   647
19.7741   673
19.7841   661
19.7941   620
19.8041   652
19.8141   652
19.8241   638
19.8341   657
19.8441   669
19.8541   675
19.8641   635
19.8741   704
19.8841   703
19.8941   661
19.9041   630
19.9141   676
19.9241   648
19.9341   650
19.9441   664
19.9541   674
19.9641   669
19.9741   670
19.9841   632
19.9941   682
20.0041   699
20.0141   699
20.0241   650
20.0341   660
20.0441   680
20.0541   675
20.0641   673
20.0741   671
20.0841   686
20.0941   666
20.1041   720
20.1141   702
20.1241   674
20.1341   670
20.1441   652
20.1541   675
20.1641   649
20.1741   681
20.1841   692
20.1941   633
20.2041   647
20.2141   677
20.2241   692
20.2341   680
20.2441   669
20.2541   680
20.2641   680
20.2741   656
20.2841   666
20.2941   719
20.3041   736
20.3141   674
20.3241   659
20.3341   632
20.3441   675
20.3541   672
20.3641   681
20.3741   667
20.3841   657
20.3941   678
20.4041   660
20.4141   673
20.4241   685
20.4341   698
20.4441   700
20.4541   656
20.4641   664
20.4741   629
20.4841   693
20.4941   660
20.5041   670
20.5141   665
20.5241   683
20.5341   702
20.5441   702
20.5541   660
20.5641   680
20.5741   665
20.5841   635
20.5941   671
20.6041   713
20.6141   717
20.6241   691
20.6341   657
20.6441   698
20.6541   669
20.6641   644
20.6741   698
20.6841   655
20.6941   697
20.7041   738
20.7141   728
20.7241   673
20.7341   656
20.7441   670
20.7541   714
20.7641   672
20.7741   681
20.7841   695
20.7941   722
20.8041   695
20.8141   701
20.8241   727
20.8341   736
20.8441   712
20.8541   726
20.8641   750
20.8741   778
20.8841   781
20.8941   772
20.9041   779
20.9141   808
20.9241   809
20.9341   836
20.9441   827
20.9541   853
20.9641   896
20.9741   890
20.9841   860
20.9941   881
21.0041   886
21.0141   980
21.0241  1000
21.0341   927
21.0441   971
21.0541   932
21.0641   970
21.0741   955
21.0841  1006
21.0941  1049
21.1041  1008
21.1141   966
21.1241  1000
21.1341   960
21.1441  1005
21.1541  1034
21.1641  1022
21.1741   969
21.1841  1006
21.1941   981
21.2041   962
21.2141   918
21.2241   910
21.2341   941
21.2441   906
21.2541   936
21.2641   889
21.2741   842
21.2841   805
21.2941   812
21.3041   820
21.3141   714
21.3241   743
21.3341   771
21.3441   747
21.3541   742
21.3641   731
21.3741   744
21.3841   708
21.3941   696
21.4041   726
21.4141   723
21.4241   784
21.4341   716
21.4441   708
21.4541   705
21.4641   674
21.4741   661
21.4841   714
21.4941   699
21.5041   729
21.5141   667
21.5241   706
21.5341   703
21.5441   705
21.5541   660
21.5641   715
21.5741   718
21.5841   669
21.5941   697
21.6041   704
21.6141   686
21.6241   686
21.6341   712
21.6441   683
21.6541   669
21.6641   687
21.6741   684
21.6841   733
21.6941   651
21.7041   669
21.7141   695
21.7241   723
21.7341   680
21.7441   728
21.7541   669
21.7641   665
21.7741   650
21.7841   707
21.7941   687
21.8041   623
21.8141   722
21.8241   686
21.8341   647
21.8441   704
21.8541   750
21.8641   641
21.8741   673
21.8841   685
21.8941   666
21.9041   674
21.9141   663
21.9241   672
21.9341   711
21.9441   697
21.9541   680
21.9641   683
21.9741   712
21.9841   710
21.9941   706
22.0041   698
22.0141   695
22.0241   714
22.0341   698
22.0441   729
22.0541   693
22.0641   697
22.0741   648
22.0841   682
22.0941   695
22.1041   667
22.1141   713
22.1241   708
22.1341   683
22.1441   682
22.1541   695
22.1641   666
22.1741   644
22.1841   680
22.1941   674
22.2041   650
22.2141   673
22.2241   670
22.2341   718
22.2441   694
22.2541   691
22.2641   652
22.2741   690
22.2841   706
22.2941   682
22.3041   704
22.3141   647
22.3241   668
22.3341   735
22.3441   682
22.3541   664
22.3641   703
22.3741   688
22.3841   695
22.3941   667
22.4041   683
22.4141   692
22.4241   700
22.4341   711
22.4441   682
22.4541   674
22.4641   661
22.4741   664
22.4841   648
22.4941   676
22.5041   669
22.5141   636
22.5241   638
22.5341   652
22.5441   659
22.5541   657
22.5641   674
22.5741   654
22.5841   655
22.5941   699
22.6041   677
22.6141   689
22.6241   669
22.6341   663
22.6441   698
22.6541   637
22.6641   651
22.6741   667
22.6841   652
22.6941   658
22.7041   703
22.7141   684
22.7241   656
22.7341   678
22.7441   671
22.7541   662
22.7641   663
22.7741   646
22.7841   660
22.7941   654
22.8041   650
22.8141   654
22.8241   731
22.8341   686
22.8441   695
22.8541   683
22.8641   694
22.8741   686
22.8841   706
22.8941   646
22.9041   658
22.9141   645
22.9241   620
22.9341   638
22.9441   672
22.9541   664
22.9641   676
22.9741   645
22.9841   625
22.9941   659
23.0041   663
23.0141   675
23.0241   692
23.0341   580
23.0441   610
23.0541   629
23.0641   588
23.0741   665
23.0841   644
23.0941   701
23.1041   669
23.1141   698
23.1241   656
23.1341   678
23.1441   669
23.1541   661
23.1641   681
23.1741   612
23.1841   705
23.1941   654
23.2041   708
23.2141   651
23.2241   636
23.2341   686
23.2441   641
23.2541   550
23.2641   657
23.2741   680
23.2841   669
23.2941   676
23.3041   642
23.3141   633
23.3241   656
23.3341   679
23.3441   661
23.3541   623
23.3641   663
23.3741   689
23.3841   654
23.3941   640
23.4041   634
23.4141   619
23.4241   644
23.4341   630
23.4441   668
23.4541   646
23.4641   647
23.4741   614
23.4841   647
23.4941   664
23.5041   659
23.5141   671
23.5241   621
23.5341   627
23.5441   643
23.5541   625
23.5641   678
23.5741   639
23.5841   674
23.5941   674
23.6041   685
23.6141   675
23.6241   678
23.6341   651
23.6441   665
23.6541   701
23.6641   650
23.6741   680
23.6841   705
23.6941   708
23.7041   700
23.7141   703
23.7241   711
23.7341   700
23.7441   767
23.7541   687
23.7641   714
23.7741   669
23.7841   723
23.7941   687
23.8041   701
23.8141   727
23.8241   719
23.8341   703
23.8441   677
23.8541   650
23.8641   664
23.8741   709
23.8841   621
23.8941   659
23.9041   610
23.9141   683
23.9241   648
23.9341   709
23.9441   659
23.9541   644
23.9641   619
23.9741   623
23.9841   659
23.9941   636
24.0041   605
24.0141   641
24.0241   609
24.0341   665
24.0441   645
24.0541   683
24.0641   624
24.0741   630
24.0841   621
24.0941   622
24.1041   644
24.1141   598
24.1241   644
24.1341   630
24.1441   582
24.1541   616
24.1641   597
24.1741   588
24.1841   627
24.1941   608
24.2041   612
24.2141   623
24.2241   648
24.2341   648
24.2441   603
24.2541   649
24.2641   636
24.2741   645
24.2841   608
24.2941   623
24.3041   632
24.3141   624
24.3241   620
24.3341   620
24.3441   616
24.3541   632
24.3641   618
24.3741   582
24.3841   623
24.3941   596
24.4041   551
24.4141   605
24.4241   623
24.4341   624
24.4441   604
24.4541   616
24.4641   636
24.4741   587
24.4841   591
24.4941   661
24.5041   591
24.5141   600
24.5241   629
24.5341   589
24.5441   606
24.5541   639
24.5641   637
24.5741   579
24.5841   633
24.5941   602
24.6041   590
24.6141   598
24.6241   571
24.6341   551
24.6441   594
24.6541   594
24.6641   597
24.6741   603
24.6841   601
24.6941   610
24.7041   613
24.7141   638
24.7241   585
24.7341   598
24.7441   654
24.7541   646
24.7641   611
24.7741   624
24.7841   587
24.7941   592
24.8041   613
24.8141   591
24.8241   610
24.8341   593
24.8441   596
24.8541   613
24.8641   621
24.8741   682
24.8841   590
24.8941   587
24.9041   624
24.9141   607
24.9241   617
24.9341   588
24.9441   565
24.9541   592
24.9641   613
24.9741   564
24.9841   595
24.9941   581
25.0041   640
25.0141   574
25.0241   591
25.0341   611
25.0441   604
25.0541   573
25.0641   573
25.0741   593
25.0841   598
25.0941   598
25.1041   649
25.1141   597
25.1241   602
25.1341   609
25.1441   550
25.1541   567
25.1641   592
25.1741   577
25.1841   610
25.1941   600
25.2041   588
25.2141   571
25.2241   556
25.2341   598
25.2441   596
25.2541   583
25.2641   617
25.2741   583
25.2841   593
25.2941   633
25.3041   576
25.3141   582
25.3241   609
25.3341   558
25.3441   612
25.3541   598
25.3641   566
25.3741   574
25.3841   580
25.3941   576
25.4041   602
25.4141   598
25.4241   579
25.4341   580
25.4441   572
25.4541   577
25.4641   558
25.4741   507
25.4841   565
25.4941   557
25.5041   571
25.5141   579
25.5241   565
25.5341   561
25.5441   545
25.5541   561
25.5641   518
25.5741   524
25.5841   557
25.5941   547
25.6041   541
25.6141   552
25.6241   533
25.6341   512
25.6441   583
25.6541   536
25.6641   537
25.6741   539
25.6841   628
25.6941   575
25.7041   520
25.7141   576
25.7241   560
25.7341   526
25.7441   549
25.7541   495
25.7641   519
25.7741   538
25.7841   549
25.7941   520
25.8041   487
25.8141   509
25.8241   540
25.8341   539
25.8441   546
25.8541   534
25.8641   515
25.8741   535
25.8841   607
25.8941   541
25.9041   541
25.9141   520
25.9241   532
25.9341   548
25.9441   551
25.9541   559
25.9641   569
25.9741   538
25.9841   535
25.9941   518
26.0041   529
26.0141   526
26.0241   503
26.0341   524
26.0441   538
26.0541   556
26.0641   552
26.0741   562
26.0841   552
26.0941   516
26.1041   537
26.1141   547
26.1241   560
26.1341   520
26.1441   524
26.1541   536
26.1641   516
26.1741   530
26.1841   548
26.1941   521
26.2041   543
26.2141   495
26.2241   515
26.2341   517
26.2441   511
26.2541   563
26.2641   496
26.2741   532
26.2841   545
26.2941   527
26.3041   532
26.3141   501
26.3241   529
26.3341   556
26.3441   513
26.3541   532
26.3641   493
26.3741   531
26.3841   485
26.3941   520
26.4041   512
26.4141   548
26.4241   523
26.4341   513
26.4441   520
26.4541   521
26.4641   563
26.4741   506
26.4841   563
26.4941   544
26.5041   531
26.5141   481
26.5241   532
26.5341   532
26.5441   514
26.5541   488
26.5641   501
26.5741   461
26.5841   484
26.5941   525
26.6041   522
26.6141   526
26.6241   503
26.6341   503
26.6441   515
26.6541   528
26.6641   498
26.6741   509
26.6841   507
26.6941   509
26.7041   506
26.7141   476
26.7241   489
26.7341   510
26.7441   505
26.7541   514
26.7641   473
26.7741   498
26.7841   495
26.7941   499
26.8041   527
26.8141   494
26.8241   461
26.8341   497
26.8441   461
26.8541   501
26.8641   481
26.8741   488
26.8841   476
26.8941   452
26.9041   505
26.9141   519
26.9241   501
26.9341   507
26.9441   527
26.9541   467
26.9641   490
26.9741   470
26.9841   482
26.9941   489
27.0041   475
27.0141   453
27.0241   470
27.0341   453
27.0441   525
27.0541   503
27.0641   508
27.0741   513
27.0841   500
27.0941   526
27.1041   476
27.1141   470
27.1241   501
27.1341   471
27.1441   459
27.1541   468
27.1641   488
27.1741   497
27.1841   469
27.1941   492
27.2041   489
27.2141   498
27.2241   500
27.2341   465
27.2441   445
27.2541   489
27.2641   493
27.2741   456
27.2841   448
27.2941   453
27.3041   469
27.3141   456
27.3241   481
27.3341   487
27.3441   460
27.3541   463
27.3641   461
27.3741   477
27.3841   479
27.3941   511
27.4041   456
27.4141   495
27.4241   505
27.4341   504
27.4441   483
27.4541   472
27.4641   466
27.4741   441
27.4841   471
27.4941   450
27.5041   463
27.5141   460
27.5241   487
27.5341   466
27.5441   450
27.5541   437
27.5641   487
27.5741   468
27.5841   483
27.5941   465
27.6041   443
27.6141   486
27.6241   460
27.6341   471
27.6441   450
27.6541   449
27.6641   449
27.6741   466
27.6841   434
27.6941   447
27.7041   472
27.7141   405
27.7241   435
27.7341   504
27.7441   454
27.7541   456
27.7641   435
27.7741   424
27.7841   485
27.7941   446
27.8041   464
27.8141   484
27.8241   483
27.8341   483
27.8441   443
27.8541   456
27.8641   454
27.8741   435
27.8841   449
27.8941   440
27.9041   435
27.9141   465
27.9241   435
27.9341   463
27.9441   421
27.9541   445
27.9641   426
27.9741   417
27.9841   451
27.9941   440
28.0041   463
28.0141   465
28.0241   467
28.0341   406
28.0441   481
28.0541   390
28.0641   403
28.0741   422
28.0841   420
28.0941   428
28.1041   414
28.1141   456
28.1241   433
28.1341   425
28.1441   459
28.1541   418
28.1641   467
28.1741   459
28.1841   443
28.1941   441
28.2041   439
28.2141   414
28.2241   449
28.2341   401
28.2441   401
28.2541   409
28.2641   435
28.2741   389
28.2841   439
28.2941   429
28.3041   418
28.3141   420
28.3241   395
28.3341   409
28.3441   387
28.3541   402
28.3641   400
28.3741   408
28.3841   420
28.3941   412
28.4041   428
28.4141   435
28.4241   424
28.4341   404
28.4441   427
28.4541   423
28.4641   411
28.4741   405
28.4841   407
28.4941   425
28.5041   387
28.5141   444
28.5241   418
28.5341   441
28.5441   400
28.5541   440
28.5641   425
28.5741   388
28.5841   400
28.5941   415
28.6041   410
28.6141   416
28.6241   431
28.6341   413
28.6441   412
28.6541   387
28.6641   434
28.6741   419
28.6841   400
28.6941   391
28.7041   367
28.7141   388
28.7241   390
28.7341   395
28.7441   410
28.7541   414
28.7641   412
28.7741   405
28.7841   372
28.7941   404
28.8041   397
28.8141   443
28.8241   398
28.8341   399
28.8441   387
28.8541   391
28.8641   432
28.8741   396
28.8841   382
28.8941   382
28.9041   369
28.9141   355
28.9241   394
28.9341   400
28.9441   389
28.9541   403
28.9641   380
28.9741   380
28.9841   364
28.9941   388
29.0041   375
29.0141   375
29.0241   379
29.0341   390
29.0441   393
29.0541   409
29.0641   395
29.0741   364
29.0841   387
29.0941   396
29.1041   411
29.1141   352
29.1241   363
29.1341   376
29.1441   395
29.1541   380
29.1641   402
29.1741   342
29.1841   382
29.1941   408
29.2041   350
29.2141   360
29.2241   382
29.2341   361
29.2441   397
29.2541   372
29.2641   378
29.2741   373
29.2841   345
29.2941   369
29.3041   374
29.3141   392
29.3241   369
29.3341   371
29.3441   375
29.3541   402
29.3641   384
29.3741   372
29.3841   389
29.3941   387
29.4041   342
29.4141   353
29.4241   357
29.4341   350
29.4441   358
29.4541   361
29.4641   339
29.4741   374
29.4841   375
29.4941   379
29.5041   363
29.5141   360
29.5241   345
29.5341   340
29.5441   351
29.5541   356
29.5641   358
29.5741   316
29.5841   368
29.5941   348
29.6041   353
29.6141   371
29.6241   378
29.6341   344
29.6441   325
29.6541   362
29.6641   337
29.6741   382
29.6841   366
29.6941   342
29.7041   329
29.7141   359
29.7241   362
29.7341   340
29.7441   346
29.7541   367
29.7641   337
29.7741   333
29.7841   346
29.7941   326
29.8041   309
29.8141   328
29.8241   346
29.8341   333
29.8441   327
29.8541   325
29.8641   335
29.8741   352
29.8841   340
29.8941   376
29.9041   364
29.9141   344
29.9241   351
29.9341   311
29.9441   350
29.9541   348
29.9641   331
29.9741   340
29.9841   378
29.9941   343
30.0041   328
30.0141   329
30.0241   336
30.0341   339
30.0441   351
30.0541   317
30.0641   340
30.0741   345
30.0841   333
30.0941   322
30.1041   332
30.1141   325
30.1241   297
30.1341   358
30.1441   321
30.1541   319
30.1641   320
30.1741   325
30.1841   319
30.1941   306
30.2041   317
30.2141   321
30.2241   326
30.2341   333
30.2441   346
30.2541   345
30.2641   346
30.2741   315
30.2841   329
30.2941   344
30.3041   321
30.3141   344
30.3241   317
30.3341   333
30.3441   306
30.3541   338
30.3641   331
30.3741   335
30.3841   312
30.3941   312
30.4041   296
30.4141   302
30.4241   338
30.4341   309
30.4441   342
30.4541   316
30.4641   293
30.4741   308
30.4841   330
30.4941   314
30.5041   329
30.5141   300
30.5241   313
30.5341   321
30.5441   327
30.5541   309
30.5641   316
30.5741   299
30.5841   306
30.5941   301
30.6041   341
30.6141   293
30.6241   295
30.6341   293
30.6441   288
30.6541   331
30.6641   302
30.6741   298
30.6841   314
30.6941   319
30.7041   326
30.7141   288
30.7241   289
30.7341   338
30.7441   277
30.7541   304
30.7641   301
30.7741   283
30.7841   315
30.7941   342
30.8041   316
30.8141   284
30.8241   295
30.8341   295
30.8441   304
30.8541   310
30.8641   316
30.8741   305
30.8841   287
30.8941   277
30.9041   281
30.9141   296
30.9241   267
30.9341   282
30.9441   282
30.9541   260
30.9641   270
30.9741   320
30.9841   276
30.9941   304
31.0041   280
31.0141   278
31.0241   285
31.0341   282
31.0441   288
31.0541   298
31.0641   305
31.0741   303
31.0841   274
31.0941   299
31.1041   276
31.1141   282
31.1241   282
31.1341   291
31.1441   250
31.1541   291
31.1641   295
31.1741   276
31.1841   297
31.1941   270
31.2041   283
31.2141   269
31.2241   268
31.2341   286
31.2441   256
31.2541   298
31.2641   286
31.2741   280
31.2841   273
31.2941   282
31.3041   296
31.3141   246
31.3241   273
31.3341   285
31.3441   281
31.3541   286
31.3641   262
31.3741   256
31.3841   261
31.3941   263
31.4041   270
31.4141   266
31.4241   300
31.4341   298
31.4441   272
31.4541   277
31.4641   274
31.4741   261
31.4841   298
31.4941   284
31.5041   291
31.5141   249
31.5241   265
31.5341   259
31.5441   273
31.5541   255
31.5641   256
31.5741   241
31.5841   274
31.5941   248
31.6041   256
31.6141   285
31.6241   269
31.6341   266
31.6441   285
31.6541   252
31.6641   288
31.6741   258
31.6841   292
31.6941   279
31.7041   248
31.7141   274
31.7241   273
31.7341   279
31.7441   268
31.7541   274
31.7641   253
31.7741   292
31.7841   268
31.7941   274
31.8041   264
31.8141   257
31.8241   255
31.8341   258
31.8441   283
31.8541   260
31.8641   280
31.8741   267
31.8841   241
31.8941   284
31.9041   267
31.9141   274
31.9241   283
31.9341   253
31.9441   277
31.9541   278
31.9641   284
31.9741   245
31.9841   249
31.9941   259
32.0041   264
32.0141   262
32.0241   276
32.0341   246
32.0441   302
32.0541   279
32.0641   268
32.0741   262
32.0841   276
32.0941   248
32.1041   258
32.1141   228
32.1241   271
32.1341   241
32.1441   259
32.1541   228
32.1641   267
32.1741   221
32.1841   266
32.1941   242
32.2041   226
32.2141   241
32.2241   248
32.2341   231
32.2441   247
32.2541   248
32.2641   257
32.2741   279
32.2841   247
32.2941   247
32.3041   260
32.3141   223
32.3241   225
32.3341   226
32.3441   230
32.3541   231
32.3641   222
32.3741   228
32.3841   238
32.3941   251
32.4041   255
32.4141   252
32.4241   234
32.4341   225
32.4441   227
32.4541   239
32.4641   235
32.4741   228
32.4841   236
32.4941   211
32.5041   251
32.5141   249
32.5241   239
32.5341   234
32.5441   240
32.5541   225
32.5641   245
32.5741   226
32.5841   218
32.5941   212
32.6041   247
32.6141   226
32.6241   217
32.6341   211
32.6441   211
32.6541   205
32.6641   200
32.6741   228
32.6841   205
32.6941   196
32.7041   213
32.7141   225
32.7241   226
32.7341   221
32.7441   228
32.7541   187
32.7641   203
32.7741   199
32.7841   192
32.7941   203
32.8041   200
32.8141   217
32.8241   235
32.8341   217
32.8441   223
32.8541   207
32.8641   215
32.8741   208
32.8841   189
32.8941   231
32.9041   207
32.9141   205
32.9241   188
32.9341   225
32.9441   201
32.9541   194
32.9641   212
32.9741   208
32.9841   211
32.9941   219
33.0041   200
33.0141   226
33.0241   221
33.0341   205
33.0441   189
33.0541   216
33.0641   214
33.0741   195
33.0841   229
33.0941   220
33.1041   191
33.1141   185
33.1241   189
33.1341   203
33.1441   186
33.1541   215
33.1641   187
33.1741   212
33.1841   199
33.1941   203
33.2041   223
33.2141   209
33.2241   184
33.2341   181
33.2441   222
33.2541   199
33.2641   201
33.2741   181
33.2841   201
33.2941   216
33.3041   184
33.3141   213
33.3241   206
33.3341   219
33.3441   208
33.3541   184
33.3641   198
33.3741   176
33.3841   210
33.3941   201
33.4041   174
33.4141   209
33.4241   192
33.4341   193
33.4441   204
33.4541   209
33.4641   167
33.4741   202
33.4841   184
33.4941   189
33.5041   189
33.5141   206
33.5241   191
33.5341   190
33.5441   180
33.5541   207
33.5641   183
33.5741   186
33.5841   188
33.5941   185
33.6041   203
33.6141   184
33.6241   187
33.6341   183
33.6441   196
33.6541   202
33.6641   194
33.6741   192
33.6841   185
33.6941   163
33.7041   193
33.7141   185
33.7241   171
33.7341   190
33.7441   184
33.7541   187
33.7641   170
33.7741   178
33.7841   176
33.7941   185
33.8041   172
33.8141   193
33.8241   193
33.8341   158
33.8441   182
33.8541   185
33.8641   189
33.8741   166
33.8841   177
33.8941   162
33.9041   189
33.9141   175
33.9241   172
33.9341   176
33.9441   162
33.9541   160
33.9641   165
33.9741   174
33.9841   189
33.9941   176
34.0041   181
34.0141   187
34.0241   170
34.0341   175
34.0441   178
34.0541   184
34.0641   174
34.0741   151
34.0841   163
34.0941   176
34.1041   168
34.1141   184
34.1241   149
34.1341   148
34.1441   185
34.1541   181
34.1641   166
34.1741   196
34.1841   160
34.1941   172
34.2041   178
34.2141   173
34.2241   189
34.2341   175
34.2441   164
34.2541   187
34.2641   154
34.2741   161
34.2841   143
34.2941   180
34.3041   161
34.3141   154
34.3241   168
34.3341   160
34.3441   154
34.3541   178
34.3641   152
34.3741   164
34.3841   174
34.3941   168
34.4041   159
34.4141   155
34.4241   147
34.4341   162
34.4441   155
34.4541   166
34.4641   177
34.4741   174
34.4841   157
34.4941   148
34.5041   184
34.5141   172
34.5241   179
34.5341   170
34.5441   167
34.5541   157
34.5641   151
34.5741   160
34.5841   167
34.5941   159
34.6041   146
34.6141   154
34.6241   166
34.6341   143
34.6441   136
34.6541   143
34.6641   135
34.6741   173
34.6841   148
34.6941   159
34.7041   147
34.7141   152
34.7241   176
34.7341   147
34.7441   154
34.7541   152
34.7641   186
34.7741   155
34.7841   160
34.7941   138
34.8041   149
34.8141   151
34.8241   154
34.8341   134
34.8441   141
34.8541   138
34.8641   141
34.8741   163
34.8841   158
34.8941   147
34.9041   152
34.9141   142
34.9241   136
34.9341   154
34.9441   144
34.9541   144
34.9641   136
34.9741   127
34.9841   135
34.9941   150
35.0041   150
35.0141   131
35.0241   155
35.0341   138
35.0441   142
35.0541   153
35.0641   156
35.0741   148
35.0841   131
35.0941   148
35.1041   141
35.1141   135
35.1241   120
35.1341   143
35.1441   150
35.1541   153
35.1641   162
35.1741   132
35.1841   137
35.1941   128
35.2041   141
35.2141   142
35.2241   139
35.2341   149
35.2441   150
35.2541   130
35.2641   135
35.2741   128
35.2841   148
35.2941   144
35.3041   123
35.3141   119
35.3241   138
35.3341   146
35.3441   129
35.3541   145
35.3641   127
35.3741   135
35.3841   126
35.3941   113
35.4041   140
35.4141   132
35.4241   148
35.4341   122
35.4441   131
35.4541   129
35.4641   137
35.4741   147
35.4841   123
35.4941   114
35.5041   124
35.5141   123
35.5241   126
35.5341   117
35.5441   122
35.5541   114
35.5641   143
35.5741   132
35.5841   123
35.5941   120
35.6041   136
35.6141   133
35.6241   137
35.6341   122
35.6441   117
35.6541   123
35.6641   124
35.6741   121
35.6841   138
35.6941   116
35.7041   136
35.7141   139
35.7241   120
35.7341   131
35.7441   129
35.7541   137
35.7641   122
35.7741   121
35.7841   132
35.7941   137
35.8041   125
35.8141   124
35.8241   125
35.8341   118
35.8441   117
35.8541   128
35.8641   138
35.8741   117
35.8841   125
35.8941   102
35.9041   106
35.9141   130
35.9241   124
35.9341   122
35.9441   110
35.9541   118
35.9641   111
35.9741   110
35.9841   103
35.9941   122
36.0041   131
36.0141   118
36.0241   122
36.0341   118
36.0441   117
36.0541   133
36.0641   123
36.0741   109
36.0841   132
36.0941   109
36.1041   118
36.1141   109
36.1241   112
36.1341   116
36.1441   101
36.1541   107
36.1641   105
36.1741   100
36.1841   100
36.1941   104
36.2041   121
36.2141   107
36.2241   109
36.2341   116
36.2441   121
36.2541   101
36.2641   123
36.2741   116
36.2841   109
36.2941   112
36.3041   117
36.3141   119
36.3241   109
36.3341    95
36.3441   101
36.3541   118
36.3641   102
36.3741   114
36.3841   109
36.3941   109
36.4041   112
36.4141   112
36.4241   118
36.4341   118
36.4441   102
36.4541   116
36.4641   122
36.4741   100
36.4841   109
36.4941    95
36.5041   111
36.5141   110
36.5241    93
36.5341    93
36.5441   103
36.5541   103
36.5641   111
36.5741    94
36.5841    95
36.5941   111
36.6041   101
36.6141   103
36.6241   104
36.6341   106
36.6441    90
36.6541   100
36.6641   103
36.6741    86
36.6841   119
36.6941    98
36.7041    83
36.7141    99
36.7241    89
36.7341   113
36.7441   105
36.7541    98
36.7641    69
36.7741    95
36.7841   104
36.7941    96
36.8041    95
36.8141   119
36.8241    99
36.8341    88
36.8441    80
36.8541    81
36.8641   108
36.8741    99
36.8841   104
36.8941    94
36.9041    93
36.9141   106
36.9241   103
36.9341    93
36.9441    88
36.9541    90
36.9641   114
36.9741   111
36.9841    98
36.9941    78
37.0041    92
37.0141    88
37.0241    82
37.0341    84
37.0441    86
37.0541    93
37.0641    96
37.0741    91
37.0841   103
37.0941    92
37.1041    85
37.1141    79
37.1241    97
37.1341   101
37.1441    93
37.1541   101
37.1641   117
37.1741    95
37.1841    90
37.1941    90
37.2041    91
37.2141   101
37.2241   101
37.2341    86
37.2441    77
37.2541    87
37.2641    84
37.2741    79
37.2841    79
37.2941    90
37.3041    96
37.3141    84
37.3241    69
37.3341    76
37.3441    79
37.3541    79
37.3641    88
37.3741    70
37.3841    82
37.3941    89
37.4041    86
37.4141    85
37.4241    89
37.4341    72
37.4441    85
37.4541    84
37.4641    90
37.4741    79
37.4841    92
37.4941    67
37.5041    76
37.5141    89
37.5241    83
37.5341    84
37.5441    98
37.5541    99
37.5641    76
37.5741    72
37.5841    75
37.5941    75
37.6041    93
37.6141    85
37.6241   101
37.6341    90
37.6441    79
37.6541    52
37.6641    71
37.6741    82
37.6841    72
37.6941    83
37.7041    85
37.7141    84
37.7241    83
37.7341    75
37.7441    88
37.7541    80
37.7641    72
37.7741    70
37.7841    78
37.7941    66
37.8041    64
37.8141    80
37.8241    68
37.8341    94
37.8441    59
37.8541    82
37.8641    73
37.8741    75
37.8841    86
37.8941    70
37.9041    61
37.9141    65
37.9241    57
37.9341    79
37.9441    67
37.9541    68
37.9641    70
37.9741    78
37.9841    83
37.9941    84
38.0041    88
38.0141    79
38.0241    67
38.0341    73
38.0441    66
38.0541    76
38.0641    65
38.0741    75
38.0841    71
38.0941    70
38.1041    83
38.1141    65
38.1241    75
38.1341    72
38.1441    75
38.1541    68
38.1641    62
38.1741    65
38.1841    71
38.1941    73
38.2041    70
38.2141    72
38.2241    83
38.2341    62
38.2441    71
38.2541    51
38.2641    69
38.2741    61
38.2841    62
38.2941    67
38.3041    72
38.3141    70
38.3241    54
38.3341    63
38.3441    61
38.3541    62
38.3641    54
38.3741    53
38.3841    63
38.3941    64
38.4041    64
38.4141    57
38.4241    60
38.4341    68
38.4441    63
38.4541    56
38.4641    65
38.4741    54
38.4841    65
38.4941    64
38.5041    60
38.5141    55
38.5241    70
38.5341    46
38.5441    57
38.5541    58
38.5641    63
38.5741    52
38.5841    55
38.5941    54
38.6041    64
38.6141    64
38.6241    54
38.6341    56
38.6441    65
38.6541    66
38.6641    73
38.6741    55
38.6841    62
38.6941    61
38.7041    67
38.7141    55
38.7241    52
38.7341    64
38.7441    53
38.7541    55
38.7641    59
38.7741    66
38.7841    56
38.7941    50
38.8041    63
38.8141    59
38.8241    46
38.8341    48
38.8441    44
38.8541    50
38.8641    62
38.8741    58
38.8841    54
38.8941    65
38.9041    58
38.9141    52
38.9241    67
38.9341    59
38.9441    57
38.9541    46
38.9641    55
38.9741    50
38.9841    52
38.9941    51
39.0041    46
39.0141    49
39.0241    56
39.0341    60
39.0441    65
39.0541    49
39.0641    49
39.0741    51
39.0841    56
39.0941    42
39.1041    55
39.1141    42
39.1241    51
39.1341    59
39.1441    59
39.1541    36
39.1641    47
39.1741    45
39.1841    54
39.1941    54
39.2041    62
39.2141    66
39.2241    53
39.2341    51
39.2441    47
39.2541    71
39.2641    54
39.2741    46
39.2841    54
39.2941    56
39.3041    55
39.3141    46
39.3241    52
39.3341    33
39.3441    61
39.3541    52
39.3641    52
39.3741    54
39.3841    39
39.3941    39
39.4041    68
39.4141    51
39.4241    55
39.4341    42
39.4441    55
39.4541    39
39.4641    50
39.4741    45
39.4841    51
39.4941    43
39.5041    51
39.5141    50
39.5241    45
39.5341    47
39.5441    55
39.5541    48
39.5641    38
39.5741    32
39.5841    58
39.5941    48
39.6041    45
39.6141    49
39.6241    48
39.6341    48
39.6441    55
39.6541    46
39.6641    33
39.6741    39
39.6841    45
39.6941    34
39.7041    38
39.7141    41
39.7241    46
39.7341    45
39.7441    53
39.7541    42
39.7641    32
39.7741    44
39.7841    34
39.7941    43
39.8041    43
39.8141    43
39.8241    27
39.8341    29
39.8441    43
39.8541    41
39.8641    46
39.8741    55
39.8841    47
39.8941    49
39.9041    51
39.9141    37
39.9241    44
39.9341    42
39.9441    45
39.9541    46
39.9641    43
39.9741    37
39.9841    44
39.9941    34
