Bruker Nano GmbH Berlin, Germany
Esprit 1.9

Date: 4/1/2021 4:06:26 PM
Real time: 26717
Life time: 25084
Pulse density: 88387


Detector type: XFlash 430
Window type: Custom type
Detector thickness: 0.45
Si dead layer:0.029

Calibration, lin.: 10
Calibration, abs.: -955.9
Mn FWHM: 137.05
Fano factor: 0.121
Channels: 4096

Energy Counts
-0.9559     0
-0.9459     0
-0.9359     0
-0.9259     0
-0.9159     0
-0.9059     0
-0.8959     0
-0.8859     0
-0.8759     0
-0.8659     0
-0.8559     0
-0.8459     0
-0.8359     0
-0.8259     0
-0.8159     0
-0.8059     0
-0.7959     0
-0.7859     0
-0.7759     0
-0.7659     0
-0.7559     0
-0.7459     0
-0.7359     0
-0.7259     0
-0.7159     0
-0.7059     0
-0.6959     0
-0.6859     0
-0.6759     0
-0.6659     0
-0.6559     0
-0.6459     0
-0.6359     0
-0.6259     0
-0.6159     0
-0.6059     0
-0.5959     0
-0.5859     0
-0.5759     0
-0.5659     0
-0.5559     0
-0.5459     0
-0.5359     0
-0.5259     0
-0.5159     0
-0.5059     0
-0.4959     0
-0.4859     0
-0.4759     0
-0.4659     0
-0.4559     0
-0.4459     0
-0.4359     0
-0.4259     0
-0.4159     0
-0.4059     0
-0.3959     0
-0.3859     0
-0.3759     0
-0.3659     0
-0.3559     0
-0.3459     0
-0.3359     0
-0.3259     0
-0.3159     0
-0.3059     0
-0.2959     0
-0.2859     0
-0.2759     0
-0.2659     0
-0.2559     0
-0.2459     0
-0.2359     0
-0.2259     0
-0.2159     0
-0.2059     0
-0.1959     0
-0.1859     0
-0.1759     0
-0.1659     0
-0.1559     0
-0.1459     0
-0.1359     0
-0.1259     2
-0.1159     1
-0.1059    21
-0.0959    81
-0.0859   300
-0.0759   954
-0.0659  2856
-0.0559  7269
-0.0459 15926
-0.0359 29784
-0.0259 47893
-0.0159 65269
-0.0059 77272
 0.0041 77568
 0.0141 66685
 0.0241 48719
 0.0341 31146
 0.0441 16714
 0.0541  7821
 0.0641  3117
 0.0741  1082
 0.0841   337
 0.0941    96
 0.1041    30
 0.1141    14
 0.1241     9
 0.1341     5
 0.1441     7
 0.1541     6
 0.1641     9
 0.1741     4
 0.1841   241
 0.1941   461
 0.2041   406
 0.2141   416
 0.2241   401
 0.2341   438
 0.2441   446
 0.2541   440
 0.2641   443
 0.2741   425
 0.2841   435
 0.2941   397
 0.3041   427
 0.3141   424
 0.3241   406
 0.3341   385
 0.3441   398
 0.3541   396
 0.3641   412
 0.3741   393
 0.3841   402
 0.3941   392
 0.4041   369
 0.4141   364
 0.4241   389
 0.4341   391
 0.4441   392
 0.4541   417
 0.4641   382
 0.4741   385
 0.4841   386
 0.4941   393
 0.5041   378
 0.5141   381
 0.5241   385
 0.5341   369
 0.5441   387
 0.5541   373
 0.5641   357
 0.5741   352
 0.5841   355
 0.5941   347
 0.6041   328
 0.6141   314
 0.6241   311
 0.6341   319
 0.6441   334
 0.6541   341
 0.6641   331
 0.6741   334
 0.6841   332
 0.6941   326
 0.7041   314
 0.7141   315
 0.7241   325
 0.7341   316
 0.7441   307
 0.7541   306
 0.7641   298
 0.7741   314
 0.7841   323
 0.7941   313
 0.8041   292
 0.8141   292
 0.8241   304
 0.8341   312
 0.8441   300
 0.8541   281
 0.8641   275
 0.8741   291
 0.8841   297
 0.8941   293
 0.9041   309
 0.9141   324
 0.9241   290
 0.9341   275
 0.9441   306
 0.9541   291
 0.9641   299
 0.9741   300
 0.9841   307
 0.9941   281
 1.0041   302
 1.0141   280
 1.0241   265
 1.0341   275
 1.0441   308
 1.0541   285
 1.0641   285
 1.0741   269
 1.0841   263
 1.0941   261
 1.1041   296
 1.1141   274
 1.1241   262
 1.1341   260
 1.1441   256
 1.1541   266
 1.1641   249
 1.1741   252
 1.1841   265
 1.1941   272
 1.2041   267
 1.2141   260
 1.2241   278
 1.2341   258
 1.2441   282
 1.2541   264
 1.2641   244
 1.2741   251
 1.2841   261
 1.2941   247
 1.3041   252
 1.3141   265
 1.3241   263
 1.3341   275
 1.3441   265
 1.3541   262
 1.3641   269
 1.3741   243
 1.3841   251
 1.3941   272
 1.4041   256
 1.4141   252
 1.4241   268
 1.4341   278
 1.4441   275
 1.4541   241
 1.4641   247
 1.4741   251
 1.4841   247
 1.4941   223
 1.5041   245
 1.5141   259
 1.5241   240
 1.5341   244
 1.5441   241
 1.5541   248
 1.5641   232
 1.5741   236
 1.5841   239
 1.5941   242
 1.6041   230
 1.6141   248
 1.6241   237
 1.6341   251
 1.6441   270
 1.6541   306
 1.6641   353
 1.6741   417
 1.6841   526
 1.6941   608
 1.7041   704
 1.7141   810
 1.7241   915
 1.7341  1018
 1.7441  1004
 1.7541   938
 1.7641   852
 1.7741   717
 1.7841   619
 1.7941   506
 1.8041   437
 1.8141   387
 1.8241   340
 1.8341   322
 1.8441   304
 1.8541   278
 1.8641   297
 1.8741   268
 1.8841   232
 1.8941   271
 1.9041   283
 1.9141   229
 1.9241   267
 1.9341   237
 1.9441   254
 1.9541   260
 1.9641   287
 1.9741   260
 1.9841   298
 1.9941   315
 2.0041   315
 2.0141   326
 2.0241   288
 2.0341   291
 2.0441   284
 2.0541   287
 2.0641   261
 2.0741   246
 2.0841   248
 2.0941   217
 2.1041   243
 2.1141   221
 2.1241   262
 2.1341   241
 2.1441   252
 2.1541   233
 2.1641   202
 2.1741   206
 2.1841   213
 2.1941   225
 2.2041   207
 2.2141   224
 2.2241   234
 2.2341   230
 2.2441   228
 2.2541   195
 2.2641   222
 2.2741   203
 2.2841   210
 2.2941   203
 2.3041   215
 2.3141   189
 2.3241   207
 2.3341   216
 2.3441   184
 2.3541   185
 2.3641   208
 2.3741   237
 2.3841   201
 2.3941   207
 2.4041   209
 2.4141   199
 2.4241   213
 2.4341   185
 2.4441   190
 2.4541   204
 2.4641   202
 2.4741   185
 2.4841   202
 2.4941   169
 2.5041   197
 2.5141   197
 2.5241   182
 2.5341   187
 2.5441   177
 2.5541   208
 2.5641   189
 2.5741   179
 2.5841   164
 2.5941   195
 2.6041   203
 2.6141   177
 2.6241   179
 2.6341   176
 2.6441   163
 2.6541   197
 2.6641   199
 2.6741   192
 2.6841   193
 2.6941   169
 2.7041   210
 2.7141   168
 2.7241   152
 2.7341   198
 2.7441   189
 2.7541   215
 2.7641   180
 2.7741   149
 2.7841   176
 2.7941   210
 2.8041   209
 2.8141   202
 2.8241   187
 2.8341   201
 2.8441   185
 2.8541   160
 2.8641   198
 2.8741   195
 2.8841   170
 2.8941   179
 2.9041   194
 2.9141   165
 2.9241   172
 2.9341   166
 2.9441   162
 2.9541   184
 2.9641   177
 2.9741   181
 2.9841   177
 2.9941   184
 3.0041   170
 3.0141   169
 3.0241   168
 3.0341   169
 3.0441   161
 3.0541   171
 3.0641   164
 3.0741   182
 3.0841   174
 3.0941   170
 3.1041   176
 3.1141   167
 3.1241   148
 3.1341   159
 3.1441   144
 3.1541   159
 3.1641   158
 3.1741   142
 3.1841   128
 3.1941   160
 3.2041   178
 3.2141   200
 3.2241   187
 3.2341   187
 3.2441   219
 3.2541   226
 3.2641   235
 3.2741   249
 3.2841   275
 3.2941   321
 3.3041   341
 3.3141   313
 3.3241   309
 3.3341   294
 3.3441   281
 3.3541   282
 3.3641   236
 3.3741   203
 3.3841   190
 3.3941   182
 3.4041   158
 3.4141   172
 3.4241   152
 3.4341   140
 3.4441   167
 3.4541   161
 3.4641   136
 3.4741   153
 3.4841   158
 3.4941   192
 3.5041   182
 3.5141   197
 3.5241   233
 3.5341   283
 3.5441   345
 3.5541   455
 3.5641   637
 3.5741   846
 3.5841  1127
 3.5941  1566
 3.6041  2303
 3.6141  3089
 3.6241  4077
 3.6341  5268
 3.6441  6321
 3.6541  7536
 3.6641  8568
 3.6741  9439
 3.6841  9871
 3.6941  9836
 3.7041  9316
 3.7141  8666
 3.7241  7614
 3.7341  6447
 3.7441  5312
 3.7541  4100
 3.7641  3070
 3.7741  2188
 3.7841  1539
 3.7941  1051
 3.8041   723
 3.8141   501
 3.8241   382
 3.8341   306
 3.8441   230
 3.8541   217
 3.8641   237
 3.8741   211
 3.8841   246
 3.8941   298
 3.9041   366
 3.9141   500
 3.9241   620
 3.9341   751
 3.9441   941
 3.9541  1108
 3.9641  1295
 3.9741  1569
 3.9841  1801
 3.9941  1897
 4.0041  1952
 4.0141  2011
 4.0241  1979
 4.0341  1812
 4.0441  1672
 4.0541  1416
 4.0641  1259
 4.0741   979
 4.0841   787
 4.0941   619
 4.1041   466
 4.1141   360
 4.1241   277
 4.1341   224
 4.1441   167
 4.1541   148
 4.1641   127
 4.1741   135
 4.1841   111
 4.1941   107
 4.2041   114
 4.2141   105
 4.2241   107
 4.2341   112
 4.2441   109
 4.2541   105
 4.2641   116
 4.2741   103
 4.2841   102
 4.2941    99
 4.3041   120
 4.3141    95
 4.3241   112
 4.3341    97
 4.3441   118
 4.3541    97
 4.3641   101
 4.3741   109
 4.3841   120
 4.3941   165
 4.4041   146
 4.4141   153
 4.4241   176
 4.4341   201
 4.4441   233
 4.4541   257
 4.4641   278
 4.4741   321
 4.4841   338
 4.4941   307
 4.5041   346
 4.5141   346
 4.5241   341
 4.5341   323
 4.5441   304
 4.5541   294
 4.5641   230
 4.5741   235
 4.5841   192
 4.5941   176
 4.6041   137
 4.6141   118
 4.6241   144
 4.6341   132
 4.6441   109
 4.6541   130
 4.6641   122
 4.6741   145
 4.6841   118
 4.6941   104
 4.7041   130
 4.7141   125
 4.7241   109
 4.7341    93
 4.7441   101
 4.7541   121
 4.7641   112
 4.7741   104
 4.7841    94
 4.7941   120
 4.8041   102
 4.8141   126
 4.8241   105
 4.8341   119
 4.8441   116
 4.8541   127
 4.8641   130
 4.8741   142
 4.8841   132
 4.8941   145
 4.9041   155
 4.9141   157
 4.9241   165
 4.9341   172
 4.9441   159
 4.9541   180
 4.9641   144
 4.9741   154
 4.9841   142
 4.9941   146
 5.0041   111
 5.0141   126
 5.0241   131
 5.0341   112
 5.0441   118
 5.0541   106
 5.0641   110
 5.0741   114
 5.0841   108
 5.0941   110
 5.1041   114
 5.1141   118
 5.1241   123
 5.1341   121
 5.1441   128
 5.1541   123
 5.1641    98
 5.1741   110
 5.1841   113
 5.1941   120
 5.2041   113
 5.2141   138
 5.2241   102
 5.2341    99
 5.2441   105
 5.2541   106
 5.2641   108
 5.2741   114
 5.2841   131
 5.2941   118
 5.3041   133
 5.3141   126
 5.3241   123
 5.3341   131
 5.3441   164
 5.3541   154
 5.3641   159
 5.3741   180
 5.3841   196
 5.3941   180
 5.4041   188
 5.4141   168
 5.4241   186
 5.4341   178
 5.4441   178
 5.4541   174
 5.4641   162
 5.4741   149
 5.4841   132
 5.4941   153
 5.5041   139
 5.5141   122
 5.5241   119
 5.5341   130
 5.5441   127
 5.5541   127
 5.5641   119
 5.5741   131
 5.5841   113
 5.5941   106
 5.6041   123
 5.6141   126
 5.6241   145
 5.6341   133
 5.6441   119
 5.6541   111
 5.6641   130
 5.6741   114
 5.6841   115
 5.6941   132
 5.7041   131
 5.7141   130
 5.7241   119
 5.7341   112
 5.7441   149
 5.7541   144
 5.7641   142
 5.7741   146
 5.7841   143
 5.7941   204
 5.8041   200
 5.8141   232
 5.8241   246
 5.8341   244
 5.8441   265
 5.8541   302
 5.8641   319
 5.8741   362
 5.8841   357
 5.8941   361
 5.9041   352
 5.9141   346
 5.9241   322
 5.9341   308
 5.9441   284
 5.9541   265
 5.9641   279
 5.9741   221
 5.9841   222
 5.9941   195
 6.0041   178
 6.0141   181
 6.0241   167
 6.0341   167
 6.0441   145
 6.0541   148
 6.0641   152
 6.0741   153
 6.0841   129
 6.0941   142
 6.1041   144
 6.1141   141
 6.1241   155
 6.1341   153
 6.1441   137
 6.1541   173
 6.1641   187
 6.1741   205
 6.1841   205
 6.1941   210
 6.2041   259
 6.2141   315
 6.2241   372
 6.2341   520
 6.2441   678
 6.2541   896
 6.2641  1254
 6.2741  1692
 6.2841  2206
 6.2941  2799
 6.3041  3691
 6.3141  4654
 6.3241  5570
 6.3341  6805
 6.3441  7909
 6.3541  9192
 6.3641 10110
 6.3741 10832
 6.3841 11220
 6.3941 11677
 6.4041 11420
 6.4141 11103
 6.4241 10676
 6.4341  9886
 6.4441  8831
 6.4541  7597
 6.4641  6405
 6.4741  5289
 6.4841  4318
 6.4941  3311
 6.5041  2566
 6.5141  1923
 6.5241  1389
 6.5341  1021
 6.5441   720
 6.5541   535
 6.5641   464
 6.5741   329
 6.5841   270
 6.5941   227
 6.6041   209
 6.6141   200
 6.6241   226
 6.6341   217
 6.6441   178
 6.6541   187
 6.6641   160
 6.6741   193
 6.6841   187
 6.6941   183
 6.7041   173
 6.7141   195
 6.7241   166
 6.7341   187
 6.7441   193
 6.7541   195
 6.7641   190
 6.7741   207
 6.7841   191
 6.7941   192
 6.8041   199
 6.8141   226
 6.8241   201
 6.8341   207
 6.8441   216
 6.8541   244
 6.8641   261
 6.8741   268
 6.8841   297
 6.8941   335
 6.9041   340
 6.9141   393
 6.9241   499
 6.9341   601
 6.9441   673
 6.9541   796
 6.9641   936
 6.9741  1120
 6.9841  1314
 6.9941  1441
 7.0041  1586
 7.0141  1782
 7.0241  1884
 7.0341  2074
 7.0441  2085
 7.0541  2142
 7.0641  2057
 7.0741  2032
 7.0841  1851
 7.0941  1795
 7.1041  1596
 7.1141  1412
 7.1241  1251
 7.1341   992
 7.1441   865
 7.1541   744
 7.1641   653
 7.1741   538
 7.1841   482
 7.1941   385
 7.2041   315
 7.2141   315
 7.2241   280
 7.2341   282
 7.2441   270
 7.2541   250
 7.2641   261
 7.2741   265
 7.2841   294
 7.2941   240
 7.3041   295
 7.3141   290
 7.3241   327
 7.3341   307
 7.3441   350
 7.3541   341
 7.3641   373
 7.3741   376
 7.3841   380
 7.3941   382
 7.4041   403
 7.4141   401
 7.4241   368
 7.4341   388
 7.4441   371
 7.4541   386
 7.4641   392
 7.4741   373
 7.4841   363
 7.4941   344
 7.5041   354
 7.5141   306
 7.5241   297
 7.5341   293
 7.5441   253
 7.5541   289
 7.5641   270
 7.5741   287
 7.5841   291
 7.5941   245
 7.6041   270
 7.6141   244
 7.6241   256
 7.6341   285
 7.6441   256
 7.6541   238
 7.6641   279
 7.6741   263
 7.6841   242
 7.6941   281
 7.7041   275
 7.7141   275
 7.7241   265
 7.7341   289
 7.7441   299
 7.7541   327
 7.7641   328
 7.7741   307
 7.7841   277
 7.7941   313
 7.8041   314
 7.8141   335
 7.8241   321
 7.8341   344
 7.8441   347
 7.8541   393
 7.8641   401
 7.8741   392
 7.8841   405
 7.8941   399
 7.9041   431
 7.9141   455
 7.9241   485
 7.9341   524
 7.9441   551
 7.9541   538
 7.9641   587
 7.9741   620
 7.9841   648
 7.9941   722
 8.0041   766
 8.0141   810
 8.0241   854
 8.0341   954
 8.0441  1043
 8.0541  1062
 8.0641  1117
 8.0741  1196
 8.0841  1231
 8.0941  1394
 8.1041  1412
 8.1141  1481
 8.1241  1534
 8.1341  1628
 8.1441  1668
 8.1541  1692
 8.1641  1695
 8.1741  1689
 8.1841  1821
 8.1941  1828
 8.2041  1850
 8.2141  1832
 8.2241  1884
 8.2341  1911
 8.2441  1977
 8.2541  1970
 8.2641  2118
 8.2741  2213
 8.2841  2285
 8.2941  2452
 8.3041  2721
 8.3141  2888
 8.3241  3076
 8.3341  3298
 8.3441  3543
 8.3541  3752
 8.3641  3865
 8.3741  3979
 8.3841  3924
 8.3941  4051
 8.4041  3901
 8.4141  3772
 8.4241  3535
 8.4341  3251
 8.4441  2906
 8.4541  2770
 8.4641  2319
 8.4741  2002
 8.4841  1743
 8.4941  1495
 8.5041  1234
 8.5141  1090
 8.5241   921
 8.5341   804
 8.5441   695
 8.5541   642
 8.5641   627
 8.5741   503
 8.5841   503
 8.5941   478
 8.6041   482
 8.6141   508
 8.6241   516
 8.6341   494
 8.6441   520
 8.6541   476
 8.6641   485
 8.6741   449
 8.6841   459
 8.6941   491
 8.7041   456
 8.7141   433
 8.7241   444
 8.7341   422
 8.7441   431
 8.7541   424
 8.7641   423
 8.7741   404
 8.7841   425
 8.7941   399
 8.8041   398
 8.8141   357
 8.8241   385
 8.8341   396
 8.8441   397
 8.8541   383
 8.8641   384
 8.8741   415
 8.8841   431
 8.8941   405
 8.9041   419
 8.9141   388
 8.9241   423
 8.9341   437
 8.9441   425
 8.9541   441
 8.9641   426
 8.9741   449
 8.9841   454
 8.9941   490
 9.0041   491
 9.0141   474
 9.0241   470
 9.0341   475
 9.0441   478
 9.0541   515
 9.0641   543
 9.0741   553
 9.0841   552
 9.0941   614
 9.1041   599
 9.1141   616
 9.1241   675
 9.1341   662
 9.1441   695
 9.1541   712
 9.1641   779
 9.1741   752
 9.1841   841
 9.1941   854
 9.2041   902
 9.2141   954
 9.2241   998
 9.2341  1016
 9.2441  1052
 9.2541  1118
 9.2641  1147
 9.2741  1216
 9.2841  1311
 9.2941  1352
 9.3041  1386
 9.3141  1363
 9.3241  1437
 9.3341  1474
 9.3441  1566
 9.3541  1560
 9.3641  1619
 9.3741  1716
 9.3841  1726
 9.3941  1759
 9.4041  1729
 9.4141  1723
 9.4241  1842
 9.4341  1807
 9.4441  1766
 9.4541  1841
 9.4641  1917
 9.4741  1933
 9.4841  1991
 9.4941  1927
 9.5041  2011
 9.5141  2029
 9.5241  2101
 9.5341  2229
 9.5441  2287
 9.5541  2436
 9.5641  2437
 9.5741  2611
 9.5841  2793
 9.5941  3072
 9.6041  3158
 9.6141  3326
 9.6241  3502
 9.6341  3706
 9.6441  3679
 9.6541  3807
 9.6641  3784
 9.6741  3629
 9.6841  3647
 9.6941  3544
 9.7041  3499
 9.7141  3208
 9.7241  3083
 9.7341  2821
 9.7441  2657
 9.7541  2571
 9.7641  2285
 9.7741  2078
 9.7841  2008
 9.7941  1830
 9.8041  1713
 9.8141  1648
 9.8241  1552
 9.8341  1495
 9.8441  1508
 9.8541  1505
 9.8641  1546
 9.8741  1530
 9.8841  1596
 9.8941  1591
 9.9041  1573
 9.9141  1684
 9.9241  1708
 9.9341  1707
 9.9441  1656
 9.9541  1729
 9.9641  1652
 9.9741  1604
 9.9841  1559
 9.9941  1469
10.0041  1379
10.0141  1310
10.0241  1217
10.0341  1122
10.0441   987
10.0541   893
10.0641   810
10.0741   719
10.0841   655
10.0941   576
10.1041   569
10.1141   509
10.1241   462
10.1341   406
10.1441   385
10.1541   368
10.1641   355
10.1741   325
10.1841   321
10.1941   330
10.2041   304
10.2141   283
10.2241   288
10.2341   292
10.2441   269
10.2541   266
10.2641   255
10.2741   226
10.2841   266
10.2941   247
10.3041   231
10.3141   228
10.3241   196
10.3341   207
10.3441   202
10.3541   223
10.3641   210
10.3741   199
10.3841   222
10.3941   240
10.4041   223
10.4141   219
10.4241   205
10.4341   186
10.4441   217
10.4541   210
10.4641   226
10.4741   222
10.4841   229
10.4941   216
10.5041   220
10.5141   236
10.5241   246
10.5341   256
10.5441   233
10.5541   246
10.5641   222
10.5741   225
10.5841   233
10.5941   261
10.6041   246
10.6141   254
10.6241   241
10.6341   262
10.6441   277
10.6541   283
10.6641   277
10.6741   245
10.6841   267
10.6941   272
10.7041   276
10.7141   276
10.7241   282
10.7341   285
10.7441   302
10.7541   298
10.7641   294
10.7741   339
10.7841   346
10.7941   336
10.8041   341
10.8141   340
10.8241   359
10.8341   364
10.8441   351
10.8541   366
10.8641   382
10.8741   366
10.8841   365
10.8941   386
10.9041   389
10.9141   386
10.9241   381
10.9341   387
10.9441   392
10.9541   387
10.9641   357
10.9741   362
10.9841   372
10.9941   346
11.0041   363
11.0141   367
11.0241   354
11.0341   338
11.0441   330
11.0541   345
11.0641   352
11.0741   334
11.0841   340
11.0941   334
11.1041   306
11.1141   332
11.1241   336
11.1341   324
11.1441   348
11.1541   367
11.1641   369
11.1741   401
11.1841   412
11.1941   444
11.2041   453
11.2141   473
11.2241   518
11.2341   515
11.2441   544
11.2541   526
11.2641   550
11.2741   555
11.2841   561
11.2941   546
11.3041   541
11.3141   551
11.3241   535
11.3341   488
11.3441   462
11.3541   477
11.3641   425
11.3741   394
11.3841   390
11.3941   383
11.4041   335
11.4141   350
11.4241   328
11.4341   305
11.4441   299
11.4541   286
11.4641   285
11.4741   292
11.4841   290
11.4941   273
11.5041   275
11.5141   289
11.5241   278
11.5341   295
11.5441   311
11.5541   290
11.5641   293
11.5741   305
11.5841   298
11.5941   296
11.6041   305
11.6141   286
11.6241   275
11.6341   310
11.6441   327
11.6541   296
11.6641   291
11.6741   281
11.6841   286
11.6941   274
11.7041   281
11.7141   263
11.7241   258
11.7341   264
11.7441   290
11.7541   263
11.7641   235
11.7741   231
11.7841   225
11.7941   230
11.8041   228
11.8141   223
11.8241   221
11.8341   228
11.8441   231
11.8541   250
11.8641   265
11.8741   274
11.8841   265
11.8941   248
11.9041   271
11.9141   282
11.9241   261
11.9341   248
11.9441   241
11.9541   252
11.9641   248
11.9741   259
11.9841   252
11.9941   256
12.0041   241
12.0141   233
12.0241   234
12.0341   223
12.0441   230
12.0541   222
12.0641   211
12.0741   232
12.0841   235
12.0941   206
12.1041   207
12.1141   197
12.1241   202
12.1341   213
12.1441   228
12.1541   219
12.1641   202
12.1741   198
12.1841   188
12.1941   205
12.2041   203
12.2141   198
12.2241   203
12.2341   190
12.2441   192
12.2541   191
12.2641   195
12.2741   200
12.2841   196
12.2941   197
12.3041   198
12.3141   200
12.3241   199
12.3341   212
12.3441   213
12.3541   190
12.3641   192
12.3741   195
12.3841   193
12.3941   200
12.4041   205
12.4141   220
12.4241   208
12.4341   210
12.4441   207
12.4541   204
12.4641   209
12.4741   206
12.4841   220
12.4941   221
12.5041   210
12.5141   219
12.5241   230
12.5341   224
12.5441   222
12.5541   222
12.5641   219
12.5741   216
12.5841   208
12.5941   217
12.6041   239
12.6141   218
12.6241   211
12.6341   207
12.6441   204
12.6541   209
12.6641   223
12.6741   231
12.6841   241
12.6941   234
12.7041   231
12.7141   236
12.7241   229
12.7341   226
12.7441   227
12.7541   230
12.7641   225
12.7741   226
12.7841   233
12.7941   236
12.8041   234
12.8141   224
12.8241   239
12.8341   244
12.8441   242
12.8541   235
12.8641   218
12.8741   229
12.8841   235
12.8941   246
12.9041   254
12.9141   245
12.9241   223
12.9341   215
12.9441   233
12.9541   239
12.9641   216
12.9741   222
12.9841   242
12.9941   246
13.0041   243
13.0141   245
13.0241   239
13.0341   233
13.0441   251
13.0541   231
13.0641   221
13.0741   238
13.0841   249
13.0941   245
13.1041   252
13.1141   263
13.1241   255
13.1341   247
13.1441   249
13.1541   267
13.1641   251
13.1741   234
13.1841   252
13.1941   262
13.2041   264
13.2141   262
13.2241   270
13.2341   272
13.2441   287
13.2541   300
13.2641   294
13.2741   299
13.2841   290
13.2941   314
13.3041   342
13.3141   342
13.3241   321
13.3341   351
13.3441   359
13.3541   331
13.3641   350
13.3741   352
13.3841   353
13.3941   354
13.4041   338
13.4141   349
13.4241   344
13.4341   327
13.4441   339
13.4541   336
13.4641   339
13.4741   338
13.4841   308
13.4941   284
13.5041   283
13.5141   286
13.5241   288
13.5341   306
13.5441   302
13.5541   279
13.5641   267
13.5741   294
13.5841   300
13.5941   277
13.6041   294
13.6141   297
13.6241   288
13.6341   296
13.6441   301
13.6541   298
13.6641   284
13.6741   268
13.6841   272
13.6941   289
13.7041   281
13.7141   269
13.7241   279
13.7341   297
13.7441   299
13.7541   306
13.7641   293
13.7741   282
13.7841   290
13.7941   284
13.8041   274
13.8141   294
13.8241   312
13.8341   307
13.8441   309
13.8541   307
13.8641   302
13.8741   294
13.8841   308
13.8941   307
13.9041   299
13.9141   312
13.9241   328
13.9341   334
13.9441   352
13.9541   354
13.9641   347
13.9741   385
13.9841   392
13.9941   412
14.0041   445
14.0141   447
14.0241   464
14.0341   495
14.0441   540
14.0541   578
14.0641   606
14.0741   624
14.0841   627
14.0941   626
14.1041   662
14.1141   694
14.1241   693
14.1341   694
14.1441   661
14.1541   651
14.1641   671
14.1741   686
14.1841   681
14.1941   641
14.2041   622
14.2141   606
14.2241   579
14.2341   576
14.2441   553
14.2541   519
14.2641   516
14.2741   483
14.2841   432
14.2941   416
14.3041   392
14.3141   394
14.3241   379
14.3341   360
14.3441   352
14.3541   346
14.3641   358
14.3741   360
14.3841   345
14.3941   338
14.4041   359
14.4141   360
14.4241   333
14.4341   326
14.4441   330
14.4541   346
14.4641   353
14.4741   327
14.4841   337
14.4941   345
14.5041   339
14.5141   356
14.5241   332
14.5341   327
14.5441   353
14.5541   338
14.5641   320
14.5741   331
14.5841   353
14.5941   343
14.6041   341
14.6141   358
14.6241   351
14.6341   356
14.6441   355
14.6541   343
14.6641   368
14.6741   379
14.6841   374
14.6941   375
14.7041   374
14.7141   375
14.7241   362
14.7341   347
14.7441   352
14.7541   374
14.7641   382
14.7741   382
14.7841   385
14.7941   402
14.8041   404
14.8141   401
14.8241   378
14.8341   370
14.8441   382
14.8541   387
14.8641   370
14.8741   384
14.8841   384
14.8941   393
14.9041   407
14.9141   411
14.9241   421
14.9341   427
14.9441   440
14.9541   422
14.9641   398
14.9741   425
14.9841   428
14.9941   414
15.0041   424
15.0141   427
15.0241   434
15.0341   442
15.0441   424
15.0541   401
15.0641   395
15.0741   409
15.0841   419
15.0941   426
15.1041   424
15.1141   396
15.1241   389
15.1341   391
15.1441   391
15.1541   385
15.1641   391
15.1741   406
15.1841   417
15.1941   403
15.2041   419
15.2141   400
15.2241   393
15.2341   415
15.2441   420
15.2541   426
15.2641   419
15.2741   412
15.2841   427
15.2941   426
15.3041   407
15.3141   393
15.3241   432
15.3341   441
15.3441   415
15.3541   425
15.3641   420
15.3741   398
15.3841   410
15.3941   434
15.4041   422
15.4141   419
15.4241   425
15.4341   412
15.4441   432
15.4541   434
15.4641   449
15.4741   440
15.4841   446
15.4941   439
15.5041   450
15.5141   455
15.5241   457
15.5341   471
15.5441   484
15.5541   485
15.5641   506
15.5741   500
15.5841   539
15.5941   565
15.6041   542
15.6141   559
15.6241   596
15.6341   633
15.6441   642
15.6541   675
15.6641   705
15.6741   737
15.6841   720
15.6941   703
15.7041   725
15.7141   788
15.7241   829
15.7341   819
15.7441   833
15.7541   837
15.7641   828
15.7741   805
15.7841   818
15.7941   816
15.8041   813
15.8141   751
15.8241   772
15.8341   740
15.8441   731
15.8541   738
15.8641   710
15.8741   684
15.8841   647
15.8941   626
15.9041   634
15.9141   624
15.9241   601
15.9341   560
15.9441   527
15.9541   501
15.9641   501
15.9741   508
15.9841   526
15.9941   491
16.0041   461
16.0141   470
16.0241   501
16.0341   502
16.0441   509
16.0541   503
16.0641   531
16.0741   532
16.0841   532
16.0941   515
16.1041   487
16.1141   483
16.1241   485
16.1341   505
16.1441   516
16.1541   487
16.1641   512
16.1741   515
16.1841   510
16.1941   497
16.2041   506
16.2141   524
16.2241   515
16.2341   485
16.2441   524
16.2541   539
16.2641   525
16.2741   535
16.2841   516
16.2941   512
16.3041   521
16.3141   532
16.3241   520
16.3341   511
16.3441   511
16.3541   507
16.3641   507
16.3741   518
16.3841   510
16.3941   507
16.4041   498
16.4141   514
16.4241   530
16.4341   531
16.4441   520
16.4541   553
16.4641   537
16.4741   535
16.4841   543
16.4941   542
16.5041   519
16.5141   520
16.5241   522
16.5341   515
16.5441   544
16.5541   588
16.5641   546
16.5741   510
16.5841   543
16.5941   530
16.6041   521
16.6141   547
16.6241   581
16.6341   562
16.6441   561
16.6541   558
16.6641   575
16.6741   560
16.6841   555
16.6941   567
16.7041   537
16.7141   551
16.7241   563
16.7341   561
16.7441   547
16.7541   588
16.7641   539
16.7741   545
16.7841   553
16.7941   529
16.8041   569
16.8141   591
16.8241   560
16.8341   561
16.8441   573
16.8541   547
16.8641   560
16.8741   546
16.8841   545
16.8941   595
16.9041   584
16.9141   598
16.9241   572
16.9341   579
16.9441   577
16.9541   572
16.9641   526
16.9741   553
16.9841   565
16.9941   599
17.0041   587
17.0141   592
17.0241   570
17.0341   593
17.0441   611
17.0541   596
17.0641   566
17.0741   579
17.0841   580
17.0941   568
17.1041   585
17.1141   589
17.1241   615
17.1341   597
17.1441   596
17.1541   614
17.1641   592
17.1741   595
17.1841   613
17.1941   616
17.2041   647
17.2141   611
17.2241   588
17.2341   596
17.2441   615
17.2541   594
17.2641   563
17.2741   613
17.2841   595
17.2941   630
17.3041   648
17.3141   642
17.3241   643
17.3341   641
17.3441   603
17.3541   615
17.3641   613
17.3741   612
17.3841   618
17.3941   632
17.4041   656
17.4141   627
17.4241   612
17.4341   627
17.4441   632
17.4541   662
17.4641   657
17.4741   651
17.4841   650
17.4941   659
17.5041   648
17.5141   635
17.5241   620
17.5341   653
17.5441   654
17.5541   676
17.5641   661
17.5741   639
17.5841   646
17.5941   691
17.6041   678
17.6141   693
17.6241   761
17.6341   739
17.6441   691
17.6541   670
17.6641   709
17.6741   710
17.6841   705
17.6941   697
17.7041   676
17.7141   679
17.7241   667
17.7341   663
17.7441   665
17.7541   687
17.7641   682
17.7741   695
17.7841   661
17.7941   672
17.8041   680
17.8141   637
17.8241   662
17.8341   676
17.8441   652
17.8541   663
17.8641   675
17.8741   661
17.8841   681
17.8941   681
17.9041   676
17.9141   662
17.9241   676
17.9341   694
17.9441   725
17.9541   713
17.9641   712
17.9741   672
17.9841   667
17.9941   683
18.0041   662
18.0141   631
18.0241   645
18.0341   659
18.0441   666
18.0541   678
18.0641   661
18.0741   677
18.0841   669
18.0941   676
18.1041   674
18.1141   702
18.1241   688
18.1341   682
18.1441   713
18.1541   668
18.1641   670
18.1741   682
18.1841   671
18.1941   702
18.2041   731
18.2141   708
18.2241   699
18.2341   686
18.2441   682
18.2541   709
18.2641   659
18.2741   681
18.2841   690
18.2941   653
18.3041   675
18.3141   701
18.3241   696
18.3341   652
18.3441   676
18.3541   665
18.3641   719
18.3741   691
18.3841   719
18.3941   761
18.4041   731
18.4141   680
18.4241   686
18.4341   718
18.4441   694
18.4541   725
18.4641   718
18.4741   678
18.4841   711
18.4941   749
18.5041   701
18.5141   700
18.5241   714
18.5341   692
18.5441   719
18.5541   706
18.5641   724
18.5741   712
18.5841   702
18.5941   721
18.6041   719
18.6141   756
18.6241   742
18.6341   714
18.6441   692
18.6541   743
18.6641   730
18.6741   736
18.6841   735
18.6941   717
18.7041   731
18.7141   704
18.7241   768
18.7341   751
18.7441   718
18.7541   749
18.7641   741
18.7741   758
18.7841   756
18.7941   723
18.8041   732
18.8141   738
18.8241   701
18.8341   731
18.8441   733
18.8541   755
18.8641   712
18.8741   695
18.8841   753
18.8941   773
18.9041   766
18.9141   720
18.9241   744
18.9341   718
18.9441   707
18.9541   765
18.9641   749
18.9741   717
18.9841   756
18.9941   733
19.0041   767
19.0141   741
19.0241   720
19.0341   782
19.0441   766
19.0541   790
19.0641   743
19.0741   745
19.0841   745
19.0941   753
19.1041   759
19.1141   748
19.1241   762
19.1341   740
19.1441   735
19.1541   777
19.1641   751
19.1741   790
19.1841   762
19.1941   773
19.2041   773
19.2141   785
19.2241   769
19.2341   774
19.2441   764
19.2541   776
19.2641   731
19.2741   760
19.2841   731
19.2941   750
19.3041   773
19.3141   782
19.3241   793
19.3341   810
19.3441   781
19.3541   749
19.3641   767
19.3741   786
19.3841   776
19.3941   774
19.4041   748
19.4141   774
19.4241   770
19.4341   766
19.4441   777
19.4541   791
19.4641   805
19.4741   734
19.4841   800
19.4941   787
19.5041   741
19.5141   794
19.5241   791
19.5341   785
19.5441   773
19.5541   798
19.5641   810
19.5741   824
19.5841   756
19.5941   805
19.6041   817
19.6141   793
19.6241   791
19.6341   817
19.6441   814
19.6541   765
19.6641   776
19.6741   745
19.6841   784
19.6941   830
19.7041   806
19.7141   792
19.7241   782
19.7341   760
19.7441   739
19.7541   762
19.7641   832
19.7741   774
19.7841   778
19.7941   777
19.8041   790
19.8141   776
19.8241   762
19.8341   807
19.8441   780
19.8541   840
19.8641   820
19.8741   812
19.8841   787
19.8941   752
19.9041   790
19.9141   759
19.9241   786
19.9341   782
19.9441   819
19.9541   797
19.9641   769
19.9741   805
19.9841   802
19.9941   803
20.0041   754
20.0141   741
20.0241   791
20.0341   820
20.0441   767
20.0541   819
20.0641   805
20.0741   787
20.0841   780
20.0941   809
20.1041   814
20.1141   811
20.1241   787
20.1341   797
20.1441   829
20.1541   814
20.1641   783
20.1741   826
20.1841   793
20.1941   794
20.2041   821
20.2141   794
20.2241   808
20.2341   808
20.2441   811
20.2541   799
20.2641   792
20.2741   793
20.2841   811
20.2941   816
20.3041   812
20.3141   809
20.3241   822
20.3341   837
20.3441   838
20.3541   811
20.3641   771
20.3741   804
20.3841   810
20.3941   779
20.4041   798
20.4141   812
20.4241   836
20.4341   840
20.4441   837
20.4541   811
20.4641   798
20.4741   804
20.4841   782
20.4941   845
20.5041   802
20.5141   812
20.5241   784
20.5341   793
20.5441   811
20.5541   874
20.5641   791
20.5741   821
20.5841   783
20.5941   796
20.6041   825
20.6141   835
20.6241   830
20.6341   819
20.6441   819
20.6541   808
20.6641   811
20.6741   840
20.6841   839
20.6941   810
20.7041   842
20.7141   811
20.7241   793
20.7341   839
20.7441   808
20.7541   845
20.7641   860
20.7741   820
20.7841   828
20.7941   856
20.8041   837
20.8141   840
20.8241   833
20.8341   877
20.8441   841
20.8541   893
20.8641   896
20.8741   897
20.8841   910
20.8941   958
20.9041   929
20.9141   957
20.9241   976
20.9341  1013
20.9441  1012
20.9541  1009
20.9641  1065
20.9741  1058
20.9841  1065
20.9941  1061
21.0041  1131
21.0141  1136
21.0241  1133
21.0341  1131
21.0441  1180
21.0541  1157
21.0641  1209
21.0741  1245
21.0841  1226
21.0941  1223
21.1041  1186
21.1141  1214
21.1241  1203
21.1341  1253
21.1441  1262
21.1541  1216
21.1641  1261
21.1741  1217
21.1841  1224
21.1941  1139
21.2041  1182
21.2141  1171
21.2241  1159
21.2341  1184
21.2441  1133
21.2541  1081
21.2641  1086
21.2741  1028
21.2841  1046
21.2941   983
21.3041   950
21.3141  1009
21.3241   949
21.3341   921
21.3441   917
21.3541   948
21.3641   892
21.3741   862
21.3841   867
21.3941   837
21.4041   899
21.4141   838
21.4241   846
21.4341   840
21.4441   833
21.4541   806
21.4641   787
21.4741   864
21.4841   884
21.4941   861
21.5041   831
21.5141   806
21.5241   849
21.5341   839
21.5441   848
21.5541   867
21.5641   854
21.5741   832
21.5841   856
21.5941   800
21.6041   816
21.6141   777
21.6241   869
21.6341   825
21.6441   831
21.6541   795
21.6641   830
21.6741   866
21.6841   865
21.6941   782
21.7041   828
21.7141   822
21.7241   867
21.7341   819
21.7441   801
21.7541   828
21.7641   848
21.7741   809
21.7841   818
21.7941   807
21.8041   818
21.8141   809
21.8241   829
21.8341   857
21.8441   810
21.8541   791
21.8641   804
21.8741   835
21.8841   812
21.8941   845
21.9041   840
21.9141   800
21.9241   806
21.9341   800
21.9441   849
21.9541   825
21.9641   834
21.9741   803
21.9841   820
21.9941   861
22.0041   797
22.0141   799
22.0241   853
22.0341   832
22.0441   816
22.0541   829
22.0641   824
22.0741   804
22.0841   811
22.0941   841
22.1041   839
22.1141   856
22.1241   874
22.1341   887
22.1441   891
22.1541   842
22.1641   851
22.1741   793
22.1841   770
22.1941   784
22.2041   843
22.2141   809
22.2241   844
22.2341   859
22.2441   775
22.2541   848
22.2641   848
22.2741   869
22.2841   813
22.2941   829
22.3041   835
22.3141   794
22.3241   742
22.3341   801
22.3441   857
22.3541   796
22.3641   811
22.3741   808
22.3841   807
22.3941   847
22.4041   810
22.4141   801
22.4241   826
22.4341   845
22.4441   822
22.4541   805
22.4641   821
22.4741   841
22.4841   837
22.4941   834
22.5041   857
22.5141   778
22.5241   802
22.5341   801
22.5441   836
22.5541   792
22.5641   851
22.5741   735
22.5841   856
22.5941   877
22.6041   838
22.6141   855
22.6241   793
22.6341   804
22.6441   819
22.6541   802
22.6641   782
22.6741   799
22.6841   819
22.6941   829
22.7041   796
22.7141   795
22.7241   790
22.7341   825
22.7441   827
22.7541   824
22.7641   850
22.7741   793
22.7841   809
22.7941   776
22.8041   810
22.8141   786
22.8241   806
22.8341   824
22.8441   817
22.8541   848
22.8641   812
22.8741   816
22.8841   813
22.8941   808
22.9041   820
22.9141   838
22.9241   822
22.9341   870
22.9441   861
22.9541   827
22.9641   829
22.9741   822
22.9841   826
22.9941   819
23.0041   818
23.0141   818
23.0241   779
23.0341   834
23.0441   805
23.0541   859
23.0641   809
23.0741   785
23.0841   764
23.0941   824
23.1041   826
23.1141   765
23.1241   824
23.1341   786
23.1441   808
23.1541   817
23.1641   814
23.1741   825
23.1841   768
23.1941   799
23.2041   807
23.2141   780
23.2241   835
23.2341   802
23.2441   775
23.2541   762
23.2641   844
23.2741   805
23.2841   755
23.2941   771
23.3041   819
23.3141   768
23.3241   815
23.3341   822
23.3441   806
23.3541   817
23.3641   738
23.3741   813
23.3841   788
23.3941   837
23.4041   778
23.4141   825
23.4241   801
23.4341   801
23.4441   783
23.4541   724
23.4641   767
23.4741   798
23.4841   777
23.4941   767
23.5041   782
23.5141   793
23.5241   790
23.5341   797
23.5441   812
23.5541   829
23.5641   819
23.5741   777
23.5841   773
23.5941   797
23.6041   798
23.6141   828
23.6241   848
23.6341   809
23.6441   831
23.6541   796
23.6641   824
23.6741   816
23.6841   863
23.6941   796
23.7041   825
23.7141   826
23.7241   773
23.7341   762
23.7441   790
23.7541   862
23.7641   870
23.7741   878
23.7841   818
23.7941   840
23.8041   860
23.8141   832
23.8241   818
23.8341   861
23.8441   863
23.8541   845
23.8641   849
23.8741   823
23.8841   783
23.8941   828
23.9041   840
23.9141   880
23.9241   888
23.9341   809
23.9441   825
23.9541   819
23.9641   789
23.9741   865
23.9841   803
23.9941   795
24.0041   773
24.0141   728
24.0241   793
24.0341   760
24.0441   746
24.0541   759
24.0641   776
24.0741   822
24.0841   796
24.0941   746
24.1041   724
24.1141   728
24.1241   746
24.1341   768
24.1441   783
24.1541   783
24.1641   818
24.1741   773
24.1841   785
24.1941   807
24.2041   770
24.2141   772
24.2241   785
24.2341   720
24.2441   771
24.2541   768
24.2641   719
24.2741   763
24.2841   796
24.2941   740
24.3041   714
24.3141   757
24.3241   798
24.3341   764
24.3441   758
24.3541   762
24.3641   766
24.3741   742
24.3841   752
24.3941   799
24.4041   786
24.4141   683
24.4241   752
24.4341   721
24.4441   743
24.4541   766
24.4641   741
24.4741   747
24.4841   722
24.4941   764
24.5041   734
24.5141   766
24.5241   759
24.5341   724
24.5441   706
24.5541   740
24.5641   746
24.5741   766
24.5841   733
24.5941   733
24.6041   753
24.6141   760
24.6241   773
24.6341   744
24.6441   700
24.6541   701
24.6641   774
24.6741   703
24.6841   702
24.6941   764
24.7041   797
24.7141   697
24.7241   709
24.7341   734
24.7441   726
24.7541   721
24.7641   723
24.7741   714
24.7841   774
24.7941   743
24.8041   676
24.8141   704
24.8241   740
24.8341   723
24.8441   702
24.8541   778
24.8641   729
24.8741   684
24.8841   782
24.8941   773
24.9041   717
24.9141   743
24.9241   740
24.9341   736
24.9441   723
24.9541   718
24.9641   703
24.9741   686
24.9841   720
24.9941   750
25.0041   685
25.0141   708
25.0241   743
25.0341   722
25.0441   727
25.0541   747
25.0641   730
25.0741   760
25.0841   736
25.0941   707
25.1041   684
25.1141   739
25.1241   720
25.1341   730
25.1441   712
25.1541   735
25.1641   709
25.1741   769
25.1841   714
25.1941   737
25.2041   700
25.2141   717
25.2241   739
25.2341   729
25.2441   765
25.2541   747
25.2641   729
25.2741   693
25.2841   725
25.2941   734
25.3041   725
25.3141   739
25.3241   726
25.3341   722
25.3441   709
25.3541   718
25.3641   698
25.3741   743
25.3841   689
25.3941   714
25.4041   697
25.4141   708
25.4241   706
25.4341   685
25.4441   687
25.4541   696
25.4641   656
25.4741   658
25.4841   693
25.4941   729
25.5041   705
25.5141   760
25.5241   712
25.5341   722
25.5441   671
25.5541   700
25.5641   673
25.5741   655
25.5841   670
25.5941   688
25.6041   718
25.6141   699
25.6241   679
25.6341   640
25.6441   670
25.6541   732
25.6641   692
25.6741   675
25.6841   671
25.6941   678
25.7041   696
25.7141   705
25.7241   722
25.7341   690
25.7441   634
25.7541   653
25.7641   657
25.7741   671
25.7841   648
25.7941   711
25.8041   691
25.8141   694
25.8241   632
25.8341   624
25.8441   681
25.8541   668
25.8641   681
25.8741   675
25.8841   678
25.8941   642
25.9041   644
25.9141   660
25.9241   706
25.9341   682
25.9441   694
25.9541   690
25.9641   685
25.9741   648
25.9841   661
25.9941   638
26.0041   664
26.0141   660
26.0241   668
26.0341   678
26.0441   647
26.0541   605
26.0641   697
26.0741   633
26.0841   640
26.0941   654
26.1041   681
26.1141   674
26.1241   662
26.1341   653
26.1441   695
26.1541   637
26.1641   679
26.1741   632
26.1841   608
26.1941   616
26.2041   656
26.2141   690
26.2241   683
26.2341   632
26.2441   664
26.2541   645
26.2641   668
26.2741   644
26.2841   629
26.2941   660
26.3041   661
26.3141   667
26.3241   676
26.3341   665
26.3441   662
26.3541   625
26.3641   667
26.3741   638
26.3841   680
26.3941   629
26.4041   625
26.4141   602
26.4241   662
26.4341   643
26.4441   626
26.4541   608
26.4641   634
26.4741   667
26.4841   628
26.4941   633
26.5041   625
26.5141   642
26.5241   622
26.5341   631
26.5441   649
26.5541   594
26.5641   602
26.5741   632
26.5841   673
26.5941   626
26.6041   617
26.6141   645
26.6241   636
26.6341   612
26.6441   646
26.6541   618
26.6641   613
26.6741   656
26.6841   609
26.6941   601
26.7041   633
26.7141   632
26.7241   604
26.7341   625
26.7441   650
26.7541   585
26.7641   600
26.7741   642
26.7841   602
26.7941   630
26.8041   620
26.8141   595
26.8241   602
26.8341   623
26.8441   644
26.8541   635
26.8641   573
26.8741   616
26.8841   625
26.8941   623
26.9041   567
26.9141   599
26.9241   586
26.9341   592
26.9441   611
26.9541   632
26.9641   609
26.9741   560
26.9841   594
26.9941   590
27.0041   620
27.0141   620
27.0241   589
27.0341   591
27.0441   578
27.0541   603
27.0641   593
27.0741   607
27.0841   570
27.0941   584
27.1041   584
27.1141   599
27.1241   616
27.1341   605
27.1441   580
27.1541   580
27.1641   592
27.1741   619
27.1841   587
27.1941   559
27.2041   580
27.2141   602
27.2241   571
27.2341   570
27.2441   589
27.2541   562
27.2641   599
27.2741   554
27.2841   579
27.2941   558
27.3041   586
27.3141   586
27.3241   576
27.3341   570
27.3441   573
27.3541   557
27.3641   596
27.3741   613
27.3841   581
27.3941   579
27.4041   579
27.4141   569
27.4241   545
27.4341   550
27.4441   563
27.4541   541
27.4641   575
27.4741   576
27.4841   574
27.4941   571
27.5041   541
27.5141   548
27.5241   605
27.5341   594
27.5441   560
27.5541   541
27.5641   592
27.5741   579
27.5841   573
27.5941   615
27.6041   567
27.6141   580
27.6241   539
27.6341   525
27.6441   533
27.6541   574
27.6641   582
27.6741   563
27.6841   568
27.6941   601
27.7041   541
27.7141   582
27.7241   540
27.7341   538
27.7441   513
27.7541   526
27.7641   539
27.7741   514
27.7841   516
27.7941   538
27.8041   558
27.8141   540
27.8241   547
27.8341   594
27.8441   550
27.8541   541
27.8641   561
27.8741   560
27.8841   526
27.8941   539
27.9041   536
27.9141   534
27.9241   523
27.9341   526
27.9441   553
27.9541   560
27.9641   556
27.9741   534
27.9841   508
27.9941   530
28.0041   505
28.0141   519
28.0241   526
28.0341   535
28.0441   509
28.0541   534
28.0641   548
28.0741   558
28.0841   545
28.0941   525
28.1041   542
28.1141   521
28.1241   554
28.1341   527
28.1441   534
28.1541   522
28.1641   519
28.1741   560
28.1841   539
28.1941   517
28.2041   521
28.2141   499
28.2241   499
28.2341   495
28.2441   539
28.2541   545
28.2641   472
28.2741   478
28.2841   516
28.2941   557
28.3041   589
28.3141   536
28.3241   504
28.3341   493
28.3441   510
28.3541   561
28.3641   517
28.3741   472
28.3841   511
28.3941   525
28.4041   533
28.4141   518
28.4241   506
28.4341   545
28.4441   513
28.4541   512
28.4641   492
28.4741   494
28.4841   547
28.4941   510
28.5041   502
28.5141   532
28.5241   518
28.5341   504
28.5441   532
28.5541   526
28.5641   516
28.5741   527
28.5841   527
28.5941   510
28.6041   478
28.6141   496
28.6241   473
28.6341   482
28.6441   470
28.6541   489
28.6641   488
28.6741   486
28.6841   468
28.6941   506
28.7041   502
28.7141   467
28.7241   496
28.7341   516
28.7441   496
28.7541   474
28.7641   476
28.7741   497
28.7841   473
28.7941   495
28.8041   465
28.8141   492
28.8241   492
28.8341   512
28.8441   479
28.8541   470
28.8641   494
28.8741   442
28.8841   465
28.8941   472
28.9041   478
28.9141   480
28.9241   487
28.9341   498
28.9441   506
28.9541   512
28.9641   464
28.9741   477
28.9841   470
28.9941   500
29.0041   471
29.0141   484
29.0241   436
29.0341   449
29.0441   478
29.0541   513
29.0641   472
29.0741   523
29.0841   475
29.0941   488
29.1041   476
29.1141   450
29.1241   438
29.1341   475
29.1441   453
29.1541   429
29.1641   483
29.1741   468
29.1841   508
29.1941   484
29.2041   456
29.2141   479
29.2241   467
29.2341   477
29.2441   447
29.2541   402
29.2641   482
29.2741   447
29.2841   433
29.2941   433
29.3041   396
29.3141   451
29.3241   449
29.3341   466
29.3441   431
29.3541   443
29.3641   483
29.3741   427
29.3841   422
29.3941   433
29.4041   465
29.4141   443
29.4241   462
29.4341   452
29.4441   446
29.4541   439
29.4641   453
29.4741   457
29.4841   451
29.4941   435
29.5041   432
29.5141   411
29.5241   417
29.5341   456
29.5441   444
29.5541   450
29.5641   447
29.5741   462
29.5841   431
29.5941   424
29.6041   447
29.6141   434
29.6241   426
29.6341   417
29.6441   444
29.6541   434
29.6641   432
29.6741   393
29.6841   421
29.6941   435
29.7041   421
29.7141   438
29.7241   467
29.7341   443
29.7441   448
29.7541   410
29.7641   411
29.7741   417
29.7841   434
29.7941   405
29.8041   433
29.8141   387
29.8241   429
29.8341   450
29.8441   425
29.8541   402
29.8641   416
29.8741   447
29.8841   444
29.8941   429
29.9041   444
29.9141   439
29.9241   404
29.9341   415
29.9441   381
29.9541   442
29.9641   429
29.9741   427
29.9841   440
29.9941   363
30.0041   404
30.0141   420
30.0241   407
30.0341   408
30.0441   409
30.0541   414
30.0641   415
30.0741   406
30.0841   400
30.0941   390
30.1041   423
30.1141   404
30.1241   404
30.1341   420
30.1441   371
30.1541   400
30.1641   365
30.1741   406
30.1841   429
30.1941   400
30.2041   411
30.2141   392
30.2241   389
30.2341   418
30.2441   402
30.2541   374
30.2641   413
30.2741   371
30.2841   401
30.2941   360
30.3041   410
30.3141   397
30.3241   392
30.3341   396
30.3441   357
30.3541   386
30.3641   413
30.3741   394
30.3841   424
30.3941   393
30.4041   428
30.4141   443
30.4241   378
30.4341   422
30.4441   388
30.4541   393
30.4641   379
30.4741   370
30.4841   380
30.4941   391
30.5041   393
30.5141   395
30.5241   389
30.5341   378
30.5441   372
30.5541   392
30.5641   408
30.5741   360
30.5841   399
30.5941   381
30.6041   355
30.6141   357
30.6241   376
30.6341   371
30.6441   381
30.6541   366
30.6641   390
30.6741   373
30.6841   364
30.6941   347
30.7041   387
30.7141   350
30.7241   373
30.7341   363
30.7441   374
30.7541   353
30.7641   388
30.7741   349
30.7841   349
30.7941   364
30.8041   367
30.8141   362
30.8241   332
30.8341   366
30.8441   371
30.8541   362
30.8641   363
30.8741   393
30.8841   399
30.8941   359
30.9041   362
30.9141   324
30.9241   403
30.9341   348
30.9441   354
30.9541   341
30.9641   359
30.9741   360
30.9841   384
30.9941   309
31.0041   356
31.0141   322
31.0241   355
31.0341   375
31.0441   348
31.0541   376
31.0641   364
31.0741   343
31.0841   369
31.0941   375
31.1041   319
31.1141   319
31.1241   348
31.1341   352
31.1441   331
31.1541   383
31.1641   314
31.1741   347
31.1841   357
31.1941   363
31.2041   353
31.2141   357
31.2241   339
31.2341   368
31.2441   379
31.2541   363
31.2641   332
31.2741   359
31.2841   352
31.2941   353
31.3041   335
31.3141   345
31.3241   333
31.3341   312
31.3441   321
31.3541   322
31.3641   328
31.3741   327
31.3841   348
31.3941   315
31.4041   338
31.4141   322
31.4241   338
31.4341   340
31.4441   319
31.4541   317
31.4641   354
31.4741   320
31.4841   368
31.4941   333
31.5041   351
31.5141   315
31.5241   339
31.5341   307
31.5441   325
31.5541   341
31.5641   329
31.5741   318
31.5841   335
31.5941   315
31.6041   325
31.6141   339
31.6241   325
31.6341   304
31.6441   331
31.6541   289
31.6641   324
31.6741   355
31.6841   317
31.6941   322
31.7041   325
31.7141   354
31.7241   320
31.7341   293
31.7441   324
31.7541   304
31.7641   292
31.7741   310
31.7841   323
31.7941   284
31.8041   325
31.8141   338
31.8241   322
31.8341   313
31.8441   303
31.8541   323
31.8641   318
31.8741   304
31.8841   320
31.8941   281
31.9041   305
31.9141   264
31.9241   303
31.9341   305
31.9441   314
31.9541   321
31.9641   317
31.9741   299
31.9841   333
31.9941   293
32.0041   266
32.0141   323
32.0241   297
32.0341   310
32.0441   306
32.0541   290
32.0641   297
32.0741   289
32.0841   328
32.0941   307
32.1041   295
32.1141   293
32.1241   322
32.1341   332
32.1441   321
32.1541   286
32.1641   290
32.1741   275
32.1841   297
32.1941   328
32.2041   310
32.2141   281
32.2241   329
32.2341   327
32.2441   328
32.2541   296
32.2641   308
32.2741   287
32.2841   278
32.2941   288
32.3041   299
32.3141   298
32.3241   280
32.3341   290
32.3441   328
32.3541   281
32.3641   298
32.3741   303
32.3841   276
32.3941   278
32.4041   310
32.4141   294
32.4241   266
32.4341   271
32.4441   259
32.4541   273
32.4641   264
32.4741   258
32.4841   288
32.4941   270
32.5041   304
32.5141   252
32.5241   287
32.5341   262
32.5441   278
32.5541   274
32.5641   270
32.5741   284
32.5841   278
32.5941   293
32.6041   282
32.6141   269
32.6241   274
32.6341   307
32.6441   295
32.6541   294
32.6641   261
32.6741   266
32.6841   253
32.6941   270
32.7041   282
32.7141   276
32.7241   276
32.7341   247
32.7441   247
32.7541   259
32.7641   248
32.7741   268
32.7841   269
32.7941   263
32.8041   276
32.8141   270
32.8241   271
32.8341   279
32.8441   263
32.8541   292
32.8641   244
32.8741   255
32.8841   244
32.8941   251
32.9041   256
32.9141   260
32.9241   274
32.9341   266
32.9441   231
32.9541   286
32.9641   244
32.9741   269
32.9841   254
32.9941   278
33.0041   267
33.0141   233
33.0241   254
33.0341   257
33.0441   265
33.0541   277
33.0641   254
33.0741   248
33.0841   256
33.0941   209
33.1041   231
33.1141   292
33.1241   268
33.1341   229
33.1441   221
33.1541   268
33.1641   242
33.1741   255
33.1841   243
33.1941   253
33.2041   256
33.2141   221
33.2241   245
33.2341   258
33.2441   230
33.2541   244
33.2641   249
33.2741   254
33.2841   240
33.2941   255
33.3041   246
33.3141   225
33.3241   257
33.3341   262
33.3441   240
33.3541   249
33.3641   253
33.3741   230
33.3841   255
33.3941   239
33.4041   247
33.4141   235
33.4241   233
33.4341   258
33.4441   243
33.4541   232
33.4641   252
33.4741   233
33.4841   233
33.4941   241
33.5041   233
33.5141   228
33.5241   225
33.5341   218
33.5441   219
33.5541   242
33.5641   209
33.5741   247
33.5841   214
33.5941   239
33.6041   224
33.6141   238
33.6241   227
33.6341   236
33.6441   232
33.6541   211
33.6641   242
33.6741   206
33.6841   224
33.6941   223
33.7041   240
33.7141   225
33.7241   239
33.7341   201
33.7441   205
33.7541   196
33.7641   215
33.7741   206
33.7841   223
33.7941   233
33.8041   225
33.8141   212
33.8241   227
33.8341   215
33.8441   222
33.8541   219
33.8641   247
33.8741   212
33.8841   227
33.8941   242
33.9041   224
33.9141   221
33.9241   217
33.9341   229
33.9441   210
33.9541   229
33.9641   199
33.9741   217
33.9841   222
33.9941   191
34.0041   212
34.0141   205
34.0241   211
34.0341   194
34.0441   200
34.0541   194
34.0641   217
34.0741   210
34.0841   221
34.0941   220
34.1041   223
34.1141   218
34.1241   208
34.1341   213
34.1441   213
34.1541   202
34.1641   203
34.1741   201
34.1841   191
34.1941   185
34.2041   207
34.2141   202
34.2241   212
34.2341   183
34.2441   236
34.2541   193
34.2641   225
34.2741   223
34.2841   189
34.2941   199
34.3041   196
34.3141   202
34.3241   211
34.3341   213
34.3441   193
34.3541   211
34.3641   221
34.3741   223
34.3841   192
34.3941   188
34.4041   193
34.4141   200
34.4241   175
34.4341   207
34.4441   196
34.4541   206
34.4641   184
34.4741   179
34.4841   189
34.4941   193
34.5041   192
34.5141   188
34.5241   200
34.5341   199
34.5441   195
34.5541   203
34.5641   186
34.5741   197
34.5841   192
34.5941   200
34.6041   173
34.6141   184
34.6241   206
34.6341   198
34.6441   214
34.6541   191
34.6641   194
34.6741   201
34.6841   193
34.6941   184
34.7041   193
34.7141   202
34.7241   177
34.7341   194
34.7441   179
34.7541   200
34.7641   210
34.7741   179
34.7841   177
34.7941   190
34.8041   169
34.8141   207
34.8241   188
34.8341   180
34.8441   177
34.8541   188
34.8641   206
34.8741   186
34.8841   178
34.8941   172
34.9041   164
34.9141   156
34.9241   155
34.9341   169
34.9441   191
34.9541   170
34.9641   180
34.9741   174
34.9841   189
34.9941   189
35.0041   192
35.0141   154
35.0241   189
35.0341   165
35.0441   183
35.0541   162
35.0641   162
35.0741   184
35.0841   169
35.0941   182
35.1041   165
35.1141   176
35.1241   163
35.1341   197
35.1441   175
35.1541   159
35.1641   158
35.1741   174
35.1841   190
35.1941   165
35.2041   177
35.2141   177
35.2241   163
35.2341   154
35.2441   170
35.2541   164
35.2641   154
35.2741   156
35.2841   162
35.2941   171
35.3041   160
35.3141   181
35.3241   155
35.3341   195
35.3441   166
35.3541   167
35.3641   160
35.3741   176
35.3841   170
35.3941   178
35.4041   156
35.4141   171
35.4241   141
35.4341   150
35.4441   162
35.4541   172
35.4641   180
35.4741   159
35.4841   157
35.4941   138
35.5041   173
35.5141   150
35.5241   158
35.5341   166
35.5441   164
35.5541   173
35.5641   167
35.5741   160
35.5841   147
35.5941   141
35.6041   166
35.6141   155
35.6241   134
35.6341   166
35.6441   135
35.6541   154
35.6641   169
35.6741   146
35.6841   148
35.6941   124
35.7041   135
35.7141   162
35.7241   152
35.7341   183
35.7441   153
35.7541   138
35.7641   133
35.7741   156
35.7841   160
35.7941   142
35.8041   156
35.8141   133
35.8241   138
35.8341   144
35.8441   133
35.8541   139
35.8641   146
35.8741   134
35.8841   142
35.8941   141
35.9041   143
35.9141   140
35.9241   125
35.9341   142
35.9441   123
35.9541   137
35.9641   158
35.9741   151
35.9841   150
35.9941   144
36.0041   156
36.0141   148
36.0241   169
36.0341   132
36.0441   151
36.0541   146
36.0641   147
36.0741   144
36.0841   143
36.0941   128
36.1041   155
36.1141   142
36.1241   141
36.1341   143
36.1441   155
36.1541   164
36.1641   123
36.1741   131
36.1841   138
36.1941   157
36.2041   136
36.2141   133
36.2241   128
36.2341   127
36.2441   132
36.2541   132
36.2641   112
36.2741   129
36.2841   145
36.2941   157
36.3041   139
36.3141   131
36.3241   142
36.3341   134
36.3441   108
36.3541   117
36.3641   136
36.3741   125
36.3841   136
36.3941   138
36.4041   145
36.4141   127
36.4241   115
36.4341   121
36.4441   118
36.4541   127
36.4641   125
36.4741   119
36.4841   142
36.4941   126
36.5041   131
36.5141   112
36.5241   125
36.5341   132
36.5441   135
36.5541   134
36.5641   129
36.5741   143
36.5841   136
36.5941   115
36.6041   124
36.6141   107
36.6241   128
36.6341   126
36.6441   114
36.6541   145
36.6641   112
36.6741   131
36.6841   120
36.6941   127
36.7041   116
36.7141   115
36.7241   137
36.7341   112
36.7441   119
36.7541   132
36.7641   123
36.7741   124
36.7841   135
36.7941   127
36.8041   114
36.8141   109
36.8241   134
36.8341   115
36.8441   104
36.8541   135
36.8641   118
36.8741   106
36.8841   105
36.8941   130
36.9041   129
36.9141   124
36.9241   121
36.9341   121
36.9441   110
36.9541   110
36.9641    99
36.9741   117
36.9841   110
36.9941   111
37.0041   121
37.0141   117
37.0241   103
37.0341   125
37.0441   106
37.0541    96
37.0641   124
37.0741   109
37.0841   124
37.0941   115
37.1041   102
37.1141   115
37.1241   105
37.1341   114
37.1441   123
37.1541   107
37.1641   120
37.1741   104
37.1841   119
37.1941   112
37.2041   111
37.2141   113
37.2241   125
37.2341   109
37.2441   107
37.2541   109
37.2641   106
37.2741    93
37.2841   102
37.2941   110
37.3041    90
37.3141   107
37.3241   115
37.3341   105
37.3441   115
37.3541    88
37.3641   100
37.3741   109
37.3841   108
37.3941   112
37.4041   109
37.4141    89
37.4241   123
37.4341   116
37.4441   107
37.4541   106
37.4641    86
37.4741   100
37.4841   103
37.4941    89
37.5041   102
37.5141    99
37.5241   109
37.5341   101
37.5441    98
37.5541   120
37.5641    92
37.5741    86
37.5841    99
37.5941    90
37.6041    87
37.6141    96
37.6241    83
37.6341    87
37.6441    94
37.6541    95
37.6641    88
37.6741   102
37.6841    85
37.6941   108
37.7041    84
37.7141    78
37.7241    99
37.7341    93
37.7441    85
37.7541    95
37.7641    88
37.7741    86
37.7841   106
37.7941   122
37.8041   108
37.8141    99
37.8241    85
37.8341    81
37.8441    82
37.8541    96
37.8641    68
37.8741    95
37.8841    71
37.8941    82
37.9041    95
37.9141    95
37.9241    70
37.9341    94
37.9441    77
37.9541   101
37.9641    83
37.9741    93
37.9841    88
37.9941    88
38.0041    92
38.0141    84
38.0241    82
38.0341    95
38.0441    85
38.0541    70
38.0641    86
38.0741    89
38.0841    95
38.0941    93
38.1041    88
38.1141    76
38.1241    76
38.1341    99
38.1441    93
38.1541    84
38.1641    86
38.1741    75
38.1841    84
38.1941   102
38.2041    94
38.2141    75
38.2241    81
38.2341    74
38.2441    84
38.2541    86
38.2641    82
38.2741    84
38.2841    82
38.2941    67
38.3041    79
38.3141    71
38.3241    77
38.3341    89
38.3441    80
38.3541    90
38.3641    88
38.3741    79
38.3841    72
38.3941    79
38.4041    65
38.4141    85
38.4241    97
38.4341    71
38.4441    93
38.4541    86
38.4641    71
38.4741    89
38.4841    81
38.4941    97
38.5041    95
38.5141    71
38.5241    79
38.5341    75
38.5441    76
38.5541    77
38.5641    89
38.5741    78
38.5841    75
38.5941    72
38.6041    68
38.6141    69
38.6241    83
38.6341    72
38.6441    72
38.6541    66
38.6641    66
38.6741    72
38.6841    80
38.6941    75
38.7041    71
38.7141    70
38.7241    69
38.7341    69
38.7441    62
38.7541    75
38.7641    74
38.7741    79
38.7841    87
38.7941    80
38.8041    62
38.8141    55
38.8241    68
38.8341    53
38.8441    69
38.8541    72
38.8641    67
38.8741    62
38.8841    71
38.8941    54
38.9041    58
38.9141    62
38.9241    68
38.9341    70
38.9441    64
38.9541    53
38.9641    90
38.9741    67
38.9841    57
38.9941    61
39.0041    65
39.0141    63
39.0241    58
39.0341    49
39.0441    59
39.0541    55
39.0641    66
39.0741    66
39.0841    55
39.0941    67
39.1041    73
39.1141    67
39.1241    58
39.1341    53
39.1441    58
39.1541    62
39.1641    50
39.1741    58
39.1841    74
39.1941    46
39.2041    59
39.2141    69
39.2241    52
39.2341    57
39.2441    63
39.2541    53
39.2641    62
39.2741    64
39.2841    56
39.2941    51
39.3041    65
39.3141    61
39.3241    63
39.3341    69
39.3441    59
39.3541    53
39.3641    73
39.3741    62
39.3841    48
39.3941    46
39.4041    59
39.4141    47
39.4241    47
39.4341    51
39.4441    55
39.4541    53
39.4641    67
39.4741    48
39.4841    44
39.4941    54
39.5041    67
39.5141    54
39.5241    46
39.5341    49
39.5441    61
39.5541    48
39.5641    41
39.5741    60
39.5841    55
39.5941    52
39.6041    47
39.6141    54
39.6241    56
39.6341    45
39.6441    50
39.6541    48
39.6641    45
39.6741    52
39.6841    53
39.6941    58
39.7041    50
39.7141    59
39.7241    49
39.7341    51
39.7441    62
39.7541    45
39.7641    51
39.7741    43
39.7841    50
39.7941    64
39.8041    60
39.8141    46
39.8241    55
39.8341    40
39.8441    35
39.8541    47
39.8641    46
39.8741    49
39.8841    54
39.8941    47
39.9041    65
39.9141    45
39.9241    38
39.9341    46
39.9441    43
39.9541    37
39.9641    52
39.9741    47
39.9841    45
39.9941    35
