Bruker Nano GmbH Berlin, Germany
Esprit 1.9

Date: 4/1/2021 4:04:48 PM
Real time: 22058
Life time: 20515
Pulse density: 101082


Detector type: XFlash 430
Window type: Custom type
Detector thickness: 0.45
Si dead layer:0.029

Calibration, lin.: 10
Calibration, abs.: -955.9
Mn FWHM: 137.05
Fano factor: 0.121
Channels: 4095

Energy Counts
-0.9559     0
-0.9459     0
-0.9359     0
-0.9259     0
-0.9159     0
-0.9059     0
-0.8959     0
-0.8859     0
-0.8759     0
-0.8659     0
-0.8559     0
-0.8459     0
-0.8359     0
-0.8259     0
-0.8159     0
-0.8059     0
-0.7959     0
-0.7859     0
-0.7759     0
-0.7659     0
-0.7559     0
-0.7459     0
-0.7359     0
-0.7259     0
-0.7159     0
-0.7059     0
-0.6959     0
-0.6859     0
-0.6759     0
-0.6659     0
-0.6559     0
-0.6459     0
-0.6359     0
-0.6259     0
-0.6159     0
-0.6059     0
-0.5959     0
-0.5859     0
-0.5759     0
-0.5659     0
-0.5559     0
-0.5459     0
-0.5359     0
-0.5259     0
-0.5159     0
-0.5059     0
-0.4959     0
-0.4859     0
-0.4759     0
-0.4659     0
-0.4559     0
-0.4459     0
-0.4359     0
-0.4259     0
-0.4159     0
-0.4059     0
-0.3959     0
-0.3859     0
-0.3759     0
-0.3659     0
-0.3559     0
-0.3459     0
-0.3359     0
-0.3259     0
-0.3159     0
-0.3059     0
-0.2959     0
-0.2859     0
-0.2759     0
-0.2659     0
-0.2559     0
-0.2459     0
-0.2359     0
-0.2259     0
-0.2159     0
-0.2059     0
-0.1959     0
-0.1859     0
-0.1759     0
-0.1659     0
-0.1559     0
-0.1459     0
-0.1359     0
-0.1259     0
-0.1159     4
-0.1059    18
-0.0959    50
-0.0859   214
-0.0759   763
-0.0659  2307
-0.0559  6105
-0.0459 12897
-0.0359 24318
-0.0259 39059
-0.0159 53943
-0.0059 62580
 0.0041 63119
 0.0141 54394
 0.0241 40144
 0.0341 25536
 0.0441 13939
 0.0541  6491
 0.0641  2665
 0.0741   862
 0.0841   269
 0.0941    76
 0.1041    27
 0.1141    16
 0.1241     7
 0.1341    15
 0.1441     5
 0.1541     6
 0.1641     2
 0.1741    20
 0.1841   194
 0.1941   433
 0.2041   340
 0.2141   361
 0.2241   361
 0.2341   347
 0.2441   329
 0.2541   377
 0.2641   391
 0.2741   386
 0.2841   354
 0.2941   358
 0.3041   346
 0.3141   350
 0.3241   351
 0.3341   363
 0.3441   360
 0.3541   346
 0.3641   324
 0.3741   339
 0.3841   362
 0.3941   336
 0.4041   356
 0.4141   357
 0.4241   330
 0.4341   322
 0.4441   299
 0.4541   306
 0.4641   326
 0.4741   335
 0.4841   327
 0.4941   299
 0.5041   319
 0.5141   346
 0.5241   336
 0.5341   326
 0.5441   310
 0.5541   306
 0.5641   326
 0.5741   297
 0.5841   297
 0.5941   308
 0.6041   309
 0.6141   286
 0.6241   297
 0.6341   291
 0.6441   268
 0.6541   281
 0.6641   284
 0.6741   283
 0.6841   278
 0.6941   271
 0.7041   281
 0.7141   285
 0.7241   290
 0.7341   284
 0.7441   279
 0.7541   273
 0.7641   273
 0.7741   289
 0.7841   291
 0.7941   284
 0.8041   270
 0.8141   264
 0.8241   255
 0.8341   254
 0.8441   259
 0.8541   257
 0.8641   262
 0.8741   257
 0.8841   267
 0.8941   265
 0.9041   272
 0.9141   254
 0.9241   236
 0.9341   232
 0.9441   242
 0.9541   276
 0.9641   241
 0.9741   259
 0.9841   253
 0.9941   246
 1.0041   242
 1.0141   214
 1.0241   244
 1.0341   248
 1.0441   238
 1.0541   262
 1.0641   238
 1.0741   223
 1.0841   213
 1.0941   217
 1.1041   216
 1.1141   244
 1.1241   242
 1.1341   243
 1.1441   247
 1.1541   244
 1.1641   234
 1.1741   231
 1.1841   230
 1.1941   229
 1.2041   224
 1.2141   218
 1.2241   231
 1.2341   244
 1.2441   252
 1.2541   235
 1.2641   240
 1.2741   239
 1.2841   227
 1.2941   230
 1.3041   219
 1.3141   253
 1.3241   222
 1.3341   223
 1.3441   220
 1.3541   212
 1.3641   210
 1.3741   199
 1.3841   214
 1.3941   210
 1.4041   221
 1.4141   219
 1.4241   224
 1.4341   236
 1.4441   235
 1.4541   207
 1.4641   229
 1.4741   213
 1.4841   213
 1.4941   206
 1.5041   193
 1.5141   211
 1.5241   204
 1.5341   217
 1.5441   179
 1.5541   203
 1.5641   217
 1.5741   214
 1.5841   208
 1.5941   200
 1.6041   191
 1.6141   209
 1.6241   197
 1.6341   201
 1.6441   226
 1.6541   234
 1.6641   302
 1.6741   344
 1.6841   460
 1.6941   549
 1.7041   625
 1.7141   755
 1.7241   824
 1.7341   826
 1.7441   820
 1.7541   759
 1.7641   727
 1.7741   651
 1.7841   507
 1.7941   430
 1.8041   344
 1.8141   325
 1.8241   263
 1.8341   257
 1.8441   246
 1.8541   270
 1.8641   247
 1.8741   213
 1.8841   204
 1.8941   207
 1.9041   212
 1.9141   220
 1.9241   210
 1.9341   230
 1.9441   219
 1.9541   205
 1.9641   252
 1.9741   244
 1.9841   236
 1.9941   272
 2.0041   237
 2.0141   240
 2.0241   257
 2.0341   254
 2.0441   253
 2.0541   218
 2.0641   213
 2.0741   199
 2.0841   207
 2.0941   213
 2.1041   205
 2.1141   227
 2.1241   220
 2.1341   191
 2.1441   180
 2.1541   200
 2.1641   202
 2.1741   194
 2.1841   193
 2.1941   162
 2.2041   182
 2.2141   165
 2.2241   187
 2.2341   201
 2.2441   202
 2.2541   172
 2.2641   198
 2.2741   194
 2.2841   191
 2.2941   176
 2.3041   171
 2.3141   202
 2.3241   185
 2.3341   178
 2.3441   174
 2.3541   167
 2.3641   176
 2.3741   196
 2.3841   183
 2.3941   188
 2.4041   180
 2.4141   171
 2.4241   181
 2.4341   192
 2.4441   152
 2.4541   166
 2.4641   166
 2.4741   153
 2.4841   180
 2.4941   172
 2.5041   164
 2.5141   176
 2.5241   161
 2.5341   160
 2.5441   166
 2.5541   169
 2.5641   160
 2.5741   174
 2.5841   150
 2.5941   171
 2.6041   148
 2.6141   157
 2.6241   142
 2.6341   154
 2.6441   177
 2.6541   167
 2.6641   161
 2.6741   132
 2.6841   149
 2.6941   136
 2.7041   166
 2.7141   152
 2.7241   147
 2.7341   159
 2.7441   152
 2.7541   150
 2.7641   147
 2.7741   147
 2.7841   153
 2.7941   169
 2.8041   162
 2.8141   158
 2.8241   169
 2.8341   160
 2.8441   169
 2.8541   156
 2.8641   158
 2.8741   171
 2.8841   145
 2.8941   154
 2.9041   166
 2.9141   162
 2.9241   153
 2.9341   171
 2.9441   140
 2.9541   131
 2.9641   161
 2.9741   138
 2.9841   148
 2.9941   133
 3.0041   138
 3.0141   136
 3.0241   146
 3.0341   140
 3.0441   130
 3.0541   165
 3.0641   144
 3.0741   130
 3.0841   140
 3.0941   141
 3.1041   138
 3.1141   114
 3.1241   123
 3.1341   136
 3.1441   147
 3.1541   114
 3.1641   125
 3.1741   110
 3.1841   122
 3.1941   147
 3.2041   132
 3.2141   134
 3.2241   137
 3.2341   140
 3.2441   197
 3.2541   189
 3.2641   246
 3.2741   250
 3.2841   253
 3.2941   298
 3.3041   302
 3.3141   296
 3.3241   317
 3.3341   269
 3.3441   260
 3.3541   233
 3.3641   220
 3.3741   187
 3.3841   174
 3.3941   150
 3.4041   144
 3.4141   133
 3.4241   129
 3.4341   115
 3.4441   125
 3.4541   100
 3.4641   143
 3.4741   120
 3.4841   133
 3.4941   127
 3.5041   115
 3.5141   133
 3.5241   128
 3.5341   162
 3.5441   151
 3.5541   180
 3.5641   187
 3.5741   223
 3.5841   266
 3.5941   348
 3.6041   379
 3.6141   478
 3.6241   637
 3.6341   722
 3.6441   837
 3.6541   997
 3.6641  1060
 3.6741  1174
 3.6841  1218
 3.6941  1208
 3.7041  1202
 3.7141  1096
 3.7241   935
 3.7341   854
 3.7441   686
 3.7541   570
 3.7641   450
 3.7741   344
 3.7841   268
 3.7941   214
 3.8041   180
 3.8141   148
 3.8241   132
 3.8341   126
 3.8441   110
 3.8541   105
 3.8641   114
 3.8741   107
 3.8841   120
 3.8941   107
 3.9041   128
 3.9141   106
 3.9241   138
 3.9341   156
 3.9441   165
 3.9541   190
 3.9641   188
 3.9741   210
 3.9841   226
 3.9941   250
 4.0041   250
 4.0141   261
 4.0241   207
 4.0341   249
 4.0441   217
 4.0541   181
 4.0641   198
 4.0741   174
 4.0841   131
 4.0941   130
 4.1041   128
 4.1141    96
 4.1241    97
 4.1341    93
 4.1441    95
 4.1541   102
 4.1641    81
 4.1741   100
 4.1841    86
 4.1941    80
 4.2041    74
 4.2141    82
 4.2241    87
 4.2341    92
 4.2441    84
 4.2541    91
 4.2641    92
 4.2741    84
 4.2841    93
 4.2941    91
 4.3041    86
 4.3141    78
 4.3241    93
 4.3341    91
 4.3441    87
 4.3541   107
 4.3641   126
 4.3741   135
 4.3841   135
 4.3941   167
 4.4041   198
 4.4141   215
 4.4241   276
 4.4341   352
 4.4441   411
 4.4541   471
 4.4641   504
 4.4741   644
 4.4841   690
 4.4941   782
 4.5041   782
 4.5141   771
 4.5241   740
 4.5341   717
 4.5441   590
 4.5541   535
 4.5641   473
 4.5741   410
 4.5841   340
 4.5941   264
 4.6041   214
 4.6141   180
 4.6241   174
 4.6341   126
 4.6441   128
 4.6541   152
 4.6641   126
 4.6741    95
 4.6841    75
 4.6941    86
 4.7041    87
 4.7141    89
 4.7241   105
 4.7341   100
 4.7441    97
 4.7541    99
 4.7641    89
 4.7741   103
 4.7841   134
 4.7941   121
 4.8041   129
 4.8141   127
 4.8241   127
 4.8341   147
 4.8441   128
 4.8541   157
 4.8641   177
 4.8741   192
 4.8841   227
 4.8941   219
 4.9041   247
 4.9141   226
 4.9241   219
 4.9341   211
 4.9441   229
 4.9541   232
 4.9641   213
 4.9741   202
 4.9841   187
 4.9941   177
 5.0041   153
 5.0141   127
 5.0241   134
 5.0341   118
 5.0441   137
 5.0541   117
 5.0641   105
 5.0741    92
 5.0841   117
 5.0941   103
 5.1041   115
 5.1141   100
 5.1241    95
 5.1341   110
 5.1441   134
 5.1541   105
 5.1641    97
 5.1741    96
 5.1841   105
 5.1941   119
 5.2041    98
 5.2141    96
 5.2241   113
 5.2341   114
 5.2441   118
 5.2541   123
 5.2641   105
 5.2741   108
 5.2841   102
 5.2941   132
 5.3041   109
 5.3141   135
 5.3241   149
 5.3341   143
 5.3441   179
 5.3541   174
 5.3641   193
 5.3741   172
 5.3841   198
 5.3941   183
 5.4041   220
 5.4141   195
 5.4241   203
 5.4341   179
 5.4441   179
 5.4541   177
 5.4641   174
 5.4741   160
 5.4841   150
 5.4941   131
 5.5041   124
 5.5141   127
 5.5241   133
 5.5341   122
 5.5441   117
 5.5541   110
 5.5641   121
 5.5741   105
 5.5841   113
 5.5941   101
 5.6041   108
 5.6141   111
 5.6241   116
 5.6341   117
 5.6441   127
 5.6541   109
 5.6641   101
 5.6741   126
 5.6841   127
 5.6941    94
 5.7041   110
 5.7141   120
 5.7241   122
 5.7341   107
 5.7441   118
 5.7541   140
 5.7641   142
 5.7741   147
 5.7841   200
 5.7941   189
 5.8041   237
 5.8141   250
 5.8241   296
 5.8341   323
 5.8441   362
 5.8541   418
 5.8641   477
 5.8741   477
 5.8841   476
 5.8941   472
 5.9041   464
 5.9141   460
 5.9241   468
 5.9341   443
 5.9441   376
 5.9541   321
 5.9641   361
 5.9741   261
 5.9841   264
 5.9941   235
 6.0041   185
 6.0141   212
 6.0241   170
 6.0341   162
 6.0441   148
 6.0541   163
 6.0641   167
 6.0741   167
 6.0841   152
 6.0941   138
 6.1041   135
 6.1141   146
 6.1241   157
 6.1341   180
 6.1441   160
 6.1541   200
 6.1641   198
 6.1741   238
 6.1841   258
 6.1941   245
 6.2041   314
 6.2141   408
 6.2241   550
 6.2341   780
 6.2441  1072
 6.2541  1473
 6.2641  2024
 6.2741  2676
 6.2841  3632
 6.2941  4815
 6.3041  6306
 6.3141  8026
 6.3241  9820
 6.3341 11868
 6.3441 13584
 6.3541 15677
 6.3641 17434
 6.3741 18391
 6.3841 19790
 6.3941 20468
 6.4041 20403
 6.4141 19571
 6.4241 18302
 6.4341 17084
 6.4441 15131
 6.4541 13004
 6.4641 11068
 6.4741  8973
 6.4841  7247
 6.4941  5805
 6.5041  4331
 6.5141  3355
 6.5241  2340
 6.5341  1657
 6.5441  1201
 6.5541   888
 6.5641   658
 6.5741   457
 6.5841   331
 6.5941   262
 6.6041   249
 6.6141   223
 6.6241   186
 6.6341   196
 6.6441   175
 6.6541   196
 6.6641   197
 6.6741   182
 6.6841   187
 6.6941   159
 6.7041   166
 6.7141   163
 6.7241   172
 6.7341   174
 6.7441   181
 6.7541   180
 6.7641   194
 6.7741   189
 6.7841   204
 6.7941   217
 6.8041   209
 6.8141   218
 6.8241   222
 6.8341   214
 6.8441   244
 6.8541   295
 6.8641   273
 6.8741   310
 6.8841   367
 6.8941   453
 6.9041   492
 6.9141   589
 6.9241   713
 6.9341   858
 6.9441  1022
 6.9541  1283
 6.9641  1479
 6.9741  1763
 6.9841  2077
 6.9941  2397
 7.0041  2760
 7.0141  2920
 7.0241  3228
 7.0341  3437
 7.0441  3657
 7.0541  3475
 7.0641  3446
 7.0741  3426
 7.0841  3253
 7.0941  2876
 7.1041  2583
 7.1141  2269
 7.1241  1934
 7.1341  1588
 7.1441  1356
 7.1541  1150
 7.1641   920
 7.1741   722
 7.1841   590
 7.1941   492
 7.2041   404
 7.2141   338
 7.2241   303
 7.2341   275
 7.2441   268
 7.2541   237
 7.2641   233
 7.2741   254
 7.2841   236
 7.2941   254
 7.3041   274
 7.3141   279
 7.3241   275
 7.3341   296
 7.3441   298
 7.3541   309
 7.3641   343
 7.3741   360
 7.3841   350
 7.3941   379
 7.4041   416
 7.4141   403
 7.4241   401
 7.4341   437
 7.4441   454
 7.4541   413
 7.4641   390
 7.4741   418
 7.4841   419
 7.4941   377
 7.5041   365
 7.5141   374
 7.5241   333
 7.5341   296
 7.5441   327
 7.5541   277
 7.5641   240
 7.5741   248
 7.5841   247
 7.5941   270
 7.6041   244
 7.6141   233
 7.6241   238
 7.6341   229
 7.6441   233
 7.6541   245
 7.6641   241
 7.6741   254
 7.6841   265
 7.6941   255
 7.7041   284
 7.7141   263
 7.7241   266
 7.7341   247
 7.7441   278
 7.7541   316
 7.7641   293
 7.7741   324
 7.7841   308
 7.7941   311
 7.8041   319
 7.8141   295
 7.8241   314
 7.8341   330
 7.8441   305
 7.8541   367
 7.8641   350
 7.8741   365
 7.8841   367
 7.8941   426
 7.9041   396
 7.9141   453
 7.9241   449
 7.9341   479
 7.9441   500
 7.9541   533
 7.9641   560
 7.9741   621
 7.9841   627
 7.9941   688
 8.0041   728
 8.0141   819
 8.0241   865
 8.0341   886
 8.0441   962
 8.0541  1013
 8.0641  1034
 8.0741  1174
 8.0841  1235
 8.0941  1242
 8.1041  1324
 8.1141  1356
 8.1241  1427
 8.1341  1478
 8.1441  1497
 8.1541  1531
 8.1641  1616
 8.1741  1588
 8.1841  1656
 8.1941  1603
 8.2041  1669
 8.2141  1705
 8.2241  1731
 8.2341  1710
 8.2441  1861
 8.2541  1897
 8.2641  1949
 8.2741  2110
 8.2841  2248
 8.2941  2337
 8.3041  2585
 8.3141  2735
 8.3241  2983
 8.3341  3075
 8.3441  3239
 8.3541  3409
 8.3641  3726
 8.3741  3887
 8.3841  3835
 8.3941  3692
 8.4041  3604
 8.4141  3420
 8.4241  3271
 8.4341  3163
 8.4441  2749
 8.4541  2461
 8.4641  2300
 8.4741  1961
 8.4841  1714
 8.4941  1415
 8.5041  1274
 8.5141  1069
 8.5241   919
 8.5341   818
 8.5441   721
 8.5541   638
 8.5641   599
 8.5741   558
 8.5841   608
 8.5941   586
 8.6041   580
 8.6141   567
 8.6241   593
 8.6341   600
 8.6441   609
 8.6541   587
 8.6641   584
 8.6741   545
 8.6841   564
 8.6941   516
 8.7041   494
 8.7141   520
 8.7241   513
 8.7341   440
 8.7441   463
 8.7541   414
 8.7641   387
 8.7741   434
 8.7841   405
 8.7941   392
 8.8041   404
 8.8141   359
 8.8241   358
 8.8341   377
 8.8441   422
 8.8541   355
 8.8641   362
 8.8741   373
 8.8841   432
 8.8941   407
 8.9041   396
 8.9141   413
 8.9241   417
 8.9341   384
 8.9441   413
 8.9541   412
 8.9641   420
 8.9741   420
 8.9841   428
 8.9941   453
 9.0041   452
 9.0141   451
 9.0241   448
 9.0341   439
 9.0441   488
 9.0541   512
 9.0641   501
 9.0741   508
 9.0841   529
 9.0941   543
 9.1041   623
 9.1141   574
 9.1241   631
 9.1341   671
 9.1441   668
 9.1541   646
 9.1641   728
 9.1741   728
 9.1841   757
 9.1941   819
 9.2041   845
 9.2141   897
 9.2241   933
 9.2341   972
 9.2441  1034
 9.2541  1093
 9.2641  1126
 9.2741  1206
 9.2841  1238
 9.2941  1279
 9.3041  1315
 9.3141  1334
 9.3241  1378
 9.3341  1453
 9.3441  1502
 9.3541  1537
 9.3641  1531
 9.3741  1647
 9.3841  1660
 9.3941  1716
 9.4041  1656
 9.4141  1647
 9.4241  1768
 9.4341  1739
 9.4441  1813
 9.4541  1776
 9.4641  1796
 9.4741  1847
 9.4841  1850
 9.4941  1963
 9.5041  2012
 9.5141  2059
 9.5241  2045
 9.5341  2209
 9.5441  2298
 9.5541  2394
 9.5641  2538
 9.5741  2659
 9.5841  2834
 9.5941  3045
 9.6041  3138
 9.6141  3299
 9.6241  3491
 9.6341  3576
 9.6441  3715
 9.6541  3766
 9.6641  3736
 9.6741  3785
 9.6841  3742
 9.6941  3548
 9.7041  3363
 9.7141  3260
 9.7241  3181
 9.7341  2931
 9.7441  2769
 9.7541  2546
 9.7641  2295
 9.7741  2151
 9.7841  2004
 9.7941  1822
 9.8041  1718
 9.8141  1664
 9.8241  1600
 9.8341  1525
 9.8441  1451
 9.8541  1508
 9.8641  1494
 9.8741  1469
 9.8841  1512
 9.8941  1625
 9.9041  1608
 9.9141  1636
 9.9241  1644
 9.9341  1670
 9.9441  1640
 9.9541  1703
 9.9641  1648
 9.9741  1600
 9.9841  1600
 9.9941  1480
10.0041  1352
10.0141  1280
10.0241  1165
10.0341  1087
10.0441   991
10.0541   864
10.0641   779
10.0741   742
10.0841   650
10.0941   556
10.1041   478
10.1141   469
10.1241   479
10.1341   398
10.1441   383
10.1541   375
10.1641   350
10.1741   333
10.1841   313
10.1941   276
10.2041   288
10.2141   283
10.2241   270
10.2341   270
10.2441   253
10.2541   248
10.2641   248
10.2741   250
10.2841   237
10.2941   226
10.3041   211
10.3141   197
10.3241   221
10.3341   209
10.3441   205
10.3541   221
10.3641   219
10.3741   191
10.3841   214
10.3941   226
10.4041   209
10.4141   205
10.4241   217
10.4341   214
10.4441   208
10.4541   222
10.4641   217
10.4741   235
10.4841   220
10.4941   242
10.5041   242
10.5141   248
10.5241   255
10.5341   249
10.5441   243
10.5541   223
10.5641   235
10.5741   240
10.5841   255
10.5941   256
10.6041   254
10.6141   257
10.6241   261
10.6341   251
10.6441   249
10.6541   251
10.6641   276
10.6741   284
10.6841   270
10.6941   271
10.7041   257
10.7141   269
10.7241   274
10.7341   278
10.7441   288
10.7541   321
10.7641   316
10.7741   314
10.7841   334
10.7941   311
10.8041   313
10.8141   307
10.8241   341
10.8341   323
10.8441   318
10.8541   344
10.8641   372
10.8741   359
10.8841   376
10.8941   392
10.9041   395
10.9141   402
10.9241   382
10.9341   387
10.9441   369
10.9541   361
10.9641   350
10.9741   357
10.9841   386
10.9941   352
11.0041   368
11.0141   378
11.0241   372
11.0341   360
11.0441   323
11.0541   355
11.0641   347
11.0741   331
11.0841   338
11.0941   344
11.1041   323
11.1141   300
11.1241   335
11.1341   369
11.1441   358
11.1541   361
11.1641   384
11.1741   380
11.1841   394
11.1941   411
11.2041   424
11.2141   410
11.2241   467
11.2341   478
11.2441   477
11.2541   501
11.2641   513
11.2741   512
11.2841   521
11.2941   521
11.3041   505
11.3141   514
11.3241   479
11.3341   484
11.3441   451
11.3541   450
11.3641   437
11.3741   372
11.3841   370
11.3941   355
11.4041   334
11.4141   288
11.4241   280
11.4341   291
11.4441   268
11.4541   273
11.4641   275
11.4741   263
11.4841   241
11.4941   246
11.5041   272
11.5141   270
11.5241   257
11.5341   274
11.5441   286
11.5541   270
11.5641   261
11.5741   266
11.5841   295
11.5941   290
11.6041   275
11.6141   279
11.6241   264
11.6341   285
11.6441   287
11.6541   282
11.6641   281
11.6741   275
11.6841   287
11.6941   277
11.7041   262
11.7141   268
11.7241   232
11.7341   239
11.7441   228
11.7541   221
11.7641   211
11.7741   220
11.7841   207
11.7941   213
11.8041   205
11.8141   220
11.8241   200
11.8341   196
11.8441   213
11.8541   203
11.8641   205
11.8741   201
11.8841   181
11.8941   203
11.9041   205
11.9141   196
11.9241   205
11.9341   227
11.9441   216
11.9541   202
11.9641   195
11.9741   203
11.9841   207
11.9941   210
12.0041   206
12.0141   205
12.0241   204
12.0341   199
12.0441   213
12.0541   206
12.0641   205
12.0741   210
12.0841   196
12.0941   209
12.1041   216
12.1141   209
12.1241   208
12.1341   210
12.1441   201
12.1541   189
12.1641   177
12.1741   198
12.1841   201
12.1941   196
12.2041   178
12.2141   186
12.2241   196
12.2341   177
12.2441   179
12.2541   193
12.2641   189
12.2741   189
12.2841   186
12.2941   181
12.3041   171
12.3141   183
12.3241   198
12.3341   196
12.3441   196
12.3541   197
12.3641   198
12.3741   180
12.3841   187
12.3941   190
12.4041   185
12.4141   204
12.4241   201
12.4341   192
12.4441   192
12.4541   192
12.4641   201
12.4741   197
12.4841   194
12.4941   200
12.5041   194
12.5141   221
12.5241   233
12.5341   213
12.5441   210
12.5541   207
12.5641   226
12.5741   230
12.5841   216
12.5941   208
12.6041   213
12.6141   221
12.6241   223
12.6341   213
12.6441   218
12.6541   216
12.6641   233
12.6741   235
12.6841   220
12.6941   210
12.7041   217
12.7141   219
12.7241   220
12.7341   210
12.7441   209
12.7541   211
12.7641   211
12.7741   214
12.7841   215
12.7941   215
12.8041   216
12.8141   218
12.8241   217
12.8341   214
12.8441   210
12.8541   210
12.8641   212
12.8741   215
12.8841   219
12.8941   224
12.9041   224
12.9141   219
12.9241   217
12.9341   223
12.9441   228
12.9541   227
12.9641   226
12.9741   235
12.9841   244
12.9941   237
13.0041   224
13.0141   223
13.0241   228
13.0341   228
13.0441   226
13.0541   230
13.0641   231
13.0741   230
13.0841   232
13.0941   231
13.1041   231
13.1141   239
13.1241   245
13.1341   238
13.1441   231
13.1541   231
13.1641   229
13.1741   229
13.1841   239
13.1941   249
13.2041   256
13.2141   255
13.2241   253
13.2341   279
13.2441   308
13.2541   293
13.2641   279
13.2741   297
13.2841   328
13.2941   335
13.3041   317
13.3141   321
13.3241   340
13.3341   363
13.3441   353
13.3541   348
13.3641   365
13.3741   359
13.3841   361
13.3941   378
13.4041   366
13.4141   343
13.4241   337
13.4341   347
13.4441   353
13.4541   330
13.4641   319
13.4741   325
13.4841   298
13.4941   301
13.5041   316
13.5141   305
13.5241   301
13.5341   300
13.5441   292
13.5541   285
13.5641   281
13.5741   280
13.5841   277
13.5941   272
13.6041   277
13.6141   270
13.6241   258
13.6341   270
13.6441   270
13.6541   270
13.6641   268
13.6741   254
13.6841   263
13.6941   259
13.7041   242
13.7141   248
13.7241   270
13.7341   285
13.7441   288
13.7541   287
13.7641   284
13.7741   284
13.7841   289
13.7941   276
13.8041   287
13.8141   311
13.8241   297
13.8341   274
13.8441   274
13.8541   267
13.8641   251
13.8741   269
13.8841   276
13.8941   275
13.9041   287
13.9141   271
13.9241   271
13.9341   288
13.9441   309
13.9541   306
13.9641   295
13.9741   321
13.9841   313
13.9941   314
14.0041   339
14.0141   333
14.0241   332
14.0341   334
14.0441   328
14.0541   348
14.0641   361
14.0741   354
14.0841   350
14.0941   352
14.1041   368
14.1141   369
14.1241   371
14.1341   391
14.1441   399
14.1541   387
14.1641   387
14.1741   392
14.1841   399
14.1941   386
14.2041   355
14.2141   351
14.2241   369
14.2341   370
14.2441   360
14.2541   362
14.2641   354
14.2741   340
14.2841   316
14.2941   314
14.3041   322
14.3141   322
14.3241   328
14.3341   341
14.3441   333
14.3541   315
14.3641   322
14.3741   314
14.3841   306
14.3941   312
14.4041   303
14.4141   328
14.4241   328
14.4341   321
14.4441   337
14.4541   329
14.4641   316
14.4741   304
14.4841   279
14.4941   297
14.5041   321
14.5141   317
14.5241   340
14.5341   322
14.5441   316
14.5541   333
14.5641   342
14.5741   339
14.5841   337
14.5941   344
14.6041   349
14.6141   353
14.6241   339
14.6341   342
14.6441   346
14.6541   327
14.6641   341
14.6741   363
14.6841   353
14.6941   357
14.7041   340
14.7141   333
14.7241   372
14.7341   368
14.7441   345
14.7541   358
14.7641   354
14.7741   365
14.7841   376
14.7941   366
14.8041   366
14.8141   373
14.8241   354
14.8341   373
14.8441   390
14.8541   398
14.8641   401
14.8741   400
14.8841   399
14.8941   407
14.9041   389
14.9141   395
14.9241   429
14.9341   417
14.9441   401
14.9541   414
14.9641   434
14.9741   431
14.9841   446
14.9941   429
15.0041   412
15.0141   411
15.0241   408
15.0341   416
15.0441   412
15.0541   393
15.0641   393
15.0741   401
15.0841   391
15.0941   387
15.1041   387
15.1141   360
15.1241   361
15.1341   367
15.1441   376
15.1541   380
15.1641   355
15.1741   349
15.1841   358
15.1941   360
15.2041   369
15.2141   360
15.2241   363
15.2341   382
15.2441   398
15.2541   388
15.2641   364
15.2741   357
15.2841   371
15.2941   396
15.3041   408
15.3141   384
15.3241   373
15.3341   386
15.3441   386
15.3541   369
15.3641   382
15.3741   350
15.3841   359
15.3941   381
15.4041   384
15.4141   387
15.4241   387
15.4341   385
15.4441   375
15.4541   411
15.4641   430
15.4741   406
15.4841   401
15.4941   404
15.5041   416
15.5141   462
15.5241   460
15.5341   470
15.5441   510
15.5541   543
15.5641   561
15.5741   592
15.5841   631
15.5941   666
15.6041   651
15.6141   696
15.6241   795
15.6341   838
15.6441   838
15.6541   924
15.6641   972
15.6741  1012
15.6841  1069
15.6941  1080
15.7041  1125
15.7141  1173
15.7241  1181
15.7341  1220
15.7441  1230
15.7541  1202
15.7641  1199
15.7741  1203
15.7841  1190
15.7941  1155
15.8041  1147
15.8141  1098
15.8241  1016
15.8341   968
15.8441   919
15.8541   869
15.8641   805
15.8741   749
15.8841   730
15.8941   689
15.9041   628
15.9141   626
15.9241   596
15.9341   557
15.9441   546
15.9541   526
15.9641   522
15.9741   487
15.9841   472
15.9941   472
16.0041   476
16.0141   463
16.0241   466
16.0341   446
16.0441   447
16.0541   444
16.0641   438
16.0741   422
16.0841   458
16.0941   438
16.1041   421
16.1141   438
16.1241   427
16.1341   430
16.1441   439
16.1541   445
16.1641   457
16.1741   468
16.1841   443
16.1941   425
16.2041   429
16.2141   443
16.2241   443
16.2341   461
16.2441   495
16.2541   492
16.2641   437
16.2741   455
16.2841   445
16.2941   450
16.3041   455
16.3141   458
16.3241   478
16.3341   496
16.3441   497
16.3541   448
16.3641   441
16.3741   467
16.3841   474
16.3941   446
16.4041   460
16.4141   459
16.4241   437
16.4341   451
16.4441   460
16.4541   477
16.4641   473
16.4741   480
16.4841   469
16.4941   492
16.5041   492
16.5141   506
16.5241   479
16.5341   489
16.5441   508
16.5541   529
16.5641   519
16.5741   483
16.5841   490
16.5941   514
16.6041   497
16.6141   527
16.6241   518
16.6341   521
16.6441   513
16.6541   514
16.6641   511
16.6741   507
16.6841   516
16.6941   484
16.7041   481
16.7141   505
16.7241   502
16.7341   502
16.7441   525
16.7541   498
16.7641   501
16.7741   525
16.7841   483
16.7941   487
16.8041   493
16.8141   478
16.8241   502
16.8341   522
16.8441   522
16.8541   506
16.8641   479
16.8741   470
16.8841   510
16.8941   516
16.9041   517
16.9141   503
16.9241   483
16.9341   499
16.9441   514
16.9541   512
16.9641   489
16.9741   527
16.9841   498
16.9941   498
17.0041   523
17.0141   501
17.0241   483
17.0341   501
17.0441   516
17.0541   541
17.0641   536
17.0741   501
17.0841   528
17.0941   526
17.1041   511
17.1141   567
17.1241   526
17.1341   500
17.1441   524
17.1541   520
17.1641   539
17.1741   548
17.1841   522
17.1941   546
17.2041   561
17.2141   560
17.2241   547
17.2341   516
17.2441   516
17.2541   524
17.2641   550
17.2741   577
17.2841   511
17.2941   509
17.3041   527
17.3141   536
17.3241   555
17.3341   542
17.3441   560
17.3541   575
17.3641   522
17.3741   551
17.3841   546
17.3941   548
17.4041   565
17.4141   567
17.4241   558
17.4341   553
17.4441   559
17.4541   596
17.4641   570
17.4741   596
17.4841   578
17.4941   597
17.5041   602
17.5141   624
17.5241   625
17.5341   605
17.5441   623
17.5541   629
17.5641   658
17.5741   661
17.5841   648
17.5941   674
17.6041   719
17.6141   712
17.6241   707
17.6341   683
17.6441   699
17.6541   704
17.6641   668
17.6741   680
17.6841   697
17.6941   695
17.7041   701
17.7141   688
17.7241   652
17.7341   660
17.7441   709
17.7541   672
17.7641   680
17.7741   641
17.7841   649
17.7941   665
17.8041   609
17.8141   640
17.8241   640
17.8341   595
17.8441   620
17.8541   614
17.8641   615
17.8741   613
17.8841   587
17.8941   594
17.9041   601
17.9141   610
17.9241   620
17.9341   598
17.9441   600
17.9541   612
17.9641   616
17.9741   619
17.9841   644
17.9941   588
18.0041   589
18.0141   618
18.0241   612
18.0341   619
18.0441   603
18.0541   603
18.0641   592
18.0741   576
18.0841   622
18.0941   614
18.1041   591
18.1141   610
18.1241   597
18.1341   626
18.1441   591
18.1541   623
18.1641   595
18.1741   600
18.1841   613
18.1941   625
18.2041   598
18.2141   559
18.2241   591
18.2341   610
18.2441   572
18.2541   602
18.2641   609
18.2741   602
18.2841   583
18.2941   612
18.3041   605
18.3141   603
18.3241   585
18.3341   623
18.3441   611
18.3541   630
18.3641   614
18.3741   588
18.3841   604
18.3941   595
18.4041   621
18.4141   620
18.4241   633
18.4341   628
18.4441   625
18.4541   619
18.4641   627
18.4741   620
18.4841   624
18.4941   610
18.5041   601
18.5141   634
18.5241   618
18.5341   623
18.5441   632
18.5541   611
18.5641   666
18.5741   651
18.5841   619
18.5941   657
18.6041   643
18.6141   629
18.6241   630
18.6341   630
18.6441   632
18.6541   657
18.6641   660
18.6741   628
18.6841   609
18.6941   651
18.7041   602
18.7141   655
18.7241   682
18.7341   658
18.7441   618
18.7541   638
18.7641   687
18.7741   658
18.7841   647
18.7941   646
18.8041   641
18.8141   609
18.8241   622
18.8341   641
18.8441   632
18.8541   640
18.8641   649
18.8741   627
18.8841   592
18.8941   652
18.9041   628
18.9141   632
18.9241   683
18.9341   645
18.9441   634
18.9541   650
18.9641   655
18.9741   640
18.9841   668
18.9941   658
19.0041   659
19.0141   650
19.0241   636
19.0341   622
19.0441   659
19.0541   666
19.0641   698
19.0741   641
19.0841   655
19.0941   642
19.1041   636
19.1141   654
19.1241   632
19.1341   645
19.1441   659
19.1541   654
19.1641   690
19.1741   672
19.1841   677
19.1941   647
19.2041   657
19.2141   678
19.2241   663
19.2341   659
19.2441   631
19.2541   644
19.2641   635
19.2741   621
19.2841   662
19.2941   648
19.3041   689
19.3141   678
19.3241   616
19.3341   636
19.3441   605
19.3541   673
19.3641   693
19.3741   630
19.3841   644
19.3941   657
19.4041   659
19.4141   664
19.4241   666
19.4341   668
19.4441   649
19.4541   642
19.4641   676
19.4741   668
19.4841   682
19.4941   697
19.5041   659
19.5141   666
19.5241   692
19.5341   679
19.5441   692
19.5541   680
19.5641   676
19.5741   698
19.5841   684
19.5941   681
19.6041   646
19.6141   689
19.6241   700
19.6341   684
19.6441   645
19.6541   673
19.6641   676
19.6741   709
19.6841   672
19.6941   669
19.7041   677
19.7141   658
19.7241   711
19.7341   669
19.7441   706
19.7541   681
19.7641   669
19.7741   694
19.7841   710
19.7941   677
19.8041   699
19.8141   678
19.8241   696
19.8341   671
19.8441   666
19.8541   705
19.8641   703
19.8741   694
19.8841   655
19.8941   659
19.9041   655
19.9141   668
19.9241   742
19.9341   721
19.9441   686
19.9541   683
19.9641   675
19.9741   658
19.9841   699
19.9941   705
20.0041   681
20.0141   714
20.0241   696
20.0341   716
20.0441   721
20.0541   683
20.0641   694
20.0741   680
20.0841   693
20.0941   691
20.1041   714
20.1141   698
20.1241   708
20.1341   722
20.1441   699
20.1541   727
20.1641   719
20.1741   691
20.1841   678
20.1941   705
20.2041   671
20.2141   663
20.2241   678
20.2341   662
20.2441   704
20.2541   686
20.2641   697
20.2741   690
20.2841   707
20.2941   720
20.3041   684
20.3141   673
20.3241   685
20.3341   681
20.3441   676
20.3541   708
20.3641   719
20.3741   718
20.3841   696
20.3941   695
20.4041   684
20.4141   732
20.4241   711
20.4341   702
20.4441   706
20.4541   696
20.4641   733
20.4741   722
20.4841   704
20.4941   693
20.5041   665
20.5141   692
20.5241   681
20.5341   702
20.5441   735
20.5541   750
20.5641   705
20.5741   694
20.5841   705
20.5941   712
20.6041   667
20.6141   706
20.6241   692
20.6341   701
20.6441   699
20.6541   676
20.6641   725
20.6741   691
20.6841   730
20.6941   702
20.7041   726
20.7141   669
20.7241   737
20.7341   739
20.7441   725
20.7541   683
20.7641   707
20.7741   753
20.7841   750
20.7941   759
20.8041   743
20.8141   800
20.8241   707
20.8341   742
20.8441   767
20.8541   754
20.8641   786
20.8741   773
20.8841   839
20.8941   807
20.9041   822
20.9141   826
20.9241   857
20.9341   844
20.9441   865
20.9541   873
20.9641   879
20.9741   905
20.9841   914
20.9941   904
21.0041   941
21.0141   966
21.0241   980
21.0341  1002
21.0441  1018
21.0541  1024
21.0641  1028
21.0741  1073
21.0841  1054
21.0941  1060
21.1041  1061
21.1141  1078
21.1241  1078
21.1341  1091
21.1441  1054
21.1541  1089
21.1641  1078
21.1741  1051
21.1841  1037
21.1941  1094
21.2041  1003
21.2141  1016
21.2241  1004
21.2341   980
21.2441   976
21.2541   897
21.2641   882
21.2741   889
21.2841   876
21.2941   906
21.3041   868
21.3141   816
21.3241   809
21.3341   767
21.3441   779
21.3541   714
21.3641   767
21.3741   783
21.3841   771
21.3941   791
21.4041   732
21.4141   774
21.4241   758
21.4341   683
21.4441   737
21.4541   728
21.4641   794
21.4741   709
21.4841   698
21.4941   763
21.5041   711
21.5141   706
21.5241   759
21.5341   723
21.5441   728
21.5541   764
21.5641   718
21.5741   690
21.5841   766
21.5941   750
21.6041   734
21.6141   703
21.6241   676
21.6341   704
21.6441   704
21.6541   734
21.6641   718
21.6741   705
21.6841   694
21.6941   714
21.7041   699
21.7141   737
21.7241   694
21.7341   723
21.7441   726
21.7541   715
21.7641   739
21.7741   744
21.7841   735
21.7941   723
21.8041   706
21.8141   706
21.8241   732
21.8341   684
21.8441   713
21.8541   707
21.8641   669
21.8741   724
21.8841   731
21.8941   678
21.9041   736
21.9141   759
21.9241   732
21.9341   751
21.9441   746
21.9541   747
21.9641   718
21.9741   681
21.9841   708
21.9941   714
22.0041   687
22.0141   659
22.0241   708
22.0341   754
22.0441   721
22.0541   731
22.0641   733
22.0741   716
22.0841   751
22.0941   787
22.1041   724
22.1141   683
22.1241   683
22.1341   723
22.1441   719
22.1541   674
22.1641   780
22.1741   699
22.1841   714
22.1941   715
22.2041   715
22.2141   702
22.2241   693
22.2341   767
22.2441   747
22.2541   722
22.2641   686
22.2741   706
22.2841   730
22.2941   669
22.3041   674
22.3141   725
22.3241   685
22.3341   734
22.3441   714
22.3541   714
22.3641   700
22.3741   697
22.3841   699
22.3941   703
22.4041   715
22.4141   728
22.4241   672
22.4341   707
22.4441   750
22.4541   713
22.4641   679
22.4741   692
22.4841   741
22.4941   721
22.5041   732
22.5141   741
22.5241   726
22.5341   707
22.5441   741
22.5541   699
22.5641   682
22.5741   697
22.5841   673
22.5941   693
22.6041   714
22.6141   700
22.6241   739
22.6341   686
22.6441   676
22.6541   701
22.6641   705
22.6741   701
22.6841   719
22.6941   782
22.7041   731
22.7141   670
22.7241   739
22.7341   754
22.7441   706
22.7541   757
22.7641   710
22.7741   652
22.7841   669
22.7941   718
22.8041   714
22.8141   715
22.8241   704
22.8341   680
22.8441   676
22.8541   713
22.8641   706
22.8741   746
22.8841   727
22.8941   685
22.9041   647
22.9141   700
22.9241   715
22.9341   678
22.9441   663
22.9541   674
22.9641   711
22.9741   712
22.9841   734
22.9941   721
23.0041   676
23.0141   677
23.0241   675
23.0341   684
23.0441   730
23.0541   770
23.0641   709
23.0741   662
23.0841   699
23.0941   717
23.1041   710
23.1141   687
23.1241   665
23.1341   703
23.1441   704
23.1541   684
23.1641   654
23.1741   638
23.1841   695
23.1941   681
23.2041   676
23.2141   686
23.2241   607
23.2341   663
23.2441   688
23.2541   671
23.2641   679
23.2741   710
23.2841   672
23.2941   677
23.3041   713
23.3141   725
23.3241   716
23.3341   676
23.3441   692
23.3541   700
23.3641   678
23.3741   679
23.3841   721
23.3941   682
23.4041   705
23.4141   711
23.4241   691
23.4341   655
23.4441   750
23.4541   692
23.4641   656
23.4741   652
23.4841   683
23.4941   712
23.5041   681
23.5141   652
23.5241   639
23.5341   664
23.5441   679
23.5541   692
23.5641   725
23.5741   736
23.5841   661
23.5941   672
23.6041   674
23.6141   709
23.6241   665
23.6341   629
23.6441   685
23.6541   689
23.6641   719
23.6741   679
23.6841   707
23.6941   717
23.7041   684
23.7141   684
23.7241   727
23.7341   714
23.7441   703
23.7541   753
23.7641   727
23.7741   750
23.7841   752
23.7941   741
23.8041   717
23.8141   674
23.8241   743
23.8341   721
23.8441   758
23.8541   708
23.8641   763
23.8741   740
23.8841   701
23.8941   735
23.9041   732
23.9141   731
23.9241   691
23.9341   686
23.9441   688
23.9541   658
23.9641   696
23.9741   701
23.9841   692
23.9941   687
24.0041   707
24.0141   682
24.0241   703
24.0341   668
24.0441   663
24.0541   691
24.0641   655
24.0741   682
24.0841   653
24.0941   711
24.1041   690
24.1141   640
24.1241   662
24.1341   636
24.1441   662
24.1541   683
24.1641   697
24.1741   647
24.1841   655
24.1941   646
24.2041   652
24.2141   642
24.2241   647
24.2341   678
24.2441   654
24.2541   661
24.2641   655
24.2741   661
24.2841   634
24.2941   658
24.3041   647
24.3141   636
24.3241   649
24.3341   619
24.3441   603
24.3541   666
24.3641   645
24.3741   659
24.3841   658
24.3941   644
24.4041   611
24.4141   616
24.4241   595
24.4341   655
24.4441   618
24.4541   634
24.4641   614
24.4741   660
24.4841   636
24.4941   645
24.5041   693
24.5141   677
24.5241   667
24.5341   637
24.5441   681
24.5541   631
24.5641   658
24.5741   691
24.5841   628
24.5941   606
24.6041   590
24.6141   649
24.6241   626
24.6341   657
24.6441   595
24.6541   671
24.6641   670
24.6741   632
24.6841   633
24.6941   648
24.7041   599
24.7141   652
24.7241   637
24.7341   611
24.7441   626
24.7541   601
24.7641   626
24.7741   611
24.7841   605
24.7941   645
24.8041   620
24.8141   630
24.8241   621
24.8341   653
24.8441   641
24.8541   612
24.8641   647
24.8741   570
24.8841   627
24.8941   584
24.9041   637
24.9141   612
24.9241   619
24.9341   582
24.9441   622
24.9541   618
24.9641   647
24.9741   623
24.9841   600
24.9941   618
25.0041   618
25.0141   593
25.0241   590
25.0341   627
25.0441   651
25.0541   620
25.0641   607
25.0741   597
25.0841   653
25.0941   645
25.1041   644
25.1141   579
25.1241   612
25.1341   649
25.1441   616
25.1541   638
25.1641   602
25.1741   589
25.1841   623
25.1941   610
25.2041   654
25.2141   624
25.2241   642
25.2341   635
25.2441   619
25.2541   616
25.2641   626
25.2741   612
25.2841   575
25.2941   606
25.3041   592
25.3141   591
25.3241   611
25.3341   640
25.3441   622
25.3541   604
25.3641   587
25.3741   587
25.3841   617
25.3941   644
25.4041   676
25.4141   600
25.4241   638
25.4341   597
25.4441   575
25.4541   598
25.4641   592
25.4741   603
25.4841   643
25.4941   605
25.5041   594
25.5141   647
25.5241   623
25.5341   598
25.5441   583
25.5541   584
25.5641   572
25.5741   575
25.5841   565
25.5941   622
25.6041   577
25.6141   537
25.6241   569
25.6341   579
25.6441   600
25.6541   598
25.6641   586
25.6741   606
25.6841   557
25.6941   547
25.7041   579
25.7141   580
25.7241   525
25.7341   560
25.7441   590
25.7541   586
25.7641   635
25.7741   606
25.7841   574
25.7941   577
25.8041   580
25.8141   553
25.8241   568
25.8341   577
25.8441   569
25.8541   562
25.8641   590
25.8741   598
25.8841   566
25.8941   556
25.9041   567
25.9141   603
25.9241   588
25.9341   583
25.9441   557
25.9541   576
25.9641   547
25.9741   599
25.9841   560
25.9941   573
26.0041   582
26.0141   512
26.0241   525
26.0341   530
26.0441   534
26.0541   537
26.0641   588
26.0741   567
26.0841   556
26.0941   581
26.1041   575
26.1141   589
26.1241   565
26.1341   575
26.1441   551
26.1541   545
26.1641   577
26.1741   559
26.1841   538
26.1941   557
26.2041   556
26.2141   551
26.2241   476
26.2341   533
26.2441   592
26.2541   573
26.2641   530
26.2741   554
26.2841   554
26.2941   537
26.3041   547
26.3141   570
26.3241   568
26.3341   569
26.3441   527
26.3541   544
26.3641   576
26.3741   572
26.3841   511
26.3941   588
26.4041   513
26.4141   574
26.4241   566
26.4341   526
26.4441   541
26.4541   536
26.4641   570
26.4741   578
26.4841   570
26.4941   515
26.5041   534
26.5141   515
26.5241   525
26.5341   548
26.5441   507
26.5541   518
26.5641   525
26.5741   518
26.5841   570
26.5941   549
26.6041   545
26.6141   556
26.6241   515
26.6341   532
26.6441   545
26.6541   525
26.6641   545
26.6741   544
26.6841   526
26.6941   515
26.7041   511
26.7141   564
26.7241   533
26.7341   507
26.7441   555
26.7541   540
26.7641   521
26.7741   522
26.7841   543
26.7941   535
26.8041   512
26.8141   539
26.8241   516
26.8341   528
26.8441   482
26.8541   502
26.8641   526
26.8741   514
26.8841   540
26.8941   532
26.9041   503
26.9141   514
26.9241   517
26.9341   506
26.9441   518
26.9541   498
26.9641   511
26.9741   503
26.9841   530
26.9941   485
27.0041   518
27.0141   481
27.0241   482
27.0341   520
27.0441   497
27.0541   485
27.0641   499
27.0741   530
27.0841   475
27.0941   497
27.1041   518
27.1141   534
27.1241   506
27.1341   523
27.1441   516
27.1541   532
27.1641   505
27.1741   514
27.1841   500
27.1941   484
27.2041   513
27.2141   485
27.2241   506
27.2341   510
27.2441   476
27.2541   524
27.2641   517
27.2741   509
27.2841   475
27.2941   461
27.3041   507
27.3141   491
27.3241   501
27.3341   512
27.3441   493
27.3541   508
27.3641   474
27.3741   484
27.3841   505
27.3941   491
27.4041   476
27.4141   487
27.4241   493
27.4341   496
27.4441   504
27.4541   479
27.4641   503
27.4741   503
27.4841   522
27.4941   495
27.5041   473
27.5141   464
27.5241   489
27.5341   523
27.5441   480
27.5541   501
27.5641   488
27.5741   457
27.5841   477
27.5941   499
27.6041   475
27.6141   470
27.6241   472
27.6341   485
27.6441   443
27.6541   503
27.6641   515
27.6741   461
27.6841   477
27.6941   489
27.7041   474
27.7141   448
27.7241   470
27.7341   439
27.7441   515
27.7541   446
27.7641   469
27.7741   523
27.7841   456
27.7941   472
27.8041   497
27.8141   479
27.8241   447
27.8341   472
27.8441   479
27.8541   441
27.8641   466
27.8741   409
27.8841   446
27.8941   447
27.9041   478
27.9141   438
27.9241   417
27.9341   467
27.9441   451
27.9541   437
27.9641   475
27.9741   459
27.9841   430
27.9941   459
28.0041   465
28.0141   488
28.0241   485
28.0341   498
28.0441   492
28.0541   412
28.0641   414
28.0741   443
28.0841   437
28.0941   438
28.1041   483
28.1141   461
28.1241   447
28.1341   480
28.1441   479
28.1541   476
28.1641   430
28.1741   477
28.1841   454
28.1941   432
28.2041   465
28.2141   435
28.2241   467
28.2341   447
28.2441   439
28.2541   476
28.2641   422
28.2741   480
28.2841   436
28.2941   462
28.3041   438
28.3141   440
28.3241   427
28.3341   439
28.3441   447
28.3541   437
28.3641   446
28.3741   449
28.3841   441
28.3941   427
28.4041   435
28.4141   443
28.4241   455
28.4341   457
28.4441   468
28.4541   416
28.4641   442
28.4741   424
28.4841   430
28.4941   431
28.5041   443
28.5141   455
28.5241   452
28.5341   444
28.5441   425
28.5541   446
28.5641   428
28.5741   431
28.5841   453
28.5941   422
28.6041   478
28.6141   478
28.6241   389
28.6341   413
28.6441   448
28.6541   448
28.6641   438
28.6741   433
28.6841   463
28.6941   430
28.7041   434
28.7141   439
28.7241   421
28.7341   400
28.7441   429
28.7541   382
28.7641   371
28.7741   395
28.7841   408
28.7941   428
28.8041   434
28.8141   407
28.8241   429
28.8341   431
28.8441   425
28.8541   399
28.8641   455
28.8741   416
28.8841   431
28.8941   404
28.9041   388
28.9141   406
28.9241   412
28.9341   415
28.9441   401
28.9541   423
28.9641   407
28.9741   405
28.9841   425
28.9941   421
29.0041   411
29.0141   409
29.0241   402
29.0341   378
29.0441   386
29.0541   389
29.0641   416
29.0741   402
29.0841   406
29.0941   383
29.1041   406
29.1141   384
29.1241   375
29.1341   396
29.1441   425
29.1541   401
29.1641   415
29.1741   403
29.1841   399
29.1941   370
29.2041   387
29.2141   432
29.2241   392
29.2341   422
29.2441   386
29.2541   384
29.2641   424
29.2741   415
29.2841   381
29.2941   367
29.3041   368
29.3141   384
29.3241   384
29.3341   383
29.3441   416
29.3541   360
29.3641   405
29.3741   391
29.3841   396
29.3941   366
29.4041   389
29.4141   395
29.4241   398
29.4341   374
29.4441   374
29.4541   373
29.4641   354
29.4741   395
29.4841   384
29.4941   385
29.5041   382
29.5141   354
29.5241   374
29.5341   393
29.5441   391
29.5541   366
29.5641   365
29.5741   371
29.5841   367
29.5941   397
29.6041   347
29.6141   385
29.6241   395
29.6341   376
29.6441   357
29.6541   343
29.6641   348
29.6741   376
29.6841   380
29.6941   376
29.7041   394
29.7141   388
29.7241   380
29.7341   347
29.7441   367
29.7541   369
29.7641   380
29.7741   376
29.7841   366
29.7941   369
29.8041   366
29.8141   357
29.8241   361
29.8341   352
29.8441   373
29.8541   369
29.8641   368
29.8741   360
29.8841   346
29.8941   338
29.9041   356
29.9141   388
29.9241   356
29.9341   340
29.9441   321
29.9541   360
29.9641   328
29.9741   381
29.9841   363
29.9941   360
30.0041   384
30.0141   390
30.0241   373
30.0341   346
30.0441   380
30.0541   368
30.0641   316
30.0741   356
30.0841   337
30.0941   338
30.1041   343
30.1141   372
30.1241   328
30.1341   331
30.1441   354
30.1541   320
30.1641   354
30.1741   343
30.1841   343
30.1941   364
30.2041   363
30.2141   358
30.2241   332
30.2341   357
30.2441   331
30.2541   345
30.2641   333
30.2741   298
30.2841   309
30.2941   336
30.3041   303
30.3141   357
30.3241   329
30.3341   355
30.3441   323
30.3541   346
30.3641   347
30.3741   331
30.3841   345
30.3941   352
30.4041   348
30.4141   319
30.4241   303
30.4341   326
30.4441   324
30.4541   332
30.4641   329
30.4741   339
30.4841   324
30.4941   344
30.5041   326
30.5141   350
30.5241   327
30.5341   323
30.5441   330
30.5541   352
30.5641   335
30.5741   341
30.5841   335
30.5941   348
30.6041   323
30.6141   304
30.6241   307
30.6341   327
30.6441   339
30.6541   294
30.6641   322
30.6741   332
30.6841   348
30.6941   310
30.7041   330
30.7141   357
30.7241   313
30.7341   343
30.7441   316
30.7541   336
30.7641   311
30.7741   298
30.7841   307
30.7941   299
30.8041   333
30.8141   319
30.8241   297
30.8341   324
30.8441   354
30.8541   316
30.8641   301
30.8741   287
30.8841   306
30.8941   306
30.9041   292
30.9141   325
30.9241   315
30.9341   279
30.9441   286
30.9541   312
30.9641   299
30.9741   293
30.9841   335
30.9941   325
31.0041   311
31.0141   313
31.0241   294
31.0341   332
31.0441   326
31.0541   293
31.0641   308
31.0741   281
31.0841   282
31.0941   308
31.1041   296
31.1141   293
31.1241   328
31.1341   294
31.1441   318
31.1541   313
31.1641   312
31.1741   293
31.1841   282
31.1941   325
31.2041   322
31.2141   281
31.2241   284
31.2341   260
31.2441   310
31.2541   291
31.2641   274
31.2741   328
31.2841   268
31.2941   325
31.3041   318
31.3141   301
31.3241   297
31.3341   281
31.3441   302
31.3541   292
31.3641   287
31.3741   267
31.3841   274
31.3941   286
31.4041   285
31.4141   280
31.4241   270
31.4341   283
31.4441   292
31.4541   302
31.4641   298
31.4741   285
31.4841   278
31.4941   266
31.5041   278
31.5141   273
31.5241   289
31.5341   280
31.5441   266
31.5541   316
31.5641   276
31.5741   272
31.5841   292
31.5941   289
31.6041   289
31.6141   301
31.6241   286
31.6341   247
31.6441   269
31.6541   248
31.6641   291
31.6741   296
31.6841   310
31.6941   288
31.7041   291
31.7141   270
31.7241   261
31.7341   283
31.7441   264
31.7541   261
31.7641   273
31.7741   284
31.7841   273
31.7941   275
31.8041   282
31.8141   308
31.8241   286
31.8341   290
31.8441   246
31.8541   245
31.8641   265
31.8741   244
31.8841   268
31.8941   276
31.9041   290
31.9141   272
31.9241   271
31.9341   280
31.9441   283
31.9541   252
31.9641   270
31.9741   283
31.9841   269
31.9941   257
32.0041   249
32.0141   268
32.0241   216
32.0341   251
32.0441   251
32.0541   244
32.0641   262
32.0741   262
32.0841   250
32.0941   296
32.1041   254
32.1141   263
32.1241   274
32.1341   264
32.1441   268
32.1541   267
32.1641   258
32.1741   258
32.1841   264
32.1941   268
32.2041   264
32.2141   257
32.2241   239
32.2341   262
32.2441   278
32.2541   234
32.2641   270
32.2741   254
32.2841   251
32.2941   242
32.3041   271
32.3141   268
32.3241   245
32.3341   269
32.3441   245
32.3541   263
32.3641   226
32.3741   267
32.3841   234
32.3941   257
32.4041   262
32.4141   255
32.4241   243
32.4341   229
32.4441   229
32.4541   244
32.4641   264
32.4741   249
32.4841   256
32.4941   247
32.5041   238
32.5141   248
32.5241   262
32.5341   243
32.5441   266
32.5541   250
32.5641   252
32.5741   214
32.5841   260
32.5941   238
32.6041   266
32.6141   210
32.6241   226
32.6341   222
32.6441   244
32.6541   245
32.6641   219
32.6741   213
32.6841   230
32.6941   223
32.7041   219
32.7141   253
32.7241   219
32.7341   245
32.7441   247
32.7541   227
32.7641   217
32.7741   228
32.7841   218
32.7941   205
32.8041   236
32.8141   241
32.8241   255
32.8341   236
32.8441   215
32.8541   204
32.8641   216
32.8741   232
32.8841   220
32.8941   216
32.9041   229
32.9141   224
32.9241   229
32.9341   242
32.9441   233
32.9541   239
32.9641   221
32.9741   229
32.9841   215
32.9941   209
33.0041   210
33.0141   216
33.0241   219
33.0341   229
33.0441   248
33.0541   214
33.0641   230
33.0741   219
33.0841   219
33.0941   235
33.1041   232
33.1141   197
33.1241   238
33.1341   221
33.1441   218
33.1541   213
33.1641   197
33.1741   227
33.1841   212
33.1941   210
33.2041   217
33.2141   225
33.2241   200
33.2341   208
33.2441   223
33.2541   227
33.2641   210
33.2741   198
33.2841   226
33.2941   209
33.3041   247
33.3141   250
33.3241   196
33.3341   209
33.3441   230
33.3541   200
33.3641   227
33.3741   214
33.3841   203
33.3941   222
33.4041   204
33.4141   216
33.4241   195
33.4341   213
33.4441   206
33.4541   216
33.4641   204
33.4741   220
33.4841   210
33.4941   222
33.5041   221
33.5141   219
33.5241   187
33.5341   208
33.5441   197
33.5541   239
33.5641   218
33.5741   190
33.5841   184
33.5941   203
33.6041   190
33.6141   211
33.6241   202
33.6341   182
33.6441   179
33.6541   210
33.6641   189
33.6741   196
33.6841   198
33.6941   188
33.7041   204
33.7141   193
33.7241   199
33.7341   201
33.7441   204
33.7541   184
33.7641   178
33.7741   186
33.7841   165
33.7941   168
33.8041   180
33.8141   187
33.8241   195
33.8341   192
33.8441   191
33.8541   180
33.8641   188
33.8741   185
33.8841   207
33.8941   198
33.9041   180
33.9141   184
33.9241   195
33.9341   193
33.9441   187
33.9541   172
33.9641   168
33.9741   187
33.9841   198
33.9941   192
34.0041   191
34.0141   152
34.0241   172
34.0341   179
34.0441   186
34.0541   173
34.0641   195
34.0741   189
34.0841   187
34.0941   173
34.1041   167
34.1141   175
34.1241   154
34.1341   186
34.1441   181
34.1541   187
34.1641   192
34.1741   172
34.1841   172
34.1941   175
34.2041   184
34.2141   187
34.2241   174
34.2341   156
34.2441   160
34.2541   163
34.2641   193
34.2741   166
34.2841   175
34.2941   165
34.3041   174
34.3141   172
34.3241   163
34.3341   182
34.3441   183
34.3541   175
34.3641   158
34.3741   155
34.3841   155
34.3941   181
34.4041   166
34.4141   165
34.4241   162
34.4341   165
34.4441   169
34.4541   165
34.4641   156
34.4741   178
34.4841   168
34.4941   157
34.5041   159
34.5141   152
34.5241   148
34.5341   165
34.5441   144
34.5541   173
34.5641   181
34.5741   152
34.5841   162
34.5941   160
34.6041   155
34.6141   167
34.6241   177
34.6341   158
34.6441   126
34.6541   149
34.6641   149
34.6741   151
34.6841   162
34.6941   193
34.7041   158
34.7141   159
34.7241   157
34.7341   160
34.7441   159
34.7541   197
34.7641   170
34.7741   143
34.7841   145
34.7941   168
34.8041   163
34.8141   152
34.8241   154
34.8341   172
34.8441   167
34.8541   172
34.8641   168
34.8741   130
34.8841   146
34.8941   157
34.9041   149
34.9141   171
34.9241   141
34.9341   159
34.9441   164
34.9541   153
34.9641   160
34.9741   128
34.9841   139
34.9941   154
35.0041   151
35.0141   144
35.0241   147
35.0341   149
35.0441   141
35.0541   159
35.0641   138
35.0741   146
35.0841   136
35.0941   141
35.1041   150
35.1141   156
35.1241   119
35.1341   157
35.1441   152
35.1541   164
35.1641   146
35.1741   142
35.1841   138
35.1941   149
35.2041   142
35.2141   134
35.2241   139
35.2341   153
35.2441   130
35.2541   146
35.2641   142
35.2741   130
35.2841   125
35.2941   128
35.3041   151
35.3141   138
35.3241   140
35.3341   136
35.3441   143
35.3541   142
35.3641   140
35.3741   137
35.3841   134
35.3941   135
35.4041   133
35.4141   164
35.4241   143
35.4341   126
35.4441   145
35.4541   125
35.4641   122
35.4741   125
35.4841   153
35.4941   149
35.5041   143
35.5141   133
35.5241   170
35.5341   148
35.5441   118
35.5541   131
35.5641   122
35.5741   152
35.5841   140
35.5941   114
35.6041   151
35.6141   141
35.6241   142
35.6341   154
35.6441   120
35.6541   119
35.6641   121
35.6741   122
35.6841   136
35.6941   130
35.7041   124
35.7141   136
35.7241   146
35.7341   140
35.7441   142
35.7541   107
35.7641   143
35.7741   158
35.7841   136
35.7941   116
35.8041   134
35.8141   144
35.8241   122
35.8341   145
35.8441   144
35.8541   126
35.8641   127
35.8741   128
35.8841   138
35.8941   128
35.9041   110
35.9141   105
35.9241   124
35.9341   103
35.9441   108
35.9541   132
35.9641   129
35.9741   122
35.9841   135
35.9941   127
36.0041   116
36.0141   117
36.0241   120
36.0341   119
36.0441   137
36.0541   122
36.0641   119
36.0741   107
36.0841   129
36.0941   115
36.1041   110
36.1141   125
36.1241   125
36.1341   119
36.1441   102
36.1541   130
36.1641   136
36.1741   138
36.1841   109
36.1941   118
36.2041   112
36.2141   119
36.2241   143
36.2341   123
36.2441   113
36.2541   136
36.2641   120
36.2741   129
36.2841   113
36.2941   109
36.3041   110
36.3141   120
36.3241   130
36.3341   122
36.3441   122
36.3541   129
36.3641   119
36.3741   124
36.3841   125
36.3941   119
36.4041   108
36.4141   118
36.4241   100
36.4341   111
36.4441   110
36.4541   105
36.4641    95
36.4741   122
36.4841   115
36.4941   128
36.5041   126
36.5141   116
36.5241    97
36.5341    99
36.5441    95
36.5541   103
36.5641   128
36.5741   111
36.5841   110
36.5941   121
36.6041    98
36.6141    88
36.6241   112
36.6341   104
36.6441    96
36.6541   106
36.6641   104
36.6741   111
36.6841   105
36.6941    94
36.7041    87
36.7141    95
36.7241    96
36.7341   104
36.7441   110
36.7541    94
36.7641    92
36.7741    97
36.7841   105
36.7941   104
36.8041    94
36.8141   102
36.8241    95
36.8341    98
36.8441    96
36.8541    72
36.8641    94
36.8741    81
36.8841   107
36.8941   112
36.9041    95
36.9141    93
36.9241    98
36.9341    90
36.9441   102
36.9541    89
36.9641   112
36.9741    93
36.9841    92
36.9941   101
37.0041    91
37.0141    94
37.0241   102
37.0341    89
37.0441   108
37.0541   101
37.0641    94
37.0741   101
37.0841    86
37.0941    87
37.1041   110
37.1141    85
37.1241    95
37.1341   110
37.1441   112
37.1541   118
37.1641    91
37.1741    78
37.1841    89
37.1941    78
37.2041    96
37.2141    92
37.2241    84
37.2341    94
37.2441    87
37.2541    74
37.2641    90
37.2741    97
37.2841    93
37.2941    75
37.3041    78
37.3141    82
37.3241    83
37.3341    94
37.3441    89
37.3541    80
37.3641    79
37.3741    87
37.3841    83
37.3941    94
37.4041   103
37.4141    92
37.4241    82
37.4341    81
37.4441    74
37.4541    80
37.4641    72
37.4741    74
37.4841    84
37.4941    87
37.5041    85
37.5141    79
37.5241    89
37.5341    81
37.5441    89
37.5541    77
37.5641    87
37.5741    84
37.5841    79
37.5941    93
37.6041    75
37.6141    90
37.6241    77
37.6341    69
37.6441   100
37.6541    95
37.6641   101
37.6741    90
37.6841    75
37.6941    86
37.7041    78
37.7141    65
37.7241    69
37.7341    81
37.7441    69
37.7541    82
37.7641    72
37.7741    70
37.7841    85
37.7941    72
37.8041    80
37.8141    85
37.8241    82
37.8341    75
37.8441    78
37.8541    75
37.8641    80
37.8741    69
37.8841    70
37.8941    82
37.9041    62
37.9141    76
37.9241    69
37.9341    83
37.9441    77
37.9541    72
37.9641    79
37.9741    69
37.9841    80
37.9941    64
38.0041    75
38.0141    69
38.0241    62
38.0341    74
38.0441    65
38.0541    73
38.0641    78
38.0741    70
38.0841    76
38.0941    68
38.1041    61
38.1141    72
38.1241    65
38.1341    58
38.1441    70
38.1541    82
38.1641    63
38.1741    75
38.1841    65
38.1941    74
38.2041    71
38.2141    81
38.2241    72
38.2341    79
38.2441    72
38.2541    70
38.2641    85
38.2741    68
38.2841    51
38.2941    64
38.3041    62
38.3141    68
38.3241    69
38.3341    64
38.3441    66
38.3541    65
38.3641    67
38.3741    56
38.3841    61
38.3941    67
38.4041    63
38.4141    73
38.4241    70
38.4341    69
38.4441    63
38.4541    57
38.4641    70
38.4741    56
38.4841    70
38.4941    63
38.5041    66
38.5141    81
38.5241    77
38.5341    75
38.5441    67
38.5541    51
38.5641    55
38.5741    68
38.5841    70
38.5941    63
38.6041    61
38.6141    67
38.6241    69
38.6341    55
38.6441    47
38.6541    42
38.6641    57
38.6741    62
38.6841    59
38.6941    59
38.7041    70
38.7141    59
38.7241    55
38.7341    66
38.7441    65
38.7541    60
38.7641    59
38.7741    57
38.7841    59
38.7941    65
38.8041    58
38.8141    59
38.8241    52
38.8341    61
38.8441    55
38.8541    54
38.8641    59
38.8741    48
38.8841    59
38.8941    67
38.9041    53
38.9141    55
38.9241    55
38.9341    56
38.9441    33
38.9541    55
38.9641    57
38.9741    57
38.9841    48
38.9941    64
39.0041    44
39.0141    51
39.0241    46
39.0341    50
39.0441    46
39.0541    42
39.0641    43
39.0741    62
39.0841    56
39.0941    59
39.1041    75
39.1141    56
39.1241    59
39.1341    57
39.1441    52
39.1541    45
39.1641    55
39.1741    51
39.1841    58
39.1941    35
39.2041    51
39.2141    49
39.2241    41
39.2341    55
39.2441    48
39.2541    47
39.2641    49
39.2741    49
39.2841    47
39.2941    54
39.3041    46
39.3141    55
39.3241    38
39.3341    50
39.3441    51
39.3541    58
39.3641    62
39.3741    53
39.3841    36
39.3941    45
39.4041    40
39.4141    49
39.4241    45
39.4341    41
39.4441    47
39.4541    44
39.4641    42
39.4741    48
39.4841    44
39.4941    45
39.5041    45
39.5141    41
39.5241    53
39.5341    46
39.5441    50
39.5541    61
39.5641    52
39.5741    46
39.5841    40
39.5941    47
39.6041    47
39.6141    48
39.6241    43
39.6341    58
39.6441    40
39.6541    50
39.6641    46
39.6741    42
39.6841    49
39.6941    33
39.7041    38
39.7141    50
39.7241    43
39.7341    43
39.7441    35
39.7541    41
39.7641    35
39.7741    33
39.7841    36
39.7941    47
39.8041    46
39.8141    40
39.8241    30
39.8341    52
39.8441    45
39.8541    36
39.8641    36
39.8741    39
39.8841    35
39.8941    34
39.9041    35
39.9141    34
39.9241    41
39.9341    47
39.9441    44
39.9541    38
39.9641    48
39.9741    39
39.9841    50
