Bruker Nano GmbH Berlin, Germany
Esprit 1.9

Date: 4/1/2021 4:04:16 PM
Real time: 25978
Life time: 24574
Pulse density: 79044


Detector type: XFlash 430
Window type: Custom type
Detector thickness: 0.45
Si dead layer:0.029

Calibration, lin.: 10
Calibration, abs.: -955.9
Mn FWHM: 137.05
Fano factor: 0.121
Channels: 4095

Energy Counts
-0.9559     0
-0.9459     0
-0.9359     0
-0.9259     0
-0.9159     0
-0.9059     0
-0.8959     0
-0.8859     0
-0.8759     0
-0.8659     0
-0.8559     0
-0.8459     0
-0.8359     0
-0.8259     0
-0.8159     0
-0.8059     0
-0.7959     0
-0.7859     0
-0.7759     0
-0.7659     0
-0.7559     0
-0.7459     0
-0.7359     0
-0.7259     0
-0.7159     0
-0.7059     0
-0.6959     0
-0.6859     0
-0.6759     0
-0.6659     0
-0.6559     0
-0.6459     0
-0.6359     0
-0.6259     0
-0.6159     0
-0.6059     0
-0.5959     0
-0.5859     0
-0.5759     0
-0.5659     0
-0.5559     0
-0.5459     0
-0.5359     0
-0.5259     0
-0.5159     0
-0.5059     0
-0.4959     0
-0.4859     0
-0.4759     0
-0.4659     0
-0.4559     0
-0.4459     0
-0.4359     0
-0.4259     0
-0.4159     0
-0.4059     0
-0.3959     0
-0.3859     0
-0.3759     0
-0.3659     0
-0.3559     0
-0.3459     0
-0.3359     0
-0.3259     0
-0.3159     0
-0.3059     0
-0.2959     0
-0.2859     0
-0.2759     0
-0.2659     0
-0.2559     0
-0.2459     0
-0.2359     0
-0.2259     0
-0.2159     0
-0.2059     0
-0.1959     0
-0.1859     0
-0.1759     0
-0.1659     0
-0.1559     0
-0.1459     0
-0.1359     1
-0.1259     1
-0.1159     2
-0.1059    25
-0.0959    62
-0.0859   297
-0.0759   927
-0.0659  2843
-0.0559  7105
-0.0459 15300
-0.0359 29107
-0.0259 46870
-0.0159 63987
-0.0059 75475
 0.0041 75887
 0.0141 65558
 0.0241 48206
 0.0341 30267
 0.0441 16530
 0.0541  7742
 0.0641  3033
 0.0741  1058
 0.0841   297
 0.0941    84
 0.1041    20
 0.1141     7
 0.1241    11
 0.1341     9
 0.1441     9
 0.1541     6
 0.1641    10
 0.1741     0
 0.1841   198
 0.1941   376
 0.2041   300
 0.2141   329
 0.2241   326
 0.2341   317
 0.2441   356
 0.2541   360
 0.2641   355
 0.2741   356
 0.2841   360
 0.2941   349
 0.3041   365
 0.3141   334
 0.3241   345
 0.3341   326
 0.3441   330
 0.3541   331
 0.3641   295
 0.3741   324
 0.3841   316
 0.3941   317
 0.4041   326
 0.4141   343
 0.4241   325
 0.4341   305
 0.4441   307
 0.4541   314
 0.4641   302
 0.4741   284
 0.4841   284
 0.4941   289
 0.5041   295
 0.5141   284
 0.5241   302
 0.5341   317
 0.5441   312
 0.5541   298
 0.5641   283
 0.5741   278
 0.5841   278
 0.5941   283
 0.6041   286
 0.6141   267
 0.6241   267
 0.6341   282
 0.6441   283
 0.6541   271
 0.6641   268
 0.6741   267
 0.6841   254
 0.6941   265
 0.7041   271
 0.7141   253
 0.7241   247
 0.7341   263
 0.7441   255
 0.7541   245
 0.7641   254
 0.7741   259
 0.7841   258
 0.7941   269
 0.8041   271
 0.8141   273
 0.8241   254
 0.8341   260
 0.8441   260
 0.8541   251
 0.8641   233
 0.8741   231
 0.8841   247
 0.8941   251
 0.9041   251
 0.9141   242
 0.9241   226
 0.9341   243
 0.9441   226
 0.9541   227
 0.9641   225
 0.9741   216
 0.9841   233
 0.9941   232
 1.0041   243
 1.0141   247
 1.0241   257
 1.0341   238
 1.0441   214
 1.0541   214
 1.0641   228
 1.0741   225
 1.0841   232
 1.0941   221
 1.1041   213
 1.1141   213
 1.1241   222
 1.1341   215
 1.1441   204
 1.1541   220
 1.1641   220
 1.1741   210
 1.1841   246
 1.1941   220
 1.2041   215
 1.2141   211
 1.2241   183
 1.2341   231
 1.2441   194
 1.2541   217
 1.2641   191
 1.2741   217
 1.2841   209
 1.2941   202
 1.3041   227
 1.3141   234
 1.3241   205
 1.3341   229
 1.3441   208
 1.3541   206
 1.3641   204
 1.3741   202
 1.3841   224
 1.3941   212
 1.4041   201
 1.4141   194
 1.4241   228
 1.4341   186
 1.4441   208
 1.4541   209
 1.4641   202
 1.4741   193
 1.4841   198
 1.4941   212
 1.5041   213
 1.5141   213
 1.5241   200
 1.5341   206
 1.5441   186
 1.5541   202
 1.5641   220
 1.5741   191
 1.5841   190
 1.5941   197
 1.6041   171
 1.6141   204
 1.6241   205
 1.6341   194
 1.6441   256
 1.6541   272
 1.6641   305
 1.6741   360
 1.6841   452
 1.6941   532
 1.7041   624
 1.7141   820
 1.7241   926
 1.7341   864
 1.7441   916
 1.7541   879
 1.7641   777
 1.7741   645
 1.7841   558
 1.7941   464
 1.8041   429
 1.8141   304
 1.8241   314
 1.8341   253
 1.8441   271
 1.8541   243
 1.8641   217
 1.8741   237
 1.8841   225
 1.8941   223
 1.9041   228
 1.9141   224
 1.9241   199
 1.9341   210
 1.9441   235
 1.9541   266
 1.9641   265
 1.9741   247
 1.9841   239
 1.9941   241
 2.0041   289
 2.0141   264
 2.0241   264
 2.0341   249
 2.0441   247
 2.0541   242
 2.0641   204
 2.0741   215
 2.0841   222
 2.0941   194
 2.1041   180
 2.1141   182
 2.1241   212
 2.1341   194
 2.1441   211
 2.1541   184
 2.1641   196
 2.1741   211
 2.1841   188
 2.1941   202
 2.2041   184
 2.2141   186
 2.2241   157
 2.2341   163
 2.2441   179
 2.2541   179
 2.2641   196
 2.2741   172
 2.2841   201
 2.2941   194
 2.3041   184
 2.3141   202
 2.3241   175
 2.3341   174
 2.3441   179
 2.3541   175
 2.3641   175
 2.3741   193
 2.3841   169
 2.3941   176
 2.4041   161
 2.4141   170
 2.4241   158
 2.4341   187
 2.4441   161
 2.4541   172
 2.4641   176
 2.4741   151
 2.4841   151
 2.4941   161
 2.5041   153
 2.5141   160
 2.5241   166
 2.5341   154
 2.5441   147
 2.5541   151
 2.5641   156
 2.5741   166
 2.5841   159
 2.5941   163
 2.6041   175
 2.6141   167
 2.6241   186
 2.6341   179
 2.6441   165
 2.6541   170
 2.6641   147
 2.6741   162
 2.6841   163
 2.6941   160
 2.7041   152
 2.7141   154
 2.7241   165
 2.7341   167
 2.7441   146
 2.7541   159
 2.7641   160
 2.7741   155
 2.7841   151
 2.7941   160
 2.8041   161
 2.8141   156
 2.8241   161
 2.8341   173
 2.8441   155
 2.8541   141
 2.8641   174
 2.8741   162
 2.8841   130
 2.8941   164
 2.9041   177
 2.9141   149
 2.9241   175
 2.9341   153
 2.9441   173
 2.9541   153
 2.9641   139
 2.9741   127
 2.9841   131
 2.9941   158
 3.0041   149
 3.0141   141
 3.0241   126
 3.0341   134
 3.0441   143
 3.0541   150
 3.0641   133
 3.0741   148
 3.0841   126
 3.0941   148
 3.1041   157
 3.1141   157
 3.1241   119
 3.1341   138
 3.1441   136
 3.1541   141
 3.1641   130
 3.1741   138
 3.1841   138
 3.1941   131
 3.2041   162
 3.2141   158
 3.2241   174
 3.2341   184
 3.2441   189
 3.2541   214
 3.2641   226
 3.2741   252
 3.2841   295
 3.2941   288
 3.3041   309
 3.3141   298
 3.3241   348
 3.3341   282
 3.3441   281
 3.3541   273
 3.3641   242
 3.3741   191
 3.3841   195
 3.3941   170
 3.4041   159
 3.4141   142
 3.4241   145
 3.4341   143
 3.4441   120
 3.4541   126
 3.4641   145
 3.4741   141
 3.4841   160
 3.4941   193
 3.5041   200
 3.5141   205
 3.5241   249
 3.5341   289
 3.5441   342
 3.5541   504
 3.5641   643
 3.5741   895
 3.5841  1241
 3.5941  1880
 3.6041  2543
 3.6141  3479
 3.6241  4577
 3.6341  6018
 3.6441  7332
 3.6541  8628
 3.6641  9902
 3.6741 10811
 3.6841 11281
 3.6941 11173
 3.7041 10755
 3.7141  9986
 3.7241  8619
 3.7341  7548
 3.7441  5953
 3.7541  4666
 3.7641  3428
 3.7741  2575
 3.7841  1744
 3.7941  1243
 3.8041   822
 3.8141   506
 3.8241   372
 3.8341   260
 3.8441   216
 3.8541   215
 3.8641   239
 3.8741   219
 3.8841   258
 3.8941   309
 3.9041   423
 3.9141   530
 3.9241   655
 3.9341   804
 3.9441  1016
 3.9541  1246
 3.9641  1497
 3.9741  1790
 3.9841  1980
 3.9941  2148
 4.0041  2227
 4.0141  2215
 4.0241  2157
 4.0341  2150
 4.0441  1857
 4.0541  1632
 4.0641  1386
 4.0741  1120
 4.0841   886
 4.0941   665
 4.1041   500
 4.1141   427
 4.1241   314
 4.1341   245
 4.1441   174
 4.1541   133
 4.1641   122
 4.1741    99
 4.1841   107
 4.1941    93
 4.2041   108
 4.2141    85
 4.2241   105
 4.2341   112
 4.2441    86
 4.2541    91
 4.2641   105
 4.2741    86
 4.2841    86
 4.2941    93
 4.3041    83
 4.3141    89
 4.3241    96
 4.3341    94
 4.3441    97
 4.3541    96
 4.3641   108
 4.3741   110
 4.3841   130
 4.3941   130
 4.4041   129
 4.4141   137
 4.4241   174
 4.4341   205
 4.4441   196
 4.4541   242
 4.4641   276
 4.4741   328
 4.4841   352
 4.4941   370
 4.5041   367
 4.5141   352
 4.5241   360
 4.5341   312
 4.5441   288
 4.5541   260
 4.5641   252
 4.5741   238
 4.5841   196
 4.5941   159
 4.6041   164
 4.6141   144
 4.6241   121
 4.6341   110
 4.6441    89
 4.6541   110
 4.6641   103
 4.6741   122
 4.6841    87
 4.6941   105
 4.7041   106
 4.7141    71
 4.7241    94
 4.7341    88
 4.7441    87
 4.7541    89
 4.7641    90
 4.7741    99
 4.7841   104
 4.7941   116
 4.8041    99
 4.8141    99
 4.8241   129
 4.8341   118
 4.8441   113
 4.8541   134
 4.8641   123
 4.8741   134
 4.8841   140
 4.8941   138
 4.9041   146
 4.9141   161
 4.9241   154
 4.9341   158
 4.9441   154
 4.9541   150
 4.9641   138
 4.9741   143
 4.9841   135
 4.9941   118
 5.0041   123
 5.0141   114
 5.0241   119
 5.0341   130
 5.0441   133
 5.0541   117
 5.0641   113
 5.0741   106
 5.0841   115
 5.0941   116
 5.1041   100
 5.1141    92
 5.1241   104
 5.1341    87
 5.1441    87
 5.1541    98
 5.1641   113
 5.1741   102
 5.1841    88
 5.1941   119
 5.2041    99
 5.2141    98
 5.2241   122
 5.2341   117
 5.2441   104
 5.2541    99
 5.2641   101
 5.2741   121
 5.2841   110
 5.2941   109
 5.3041   138
 5.3141   112
 5.3241   123
 5.3341   106
 5.3441   125
 5.3541   115
 5.3641   137
 5.3741   139
 5.3841   148
 5.3941   161
 5.4041   161
 5.4141   156
 5.4241   128
 5.4341   149
 5.4441   138
 5.4541   121
 5.4641   148
 5.4741   134
 5.4841   136
 5.4941   118
 5.5041   122
 5.5141   132
 5.5241   115
 5.5341   101
 5.5441   111
 5.5541   115
 5.5641   108
 5.5741   123
 5.5841   114
 5.5941   105
 5.6041   102
 5.6141   123
 5.6241   112
 5.6341   128
 5.6441   106
 5.6541   126
 5.6641   127
 5.6741   127
 5.6841   130
 5.6941   113
 5.7041   125
 5.7141   128
 5.7241   113
 5.7341   124
 5.7441   138
 5.7541   120
 5.7641   144
 5.7741   150
 5.7841   200
 5.7941   247
 5.8041   240
 5.8141   272
 5.8241   327
 5.8341   351
 5.8441   400
 5.8541   428
 5.8641   474
 5.8741   508
 5.8841   473
 5.8941   515
 5.9041   577
 5.9141   480
 5.9241   446
 5.9341   472
 5.9441   401
 5.9541   376
 5.9641   343
 5.9741   277
 5.9841   256
 5.9941   195
 6.0041   199
 6.0141   164
 6.0241   161
 6.0341   169
 6.0441   157
 6.0541   167
 6.0641   152
 6.0741   149
 6.0841   148
 6.0941   129
 6.1041   160
 6.1141   145
 6.1241   164
 6.1341   156
 6.1441   191
 6.1541   161
 6.1641   181
 6.1741   213
 6.1841   189
 6.1941   208
 6.2041   257
 6.2141   327
 6.2241   390
 6.2341   548
 6.2441   714
 6.2541   962
 6.2641  1305
 6.2741  1754
 6.2841  2397
 6.2941  3111
 6.3041  4020
 6.3141  4936
 6.3241  6154
 6.3341  7340
 6.3441  8677
 6.3541  9969
 6.3641 11139
 6.3741 11851
 6.3841 12605
 6.3941 13071
 6.4041 12955
 6.4141 12337
 6.4241 11746
 6.4341 10980
 6.4441  9624
 6.4541  8391
 6.4641  7264
 6.4741  5899
 6.4841  4645
 6.4941  3729
 6.5041  2896
 6.5141  2203
 6.5241  1550
 6.5341  1181
 6.5441   839
 6.5541   568
 6.5641   463
 6.5741   303
 6.5841   309
 6.5941   226
 6.6041   201
 6.6141   206
 6.6241   183
 6.6341   179
 6.6441   185
 6.6541   152
 6.6641   180
 6.6741   174
 6.6841   189
 6.6941   158
 6.7041   178
 6.7141   180
 6.7241   182
 6.7341   204
 6.7441   183
 6.7541   174
 6.7641   175
 6.7741   219
 6.7841   171
 6.7941   184
 6.8041   209
 6.8141   216
 6.8241   213
 6.8341   220
 6.8441   183
 6.8541   246
 6.8641   243
 6.8741   271
 6.8841   315
 6.8941   332
 6.9041   393
 6.9141   444
 6.9241   509
 6.9341   592
 6.9441   729
 6.9541   828
 6.9641   985
 6.9741  1216
 6.9841  1373
 6.9941  1612
 7.0041  1781
 7.0141  1988
 7.0241  2154
 7.0341  2263
 7.0441  2267
 7.0541  2255
 7.0641  2211
 7.0741  2243
 7.0841  2030
 7.0941  1920
 7.1041  1695
 7.1141  1509
 7.1241  1350
 7.1341  1225
 7.1441   966
 7.1541   791
 7.1641   662
 7.1741   579
 7.1841   443
 7.1941   382
 7.2041   352
 7.2141   323
 7.2241   281
 7.2341   262
 7.2441   265
 7.2541   264
 7.2641   271
 7.2741   244
 7.2841   267
 7.2941   253
 7.3041   287
 7.3141   293
 7.3241   314
 7.3341   312
 7.3441   290
 7.3541   331
 7.3641   347
 7.3741   314
 7.3841   342
 7.3941   330
 7.4041   363
 7.4141   356
 7.4241   371
 7.4341   360
 7.4441   315
 7.4541   319
 7.4641   337
 7.4741   336
 7.4841   324
 7.4941   297
 7.5041   265
 7.5141   271
 7.5241   310
 7.5341   270
 7.5441   247
 7.5541   240
 7.5641   271
 7.5741   252
 7.5841   228
 7.5941   227
 7.6041   227
 7.6141   241
 7.6241   227
 7.6341   245
 7.6441   237
 7.6541   240
 7.6641   241
 7.6741   266
 7.6841   282
 7.6941   247
 7.7041   279
 7.7141   276
 7.7241   285
 7.7341   281
 7.7441   278
 7.7541   302
 7.7641   291
 7.7741   291
 7.7841   272
 7.7941   281
 7.8041   281
 7.8141   324
 7.8241   295
 7.8341   343
 7.8441   329
 7.8541   340
 7.8641   351
 7.8741   370
 7.8841   385
 7.8941   387
 7.9041   389
 7.9141   415
 7.9241   449
 7.9341   460
 7.9441   519
 7.9541   517
 7.9641   543
 7.9741   612
 7.9841   623
 7.9941   665
 8.0041   725
 8.0141   768
 8.0241   805
 8.0341   900
 8.0441   926
 8.0541  1001
 8.0641  1079
 8.0741  1197
 8.0841  1231
 8.0941  1255
 8.1041  1329
 8.1141  1341
 8.1241  1427
 8.1341  1500
 8.1441  1590
 8.1541  1593
 8.1641  1575
 8.1741  1663
 8.1841  1759
 8.1941  1684
 8.2041  1738
 8.2141  1751
 8.2241  1736
 8.2341  1852
 8.2441  1866
 8.2541  1916
 8.2641  2073
 8.2741  2073
 8.2841  2225
 8.2941  2351
 8.3041  2579
 8.3141  2686
 8.3241  2925
 8.3341  3109
 8.3441  3308
 8.3541  3466
 8.3641  3560
 8.3741  3669
 8.3841  3687
 8.3941  3690
 8.4041  3635
 8.4141  3424
 8.4241  3268
 8.4341  3075
 8.4441  2787
 8.4541  2538
 8.4641  2237
 8.4741  1947
 8.4841  1648
 8.4941  1420
 8.5041  1151
 8.5141  1010
 8.5241   882
 8.5341   724
 8.5441   672
 8.5541   552
 8.5641   557
 8.5741   506
 8.5841   495
 8.5941   480
 8.6041   476
 8.6141   481
 8.6241   445
 8.6341   448
 8.6441   471
 8.6541   449
 8.6641   455
 8.6741   460
 8.6841   444
 8.6941   440
 8.7041   471
 8.7141   454
 8.7241   435
 8.7341   429
 8.7441   425
 8.7541   427
 8.7641   383
 8.7741   386
 8.7841   385
 8.7941   368
 8.8041   351
 8.8141   360
 8.8241   396
 8.8341   373
 8.8441   418
 8.8541   389
 8.8641   392
 8.8741   395
 8.8841   379
 8.8941   413
 8.9041   384
 8.9141   432
 8.9241   404
 8.9341   422
 8.9441   413
 8.9541   432
 8.9641   408
 8.9741   411
 8.9841   445
 8.9941   443
 9.0041   433
 9.0141   471
 9.0241   505
 9.0341   472
 9.0441   464
 9.0541   495
 9.0641   514
 9.0741   531
 9.0841   561
 9.0941   568
 9.1041   589
 9.1141   587
 9.1241   621
 9.1341   636
 9.1441   643
 9.1541   722
 9.1641   732
 9.1741   774
 9.1841   780
 9.1941   789
 9.2041   855
 9.2141   954
 9.2241   950
 9.2341   950
 9.2441  1043
 9.2541  1085
 9.2641  1074
 9.2741  1193
 9.2841  1232
 9.2941  1245
 9.3041  1268
 9.3141  1327
 9.3241  1416
 9.3341  1465
 9.3441  1574
 9.3541  1561
 9.3641  1575
 9.3741  1599
 9.3841  1670
 9.3941  1680
 9.4041  1694
 9.4141  1711
 9.4241  1733
 9.4341  1689
 9.4441  1724
 9.4541  1787
 9.4641  1799
 9.4741  1874
 9.4841  1851
 9.4941  1911
 9.5041  1888
 9.5141  1964
 9.5241  2038
 9.5341  2064
 9.5441  2164
 9.5541  2208
 9.5641  2491
 9.5741  2607
 9.5841  2728
 9.5941  2936
 9.6041  3093
 9.6141  3131
 9.6241  3315
 9.6341  3512
 9.6441  3497
 9.6541  3558
 9.6641  3605
 9.6741  3608
 9.6841  3584
 9.6941  3428
 9.7041  3312
 9.7141  3183
 9.7241  2924
 9.7341  2808
 9.7441  2648
 9.7541  2446
 9.7641  2275
 9.7741  2071
 9.7841  1948
 9.7941  1756
 9.8041  1666
 9.8141  1655
 9.8241  1567
 9.8341  1483
 9.8441  1439
 9.8541  1512
 9.8641  1441
 9.8741  1530
 9.8841  1546
 9.8941  1531
 9.9041  1546
 9.9141  1609
 9.9241  1695
 9.9341  1665
 9.9441  1734
 9.9541  1689
 9.9641  1626
 9.9741  1610
 9.9841  1503
 9.9941  1468
10.0041  1401
10.0141  1317
10.0241  1207
10.0341  1059
10.0441   963
10.0541   863
10.0641   777
10.0741   697
10.0841   629
10.0941   563
10.1041   504
10.1141   472
10.1241   444
10.1341   398
10.1441   359
10.1541   348
10.1641   348
10.1741   339
10.1841   320
10.1941   313
10.2041   291
10.2141   295
10.2241   277
10.2341   272
10.2441   256
10.2541   243
10.2641   239
10.2741   234
10.2841   230
10.2941   231
10.3041   228
10.3141   221
10.3241   217
10.3341   212
10.3441   205
10.3541   205
10.3641   208
10.3741   206
10.3841   201
10.3941   207
10.4041   212
10.4141   203
10.4241   203
10.4341   202
10.4441   215
10.4541   219
10.4641   207
10.4741   207
10.4841   218
10.4941   205
10.5041   218
10.5141   222
10.5241   223
10.5341   211
10.5441   212
10.5541   213
10.5641   219
10.5741   251
10.5841   235
10.5941   236
10.6041   233
10.6141   222
10.6241   242
10.6341   250
10.6441   269
10.6541   263
10.6641   255
10.6741   251
10.6841   269
10.6941   255
10.7041   253
10.7141   280
10.7241   261
10.7341   264
10.7441   271
10.7541   303
10.7641   320
10.7741   322
10.7841   311
10.7941   314
10.8041   320
10.8141   319
10.8241   322
10.8341   321
10.8441   328
10.8541   346
10.8641   349
10.8741   355
10.8841   354
10.8941   344
10.9041   369
10.9141   369
10.9241   362
10.9341   350
10.9441   369
10.9541   354
10.9641   357
10.9741   373
10.9841   362
10.9941   353
11.0041   339
11.0141   312
11.0241   329
11.0341   354
11.0441   320
11.0541   328
11.0641   333
11.0741   318
11.0841   302
11.0941   296
11.1041   307
11.1141   324
11.1241   324
11.1341   322
11.1441   351
11.1541   374
11.1641   369
11.1741   383
11.1841   372
11.1941   425
11.2041   446
11.2141   466
11.2241   475
11.2341   468
11.2441   472
11.2541   482
11.2641   518
11.2741   537
11.2841   503
11.2941   518
11.3041   544
11.3141   515
11.3241   522
11.3341   484
11.3441   461
11.3541   431
11.3641   411
11.3741   412
11.3841   372
11.3941   346
11.4041   318
11.4141   317
11.4241   289
11.4341   267
11.4441   294
11.4541   275
11.4641   247
11.4741   229
11.4841   236
11.4941   249
11.5041   267
11.5141   262
11.5241   245
11.5341   263
11.5441   261
11.5541   255
11.5641   270
11.5741   281
11.5841   285
11.5941   300
11.6041   300
11.6141   286
11.6241   285
11.6341   300
11.6441   288
11.6541   277
11.6641   286
11.6741   275
11.6841   259
11.6941   248
11.7041   249
11.7141   261
11.7241   248
11.7341   235
11.7441   229
11.7541   228
11.7641   216
11.7741   217
11.7841   203
11.7941   223
11.8041   220
11.8141   225
11.8241   217
11.8341   214
11.8441   219
11.8541   217
11.8641   229
11.8741   222
11.8841   214
11.8941   211
11.9041   208
11.9141   204
11.9241   216
11.9341   227
11.9441   215
11.9541   204
11.9641   179
11.9741   215
11.9841   230
11.9941   211
12.0041   201
12.0141   204
12.0241   205
12.0341   216
12.0441   209
12.0541   195
12.0641   214
12.0741   212
12.0841   210
12.0941   217
12.1041   212
12.1141   202
12.1241   182
12.1341   193
12.1441   213
12.1541   200
12.1641   185
12.1741   190
12.1841   183
12.1941   195
12.2041   186
12.2141   186
12.2241   179
12.2341   182
12.2441   175
12.2541   183
12.2641   183
12.2741   179
12.2841   173
12.2941   188
12.3041   187
12.3141   180
12.3241   183
12.3341   188
12.3441   177
12.3541   179
12.3641   192
12.3741   185
12.3841   184
12.3941   189
12.4041   188
12.4141   179
12.4241   183
12.4341   186
12.4441   174
12.4541   183
12.4641   203
12.4741   202
12.4841   198
12.4941   181
12.5041   184
12.5141   190
12.5241   190
12.5341   195
12.5441   203
12.5541   217
12.5641   216
12.5741   206
12.5841   210
12.5941   210
12.6041   201
12.6141   203
12.6241   208
12.6341   196
12.6441   186
12.6541   186
12.6641   198
12.6741   221
12.6841   218
12.6941   206
12.7041   207
12.7141   211
12.7241   201
12.7341   209
12.7441   203
12.7541   199
12.7641   206
12.7741   197
12.7841   190
12.7941   199
12.8041   204
12.8141   199
12.8241   201
12.8341   214
12.8441   228
12.8541   220
12.8641   219
12.8741   203
12.8841   195
12.8941   204
12.9041   216
12.9141   211
12.9241   211
12.9341   199
12.9441   208
12.9541   224
12.9641   206
12.9741   208
12.9841   214
12.9941   218
13.0041   222
13.0141   217
13.0241   222
13.0341   226
13.0441   226
13.0541   221
13.0641   219
13.0741   210
13.0841   206
13.0941   208
13.1041   207
13.1141   227
13.1241   224
13.1341   219
13.1441   226
13.1541   232
13.1641   234
13.1741   229
13.1841   227
13.1941   238
13.2041   227
13.2141   221
13.2241   240
13.2341   244
13.2441   250
13.2541   250
13.2641   253
13.2741   260
13.2841   269
13.2941   285
13.3041   288
13.3141   295
13.3241   309
13.3341   294
13.3441   278
13.3541   301
13.3641   295
13.3741   294
13.3841   321
13.3941   309
13.4041   292
13.4141   305
13.4241   315
13.4341   301
13.4441   293
13.4541   300
13.4641   289
13.4741   273
13.4841   263
13.4941   241
13.5041   235
13.5141   252
13.5241   244
13.5341   233
13.5441   248
13.5541   250
13.5641   253
13.5741   247
13.5841   254
13.5941   263
13.6041   231
13.6141   225
13.6241   242
13.6341   245
13.6441   251
13.6541   239
13.6641   236
13.6741   244
13.6841   246
13.6941   248
13.7041   238
13.7141   228
13.7241   229
13.7341   245
13.7441   255
13.7541   238
13.7641   254
13.7741   257
13.7841   248
13.7941   258
13.8041   246
13.8141   243
13.8241   256
13.8341   256
13.8441   249
13.8541   244
13.8641   248
13.8741   261
13.8841   267
13.8941   264
13.9041   253
13.9141   261
13.9241   283
13.9341   294
13.9441   280
13.9541   300
13.9641   320
13.9741   312
13.9841   343
13.9941   362
14.0041   374
14.0141   415
14.0241   440
14.0341   436
14.0441   471
14.0541   507
14.0641   529
14.0741   544
14.0841   573
14.0941   604
14.1041   634
14.1141   647
14.1241   652
14.1341   686
14.1441   663
14.1541   622
14.1641   630
14.1741   635
14.1841   623
14.1941   616
14.2041   575
14.2141   572
14.2241   537
14.2341   484
14.2441   467
14.2541   430
14.2641   423
14.2741   411
14.2841   374
14.2941   348
14.3041   349
14.3141   352
14.3241   323
14.3341   302
14.3441   300
14.3541   281
14.3641   276
14.3741   300
14.3841   302
14.3941   281
14.4041   289
14.4141   284
14.4241   265
14.4341   282
14.4441   294
14.4541   301
14.4641   300
14.4741   293
14.4841   281
14.4941   291
14.5041   300
14.5141   286
14.5241   263
14.5341   254
14.5441   276
14.5541   301
14.5641   278
14.5741   262
14.5841   285
14.5941   304
14.6041   281
14.6141   261
14.6241   256
14.6341   263
14.6441   282
14.6541   306
14.6641   307
14.6741   278
14.6841   267
14.6941   289
14.7041   303
14.7141   297
14.7241   278
14.7341   274
14.7441   287
14.7541   287
14.7641   286
14.7741   286
14.7841   297
14.7941   292
14.8041   282
14.8141   287
14.8241   286
14.8341   303
14.8441   307
14.8541   320
14.8641   319
14.8741   317
14.8841   325
14.8941   294
14.9041   307
14.9141   335
14.9241   348
14.9341   337
14.9441   322
14.9541   317
14.9641   339
14.9741   356
14.9841   338
14.9941   338
15.0041   329
15.0141   310
15.0241   325
15.0341   338
15.0441   325
15.0541   315
15.0641   305
15.0741   294
15.0841   319
15.0941   329
15.1041   322
15.1141   326
15.1241   329
15.1341   311
15.1441   301
15.1541   286
15.1641   292
15.1741   297
15.1841   288
15.1941   313
15.2041   318
15.2141   324
15.2241   300
15.2341   293
15.2441   323
15.2541   324
15.2641   312
15.2741   324
15.2841   349
15.2941   328
15.3041   326
15.3141   339
15.3241   343
15.3341   333
15.3441   312
15.3541   318
15.3641   318
15.3741   317
15.3841   315
15.3941   312
15.4041   324
15.4141   316
15.4241   309
15.4341   328
15.4441   337
15.4541   341
15.4641   335
15.4741   334
15.4841   325
15.4941   325
15.5041   321
15.5141   331
15.5241   338
15.5341   337
15.5441   338
15.5541   355
15.5641   365
15.5741   369
15.5841   381
15.5941   406
15.6041   406
15.6141   419
15.6241   424
15.6341   432
15.6441   453
15.6541   484
15.6641   487
15.6741   464
15.6841   450
15.6941   499
15.7041   530
15.7141   543
15.7241   519
15.7341   517
15.7441   564
15.7541   605
15.7641   584
15.7741   587
15.7841   594
15.7941   607
15.8041   576
15.8141   546
15.8241   559
15.8341   529
15.8441   533
15.8541   530
15.8641   518
15.8741   499
15.8841   476
15.8941   469
15.9041   457
15.9141   453
15.9241   454
15.9341   415
15.9441   389
15.9541   387
15.9641   385
15.9741   375
15.9841   398
15.9941   382
16.0041   362
16.0141   386
16.0241   386
16.0341   376
16.0441   355
16.0541   360
16.0641   375
16.0741   363
16.0841   375
16.0941   394
16.1041   386
16.1141   372
16.1241   377
16.1341   380
16.1441   351
16.1541   353
16.1641   359
16.1741   370
16.1841   374
16.1941   361
16.2041   352
16.2141   396
16.2241   382
16.2341   369
16.2441   351
16.2541   368
16.2641   363
16.2741   356
16.2841   361
16.2941   375
16.3041   376
16.3141   343
16.3241   353
16.3341   396
16.3441   380
16.3541   364
16.3641   368
16.3741   372
16.3841   376
16.3941   374
16.4041   394
16.4141   404
16.4241   394
16.4341   379
16.4441   376
16.4541   368
16.4641   363
16.4741   377
16.4841   403
16.4941   356
16.5041   378
16.5141   392
16.5241   388
16.5341   353
16.5441   371
16.5541   414
16.5641   426
16.5741   423
16.5841   389
16.5941   375
16.6041   367
16.6141   391
16.6241   392
16.6341   404
16.6441   435
16.6541   417
16.6641   412
16.6741   385
16.6841   386
16.6941   402
16.7041   394
16.7141   377
16.7241   374
16.7341   382
16.7441   380
16.7541   402
16.7641   408
16.7741   402
16.7841   419
16.7941   407
16.8041   405
16.8141   400
16.8241   394
16.8341   404
16.8441   415
16.8541   407
16.8641   398
16.8741   411
16.8841   390
16.8941   408
16.9041   412
16.9141   400
16.9241   404
16.9341   411
16.9441   390
16.9541   386
16.9641   397
16.9741   411
16.9841   420
16.9941   422
17.0041   405
17.0141   433
17.0241   431
17.0341   424
17.0441   426
17.0541   408
17.0641   399
17.0741   418
17.0841   413
17.0941   447
17.1041   419
17.1141   415
17.1241   407
17.1341   404
17.1441   432
17.1541   428
17.1641   420
17.1741   424
17.1841   424
17.1941   424
17.2041   421
17.2141   457
17.2241   463
17.2341   446
17.2441   437
17.2541   425
17.2641   440
17.2741   450
17.2841   448
17.2941   411
17.3041   414
17.3141   427
17.3241   441
17.3341   413
17.3441   430
17.3541   442
17.3641   466
17.3741   455
17.3841   470
17.3941   433
17.4041   441
17.4141   452
17.4241   450
17.4341   453
17.4441   470
17.4541   468
17.4641   459
17.4741   462
17.4841   442
17.4941   445
17.5041   421
17.5141   427
17.5241   480
17.5341   480
17.5441   478
17.5541   480
17.5641   477
17.5741   481
17.5841   485
17.5941   467
17.6041   481
17.6141   461
17.6241   477
17.6341   488
17.6441   495
17.6541   485
17.6641   466
17.6741   497
17.6841   478
17.6941   459
17.7041   469
17.7141   493
17.7241   474
17.7341   492
17.7441   488
17.7541   495
17.7641   467
17.7741   463
17.7841   481
17.7941   451
17.8041   463
17.8141   485
17.8241   484
17.8341   457
17.8441   468
17.8541   482
17.8641   505
17.8741   488
17.8841   512
17.8941   495
17.9041   465
17.9141   481
17.9241   489
17.9341   480
17.9441   474
17.9541   528
17.9641   487
17.9741   497
17.9841   487
17.9941   491
18.0041   475
18.0141   489
18.0241   479
18.0341   467
18.0441   492
18.0541   493
18.0641   490
18.0741   502
18.0841   499
18.0941   493
18.1041   482
18.1141   496
18.1241   489
18.1341   465
18.1441   507
18.1541   514
18.1641   487
18.1741   503
18.1841   516
18.1941   501
18.2041   486
18.2141   524
18.2241   485
18.2341   482
18.2441   505
18.2541   509
18.2641   495
18.2741   466
18.2841   493
18.2941   496
18.3041   478
18.3141   478
18.3241   491
18.3341   496
18.3441   496
18.3541   514
18.3641   498
18.3741   515
18.3841   496
18.3941   509
18.4041   471
18.4141   513
18.4241   534
18.4341   527
18.4441   490
18.4541   498
18.4641   530
18.4741   519
18.4841   499
18.4941   500
18.5041   485
18.5141   505
18.5241   519
18.5341   529
18.5441   496
18.5541   506
18.5641   530
18.5741   498
18.5841   507
18.5941   525
18.6041   505
18.6141   529
18.6241   511
18.6341   517
18.6441   532
18.6541   549
18.6641   519
18.6741   525
18.6841   552
18.6941   506
18.7041   549
18.7141   536
18.7241   513
18.7341   518
18.7441   505
18.7541   546
18.7641   579
18.7741   543
18.7841   549
18.7941   531
18.8041   516
18.8141   553
18.8241   553
18.8341   542
18.8441   540
18.8541   542
18.8641   570
18.8741   552
18.8841   523
18.8941   517
18.9041   544
18.9141   543
18.9241   526
18.9341   527
18.9441   523
18.9541   548
18.9641   515
18.9741   544
18.9841   549
18.9941   545
19.0041   515
19.0141   499
19.0241   525
19.0341   492
19.0441   511
19.0541   556
19.0641   581
19.0741   548
19.0841   534
19.0941   534
19.1041   538
19.1141   557
19.1241   588
19.1341   574
19.1441   547
19.1541   517
19.1641   485
19.1741   545
19.1841   517
19.1941   541
19.2041   546
19.2141   560
19.2241   580
19.2341   565
19.2441   542
19.2541   545
19.2641   558
19.2741   553
19.2841   521
19.2941   525
19.3041   542
19.3141   534
19.3241   550
19.3341   579
19.3441   566
19.3541   571
19.3641   571
19.3741   607
19.3841   578
19.3941   554
19.4041   550
19.4141   512
19.4241   544
19.4341   551
19.4441   582
19.4541   583
19.4641   568
19.4741   567
19.4841   587
19.4941   557
19.5041   553
19.5141   592
19.5241   564
19.5341   583
19.5441   578
19.5541   569
19.5641   569
19.5741   561
19.5841   506
19.5941   558
19.6041   569
19.6141   614
19.6241   590
19.6341   577
19.6441   582
19.6541   586
19.6641   569
19.6741   571
19.6841   598
19.6941   585
19.7041   590
19.7141   590
19.7241   612
19.7341   573
19.7441   557
19.7541   560
19.7641   566
19.7741   606
19.7841   587
19.7941   528
19.8041   578
19.8141   527
19.8241   537
19.8341   555
19.8441   572
19.8541   571
19.8641   577
19.8741   603
19.8841   593
19.8941   629
19.9041   568
19.9141   562
19.9241   591
19.9341   611
19.9441   568
19.9541   529
19.9641   575
19.9741   577
19.9841   592
19.9941   598
20.0041   563
20.0141   599
20.0241   628
20.0341   581
20.0441   591
20.0541   589
20.0641   575
20.0741   571
20.0841   591
20.0941   585
20.1041   564
20.1141   608
20.1241   568
20.1341   600
20.1441   600
20.1541   600
20.1641   582
20.1741   596
20.1841   589
20.1941   585
20.2041   592
20.2141   577
20.2241   594
20.2341   610
20.2441   591
20.2541   598
20.2641   603
20.2741   589
20.2841   592
20.2941   586
20.3041   590
20.3141   587
20.3241   600
20.3341   599
20.3441   589
20.3541   578
20.3641   593
20.3741   595
20.3841   607
20.3941   608
20.4041   591
20.4141   551
20.4241   578
20.4341   593
20.4441   614
20.4541   593
20.4641   617
20.4741   610
20.4841   606
20.4941   581
20.5041   563
20.5141   597
20.5241   613
20.5341   584
20.5441   600
20.5541   608
20.5641   610
20.5741   615
20.5841   600
20.5941   588
20.6041   572
20.6141   611
20.6241   585
20.6341   611
20.6441   590
20.6541   645
20.6641   580
20.6741   644
20.6841   648
20.6941   576
20.7041   630
20.7141   610
20.7241   603
20.7341   571
20.7441   628
20.7541   620
20.7641   590
20.7741   599
20.7841   613
20.7941   613
20.8041   620
20.8141   623
20.8241   639
20.8341   635
20.8441   655
20.8541   641
20.8641   664
20.8741   670
20.8841   680
20.8941   705
20.9041   718
20.9141   697
20.9241   761
20.9341   769
20.9441   808
20.9541   776
20.9641   801
20.9741   802
20.9841   807
20.9941   802
21.0041   870
21.0141   846
21.0241   847
21.0341   899
21.0441   900
21.0541   934
21.0641   918
21.0741   945
21.0841   863
21.0941   923
21.1041   959
21.1141   912
21.1241   956
21.1341   963
21.1441  1029
21.1541   939
21.1641   870
21.1741   907
21.1841   924
21.1941   916
21.2041   882
21.2141   909
21.2241   917
21.2341   844
21.2441   857
21.2541   824
21.2641   840
21.2741   817
21.2841   760
21.2941   753
21.3041   751
21.3141   709
21.3241   713
21.3341   706
21.3441   695
21.3541   681
21.3641   704
21.3741   654
21.3841   673
21.3941   660
21.4041   639
21.4141   626
21.4241   632
21.4341   639
21.4441   610
21.4541   632
21.4641   617
21.4741   608
21.4841   577
21.4941   635
21.5041   647
21.5141   629
21.5241   642
21.5341   662
21.5441   638
21.5541   634
21.5641   621
21.5741   638
21.5841   707
21.5941   623
21.6041   617
21.6141   604
21.6241   617
21.6341   627
21.6441   610
21.6541   636
21.6641   659
21.6741   697
21.6841   627
21.6941   624
21.7041   627
21.7141   610
21.7241   599
21.7341   661
21.7441   627
21.7541   635
21.7641   613
21.7741   666
21.7841   614
21.7941   615
21.8041   617
21.8141   626
21.8241   629
21.8341   620
21.8441   621
21.8541   624
21.8641   639
21.8741   600
21.8841   616
21.8941   664
21.9041   664
21.9141   622
21.9241   657
21.9341   649
21.9441   643
21.9541   623
21.9641   642
21.9741   657
21.9841   597
21.9941   608
22.0041   649
22.0141   622
22.0241   624
22.0341   642
22.0441   643
22.0541   587
22.0641   663
22.0741   634
22.0841   580
22.0941   617
22.1041   635
22.1141   699
22.1241   666
22.1341   665
22.1441   626
22.1541   627
22.1641   647
22.1741   635
22.1841   645
22.1941   603
22.2041   640
22.2141   629
22.2241   643
22.2341   635
22.2441   588
22.2541   631
22.2641   616
22.2741   592
22.2841   584
22.2941   594
22.3041   622
22.3141   633
22.3241   590
22.3341   614
22.3441   603
22.3541   625
22.3641   607
22.3741   624
22.3841   662
22.3941   621
22.4041   597
22.4141   633
22.4241   627
22.4341   639
22.4441   658
22.4541   632
22.4641   620
22.4741   604
22.4841   593
22.4941   621
22.5041   586
22.5141   653
22.5241   626
22.5341   639
22.5441   610
22.5541   627
22.5641   576
22.5741   617
22.5841   585
22.5941   599
22.6041   598
22.6141   638
22.6241   577
22.6341   626
22.6441   616
22.6541   581
22.6641   616
22.6741   606
22.6841   577
22.6941   617
22.7041   616
22.7141   594
22.7241   553
22.7341   667
22.7441   604
22.7541   629
22.7641   635
22.7741   597
22.7841   630
22.7941   658
22.8041   605
22.8141   647
22.8241   625
22.8341   660
22.8441   601
22.8541   604
22.8641   629
22.8741   653
22.8841   603
22.8941   598
22.9041   668
22.9141   598
22.9241   620
22.9341   637
22.9441   628
22.9541   631
22.9641   595
22.9741   644
22.9841   607
22.9941   677
23.0041   595
23.0141   650
23.0241   609
23.0341   621
23.0441   634
23.0541   641
23.0641   622
23.0741   600
23.0841   620
23.0941   600
23.1041   594
23.1141   632
23.1241   609
23.1341   583
23.1441   596
23.1541   625
23.1641   611
23.1741   622
23.1841   628
23.1941   615
23.2041   577
23.2141   648
23.2241   624
23.2341   654
23.2441   651
23.2541   614
23.2641   582
23.2741   628
23.2841   607
23.2941   596
23.3041   618
23.3141   596
23.3241   629
23.3341   604
23.3441   641
23.3541   591
23.3641   610
23.3741   580
23.3841   620
23.3941   602
23.4041   594
23.4141   554
23.4241   646
23.4341   625
23.4441   611
23.4541   640
23.4641   617
23.4741   599
23.4841   612
23.4941   608
23.5041   666
23.5141   625
23.5241   597
23.5341   610
23.5441   588
23.5541   613
23.5641   606
23.5741   602
23.5841   649
23.5941   609
23.6041   641
23.6141   621
23.6241   627
23.6341   644
23.6441   647
23.6541   654
23.6641   651
23.6741   635
23.6841   635
23.6941   597
23.7041   635
23.7141   640
23.7241   642
23.7341   666
23.7441   655
23.7541   666
23.7641   653
23.7741   664
23.7841   676
23.7941   651
23.8041   661
23.8141   643
23.8241   704
23.8341   641
23.8441   619
23.8541   643
23.8641   662
23.8741   643
23.8841   633
23.8941   614
23.9041   661
23.9141   612
23.9241   657
23.9341   665
23.9441   649
23.9541   622
23.9641   608
23.9741   609
23.9841   581
23.9941   610
24.0041   602
24.0141   592
24.0241   596
24.0341   591
24.0441   599
24.0541   614
24.0641   648
24.0741   622
24.0841   599
24.0941   619
24.1041   590
24.1141   574
24.1241   605
24.1341   633
24.1441   576
24.1541   583
24.1641   623
24.1741   571
24.1841   607
24.1941   613
24.2041   642
24.2141   607
24.2241   597
24.2341   576
24.2441   617
24.2541   583
24.2641   625
24.2741   610
24.2841   560
24.2941   602
24.3041   586
24.3141   627
24.3241   588
24.3341   579
24.3441   583
24.3541   616
24.3641   583
24.3741   594
24.3841   557
24.3941   545
24.4041   595
24.4141   603
24.4241   604
24.4341   568
24.4441   542
24.4541   619
24.4641   588
24.4741   585
24.4841   582
24.4941   614
24.5041   612
24.5141   593
24.5241   588
24.5341   563
24.5441   550
24.5541   603
24.5641   592
24.5741   561
24.5841   575
24.5941   631
24.6041   578
24.6141   609
24.6241   581
24.6341   596
24.6441   566
24.6541   587
24.6641   588
24.6741   590
24.6841   617
24.6941   575
24.7041   585
24.7141   596
24.7241   573
24.7341   553
24.7441   554
24.7541   585
24.7641   574
24.7741   553
24.7841   557
24.7941   596
24.8041   569
24.8141   590
24.8241   550
24.8341   522
24.8441   567
24.8541   577
24.8641   564
24.8741   614
24.8841   544
24.8941   557
24.9041   614
24.9141   567
24.9241   587
24.9341   555
24.9441   578
24.9541   516
24.9641   581
24.9741   545
24.9841   541
24.9941   596
25.0041   536
25.0141   561
25.0241   593
25.0341   519
25.0441   559
25.0541   581
25.0641   585
25.0741   581
25.0841   567
25.0941   614
25.1041   571
25.1141   554
25.1241   601
25.1341   595
25.1441   579
25.1541   600
25.1641   596
25.1741   546
25.1841   571
25.1941   536
25.2041   529
25.2141   588
25.2241   554
25.2341   565
25.2441   563
25.2541   592
25.2641   590
25.2741   577
25.2841   567
25.2941   596
25.3041   608
25.3141   581
25.3241   581
25.3341   574
25.3441   589
25.3541   584
25.3641   544
25.3741   529
25.3841   556
25.3941   534
25.4041   500
25.4141   531
25.4241   599
25.4341   552
25.4441   572
25.4541   575
25.4641   537
25.4741   551
25.4841   539
25.4941   524
25.5041   551
25.5141   544
25.5241   509
25.5341   549
25.5441   521
25.5541   524
25.5641   555
25.5741   555
25.5841   532
25.5941   547
25.6041   540
25.6141   569
25.6241   564
25.6341   545
25.6441   552
25.6541   534
25.6641   528
25.6741   536
25.6841   551
25.6941   515
25.7041   549
25.7141   553
25.7241   525
25.7341   559
25.7441   543
25.7541   581
25.7641   557
25.7741   520
25.7841   537
25.7941   556
25.8041   523
25.8141   523
25.8241   517
25.8341   533
25.8441   545
25.8541   556
25.8641   527
25.8741   513
25.8841   542
25.8941   528
25.9041   506
25.9141   535
25.9241   552
25.9341   516
25.9441   509
25.9541   564
25.9641   532
25.9741   508
25.9841   493
25.9941   528
26.0041   534
26.0141   532
26.0241   521
26.0341   488
26.0441   501
26.0541   523
26.0641   503
26.0741   514
26.0841   554
26.0941   505
26.1041   565
26.1141   516
26.1241   508
26.1341   530
26.1441   522
26.1541   526
26.1641   504
26.1741   525
26.1841   528
26.1941   543
26.2041   539
26.2141   528
26.2241   581
26.2341   540
26.2441   527
26.2541   544
26.2641   505
26.2741   470
26.2841   536
26.2941   524
26.3041   545
26.3141   546
26.3241   516
26.3341   512
26.3441   511
26.3541   499
26.3641   465
26.3741   512
26.3841   535
26.3941   479
26.4041   509
26.4141   534
26.4241   506
26.4341   556
26.4441   503
26.4541   513
26.4641   483
26.4741   501
26.4841   503
26.4941   505
26.5041   476
26.5141   493
26.5241   494
26.5341   491
26.5441   529
26.5541   528
26.5641   491
26.5741   476
26.5841   531
26.5941   494
26.6041   522
26.6141   506
26.6241   510
26.6341   481
26.6441   478
26.6541   505
26.6641   500
26.6741   487
26.6841   478
26.6941   459
26.7041   460
26.7141   510
26.7241   474
26.7341   512
26.7441   498
26.7541   461
26.7641   485
26.7741   533
26.7841   474
26.7941   514
26.8041   505
26.8141   493
26.8241   501
26.8341   501
26.8441   479
26.8541   485
26.8641   477
26.8741   470
26.8841   482
26.8941   511
26.9041   484
26.9141   460
26.9241   445
26.9341   480
26.9441   462
26.9541   499
26.9641   438
26.9741   489
26.9841   464
26.9941   450
27.0041   487
27.0141   499
27.0241   476
27.0341   456
27.0441   511
27.0541   487
27.0641   502
27.0741   450
27.0841   434
27.0941   468
27.1041   428
27.1141   483
27.1241   506
27.1341   467
27.1441   458
27.1541   485
27.1641   476
27.1741   454
27.1841   442
27.1941   433
27.2041   455
27.2141   477
27.2241   446
27.2341   468
27.2441   498
27.2541   478
27.2641   498
27.2741   465
27.2841   469
27.2941   494
27.3041   487
27.3141   430
27.3241   429
27.3341   474
27.3441   468
27.3541   460
27.3641   489
27.3741   474
27.3841   499
27.3941   472
27.4041   450
27.4141   475
27.4241   509
27.4341   493
27.4441   474
27.4541   475
27.4641   470
27.4741   451
27.4841   428
27.4941   411
27.5041   442
27.5141   467
27.5241   491
27.5341   441
27.5441   471
27.5541   419
27.5641   455
27.5741   429
27.5841   462
27.5941   481
27.6041   469
27.6141   456
27.6241   398
27.6341   441
27.6441   457
27.6541   475
27.6641   461
27.6741   455
27.6841   449
27.6941   451
27.7041   424
27.7141   417
27.7241   463
27.7341   436
27.7441   444
27.7541   461
27.7641   465
27.7741   494
27.7841   438
27.7941   418
27.8041   430
27.8141   461
27.8241   446
27.8341   454
27.8441   453
27.8541   414
27.8641   453
27.8741   413
27.8841   408
27.8941   447
27.9041   481
27.9141   455
27.9241   450
27.9341   463
27.9441   435
27.9541   441
27.9641   415
27.9741   443
27.9841   412
27.9941   446
28.0041   434
28.0141   408
28.0241   446
28.0341   448
28.0441   465
28.0541   423
28.0641   426
28.0741   405
28.0841   410
28.0941   437
28.1041   457
28.1141   418
28.1241   440
28.1341   430
28.1441   444
28.1541   409
28.1641   416
28.1741   429
28.1841   418
28.1941   433
28.2041   433
28.2141   428
28.2241   418
28.2341   448
28.2441   438
28.2541   408
28.2641   437
28.2741   425
28.2841   424
28.2941   420
28.3041   425
28.3141   412
28.3241   406
28.3341   386
28.3441   425
28.3541   403
28.3641   399
28.3741   414
28.3841   404
28.3941   408
28.4041   394
28.4141   426
28.4241   411
28.4341   374
28.4441   415
28.4541   402
28.4641   409
28.4741   396
28.4841   422
28.4941   434
28.5041   423
28.5141   375
28.5241   430
28.5341   445
28.5441   426
28.5541   396
28.5641   424
28.5741   414
28.5841   424
28.5941   403
28.6041   435
28.6141   441
28.6241   393
28.6341   409
28.6441   410
28.6541   397
28.6641   380
28.6741   385
28.6841   413
28.6941   399
28.7041   368
28.7141   401
28.7241   397
28.7341   425
28.7441   428
28.7541   385
28.7641   414
28.7741   389
28.7841   367
28.7941   408
28.8041   383
28.8141   393
28.8241   405
28.8341   421
28.8441   393
28.8541   393
28.8641   407
28.8741   375
28.8841   410
28.8941   363
28.9041   420
28.9141   394
28.9241   378
28.9341   345
28.9441   377
28.9541   397
28.9641   385
28.9741   381
28.9841   379
28.9941   421
29.0041   392
29.0141   393
29.0241   397
29.0341   374
29.0441   380
29.0541   389
29.0641   370
29.0741   350
29.0841   414
29.0941   395
29.1041   374
29.1141   379
29.1241   371
29.1341   368
29.1441   368
29.1541   390
29.1641   367
29.1741   404
29.1841   369
29.1941   394
29.2041   373
29.2141   383
29.2241   362
29.2341   380
29.2441   356
29.2541   377
29.2641   360
29.2741   388
29.2841   383
29.2941   379
29.3041   383
29.3141   355
29.3241   368
29.3341   349
29.3441   342
29.3541   375
29.3641   352
29.3741   369
29.3841   367
29.3941   376
29.4041   358
29.4141   345
29.4241   379
29.4341   357
29.4441   376
29.4541   378
29.4641   352
29.4741   334
29.4841   348
29.4941   357
29.5041   334
29.5141   351
29.5241   384
29.5341   389
29.5441   363
29.5541   370
29.5641   336
29.5741   341
29.5841   378
29.5941   360
29.6041   395
29.6141   343
29.6241   377
29.6341   341
29.6441   368
29.6541   377
29.6641   345
29.6741   366
29.6841   337
29.6941   345
29.7041   350
29.7141   324
29.7241   368
29.7341   369
29.7441   321
29.7541   336
29.7641   348
29.7741   345
29.7841   357
29.7941   345
29.8041   360
29.8141   354
29.8241   344
29.8341   332
29.8441   359
29.8541   346
29.8641   353
29.8741   377
29.8841   324
29.8941   352
29.9041   325
29.9141   358
29.9241   323
29.9341   371
29.9441   367
29.9541   342
29.9641   335
29.9741   338
29.9841   369
29.9941   298
30.0041   291
30.0141   368
30.0241   327
30.0341   339
30.0441   351
30.0541   360
30.0641   311
30.0741   333
30.0841   337
30.0941   329
30.1041   330
30.1141   342
30.1241   318
30.1341   326
30.1441   326
30.1541   351
30.1641   317
30.1741   324
30.1841   345
30.1941   313
30.2041   325
30.2141   357
30.2241   338
30.2341   325
30.2441   317
30.2541   326
30.2641   327
30.2741   362
30.2841   340
30.2941   331
30.3041   337
30.3141   322
30.3241   322
30.3341   348
30.3441   343
30.3541   337
30.3641   297
30.3741   317
30.3841   341
30.3941   303
30.4041   318
30.4141   328
30.4241   334
30.4341   320
30.4441   305
30.4541   312
30.4641   353
30.4741   328
30.4841   333
30.4941   299
30.5041   308
30.5141   309
30.5241   299
30.5341   316
30.5441   330
30.5541   306
30.5641   292
30.5741   307
30.5841   331
30.5941   334
30.6041   299
30.6141   314
30.6241   308
30.6341   288
30.6441   290
30.6541   326
30.6641   324
30.6741   318
30.6841   292
30.6941   316
30.7041   329
30.7141   297
30.7241   286
30.7341   302
30.7441   306
30.7541   305
30.7641   281
30.7741   293
30.7841   290
30.7941   276
30.8041   281
30.8141   329
30.8241   291
30.8341   297
30.8441   298
30.8541   305
30.8641   284
30.8741   311
30.8841   286
30.8941   281
30.9041   277
30.9141   292
30.9241   299
30.9341   296
30.9441   324
30.9541   298
30.9641   314
30.9741   315
30.9841   296
30.9941   294
31.0041   305
31.0141   260
31.0241   272
31.0341   300
31.0441   300
31.0541   292
31.0641   284
31.0741   320
31.0841   274
31.0941   297
31.1041   297
31.1141   298
31.1241   260
31.1341   272
31.1441   270
31.1541   278
31.1641   289
31.1741   298
31.1841   287
31.1941   282
31.2041   289
31.2141   279
31.2241   293
31.2341   275
31.2441   252
31.2541   285
31.2641   265
31.2741   274
31.2841   280
31.2941   265
31.3041   274
31.3141   263
31.3241   277
31.3341   281
31.3441   279
31.3541   260
31.3641   274
31.3741   288
31.3841   275
31.3941   259
31.4041   270
31.4141   287
31.4241   286
31.4341   260
31.4441   269
31.4541   262
31.4641   269
31.4741   269
31.4841   258
31.4941   264
31.5041   264
31.5141   272
31.5241   276
31.5341   289
31.5441   249
31.5541   255
31.5641   236
31.5741   266
31.5841   251
31.5941   268
31.6041   259
31.6141   293
31.6241   255
31.6341   258
31.6441   249
31.6541   262
31.6641   259
31.6741   294
31.6841   258
31.6941   273
31.7041   273
31.7141   263
31.7241   233
31.7341   239
31.7441   246
31.7541   285
31.7641   253
31.7741   260
31.7841   285
31.7941   253
31.8041   247
31.8141   267
31.8241   270
31.8341   247
31.8441   266
31.8541   263
31.8641   252
31.8741   263
31.8841   265
31.8941   262
31.9041   255
31.9141   288
31.9241   256
31.9341   243
31.9441   234
31.9541   265
31.9641   266
31.9741   258
31.9841   245
31.9941   264
32.0041   248
32.0141   248
32.0241   252
32.0341   257
32.0441   241
32.0541   262
32.0641   263
32.0741   253
32.0841   255
32.0941   239
32.1041   252
32.1141   258
32.1241   280
32.1341   229
32.1441   246
32.1541   255
32.1641   247
32.1741   238
32.1841   266
32.1941   242
32.2041   262
32.2141   257
32.2241   251
32.2341   242
32.2441   243
32.2541   253
32.2641   253
32.2741   236
32.2841   249
32.2941   257
32.3041   235
32.3141   249
32.3241   234
32.3341   258
32.3441   226
32.3541   259
32.3641   233
32.3741   244
32.3841   247
32.3941   235
32.4041   236
32.4141   211
32.4241   220
32.4341   211
32.4441   253
32.4541   237
32.4641   235
32.4741   241
32.4841   271
32.4941   219
32.5041   227
32.5141   247
32.5241   212
32.5341   212
32.5441   214
32.5541   239
32.5641   241
32.5741   247
32.5841   225
32.5941   216
32.6041   256
32.6141   232
32.6241   215
32.6341   213
32.6441   215
32.6541   208
32.6641   241
32.6741   210
32.6841   249
32.6941   251
32.7041   213
32.7141   207
32.7241   231
32.7341   217
32.7441   241
32.7541   222
32.7641   247
32.7741   239
32.7841   204
32.7941   214
32.8041   235
32.8141   223
32.8241   238
32.8341   232
32.8441   228
32.8541   198
32.8641   233
32.8741   240
32.8841   219
32.8941   213
32.9041   232
32.9141   215
32.9241   210
32.9341   231
32.9441   214
32.9541   226
32.9641   199
32.9741   213
32.9841   206
32.9941   224
33.0041   197
33.0141   203
33.0241   210
33.0341   194
33.0441   194
33.0541   220
33.0641   197
33.0741   188
33.0841   196
33.0941   206
33.1041   192
33.1141   214
33.1241   206
33.1341   194
33.1441   223
33.1541   182
33.1641   203
33.1741   201
33.1841   216
33.1941   215
33.2041   213
33.2141   211
33.2241   195
33.2341   206
33.2441   201
33.2541   186
33.2641   179
33.2741   206
33.2841   217
33.2941   187
33.3041   199
33.3141   212
33.3241   184
33.3341   197
33.3441   190
33.3541   188
33.3641   208
33.3741   191
33.3841   191
33.3941   235
33.4041   208
33.4141   206
33.4241   180
33.4341   199
33.4441   198
33.4541   184
33.4641   192
33.4741   198
33.4841   201
33.4941   176
33.5041   188
33.5141   197
33.5241   188
33.5341   196
33.5441   204
33.5541   190
33.5641   221
33.5741   183
33.5841   194
33.5941   185
33.6041   200
33.6141   188
33.6241   174
33.6341   184
33.6441   199
33.6541   154
33.6641   192
33.6741   192
33.6841   204
33.6941   191
33.7041   179
33.7141   175
33.7241   169
33.7341   170
33.7441   192
33.7541   188
33.7641   187
33.7741   179
33.7841   177
33.7941   191
33.8041   177
33.8141   177
33.8241   168
33.8341   185
33.8441   183
33.8541   183
33.8641   193
33.8741   170
33.8841   210
33.8941   194
33.9041   176
33.9141   163
33.9241   193
33.9341   188
33.9441   162
33.9541   180
33.9641   179
33.9741   177
33.9841   174
33.9941   182
34.0041   205
34.0141   189
34.0241   181
34.0341   171
34.0441   166
34.0541   187
34.0641   172
34.0741   183
34.0841   166
34.0941   168
34.1041   175
34.1141   180
34.1241   166
34.1341   155
34.1441   159
34.1541   177
34.1641   173
34.1741   176
34.1841   177
34.1941   190
34.2041   173
34.2141   182
34.2241   169
34.2341   177
34.2441   180
34.2541   154
34.2641   186
34.2741   175
34.2841   156
34.2941   161
34.3041   168
34.3141   180
34.3241   157
34.3341   136
34.3441   172
34.3541   155
34.3641   167
34.3741   154
34.3841   174
34.3941   156
34.4041   160
34.4141   163
34.4241   159
34.4341   146
34.4441   162
34.4541   177
34.4641   152
34.4741   167
34.4841   151
34.4941   163
34.5041   157
34.5141   157
34.5241   167
34.5341   165
34.5441   156
34.5541   159
34.5641   163
34.5741   166
34.5841   143
34.5941   158
34.6041   148
34.6141   146
34.6241   164
34.6341   157
34.6441   159
34.6541   158
34.6641   152
34.6741   163
34.6841   152
34.6941   161
34.7041   173
34.7141   171
34.7241   162
34.7341   155
34.7441   133
34.7541   136
34.7641   158
34.7741   146
34.7841   146
34.7941   161
34.8041   133
34.8141   118
34.8241   137
34.8341   162
34.8441   151
34.8541   128
34.8641   139
34.8741   174
34.8841   161
34.8941   141
34.9041   135
34.9141   146
34.9241   155
34.9341   159
34.9441   156
34.9541   144
34.9641   143
34.9741   149
34.9841   137
34.9941   132
35.0041   157
35.0141   142
35.0241   147
35.0341   148
35.0441   143
35.0541   142
35.0641   151
35.0741   145
35.0841   141
35.0941   137
35.1041   140
35.1141   141
35.1241   143
35.1341   137
35.1441   139
35.1541   134
35.1641   138
35.1741   134
35.1841   139
35.1941   145
35.2041   137
35.2141   153
35.2241   131
35.2341   126
35.2441   144
35.2541   110
35.2641   131
35.2741   139
35.2841   150
35.2941   157
35.3041   130
35.3141   127
35.3241   126
35.3341   122
35.3441   120
35.3541   145
35.3641   124
35.3741   135
35.3841   131
35.3941   123
35.4041   125
35.4141   137
35.4241   134
35.4341   118
35.4441   125
35.4541   127
35.4641   137
35.4741   119
35.4841   147
35.4941   124
35.5041   134
35.5141   125
35.5241   119
35.5341   135
35.5441   130
35.5541   129
35.5641   117
35.5741   134
35.5841   141
35.5941   116
35.6041   141
35.6141   116
35.6241   111
35.6341   130
35.6441   126
35.6541   134
35.6641   126
35.6741   117
35.6841   126
35.6941   131
35.7041   127
35.7141   128
35.7241   103
35.7341   113
35.7441   129
35.7541   132
35.7641   113
35.7741   111
35.7841   113
35.7941    97
35.8041   142
35.8141   132
35.8241   134
35.8341   127
35.8441   140
35.8541   133
35.8641   129
35.8741   138
35.8841   116
35.8941   142
35.9041   125
35.9141   114
35.9241   124
35.9341   123
35.9441   132
35.9541   120
35.9641   127
35.9741   124
35.9841   109
35.9941   118
36.0041   132
36.0141   119
36.0241   121
36.0341   127
36.0441   108
36.0541   117
36.0641   117
36.0741   111
36.0841   119
36.0941   116
36.1041   119
36.1141   104
36.1241   102
36.1341   120
36.1441   101
36.1541   111
36.1641   117
36.1741   111
36.1841   121
36.1941   127
36.2041   133
36.2141   118
36.2241   100
36.2341   109
36.2441   121
36.2541   111
36.2641   114
36.2741   106
36.2841   121
36.2941   119
36.3041   104
36.3141    99
36.3241   109
36.3341   113
36.3441   115
36.3541   106
36.3641   111
36.3741   124
36.3841   127
36.3941   106
36.4041    90
36.4141   112
36.4241   115
36.4341   102
36.4441   105
36.4541   122
36.4641    87
36.4741   100
36.4841   115
36.4941   105
36.5041    84
36.5141    92
36.5241   113
36.5341   107
36.5441    87
36.5541   106
36.5641   103
36.5741    95
36.5841   120
36.5941    98
36.6041   113
36.6141    94
36.6241    91
36.6341    97
36.6441   102
36.6541    99
36.6641   118
36.6741   108
36.6841   109
36.6941   115
36.7041    98
36.7141    97
36.7241    96
36.7341   112
36.7441   101
36.7541   112
36.7641   103
36.7741   105
36.7841    91
36.7941    96
36.8041    89
36.8141    98
36.8241   106
36.8341   106
36.8441    94
36.8541    94
36.8641   103
36.8741   102
36.8841    94
36.8941   110
36.9041   100
36.9141    83
36.9241    95
36.9341   107
36.9441    86
36.9541    90
36.9641   114
36.9741   101
36.9841    88
36.9941    88
37.0041    94
37.0141    86
37.0241    90
37.0341    90
37.0441    99
37.0541    96
37.0641   104
37.0741    96
37.0841    90
37.0941    92
37.1041    95
37.1141    93
37.1241   103
37.1341    89
37.1441    97
37.1541    92
37.1641    88
37.1741    84
37.1841    97
37.1941    84
37.2041    98
37.2141    77
37.2241    85
37.2341    99
37.2441    92
37.2541    91
37.2641    99
37.2741    84
37.2841    91
37.2941    92
37.3041    86
37.3141    82
37.3241    88
37.3341    72
37.3441    92
37.3541    78
37.3641    73
37.3741    74
37.3841    92
37.3941    79
37.4041    87
37.4141    84
37.4241    88
37.4341    76
37.4441    79
37.4541    93
37.4641    71
37.4741    93
37.4841    89
37.4941    73
37.5041    78
37.5141    93
37.5241    89
37.5341    90
37.5441    78
37.5541    91
37.5641    92
37.5741    80
37.5841    91
37.5941    86
37.6041    69
37.6141    73
37.6241    85
37.6341    85
37.6441    80
37.6541    83
37.6641    67
37.6741    80
37.6841    74
37.6941    81
37.7041    81
37.7141    92
37.7241    82
37.7341    76
37.7441    83
37.7541    93
37.7641    65
37.7741    75
37.7841    82
37.7941    80
37.8041    77
37.8141    63
37.8241    81
37.8341    83
37.8441    71
37.8541    78
37.8641    63
37.8741    83
37.8841    78
37.8941    74
37.9041    82
37.9141    71
37.9241    79
37.9341    82
37.9441    66
37.9541    76
37.9641    75
37.9741    66
37.9841    80
37.9941    81
38.0041    65
38.0141    69
38.0241    82
38.0341    79
38.0441    82
38.0541    66
38.0641    64
38.0741    69
38.0841    74
38.0941    70
38.1041    62
38.1141    60
38.1241    61
38.1341    62
38.1441    74
38.1541    66
38.1641    66
38.1741    65
38.1841    65
38.1941    73
38.2041    64
38.2141    77
38.2241    71
38.2341    79
38.2441    61
38.2541    60
38.2641    61
38.2741    74
38.2841    59
38.2941    75
38.3041    66
38.3141    71
38.3241    69
38.3341    57
38.3441    76
38.3541    63
38.3641    65
38.3741    63
38.3841    55
38.3941    68
38.4041    64
38.4141    56
38.4241    71
38.4341    70
38.4441    69
38.4541    64
38.4641    64
38.4741    58
38.4841    63
38.4941    66
38.5041    64
38.5141    59
38.5241    57
38.5341    75
38.5441    58
38.5541    58
38.5641    65
38.5741    60
38.5841    55
38.5941    60
38.6041    54
38.6141    53
38.6241    64
38.6341    64
38.6441    63
38.6541    69
38.6641    52
38.6741    54
38.6841    60
38.6941    54
38.7041    59
38.7141    72
38.7241    69
38.7341    56
38.7441    62
38.7541    57
38.7641    63
38.7741    57
38.7841    66
38.7941    54
38.8041    64
38.8141    43
38.8241    64
38.8341    63
38.8441    64
38.8541    60
38.8641    53
38.8741    63
38.8841    58
38.8941    47
38.9041    65
38.9141    55
38.9241    49
38.9341    55
38.9441    48
38.9541    41
38.9641    53
38.9741    48
38.9841    53
38.9941    55
39.0041    46
39.0141    57
39.0241    48
39.0341    55
39.0441    47
39.0541    58
39.0641    49
39.0741    51
39.0841    51
39.0941    47
39.1041    56
39.1141    53
39.1241    74
39.1341    51
39.1441    57
39.1541    45
39.1641    54
39.1741    39
39.1841    52
39.1941    43
39.2041    50
39.2141    46
39.2241    50
39.2341    57
39.2441    41
39.2541    40
39.2641    38
39.2741    45
39.2841    52
39.2941    44
39.3041    57
39.3141    45
39.3241    50
39.3341    46
39.3441    50
39.3541    48
39.3641    37
39.3741    61
39.3841    55
39.3941    41
39.4041    62
39.4141    45
39.4241    56
39.4341    46
39.4441    51
39.4541    42
39.4641    49
39.4741    45
39.4841    47
39.4941    49
39.5041    43
39.5141    50
39.5241    40
39.5341    49
39.5441    48
39.5541    56
39.5641    43
39.5741    50
39.5841    46
39.5941    35
39.6041    37
39.6141    43
39.6241    33
39.6341    42
39.6441    38
39.6541    40
39.6641    38
39.6741    38
39.6841    46
39.6941    31
39.7041    47
39.7141    54
39.7241    31
39.7341    35
39.7441    44
39.7541    33
39.7641    41
39.7741    51
39.7841    55
39.7941    48
39.8041    34
39.8141    42
39.8241    41
39.8341    42
39.8441    40
39.8541    34
39.8641    30
39.8741    35
39.8841    31
39.8941    37
39.9041    32
39.9141    46
39.9241    38
39.9341    28
39.9441    43
39.9541    35
39.9641    42
39.9741    38
39.9841    35
