Bruker Nano GmbH Berlin, Germany
Esprit 1.9

Date: 4/1/2021 4:12:14 PM
Real time: 33532
Life time: 31656
Pulse density: 79072


Detector type: XFlash 430
Window type: Custom type
Detector thickness: 0.45
Si dead layer:0.029

Calibration, lin.: 10
Calibration, abs.: -955.9
Mn FWHM: 137.05
Fano factor: 0.121
Channels: 4096

Energy Counts
-0.9559     0
-0.9459     0
-0.9359     0
-0.9259     0
-0.9159     0
-0.9059     0
-0.8959     0
-0.8859     0
-0.8759     0
-0.8659     0
-0.8559     0
-0.8459     0
-0.8359     0
-0.8259     0
-0.8159     0
-0.8059     0
-0.7959     0
-0.7859     0
-0.7759     0
-0.7659     0
-0.7559     0
-0.7459     0
-0.7359     0
-0.7259     0
-0.7159     0
-0.7059     0
-0.6959     0
-0.6859     0
-0.6759     0
-0.6659     0
-0.6559     0
-0.6459     0
-0.6359     0
-0.6259     0
-0.6159     0
-0.6059     0
-0.5959     0
-0.5859     0
-0.5759     0
-0.5659     0
-0.5559     0
-0.5459     0
-0.5359     0
-0.5259     0
-0.5159     0
-0.5059     0
-0.4959     0
-0.4859     0
-0.4759     0
-0.4659     0
-0.4559     0
-0.4459     0
-0.4359     0
-0.4259     0
-0.4159     0
-0.4059     0
-0.3959     0
-0.3859     0
-0.3759     0
-0.3659     0
-0.3559     0
-0.3459     0
-0.3359     0
-0.3259     0
-0.3159     0
-0.3059     0
-0.2959     0
-0.2859     0
-0.2759     0
-0.2659     0
-0.2559     0
-0.2459     0
-0.2359     0
-0.2259     0
-0.2159     0
-0.2059     0
-0.1959     0
-0.1859     0
-0.1759     0
-0.1659     0
-0.1559     0
-0.1459     0
-0.1359     0
-0.1259     3
-0.1159     5
-0.1059    19
-0.0959    95
-0.0859   365
-0.0759  1211
-0.0659  3560
-0.0559  9225
-0.0459 20078
-0.0359 37665
-0.0259 60542
-0.0159 82816
-0.0059 96819
 0.0041 97732
 0.0141 84253
 0.0241 61956
 0.0341 38892
 0.0441 21253
 0.0541  9820
 0.0641  3879
 0.0741  1326
 0.0841   444
 0.0941   121
 0.1041    36
 0.1141    22
 0.1241    16
 0.1341    16
 0.1441    13
 0.1541    17
 0.1641     7
 0.1741     6
 0.1841   304
 0.1941   601
 0.2041   536
 0.2141   502
 0.2241   568
 0.2341   562
 0.2441   517
 0.2541   559
 0.2641   536
 0.2741   544
 0.2841   551
 0.2941   555
 0.3041   552
 0.3141   545
 0.3241   554
 0.3341   532
 0.3441   531
 0.3541   528
 0.3641   530
 0.3741   495
 0.3841   489
 0.3941   523
 0.4041   495
 0.4141   486
 0.4241   474
 0.4341   473
 0.4441   510
 0.4541   500
 0.4641   514
 0.4741   505
 0.4841   490
 0.4941   470
 0.5041   468
 0.5141   485
 0.5241   489
 0.5341   481
 0.5441   459
 0.5541   478
 0.5641   480
 0.5741   445
 0.5841   457
 0.5941   472
 0.6041   443
 0.6141   409
 0.6241   449
 0.6341   456
 0.6441   410
 0.6541   408
 0.6641   426
 0.6741   424
 0.6841   410
 0.6941   438
 0.7041   422
 0.7141   403
 0.7241   395
 0.7341   395
 0.7441   405
 0.7541   414
 0.7641   410
 0.7741   401
 0.7841   395
 0.7941   390
 0.8041   385
 0.8141   377
 0.8241   388
 0.8341   397
 0.8441   411
 0.8541   409
 0.8641   390
 0.8741   380
 0.8841   372
 0.8941   390
 0.9041   376
 0.9141   358
 0.9241   390
 0.9341   387
 0.9441   362
 0.9541   364
 0.9641   344
 0.9741   366
 0.9841   348
 0.9941   362
 1.0041   359
 1.0141   356
 1.0241   379
 1.0341   353
 1.0441   381
 1.0541   359
 1.0641   329
 1.0741   318
 1.0841   358
 1.0941   348
 1.1041   377
 1.1141   384
 1.1241   339
 1.1341   349
 1.1441   328
 1.1541   351
 1.1641   355
 1.1741   354
 1.1841   369
 1.1941   355
 1.2041   365
 1.2141   363
 1.2241   349
 1.2341   347
 1.2441   342
 1.2541   329
 1.2641   348
 1.2741   342
 1.2841   329
 1.2941   310
 1.3041   330
 1.3141   330
 1.3241   327
 1.3341   353
 1.3441   316
 1.3541   300
 1.3641   297
 1.3741   324
 1.3841   338
 1.3941   347
 1.4041   321
 1.4141   313
 1.4241   327
 1.4341   331
 1.4441   317
 1.4541   354
 1.4641   326
 1.4741   329
 1.4841   298
 1.4941   326
 1.5041   316
 1.5141   287
 1.5241   325
 1.5341   314
 1.5441   323
 1.5541   319
 1.5641   329
 1.5741   302
 1.5841   318
 1.5941   309
 1.6041   316
 1.6141   302
 1.6241   306
 1.6341   304
 1.6441   339
 1.6541   377
 1.6641   437
 1.6741   525
 1.6841   634
 1.6941   732
 1.7041   893
 1.7141  1059
 1.7241  1131
 1.7341  1183
 1.7441  1174
 1.7541  1140
 1.7641  1004
 1.7741   911
 1.7841   743
 1.7941   624
 1.8041   539
 1.8141   452
 1.8241   455
 1.8341   381
 1.8441   380
 1.8541   366
 1.8641   380
 1.8741   360
 1.8841   343
 1.8941   339
 1.9041   350
 1.9141   321
 1.9241   320
 1.9341   324
 1.9441   365
 1.9541   337
 1.9641   358
 1.9741   372
 1.9841   339
 1.9941   386
 2.0041   415
 2.0141   389
 2.0241   388
 2.0341   371
 2.0441   355
 2.0541   333
 2.0641   337
 2.0741   341
 2.0841   337
 2.0941   332
 2.1041   278
 2.1141   290
 2.1241   285
 2.1341   294
 2.1441   297
 2.1541   296
 2.1641   286
 2.1741   281
 2.1841   298
 2.1941   279
 2.2041   274
 2.2141   320
 2.2241   304
 2.2341   274
 2.2441   304
 2.2541   288
 2.2641   268
 2.2741   303
 2.2841   282
 2.2941   308
 2.3041   251
 2.3141   262
 2.3241   277
 2.3341   265
 2.3441   251
 2.3541   288
 2.3641   236
 2.3741   276
 2.3841   251
 2.3941   281
 2.4041   289
 2.4141   279
 2.4241   301
 2.4341   252
 2.4441   248
 2.4541   245
 2.4641   257
 2.4741   236
 2.4841   252
 2.4941   268
 2.5041   277
 2.5141   249
 2.5241   237
 2.5341   237
 2.5441   283
 2.5541   271
 2.5641   236
 2.5741   224
 2.5841   261
 2.5941   240
 2.6041   221
 2.6141   254
 2.6241   283
 2.6341   208
 2.6441   262
 2.6541   262
 2.6641   263
 2.6741   255
 2.6841   203
 2.6941   266
 2.7041   239
 2.7141   210
 2.7241   237
 2.7341   241
 2.7441   224
 2.7541   243
 2.7641   227
 2.7741   254
 2.7841   257
 2.7941   236
 2.8041   249
 2.8141   253
 2.8241   239
 2.8341   253
 2.8441   259
 2.8541   262
 2.8641   249
 2.8741   267
 2.8841   237
 2.8941   225
 2.9041   241
 2.9141   199
 2.9241   231
 2.9341   231
 2.9441   222
 2.9541   238
 2.9641   236
 2.9741   254
 2.9841   232
 2.9941   221
 3.0041   216
 3.0141   219
 3.0241   206
 3.0341   193
 3.0441   215
 3.0541   220
 3.0641   210
 3.0741   192
 3.0841   192
 3.0941   229
 3.1041   216
 3.1141   220
 3.1241   203
 3.1341   210
 3.1441   212
 3.1541   208
 3.1641   199
 3.1741   200
 3.1841   216
 3.1941   194
 3.2041   232
 3.2141   261
 3.2241   298
 3.2341   329
 3.2441   368
 3.2541   390
 3.2641   484
 3.2741   520
 3.2841   617
 3.2941   629
 3.3041   711
 3.3141   677
 3.3241   670
 3.3341   636
 3.3441   634
 3.3541   530
 3.3641   480
 3.3741   406
 3.3841   338
 3.3941   327
 3.4041   244
 3.4141   224
 3.4241   229
 3.4341   198
 3.4441   184
 3.4541   181
 3.4641   185
 3.4741   210
 3.4841   193
 3.4941   218
 3.5041   210
 3.5141   225
 3.5241   209
 3.5341   253
 3.5441   274
 3.5541   307
 3.5641   341
 3.5741   387
 3.5841   442
 3.5941   530
 3.6041   666
 3.6141   818
 3.6241  1012
 3.6341  1188
 3.6441  1395
 3.6541  1569
 3.6641  1809
 3.6741  1879
 3.6841  2012
 3.6941  1885
 3.7041  1826
 3.7141  1702
 3.7241  1591
 3.7341  1302
 3.7441  1095
 3.7541   919
 3.7641   717
 3.7741   562
 3.7841   433
 3.7941   340
 3.8041   265
 3.8141   218
 3.8241   195
 3.8341   192
 3.8441   184
 3.8541   176
 3.8641   151
 3.8741   174
 3.8841   165
 3.8941   168
 3.9041   170
 3.9141   179
 3.9241   214
 3.9341   233
 3.9441   277
 3.9541   296
 3.9641   306
 3.9741   333
 3.9841   362
 3.9941   355
 4.0041   391
 4.0141   392
 4.0241   442
 4.0341   375
 4.0441   335
 4.0541   312
 4.0641   314
 4.0741   257
 4.0841   235
 4.0941   232
 4.1041   183
 4.1141   181
 4.1241   170
 4.1341   168
 4.1441   148
 4.1541   149
 4.1641   129
 4.1741   131
 4.1841   154
 4.1941   150
 4.2041   143
 4.2141   132
 4.2241   143
 4.2341   139
 4.2441   134
 4.2541   137
 4.2641   151
 4.2741   126
 4.2841   132
 4.2941   147
 4.3041   147
 4.3141   129
 4.3241   117
 4.3341   145
 4.3441   154
 4.3541   137
 4.3641   150
 4.3741   150
 4.3841   172
 4.3941   187
 4.4041   208
 4.4141   242
 4.4241   266
 4.4341   273
 4.4441   327
 4.4541   367
 4.4641   364
 4.4741   405
 4.4841   421
 4.4941   456
 4.5041   424
 4.5141   447
 4.5241   408
 4.5341   418
 4.5441   379
 4.5541   361
 4.5641   302
 4.5741   266
 4.5841   243
 4.5941   232
 4.6041   178
 4.6141   180
 4.6241   171
 4.6341   144
 4.6441   159
 4.6541   150
 4.6641   158
 4.6741   151
 4.6841   164
 4.6941   120
 4.7041   160
 4.7141   157
 4.7241   149
 4.7341   149
 4.7441   158
 4.7541   156
 4.7641   153
 4.7741   154
 4.7841   170
 4.7941   169
 4.8041   172
 4.8141   205
 4.8241   196
 4.8341   214
 4.8441   226
 4.8541   210
 4.8641   202
 4.8741   186
 4.8841   202
 4.8941   234
 4.9041   196
 4.9141   221
 4.9241   203
 4.9341   214
 4.9441   194
 4.9541   211
 4.9641   196
 4.9741   182
 4.9841   173
 4.9941   162
 5.0041   191
 5.0141   167
 5.0241   157
 5.0341   166
 5.0441   159
 5.0541   142
 5.0641   156
 5.0741   128
 5.0841   154
 5.0941   150
 5.1041   160
 5.1141   147
 5.1241   168
 5.1341   156
 5.1441   157
 5.1541   144
 5.1641   154
 5.1741   136
 5.1841   144
 5.1941   154
 5.2041   155
 5.2141   149
 5.2241   152
 5.2341   145
 5.2441   139
 5.2541   162
 5.2641   135
 5.2741   146
 5.2841   157
 5.2941   159
 5.3041   149
 5.3141   180
 5.3241   197
 5.3341   186
 5.3441   193
 5.3541   199
 5.3641   214
 5.3741   255
 5.3841   270
 5.3941   270
 5.4041   265
 5.4141   288
 5.4241   262
 5.4341   277
 5.4441   248
 5.4541   235
 5.4641   213
 5.4741   228
 5.4841   199
 5.4941   201
 5.5041   191
 5.5141   160
 5.5241   176
 5.5341   145
 5.5441   187
 5.5541   153
 5.5641   147
 5.5741   168
 5.5841   169
 5.5941   158
 5.6041   150
 5.6141   147
 5.6241   142
 5.6341   163
 5.6441   158
 5.6541   161
 5.6641   165
 5.6741   148
 5.6841   147
 5.6941   167
 5.7041   154
 5.7141   168
 5.7241   177
 5.7341   171
 5.7441   183
 5.7541   171
 5.7641   168
 5.7741   178
 5.7841   219
 5.7941   196
 5.8041   215
 5.8141   206
 5.8241   223
 5.8341   211
 5.8441   240
 5.8541   285
 5.8641   269
 5.8741   260
 5.8841   274
 5.8941   300
 5.9041   320
 5.9141   309
 5.9241   283
 5.9341   284
 5.9441   261
 5.9541   257
 5.9641   255
 5.9741   263
 5.9841   250
 5.9941   203
 6.0041   219
 6.0141   218
 6.0241   182
 6.0341   196
 6.0441   194
 6.0541   177
 6.0641   198
 6.0741   199
 6.0841   198
 6.0941   193
 6.1041   183
 6.1141   200
 6.1241   210
 6.1341   193
 6.1441   192
 6.1541   187
 6.1641   191
 6.1741   212
 6.1841   214
 6.1941   231
 6.2041   263
 6.2141   266
 6.2241   328
 6.2341   358
 6.2441   481
 6.2541   601
 6.2641   781
 6.2741  1018
 6.2841  1380
 6.2941  1747
 6.3041  2155
 6.3141  2677
 6.3241  3266
 6.3341  3990
 6.3441  4593
 6.3541  5310
 6.3641  5701
 6.3741  6501
 6.3841  6689
 6.3941  6800
 6.4041  6763
 6.4141  6430
 6.4241  6312
 6.4341  5686
 6.4441  5042
 6.4541  4553
 6.4641  3689
 6.4741  3129
 6.4841  2496
 6.4941  1963
 6.5041  1587
 6.5141  1266
 6.5241   866
 6.5341   670
 6.5441   538
 6.5541   449
 6.5641   342
 6.5741   318
 6.5841   252
 6.5941   238
 6.6041   245
 6.6141   221
 6.6241   211
 6.6341   203
 6.6441   183
 6.6541   197
 6.6641   209
 6.6741   192
 6.6841   191
 6.6941   207
 6.7041   195
 6.7141   202
 6.7241   188
 6.7341   168
 6.7441   207
 6.7541   206
 6.7641   235
 6.7741   205
 6.7841   205
 6.7941   208
 6.8041   249
 6.8141   254
 6.8241   230
 6.8341   206
 6.8441   244
 6.8541   230
 6.8641   255
 6.8741   273
 6.8841   255
 6.8941   294
 6.9041   335
 6.9141   343
 6.9241   362
 6.9341   406
 6.9441   476
 6.9541   621
 6.9641   643
 6.9741   684
 6.9841   836
 6.9941   899
 7.0041   998
 7.0141  1096
 7.0241  1187
 7.0341  1255
 7.0441  1247
 7.0541  1253
 7.0641  1267
 7.0741  1255
 7.0841  1148
 7.0941  1080
 7.1041  1011
 7.1141   930
 7.1241   835
 7.1341   732
 7.1441   672
 7.1541   591
 7.1641   533
 7.1741   426
 7.1841   409
 7.1941   400
 7.2041   357
 7.2141   341
 7.2241   307
 7.2341   307
 7.2441   310
 7.2541   322
 7.2641   309
 7.2741   331
 7.2841   341
 7.2941   350
 7.3041   358
 7.3141   364
 7.3241   422
 7.3341   393
 7.3441   405
 7.3541   434
 7.3641   476
 7.3741   506
 7.3841   506
 7.3941   512
 7.4041   562
 7.4141   533
 7.4241   606
 7.4341   580
 7.4441   625
 7.4541   630
 7.4641   596
 7.4741   579
 7.4841   542
 7.4941   546
 7.5041   560
 7.5141   496
 7.5241   511
 7.5341   449
 7.5441   458
 7.5541   433
 7.5641   388
 7.5741   361
 7.5841   355
 7.5941   346
 7.6041   331
 7.6141   324
 7.6241   323
 7.6341   380
 7.6441   355
 7.6541   342
 7.6641   351
 7.6741   341
 7.6841   359
 7.6941   326
 7.7041   364
 7.7141   370
 7.7241   348
 7.7341   361
 7.7441   397
 7.7541   368
 7.7641   411
 7.7741   400
 7.7841   452
 7.7941   439
 7.8041   426
 7.8141   436
 7.8241   463
 7.8341   459
 7.8441   473
 7.8541   486
 7.8641   485
 7.8741   517
 7.8841   518
 7.8941   553
 7.9041   566
 7.9141   580
 7.9241   574
 7.9341   636
 7.9441   685
 7.9541   683
 7.9641   754
 7.9741   775
 7.9841   839
 7.9941   845
 8.0041   923
 8.0141  1049
 8.0241  1117
 8.0341  1165
 8.0441  1261
 8.0541  1305
 8.0641  1448
 8.0741  1567
 8.0841  1685
 8.0941  1702
 8.1041  1775
 8.1141  1852
 8.1241  1958
 8.1341  2017
 8.1441  2137
 8.1541  2176
 8.1641  2206
 8.1741  2170
 8.1841  2288
 8.1941  2253
 8.2041  2372
 8.2141  2394
 8.2241  2428
 8.2341  2422
 8.2441  2516
 8.2541  2562
 8.2641  2620
 8.2741  2780
 8.2841  2893
 8.2941  2997
 8.3041  3186
 8.3141  3451
 8.3241  3647
 8.3341  3849
 8.3441  4081
 8.3541  4349
 8.3641  4565
 8.3741  4662
 8.3841  4628
 8.3941  4594
 8.4041  4494
 8.4141  4283
 8.4241  4110
 8.4341  3899
 8.4441  3414
 8.4541  3054
 8.4641  2764
 8.4741  2421
 8.4841  2042
 8.4941  1774
 8.5041  1535
 8.5141  1235
 8.5241  1136
 8.5341   965
 8.5441   797
 8.5541   753
 8.5641   655
 8.5741   581
 8.5841   562
 8.5941   565
 8.6041   561
 8.6141   552
 8.6241   536
 8.6341   508
 8.6441   543
 8.6541   547
 8.6641   529
 8.6741   558
 8.6841   562
 8.6941   588
 8.7041   553
 8.7141   550
 8.7241   509
 8.7341   576
 8.7441   566
 8.7541   539
 8.7641   540
 8.7741   527
 8.7841   546
 8.7941   561
 8.8041   505
 8.8141   525
 8.8241   551
 8.8341   524
 8.8441   511
 8.8541   557
 8.8641   539
 8.8741   579
 8.8841   561
 8.8941   542
 8.9041   538
 8.9141   531
 8.9241   560
 8.9341   576
 8.9441   605
 8.9541   600
 8.9641   581
 8.9741   640
 8.9841   615
 8.9941   652
 9.0041   641
 9.0141   673
 9.0241   670
 9.0341   674
 9.0441   675
 9.0541   739
 9.0641   741
 9.0741   752
 9.0841   794
 9.0941   782
 9.1041   760
 9.1141   838
 9.1241   867
 9.1341   841
 9.1441   947
 9.1541   944
 9.1641   949
 9.1741  1054
 9.1841  1087
 9.1941  1130
 9.2041  1187
 9.2141  1232
 9.2241  1308
 9.2341  1393
 9.2441  1386
 9.2541  1494
 9.2641  1568
 9.2741  1588
 9.2841  1661
 9.2941  1716
 9.3041  1789
 9.3141  1854
 9.3241  1955
 9.3341  1970
 9.3441  1976
 9.3541  2045
 9.3641  2173
 9.3741  2237
 9.3841  2251
 9.3941  2301
 9.4041  2337
 9.4141  2305
 9.4241  2323
 9.4341  2475
 9.4441  2464
 9.4541  2476
 9.4641  2535
 9.4741  2538
 9.4841  2620
 9.4941  2635
 9.5041  2849
 9.5141  2879
 9.5241  2859
 9.5341  3018
 9.5441  3071
 9.5541  3278
 9.5641  3425
 9.5741  3689
 9.5841  3872
 9.5941  4065
 9.6041  4272
 9.6141  4485
 9.6241  4686
 9.6341  4867
 9.6441  5021
 9.6541  5148
 9.6641  5232
 9.6741  5229
 9.6841  5219
 9.6941  4973
 9.7041  4781
 9.7141  4543
 9.7241  4344
 9.7341  4067
 9.7441  3724
 9.7541  3500
 9.7641  3183
 9.7741  2971
 9.7841  2880
 9.7941  2626
 9.8041  2530
 9.8141  2376
 9.8241  2325
 9.8341  2201
 9.8441  2140
 9.8541  2188
 9.8641  2171
 9.8741  2234
 9.8841  2283
 9.8941  2289
 9.9041  2260
 9.9141  2289
 9.9241  2328
 9.9341  2334
 9.9441  2336
 9.9541  2312
 9.9641  2326
 9.9741  2228
 9.9841  2191
 9.9941  2016
10.0041  1993
10.0141  1861
10.0241  1619
10.0341  1449
10.0441  1329
10.0541  1253
10.0641  1183
10.0741  1052
10.0841   901
10.0941   788
10.1041   759
10.1141   650
10.1241   537
10.1341   533
10.1441   522
10.1541   486
10.1641   439
10.1741   419
10.1841   412
10.1941   410
10.2041   422
10.2141   397
10.2241   400
10.2341   351
10.2441   343
10.2541   361
10.2641   360
10.2741   331
10.2841   307
10.2941   335
10.3041   323
10.3141   323
10.3241   306
10.3341   318
10.3441   322
10.3541   313
10.3641   332
10.3741   286
10.3841   290
10.3941   318
10.4041   326
10.4141   321
10.4241   334
10.4341   328
10.4441   318
10.4541   340
10.4641   335
10.4741   343
10.4841   349
10.4941   340
10.5041   342
10.5141   384
10.5241   360
10.5341   378
10.5441   368
10.5541   384
10.5641   338
10.5741   362
10.5841   392
10.5941   355
10.6041   322
10.6141   355
10.6241   369
10.6341   363
10.6441   362
10.6541   342
10.6641   355
10.6741   372
10.6841   360
10.6941   381
10.7041   375
10.7141   376
10.7241   384
10.7341   404
10.7441   404
10.7541   403
10.7641   414
10.7741   428
10.7841   417
10.7941   449
10.8041   483
10.8141   474
10.8241   470
10.8341   468
10.8441   477
10.8541   487
10.8641   495
10.8741   529
10.8841   503
10.8941   544
10.9041   572
10.9141   528
10.9241   533
10.9341   535
10.9441   475
10.9541   487
10.9641   502
10.9741   519
10.9841   510
10.9941   497
11.0041   505
11.0141   462
11.0241   462
11.0341   517
11.0441   502
11.0541   470
11.0641   432
11.0741   449
11.0841   471
11.0941   452
11.1041   432
11.1141   444
11.1241   452
11.1341   470
11.1441   504
11.1541   550
11.1641   535
11.1741   497
11.1841   537
11.1941   574
11.2041   583
11.2141   602
11.2241   641
11.2341   684
11.2441   675
11.2541   719
11.2641   709
11.2741   723
11.2841   740
11.2941   695
11.3041   696
11.3141   691
11.3241   676
11.3341   664
11.3441   615
11.3541   588
11.3641   544
11.3741   518
11.3841   485
11.3941   493
11.4041   471
11.4141   452
11.4241   436
11.4341   397
11.4441   376
11.4541   360
11.4641   369
11.4741   350
11.4841   373
11.4941   372
11.5041   342
11.5141   355
11.5241   362
11.5341   360
11.5441   381
11.5541   383
11.5641   395
11.5741   399
11.5841   418
11.5941   408
11.6041   399
11.6141   395
11.6241   381
11.6341   395
11.6441   381
11.6541   391
11.6641   395
11.6741   396
11.6841   385
11.6941   368
11.7041   351
11.7141   347
11.7241   340
11.7341   340
11.7441   327
11.7541   287
11.7641   282
11.7741   270
11.7841   278
11.7941   291
11.8041   276
11.8141   264
11.8241   258
11.8341   258
11.8441   286
11.8541   285
11.8641   272
11.8741   265
11.8841   276
11.8941   286
11.9041   273
11.9141   261
11.9241   242
11.9341   250
11.9441   258
11.9541   263
11.9641   255
11.9741   264
11.9841   309
11.9941   299
12.0041   267
12.0141   265
12.0241   269
12.0341   276
12.0441   274
12.0541   270
12.0641   279
12.0741   283
12.0841   275
12.0941   266
12.1041   273
12.1141   279
12.1241   262
12.1341   264
12.1441   276
12.1541   273
12.1641   284
12.1741   281
12.1841   282
12.1941   267
12.2041   265
12.2141   293
12.2241   303
12.2341   273
12.2441   258
12.2541   273
12.2641   303
12.2741   288
12.2841   270
12.2941   245
12.3041   262
12.3141   278
12.3241   262
12.3341   256
12.3441   271
12.3541   286
12.3641   269
12.3741   275
12.3841   279
12.3941   270
12.4041   286
12.4141   288
12.4241   266
12.4341   261
12.4441   259
12.4541   262
12.4641   265
12.4741   248
12.4841   246
12.4941   262
12.5041   257
12.5141   262
12.5241   284
12.5341   303
12.5441   306
12.5541   291
12.5641   296
12.5741   308
12.5841   303
12.5941   291
12.6041   308
12.6141   293
12.6241   295
12.6341   291
12.6441   288
12.6541   301
12.6641   303
12.6741   292
12.6841   279
12.6941   301
12.7041   312
12.7141   315
12.7241   315
12.7341   287
12.7441   273
12.7541   285
12.7641   293
12.7741   280
12.7841   288
12.7941   310
12.8041   289
12.8141   293
12.8241   296
12.8341   323
12.8441   322
12.8541   300
12.8641   295
12.8741   290
12.8841   304
12.8941   317
12.9041   317
12.9141   313
12.9241   296
12.9341   305
12.9441   318
12.9541   315
12.9641   315
12.9741   318
12.9841   315
12.9941   307
13.0041   302
13.0141   310
13.0241   314
13.0341   328
13.0441   325
13.0541   310
13.0641   311
13.0741   329
13.0841   320
13.0941   314
13.1041   305
13.1141   316
13.1241   333
13.1341   323
13.1441   329
13.1541   339
13.1641   356
13.1741   370
13.1841   390
13.1941   425
13.2041   430
13.2141   450
13.2241   470
13.2341   479
13.2441   508
13.2541   535
13.2641   575
13.2741   630
13.2841   672
13.2941   706
13.3041   751
13.3141   803
13.3241   837
13.3341   836
13.3441   883
13.3541   908
13.3641   904
13.3741   915
13.3841   903
13.3941   901
13.4041   876
13.4141   865
13.4241   840
13.4341   804
13.4441   771
13.4541   721
13.4641   661
13.4741   635
13.4841   623
13.4941   604
13.5041   561
13.5141   526
13.5241   481
13.5341   446
13.5441   435
13.5541   411
13.5641   419
13.5741   397
13.5841   366
13.5941   357
13.6041   366
13.6141   369
13.6241   364
13.6341   372
13.6441   384
13.6541   363
13.6641   345
13.6741   378
13.6841   379
13.6941   386
13.7041   387
13.7141   380
13.7241   383
13.7341   379
13.7441   386
13.7541   384
13.7641   372
13.7741   363
13.7841   384
13.7941   377
13.8041   370
13.8141   388
13.8241   366
13.8341   357
13.8441   386
13.8541   392
13.8641   389
13.8741   397
13.8841   405
13.8941   401
13.9041   389
13.9141   392
13.9241   433
13.9341   437
13.9441   418
13.9541   433
13.9641   443
13.9741   469
13.9841   493
13.9941   509
14.0041   521
14.0141   572
14.0241   596
14.0341   605
14.0441   648
14.0541   668
14.0641   683
14.0741   714
14.0841   768
14.0941   772
14.1041   758
14.1141   843
14.1241   901
14.1341   877
14.1441   865
14.1541   849
14.1641   855
14.1741   830
14.1841   782
14.1941   774
14.2041   753
14.2141   730
14.2241   684
14.2341   652
14.2441   643
14.2541   604
14.2641   571
14.2741   558
14.2841   543
14.2941   537
14.3041   523
14.3141   509
14.3241   490
14.3341   459
14.3441   463
14.3541   439
14.3641   416
14.3741   416
14.3841   419
14.3941   433
14.4041   427
14.4141   410
14.4241   409
14.4341   420
14.4441   428
14.4541   442
14.4641   450
14.4741   440
14.4841   423
14.4941   420
14.5041   427
14.5141   423
14.5241   424
14.5341   425
14.5441   437
14.5541   440
14.5641   432
14.5741   455
14.5841   459
14.5941   444
14.6041   437
14.6141   437
14.6241   423
14.6341   433
14.6441   444
14.6541   445
14.6641   459
14.6741   438
14.6841   434
14.6941   453
14.7041   453
14.7141   466
14.7241   484
14.7341   465
14.7441   447
14.7541   462
14.7641   483
14.7741   481
14.7841   463
14.7941   473
14.8041   488
14.8141   510
14.8241   536
14.8341   508
14.8441   522
14.8541   568
14.8641   553
14.8741   560
14.8841   576
14.8941   579
14.9041   593
14.9141   601
14.9241   612
14.9341   616
14.9441   603
14.9541   620
14.9641   622
14.9741   611
14.9841   599
14.9941   594
15.0041   583
15.0141   593
15.0241   596
15.0341   572
15.0441   563
15.0541   587
15.0641   562
15.0741   514
15.0841   534
15.0941   526
15.1041   494
15.1141   470
15.1241   477
15.1341   513
15.1441   488
15.1541   488
15.1641   515
15.1741   512
15.1841   488
15.1941   488
15.2041   482
15.2141   476
15.2241   487
15.2341   499
15.2441   526
15.2541   493
15.2641   492
15.2741   495
15.2841   464
15.2941   484
15.3041   484
15.3141   489
15.3241   503
15.3341   498
15.3441   489
15.3541   484
15.3641   503
15.3741   506
15.3841   473
15.3941   467
15.4041   483
15.4141   490
15.4241   469
15.4341   451
15.4441   473
15.4541   479
15.4641   494
15.4741   500
15.4841   484
15.4941   497
15.5041   528
15.5141   520
15.5241   519
15.5341   518
15.5441   533
15.5541   544
15.5641   548
15.5741   567
15.5841   557
15.5941   577
15.6041   573
15.6141   626
15.6241   668
15.6341   661
15.6441   675
15.6541   698
15.6641   725
15.6741   709
15.6841   731
15.6941   756
15.7041   756
15.7141   775
15.7241   788
15.7341   828
15.7441   820
15.7541   822
15.7641   818
15.7741   822
15.7841   850
15.7941   793
15.8041   800
15.8141   820
15.8241   828
15.8341   810
15.8441   791
15.8541   784
15.8641   735
15.8741   716
15.8841   693
15.8941   679
15.9041   690
15.9141   663
15.9241   637
15.9341   646
15.9441   591
15.9541   565
15.9641   579
15.9741   587
15.9841   581
15.9941   579
16.0041   594
16.0141   576
16.0241   554
16.0341   578
16.0441   571
16.0541   564
16.0641   543
16.0741   520
16.0841   524
16.0941   536
16.1041   517
16.1141   508
16.1241   567
16.1341   553
16.1441   549
16.1541   576
16.1641   586
16.1741   599
16.1841   572
16.1941   551
16.2041   559
16.2141   576
16.2241   572
16.2341   560
16.2441   547
16.2541   552
16.2641   600
16.2741   589
16.2841   564
16.2941   595
16.3041   575
16.3141   562
16.3241   603
16.3341   610
16.3441   560
16.3541   559
16.3641   604
16.3741   587
16.3841   584
16.3941   551
16.4041   568
16.4141   588
16.4241   595
16.4341   607
16.4441   572
16.4541   587
16.4641   596
16.4741   594
16.4841   561
16.4941   552
16.5041   612
16.5141   608
16.5241   582
16.5341   606
16.5441   583
16.5541   601
16.5641   605
16.5741   583
16.5841   597
16.5941   630
16.6041   633
16.6141   608
16.6241   640
16.6341   614
16.6441   587
16.6541   615
16.6641   602
16.6741   595
16.6841   641
16.6941   653
16.7041   646
16.7141   615
16.7241   614
16.7341   617
16.7441   645
16.7541   656
16.7641   625
16.7741   647
16.7841   647
16.7941   617
16.8041   639
16.8141   632
16.8241   630
16.8341   639
16.8441   627
16.8541   613
16.8641   598
16.8741   615
16.8841   626
16.8941   629
16.9041   601
16.9141   626
16.9241   630
16.9341   607
16.9441   670
16.9541   657
16.9641   669
16.9741   662
16.9841   646
16.9941   625
17.0041   653
17.0141   677
17.0241   636
17.0341   643
17.0441   591
17.0541   612
17.0641   635
17.0741   668
17.0841   663
17.0941   704
17.1041   684
17.1141   645
17.1241   660
17.1341   695
17.1441   662
17.1541   645
17.1641   660
17.1741   652
17.1841   683
17.1941   676
17.2041   646
17.2141   698
17.2241   688
17.2341   673
17.2441   669
17.2541   657
17.2641   656
17.2741   701
17.2841   702
17.2941   694
17.3041   657
17.3141   643
17.3241   661
17.3341   674
17.3441   687
17.3541   691
17.3641   681
17.3741   676
17.3841   702
17.3941   682
17.4041   700
17.4141   693
17.4241   679
17.4341   677
17.4441   686
17.4541   683
17.4641   682
17.4741   723
17.4841   719
17.4941   711
17.5041   718
17.5141   709
17.5241   684
17.5341   726
17.5441   734
17.5541   751
17.5641   759
17.5741   736
17.5841   726
17.5941   730
17.6041   756
17.6141   761
17.6241   742
17.6341   738
17.6441   741
17.6541   761
17.6641   744
17.6741   722
17.6841   728
17.6941   753
17.7041   730
17.7141   765
17.7241   758
17.7341   769
17.7441   710
17.7541   761
17.7641   759
17.7741   739
17.7841   741
17.7941   759
17.8041   729
17.8141   764
17.8241   738
17.8341   724
17.8441   735
17.8541   746
17.8641   741
17.8741   751
17.8841   752
17.8941   739
17.9041   733
17.9141   769
17.9241   738
17.9341   739
17.9441   753
17.9541   769
17.9641   729
17.9741   778
17.9841   770
17.9941   731
18.0041   765
18.0141   746
18.0241   755
18.0341   784
18.0441   745
18.0541   755
18.0641   766
18.0741   743
18.0841   783
18.0941   785
18.1041   764
18.1141   778
18.1241   788
18.1341   767
18.1441   767
18.1541   756
18.1641   778
18.1741   747
18.1841   777
18.1941   789
18.2041   780
18.2141   728
18.2241   727
18.2341   740
18.2441   757
18.2541   753
18.2641   777
18.2741   767
18.2841   764
18.2941   771
18.3041   742
18.3141   800
18.3241   788
18.3341   817
18.3441   800
18.3541   796
18.3641   769
18.3741   757
18.3841   766
18.3941   758
18.4041   782
18.4141   829
18.4241   811
18.4341   782
18.4441   768
18.4541   805
18.4641   790
18.4741   806
18.4841   800
18.4941   772
18.5041   757
18.5141   835
18.5241   862
18.5341   826
18.5441   798
18.5541   790
18.5641   797
18.5741   833
18.5841   811
18.5941   816
18.6041   830
18.6141   815
18.6241   827
18.6341   836
18.6441   804
18.6541   825
18.6641   836
18.6741   856
18.6841   846
18.6941   852
18.7041   846
18.7141   807
18.7241   838
18.7341   851
18.7441   821
18.7541   816
18.7641   783
18.7741   835
18.7841   819
18.7941   803
18.8041   826
18.8141   820
18.8241   820
18.8341   842
18.8441   868
18.8541   858
18.8641   842
18.8741   834
18.8841   784
18.8941   831
18.9041   810
18.9141   818
18.9241   861
18.9341   824
18.9441   827
18.9541   840
18.9641   813
18.9741   851
18.9841   891
18.9941   832
19.0041   836
19.0141   895
19.0241   846
19.0341   852
19.0441   845
19.0541   866
19.0641   879
19.0741   837
19.0841   844
19.0941   858
19.1041   839
19.1141   818
19.1241   838
19.1341   843
19.1441   867
19.1541   872
19.1641   854
19.1741   880
19.1841   835
19.1941   849
19.2041   873
19.2141   913
19.2241   851
19.2341   825
19.2441   835
19.2541   858
19.2641   878
19.2741   858
19.2841   827
19.2941   873
19.3041   860
19.3141   863
19.3241   842
19.3341   884
19.3441   888
19.3541   857
19.3641   904
19.3741   871
19.3841   895
19.3941   880
19.4041   885
19.4141   907
19.4241   880
19.4341   875
19.4441   850
19.4541   874
19.4641   907
19.4741   874
19.4841   815
19.4941   855
19.5041   890
19.5141   875
19.5241   912
19.5341   911
19.5441   869
19.5541   887
19.5641   911
19.5741   925
19.5841   873
19.5941   873
19.6041   903
19.6141   897
19.6241   911
19.6341   902
19.6441   949
19.6541   948
19.6641   866
19.6741   870
19.6841   865
19.6941   906
19.7041   903
19.7141   894
19.7241   869
19.7341   881
19.7441   861
19.7541   903
19.7641   906
19.7741   843
19.7841   907
19.7941   904
19.8041   863
19.8141   866
19.8241   917
19.8341   930
19.8441   898
19.8541   909
19.8641   928
19.8741   903
19.8841   942
19.8941   908
19.9041   914
19.9141   886
19.9241   868
19.9341   909
19.9441   909
19.9541   920
19.9641   925
19.9741   890
19.9841   877
19.9941   923
20.0041   903
20.0141   933
20.0241   905
20.0341   908
20.0441   945
20.0541   917
20.0641   922
20.0741   911
20.0841   949
20.0941   931
20.1041   956
20.1141   914
20.1241   926
20.1341   894
20.1441   917
20.1541   942
20.1641   929
20.1741   900
20.1841   921
20.1941   897
20.2041   926
20.2141   917
20.2241   905
20.2341   932
20.2441   906
20.2541   912
20.2641   952
20.2741   912
20.2841   926
20.2941   919
20.3041   913
20.3141   913
20.3241   930
20.3341   916
20.3441   898
20.3541   911
20.3641   912
20.3741   952
20.3841   935
20.3941   940
20.4041   931
20.4141   887
20.4241   950
20.4341   928
20.4441   968
20.4541   968
20.4641   953
20.4741   914
20.4841   987
20.4941   974
20.5041   989
20.5141   935
20.5241   939
20.5341   942
20.5441   960
20.5541   937
20.5641   935
20.5741   955
20.5841   965
20.5941   953
20.6041   981
20.6141   941
20.6241   902
20.6341   953
20.6441   965
20.6541   921
20.6641   882
20.6741   908
20.6841   945
20.6941   941
20.7041   959
20.7141   936
20.7241   974
20.7341   964
20.7441   975
20.7541   893
20.7641   943
20.7741   984
20.7841   930
20.7941  1003
20.8041   962
20.8141  1003
20.8241  1022
20.8341  1031
20.8441  1029
20.8541  1032
20.8641  1093
20.8741  1086
20.8841  1043
20.8941  1097
20.9041  1107
20.9141  1112
20.9241  1151
20.9341  1161
20.9441  1138
20.9541  1221
20.9641  1299
20.9741  1301
20.9841  1224
20.9941  1361
21.0041  1340
21.0141  1423
21.0241  1441
21.0341  1327
21.0441  1361
21.0541  1476
21.0641  1486
21.0741  1501
21.0841  1486
21.0941  1542
21.1041  1524
21.1141  1534
21.1241  1507
21.1341  1493
21.1441  1563
21.1541  1584
21.1641  1557
21.1741  1505
21.1841  1511
21.1941  1486
21.2041  1418
21.2141  1471
21.2241  1431
21.2341  1374
21.2441  1281
21.2541  1333
21.2641  1326
21.2741  1274
21.2841  1223
21.2941  1176
21.3041  1132
21.3141  1134
21.3241  1153
21.3341  1161
21.3441  1080
21.3541  1014
21.3641  1020
21.3741  1054
21.3841  1055
21.3941   994
21.4041  1035
21.4141  1079
21.4241   994
21.4341  1004
21.4441   975
21.4541   973
21.4641  1026
21.4741   981
21.4841   950
21.4941   990
21.5041   994
21.5141  1021
21.5241   995
21.5341   980
21.5441   914
21.5541  1038
21.5641   998
21.5741   962
21.5841   982
21.5941  1010
21.6041   957
21.6141  1003
21.6241  1004
21.6341  1015
21.6441  1025
21.6541  1027
21.6641  1003
21.6741   957
21.6841   990
21.6941   969
21.7041   981
21.7141   977
21.7241  1018
21.7341   968
21.7441   960
21.7541   925
21.7641   966
21.7741  1003
21.7841  1006
21.7941   999
21.8041   993
21.8141  1009
21.8241  1046
21.8341  1000
21.8441   974
21.8541  1019
21.8641  1044
21.8741   982
21.8841   938
21.8941   959
21.9041  1002
21.9141  1033
21.9241  1055
21.9341   975
21.9441   973
21.9541   926
21.9641   977
21.9741   964
21.9841   938
21.9941   989
22.0041  1000
22.0141   977
22.0241  1043
22.0341  1049
22.0441  1015
22.0541   989
22.0641  1018
22.0741   962
22.0841   948
22.0941  1024
22.1041   992
22.1141  1005
22.1241   952
22.1341   952
22.1441  1002
22.1541   993
22.1641  1014
22.1741  1032
22.1841   989
22.1941   969
22.2041   986
22.2141   982
22.2241   976
22.2341  1000
22.2441   961
22.2541  1020
22.2641  1013
22.2741  1008
22.2841   989
22.2941   992
22.3041   984
22.3141   971
22.3241  1021
22.3341  1018
22.3441  1005
22.3541   948
22.3641  1011
22.3741  1030
22.3841  1022
22.3941   973
22.4041   986
22.4141   987
22.4241  1006
22.4341   983
22.4441   953
22.4541  1028
22.4641   979
22.4741   967
22.4841   992
22.4941   958
22.5041  1018
22.5141  1052
22.5241  1031
22.5341   989
22.5441   992
22.5541  1006
22.5641  1037
22.5741   972
22.5841   973
22.5941  1036
22.6041  1046
22.6141   980
22.6241  1032
22.6341  1024
22.6441   968
22.6541   941
22.6641   964
22.6741  1007
22.6841   991
22.6941  1066
22.7041   971
22.7141  1015
22.7241  1004
22.7341   957
22.7441   972
22.7541  1020
22.7641   972
22.7741   992
22.7841   965
22.7941   965
22.8041   966
22.8141   972
22.8241   944
22.8341   934
22.8441   966
22.8541   981
22.8641   922
22.8741   971
22.8841   935
22.8941   971
22.9041   966
22.9141  1020
22.9241   993
22.9341  1003
22.9441   949
22.9541  1027
22.9641   957
22.9741   950
22.9841   988
22.9941   987
23.0041   977
23.0141   994
23.0241   969
23.0341  1007
23.0441   979
23.0541   997
23.0641  1019
23.0741   987
23.0841  1004
23.0941   969
23.1041   969
23.1141  1055
23.1241   945
23.1341   958
23.1441   973
23.1541  1019
23.1641   952
23.1741  1015
23.1841   950
23.1941   967
23.2041  1020
23.2141   990
23.2241  1029
23.2341  1045
23.2441   989
23.2541   945
23.2641   987
23.2741   993
23.2841   986
23.2941   971
23.3041   941
23.3141   985
23.3241   966
23.3341   957
23.3441  1007
23.3541  1005
23.3641  1018
23.3741   938
23.3841   962
23.3941   949
23.4041   962
23.4141   922
23.4241   949
23.4341   941
23.4441   989
23.4541   989
23.4641   995
23.4741  1003
23.4841   953
23.4941   999
23.5041   961
23.5141   937
23.5241   940
23.5341   938
23.5441   977
23.5541   980
23.5641  1017
23.5741  1035
23.5841   986
23.5941   997
23.6041  1023
23.6141  1012
23.6241   945
23.6341  1013
23.6441  1026
23.6541   994
23.6641  1057
23.6741   971
23.6841  1044
23.6941  1031
23.7041   981
23.7141  1072
23.7241  1069
23.7341  1058
23.7441  1021
23.7541  1002
23.7641  1060
23.7741  1056
23.7841  1094
23.7941  1083
23.8041  1070
23.8141  1086
23.8241  1092
23.8341  1099
23.8441  1050
23.8541  1022
23.8641  1050
23.8741  1033
23.8841  1007
23.8941  1023
23.9041  1016
23.9141  1056
23.9241   993
23.9341   965
23.9441  1020
23.9541   968
23.9641  1026
23.9741  1041
23.9841  1037
23.9941  1002
24.0041  1012
24.0141   988
24.0241   968
24.0341   985
24.0441   970
24.0541   951
24.0641  1020
24.0741   966
24.0841   968
24.0941  1011
24.1041   957
24.1141  1010
24.1241   932
24.1341   958
24.1441   932
24.1541   938
24.1641   918
24.1741   943
24.1841   955
24.1941   927
24.2041   913
24.2141   891
24.2241   966
24.2341   923
24.2441   938
24.2541  1021
24.2641   968
24.2741   973
24.2841   902
24.2941   953
24.3041   925
24.3141   959
24.3241   911
24.3341   927
24.3441   949
24.3541  1002
24.3641   991
24.3741   985
24.3841   945
24.3941   945
24.4041   917
24.4141   905
24.4241   887
24.4341   940
24.4441  1001
24.4541   935
24.4641   920
24.4741   966
24.4841   937
24.4941   913
24.5041   931
24.5141  1005
24.5241   945
24.5341   925
24.5441   936
24.5541   911
24.5641   917
24.5741   914
24.5841   936
24.5941   937
24.6041   917
24.6141   913
24.6241   970
24.6341   896
24.6441   968
24.6541   962
24.6641   895
24.6741   961
24.6841   932
24.6941   881
24.7041   916
24.7141   953
24.7241   973
24.7341   923
24.7441   947
24.7541   918
24.7641   944
24.7741   941
24.7841   934
24.7941   908
24.8041   908
24.8141   911
24.8241   902
24.8341   914
24.8441   883
24.8541   862
24.8641   895
24.8741   941
24.8841   919
24.8941   928
24.9041   927
24.9141   951
24.9241   946
24.9341   906
24.9441   901
24.9541   884
24.9641   909
24.9741   910
24.9841   947
24.9941   942
25.0041   932
25.0141   910
25.0241   945
25.0341   921
25.0441   913
25.0541   936
25.0641   930
25.0741   918
25.0841   958
25.0941   884
25.1041   910
25.1141   915
25.1241   873
25.1341   963
25.1441   975
25.1541   909
25.1641   895
25.1741   864
25.1841   949
25.1941   894
25.2041   924
25.2141   934
25.2241   950
25.2341   926
25.2441   927
25.2541   939
25.2641   909
25.2741   985
25.2841   869
25.2941   905
25.3041   889
25.3141   907
25.3241   959
25.3341   912
25.3441   924
25.3541   916
25.3641   953
25.3741   917
25.3841   896
25.3941   931
25.4041   857
25.4141   901
25.4241   936
25.4341   910
25.4441   877
25.4541   879
25.4641   897
25.4741   916
25.4841   874
25.4941   879
25.5041   881
25.5141   875
25.5241   895
25.5341   882
25.5441   879
25.5541   886
25.5641   842
25.5741   906
25.5841   879
25.5941   859
25.6041   886
25.6141   880
25.6241   864
25.6341   853
25.6441   865
25.6541   878
25.6641   858
25.6741   831
25.6841   870
25.6941   860
25.7041   855
25.7141   860
25.7241   847
25.7341   888
25.7441   828
25.7541   827
25.7641   862
25.7741   882
25.7841   890
25.7941   887
25.8041   847
25.8141   871
25.8241   808
25.8341   900
25.8441   889
25.8541   846
25.8641   844
25.8741   813
25.8841   867
25.8941   905
25.9041   851
25.9141   869
25.9241   884
25.9341   853
25.9441   841
25.9541   859
25.9641   864
25.9741   873
25.9841   865
25.9941   832
26.0041   844
26.0141   858
26.0241   792
26.0341   838
26.0441   885
26.0541   855
26.0641   837
26.0741   910
26.0841   832
26.0941   811
26.1041   824
26.1141   833
26.1241   812
26.1341   849
26.1441   830
26.1541   799
26.1641   804
26.1741   839
26.1841   819
26.1941   799
26.2041   823
26.2141   804
26.2241   775
26.2341   797
26.2441   871
26.2541   830
26.2641   816
26.2741   825
26.2841   849
26.2941   788
26.3041   797
26.3141   849
26.3241   820
26.3341   784
26.3441   868
26.3541   845
26.3641   857
26.3741   860
26.3841   846
26.3941   804
26.4041   836
26.4141   852
26.4241   812
26.4341   764
26.4441   802
26.4541   786
26.4641   842
26.4741   769
26.4841   781
26.4941   776
26.5041   832
26.5141   781
26.5241   807
26.5341   820
26.5441   801
26.5541   841
26.5641   828
26.5741   819
26.5841   792
26.5941   803
26.6041   815
26.6141   829
26.6241   829
26.6341   788
26.6441   776
26.6541   840
26.6641   827
26.6741   767
26.6841   785
26.6941   761
26.7041   774
26.7141   765
26.7241   794
26.7341   768
26.7441   829
26.7541   798
26.7641   745
26.7741   798
26.7841   826
26.7941   825
26.8041   822
26.8141   816
26.8241   787
26.8341   787
26.8441   763
26.8541   775
26.8641   781
26.8741   730
26.8841   841
26.8941   766
26.9041   753
26.9141   877
26.9241   809
26.9341   780
26.9441   772
26.9541   789
26.9641   756
26.9741   813
26.9841   807
26.9941   777
27.0041   791
27.0141   758
27.0241   801
27.0341   796
27.0441   790
27.0541   801
27.0641   760
27.0741   778
27.0841   779
27.0941   759
27.1041   793
27.1141   793
27.1241   757
27.1341   780
27.1441   770
27.1541   780
27.1641   789
27.1741   769
27.1841   784
27.1941   775
27.2041   715
27.2141   749
27.2241   721
27.2341   760
27.2441   747
27.2541   747
27.2641   771
27.2741   735
27.2841   809
27.2941   798
27.3041   747
27.3141   760
27.3241   704
27.3341   765
27.3441   760
27.3541   825
27.3641   779
27.3741   722
27.3841   764
27.3941   811
27.4041   762
27.4141   811
27.4241   753
27.4341   773
27.4441   803
27.4541   750
27.4641   782
27.4741   747
27.4841   767
27.4941   766
27.5041   760
27.5141   789
27.5241   734
27.5341   764
27.5441   763
27.5541   731
27.5641   749
27.5741   768
27.5841   751
27.5941   727
27.6041   746
27.6141   759
27.6241   759
27.6341   750
27.6441   743
27.6541   781
27.6641   720
27.6741   710
27.6841   661
27.6941   719
27.7041   710
27.7141   752
27.7241   734
27.7341   715
27.7441   741
27.7541   704
27.7641   732
27.7741   707
27.7841   740
27.7941   724
27.8041   724
27.8141   682
27.8241   732
27.8341   734
27.8441   709
27.8541   706
27.8641   722
27.8741   720
27.8841   733
27.8941   736
27.9041   688
27.9141   691
27.9241   709
27.9341   725
27.9441   745
27.9541   709
27.9641   671
27.9741   706
27.9841   716
27.9941   671
28.0041   680
28.0141   688
28.0241   705
28.0341   694
28.0441   686
28.0541   696
28.0641   743
28.0741   678
28.0841   707
28.0941   718
28.1041   676
28.1141   647
28.1241   638
28.1341   708
28.1441   713
28.1541   689
28.1641   666
28.1741   692
28.1841   619
28.1941   635
28.2041   674
28.2141   659
28.2241   637
28.2341   663
28.2441   688
28.2541   670
28.2641   721
28.2741   695
28.2841   651
28.2941   668
28.3041   662
28.3141   687
28.3241   652
28.3341   721
28.3441   697
28.3541   682
28.3641   717
28.3741   670
28.3841   646
28.3941   718
28.4041   674
28.4141   662
28.4241   648
28.4341   654
28.4441   661
28.4541   675
28.4641   682
28.4741   672
28.4841   635
28.4941   665
28.5041   614
28.5141   700
28.5241   660
28.5341   714
28.5441   658
28.5541   658
28.5641   640
28.5741   685
28.5841   680
28.5941   670
28.6041   668
28.6141   665
28.6241   657
28.6341   659
28.6441   667
28.6541   673
28.6641   659
28.6741   639
28.6841   657
28.6941   688
28.7041   605
28.7141   663
28.7241   660
28.7341   663
28.7441   631
28.7541   685
28.7641   629
28.7741   674
28.7841   664
28.7941   643
28.8041   666
28.8141   644
28.8241   649
28.8341   656
28.8441   616
28.8541   623
28.8641   631
28.8741   602
28.8841   653
28.8941   654
28.9041   594
28.9141   631
28.9241   653
28.9341   630
28.9441   607
28.9541   638
28.9641   611
28.9741   579
28.9841   578
28.9941   652
29.0041   592
29.0141   628
29.0241   640
29.0341   667
29.0441   632
29.0541   652
29.0641   620
29.0741   624
29.0841   586
29.0941   611
29.1041   585
29.1141   557
29.1241   592
29.1341   635
29.1441   656
29.1541   576
29.1641   588
29.1741   599
29.1841   606
29.1941   573
29.2041   555
29.2141   626
29.2241   611
29.2341   619
29.2441   638
29.2541   610
29.2641   581
29.2741   621
29.2841   595
29.2941   595
29.3041   607
29.3141   597
29.3241   575
29.3341   611
29.3441   609
29.3541   566
29.3641   598
29.3741   613
29.3841   594
29.3941   592
29.4041   615
29.4141   603
29.4241   617
29.4341   579
29.4441   582
29.4541   574
29.4641   568
29.4741   581
29.4841   573
29.4941   605
29.5041   628
29.5141   547
29.5241   585
29.5341   579
29.5441   567
29.5541   580
29.5641   555
29.5741   573
29.5841   588
29.5941   608
29.6041   567
29.6141   579
29.6241   615
29.6341   552
29.6441   520
29.6541   504
29.6641   601
29.6741   603
29.6841   560
29.6941   629
29.7041   574
29.7141   613
29.7241   560
29.7341   549
29.7441   569
29.7541   606
29.7641   572
29.7741   553
29.7841   590
29.7941   567
29.8041   580
29.8141   574
29.8241   561
29.8341   550
29.8441   588
29.8541   531
29.8641   578
29.8741   528
29.8841   554
29.8941   548
29.9041   578
29.9141   538
29.9241   572
29.9341   529
29.9441   562
29.9541   515
29.9641   563
29.9741   588
29.9841   564
29.9941   556
30.0041   567
30.0141   577
30.0241   543
30.0341   528
30.0441   519
30.0541   547
30.0641   561
30.0741   570
30.0841   539
30.0941   534
30.1041   570
30.1141   593
30.1241   580
30.1341   547
30.1441   509
30.1541   533
30.1641   563
30.1741   550
30.1841   539
30.1941   559
30.2041   525
30.2141   531
30.2241   564
30.2341   546
30.2441   517
30.2541   509
30.2641   521
30.2741   549
30.2841   545
30.2941   546
30.3041   589
30.3141   508
30.3241   514
30.3341   542
30.3441   551
30.3541   557
30.3641   537
30.3741   552
30.3841   515
30.3941   516
30.4041   556
30.4141   532
30.4241   513
30.4341   524
30.4441   564
30.4541   530
30.4641   528
30.4741   507
30.4841   531
30.4941   539
30.5041   511
30.5141   464
30.5241   463
30.5341   473
30.5441   502
30.5541   532
30.5641   503
30.5741   524
30.5841   528
30.5941   499
30.6041   504
30.6141   523
30.6241   484
30.6341   484
30.6441   539
30.6541   496
30.6641   477
30.6741   479
30.6841   498
30.6941   499
30.7041   488
30.7141   483
30.7241   487
30.7341   484
30.7441   490
30.7541   504
30.7641   514
30.7741   499
30.7841   483
30.7941   452
30.8041   484
30.8141   502
30.8241   520
30.8341   516
30.8441   430
30.8541   482
30.8641   483
30.8741   478
30.8841   491
30.8941   495
30.9041   464
30.9141   479
30.9241   496
30.9341   516
30.9441   509
30.9541   468
30.9641   495
30.9741   471
30.9841   513
30.9941   474
31.0041   484
31.0141   478
31.0241   453
31.0341   491
31.0441   494
31.0541   518
31.0641   467
31.0741   466
31.0841   472
31.0941   467
31.1041   487
31.1141   478
31.1241   478
31.1341   473
31.1441   488
31.1541   485
31.1641   470
31.1741   484
31.1841   489
31.1941   457
31.2041   475
31.2141   446
31.2241   501
31.2341   487
31.2441   482
31.2541   463
31.2641   435
31.2741   464
31.2841   442
31.2941   483
31.3041   477
31.3141   464
31.3241   461
31.3341   428
31.3441   493
31.3541   473
31.3641   470
31.3741   481
31.3841   467
31.3941   417
31.4041   455
31.4141   440
31.4241   438
31.4341   459
31.4441   443
31.4541   461
31.4641   480
31.4741   423
31.4841   448
31.4941   476
31.5041   447
31.5141   432
31.5241   475
31.5341   454
31.5441   479
31.5541   454
31.5641   420
31.5741   426
31.5841   475
31.5941   400
31.6041   454
31.6141   416
31.6241   481
31.6341   437
31.6441   457
31.6541   471
31.6641   435
31.6741   452
31.6841   463
31.6941   452
31.7041   447
31.7141   449
31.7241   446
31.7341   443
31.7441   445
31.7541   404
31.7641   460
31.7741   449
31.7841   471
31.7941   444
31.8041   476
31.8141   479
31.8241   433
31.8341   441
31.8441   452
31.8541   488
31.8641   461
31.8741   449
31.8841   454
31.8941   440
31.9041   459
31.9141   468
31.9241   413
31.9341   449
31.9441   469
31.9541   514
31.9641   457
31.9741   455
31.9841   453
31.9941   434
32.0041   442
32.0141   468
32.0241   445
32.0341   457
32.0441   497
32.0541   480
32.0641   462
32.0741   460
32.0841   437
32.0941   478
32.1041   472
32.1141   488
32.1241   438
32.1341   438
32.1441   460
32.1541   472
32.1641   438
32.1741   444
32.1841   458
32.1941   447
32.2041   458
32.2141   428
32.2241   458
32.2341   460
32.2441   492
32.2541   463
32.2641   464
32.2741   447
32.2841   452
32.2941   491
32.3041   450
32.3141   440
32.3241   457
32.3341   414
32.3441   433
32.3541   411
32.3641   395
32.3741   419
32.3841   424
32.3941   420
32.4041   439
32.4141   406
32.4241   375
32.4341   371
32.4441   410
32.4541   412
32.4641   418
32.4741   414
32.4841   382
32.4941   387
32.5041   376
32.5141   372
32.5241   359
32.5341   398
32.5441   406
32.5541   384
32.5641   368
32.5741   398
32.5841   378
32.5941   365
32.6041   369
32.6141   387
32.6241   391
32.6341   398
32.6441   377
32.6541   366
32.6641   376
32.6741   383
32.6841   351
32.6941   387
32.7041   357
32.7141   363
32.7241   349
32.7341   373
32.7441   348
32.7541   379
32.7641   386
32.7741   372
32.7841   351
32.7941   400
32.8041   373
32.8141   341
32.8241   357
32.8341   353
32.8441   353
32.8541   335
32.8641   339
32.8741   375
32.8841   346
32.8941   360
32.9041   352
32.9141   378
32.9241   330
32.9341   346
32.9441   340
32.9541   373
32.9641   368
32.9741   317
32.9841   381
32.9941   356
33.0041   330
33.0141   336
33.0241   359
33.0341   350
33.0441   365
33.0541   338
33.0641   372
33.0741   330
33.0841   340
33.0941   331
33.1041   332
33.1141   354
33.1241   327
33.1341   351
33.1441   342
33.1541   339
33.1641   326
33.1741   321
33.1841   303
33.1941   325
33.2041   347
33.2141   345
33.2241   340
33.2341   331
33.2441   343
33.2541   314
33.2641   309
33.2741   306
33.2841   326
33.2941   313
33.3041   329
33.3141   310
33.3241   347
33.3341   317
33.3441   339
33.3541   353
33.3641   340
33.3741   338
33.3841   332
33.3941   279
33.4041   322
33.4141   334
33.4241   335
33.4341   321
33.4441   327
33.4541   310
33.4641   315
33.4741   327
33.4841   331
33.4941   326
33.5041   302
33.5141   314
33.5241   321
33.5341   312
33.5441   345
33.5541   316
33.5641   310
33.5741   358
33.5841   320
33.5941   302
33.6041   295
33.6141   314
33.6241   297
33.6341   307
33.6441   309
33.6541   352
33.6641   322
33.6741   304
33.6841   316
33.6941   326
33.7041   294
33.7141   321
33.7241   314
33.7341   319
33.7441   314
33.7541   322
33.7641   330
33.7741   317
33.7841   323
33.7941   292
33.8041   316
33.8141   304
33.8241   313
33.8341   300
33.8441   287
33.8541   317
33.8641   289
33.8741   302
33.8841   294
33.8941   295
33.9041   331
33.9141   283
33.9241   279
33.9341   317
33.9441   314
33.9541   297
33.9641   285
33.9741   291
33.9841   300
33.9941   315
34.0041   293
34.0141   273
34.0241   305
34.0341   294
34.0441   293
34.0541   315
34.0641   281
34.0741   289
34.0841   287
34.0941   297
34.1041   279
34.1141   283
34.1241   277
34.1341   274
34.1441   287
34.1541   270
34.1641   295
34.1741   276
34.1841   294
34.1941   283
34.2041   270
34.2141   284
34.2241   302
34.2341   270
34.2441   300
34.2541   273
34.2641   263
34.2741   298
34.2841   254
34.2941   276
34.3041   242
34.3141   295
34.3241   263
34.3341   288
34.3441   301
34.3541   292
34.3641   294
34.3741   250
34.3841   302
34.3941   279
34.4041   287
34.4141   267
34.4241   259
34.4341   264
34.4441   267
34.4541   258
34.4641   252
34.4741   267
34.4841   265
34.4941   258
34.5041   287
34.5141   258
34.5241   268
34.5341   245
34.5441   268
34.5541   263
34.5641   268
34.5741   274
34.5841   252
34.5941   276
34.6041   238
34.6141   266
34.6241   260
34.6341   243
34.6441   258
34.6541   252
34.6641   255
34.6741   259
34.6841   260
34.6941   254
34.7041   292
34.7141   223
34.7241   263
34.7341   268
34.7441   243
34.7541   266
34.7641   260
34.7741   257
34.7841   243
34.7941   264
34.8041   240
34.8141   227
34.8241   263
34.8341   252
34.8441   241
34.8541   230
34.8641   254
34.8741   232
34.8841   251
34.8941   235
34.9041   242
34.9141   262
34.9241   239
34.9341   230
34.9441   268
34.9541   279
34.9641   244
34.9741   229
34.9841   235
34.9941   243
35.0041   245
35.0141   245
35.0241   243
35.0341   247
35.0441   231
35.0541   225
35.0641   233
35.0741   235
35.0841   222
35.0941   226
35.1041   220
35.1141   222
35.1241   242
35.1341   204
35.1441   240
35.1541   256
35.1641   231
35.1741   247
35.1841   228
35.1941   245
35.2041   243
35.2141   226
35.2241   213
35.2341   256
35.2441   196
35.2541   246
35.2641   199
35.2741   230
35.2841   233
35.2941   263
35.3041   220
35.3141   242
35.3241   263
35.3341   232
35.3441   215
35.3541   207
35.3641   230
35.3741   216
35.3841   212
35.3941   209
35.4041   215
35.4141   223
35.4241   191
35.4341   222
35.4441   234
35.4541   239
35.4641   231
35.4741   236
35.4841   203
35.4941   216
35.5041   229
35.5141   224
35.5241   217
35.5341   235
35.5441   214
35.5541   222
35.5641   217
35.5741   232
35.5841   216
35.5941   181
35.6041   214
35.6141   217
35.6241   227
35.6341   204
35.6441   228
35.6541   207
35.6641   232
35.6741   212
35.6841   197
35.6941   211
35.7041   217
35.7141   231
35.7241   222
35.7341   194
35.7441   231
35.7541   212
35.7641   215
35.7741   220
35.7841   219
35.7941   204
35.8041   215
35.8141   203
35.8241   206
35.8341   183
35.8441   186
35.8541   177
35.8641   186
35.8741   213
35.8841   176
35.8941   202
35.9041   191
35.9141   196
35.9241   222
35.9341   205
35.9441   215
35.9541   188
35.9641   182
35.9741   204
35.9841   183
35.9941   188
36.0041   195
36.0141   195
36.0241   183
36.0341   224
36.0441   192
36.0541   204
36.0641   199
36.0741   196
36.0841   194
36.0941   183
36.1041   194
36.1141   220
36.1241   202
36.1341   201
36.1441   196
36.1541   185
36.1641   198
36.1741   185
36.1841   205
36.1941   197
36.2041   192
36.2141   204
36.2241   203
36.2341   209
36.2441   211
36.2541   204
36.2641   181
36.2741   201
36.2841   196
36.2941   201
36.3041   202
36.3141   182
36.3241   184
36.3341   192
36.3441   204
36.3541   200
36.3641   201
36.3741   218
36.3841   202
36.3941   195
36.4041   192
36.4141   191
36.4241   188
36.4341   200
36.4441   210
36.4541   193
36.4641   217
36.4741   186
36.4841   180
36.4941   188
36.5041   178
36.5141   188
36.5241   194
36.5341   185
36.5441   159
36.5541   167
36.5641   162
36.5741   180
36.5841   180
36.5941   182
36.6041   175
36.6141   163
36.6241   163
36.6341   158
36.6441   145
36.6541   159
36.6641   174
36.6741   165
36.6841   175
36.6941   155
36.7041   179
36.7141   163
36.7241   146
36.7341   173
36.7441   184
36.7541   177
36.7641   174
36.7741   182
36.7841   163
36.7941   176
36.8041   177
36.8141   160
36.8241   154
36.8341   173
36.8441   167
36.8541   175
36.8641   173
36.8741   157
36.8841   166
36.8941   145
36.9041   162
36.9141   159
36.9241   153
36.9341   158
36.9441   163
36.9541   143
36.9641   168
36.9741   169
36.9841   156
36.9941   151
37.0041   160
37.0141   165
37.0241   133
37.0341   154
37.0441   175
37.0541   143
37.0641   139
37.0741   161
37.0841   178
37.0941   142
37.1041   173
37.1141   162
37.1241   146
37.1341   134
37.1441   126
37.1541   140
37.1641   165
37.1741   148
37.1841   134
37.1941   139
37.2041   152
37.2141   171
37.2241   146
37.2341   155
37.2441   152
37.2541   165
37.2641   149
37.2741   145
37.2841   127
37.2941   158
37.3041   149
37.3141   147
37.3241   135
37.3341   143
37.3441   153
37.3541   168
37.3641   140
37.3741   132
37.3841   152
37.3941   157
37.4041   137
37.4141   149
37.4241   132
37.4341   137
37.4441   139
37.4541   140
37.4641   147
37.4741   137
37.4841   139
37.4941   120
37.5041   141
37.5141   153
37.5241   128
37.5341   156
37.5441   127
37.5541   137
37.5641   131
37.5741   134
37.5841   147
37.5941   141
37.6041   137
37.6141   123
37.6241   145
37.6341   125
37.6441   156
37.6541   125
37.6641   137
37.6741   133
37.6841   137
37.6941   123
37.7041   121
37.7141   131
37.7241   119
37.7341   129
37.7441   120
37.7541   143
37.7641   121
37.7741   116
37.7841   123
37.7941   133
37.8041   117
37.8141   135
37.8241   128
37.8341   131
37.8441   127
37.8541   142
37.8641   135
37.8741   122
37.8841   139
37.8941   123
37.9041   126
37.9141   124
37.9241   120
37.9341   149
37.9441   116
37.9541   122
37.9641   124
37.9741   123
37.9841   120
37.9941   106
38.0041   122
38.0141   118
38.0241   120
38.0341   117
38.0441   144
38.0541   128
38.0641   111
38.0741   113
38.0841   129
38.0941   126
38.1041   132
38.1141   111
38.1241   102
38.1341   123
38.1441   139
38.1541   107
38.1641   122
38.1741   111
38.1841   113
38.1941   101
38.2041   103
38.2141   109
38.2241   117
38.2341   126
38.2441   111
38.2541   112
38.2641   115
38.2741   102
38.2841   125
38.2941   117
38.3041    91
38.3141   107
38.3241   109
38.3341    99
38.3441    98
38.3541   114
38.3641   103
38.3741   117
38.3841   120
38.3941   106
38.4041   115
38.4141    98
38.4241   109
38.4341   101
38.4441   106
38.4541   106
38.4641   101
38.4741   110
38.4841   103
38.4941    99
38.5041   115
38.5141    98
38.5241   101
38.5341   106
38.5441    92
38.5541   102
38.5641   103
38.5741    97
38.5841   101
38.5941   112
38.6041    97
38.6141    77
38.6241    83
38.6341   117
38.6441   106
38.6541   101
38.6641   114
38.6741    96
38.6841   109
38.6941   102
38.7041   123
38.7141    95
38.7241    87
38.7341   100
38.7441    88
38.7541    94
38.7641   103
38.7741    96
38.7841   120
38.7941   105
38.8041    88
38.8141    99
38.8241    84
38.8341   100
38.8441    94
38.8541    91
38.8641    98
38.8741    93
38.8841    85
38.8941    76
38.9041    88
38.9141    91
38.9241    85
38.9341    94
38.9441    99
38.9541    86
38.9641    94
38.9741    78
38.9841    91
38.9941    92
39.0041    93
39.0141    83
39.0241    82
39.0341    77
39.0441    84
39.0541    97
39.0641    88
39.0741    84
39.0841    87
39.0941    79
39.1041   102
39.1141    89
39.1241    93
39.1341    89
39.1441    91
39.1541    74
39.1641    89
39.1741    85
39.1841    89
39.1941    85
39.2041    83
39.2141    75
39.2241    79
39.2341    90
39.2441   101
39.2541    91
39.2641    89
39.2741    82
39.2841    85
39.2941    82
39.3041    73
39.3141    95
39.3241    89
39.3341    82
39.3441    91
39.3541    85
39.3641    75
39.3741    85
39.3841    76
39.3941    71
39.4041    70
39.4141    90
39.4241    68
39.4341    81
39.4441    83
39.4541    69
39.4641    70
39.4741   108
39.4841    82
39.4941    80
39.5041    70
39.5141    80
39.5241    75
39.5341    88
39.5441    74
39.5541    78
39.5641    77
39.5741    70
39.5841    80
39.5941    72
39.6041    73
39.6141    61
39.6241    67
39.6341    80
39.6441    76
39.6541    77
39.6641    78
39.6741    80
39.6841    79
39.6941    77
39.7041    68
39.7141    69
39.7241    69
39.7341    71
39.7441    86
39.7541    53
39.7641    81
39.7741    52
39.7841    65
39.7941    68
39.8041    65
39.8141    58
39.8241    58
39.8341    66
39.8441    74
39.8541    72
39.8641    65
39.8741    56
39.8841    58
39.8941    53
39.9041    68
39.9141    65
39.9241    65
39.9341    65
39.9441    76
39.9541    85
39.9641    63
39.9741    77
39.9841    48
39.9941    71
