Bruker Nano GmbH Berlin, Germany
Esprit 1.9

Date: 4/21/2021 1:33:59 PM
Real time: 24376
Life time: 22905
Pulse density: 88197


Detector type: XFlash 430
Window type: Custom type
Detector thickness: 0.45
Si dead layer:0.029

Calibration, lin.: 10
Calibration, abs.: -955.9
Mn FWHM: 137.05
Fano factor: 0.121
Channels: 4095

Energy Counts
-0.9559     0
-0.9459     0
-0.9359     0
-0.9259     0
-0.9159     0
-0.9059     0
-0.8959     0
-0.8859     0
-0.8759     0
-0.8659     0
-0.8559     0
-0.8459     0
-0.8359     0
-0.8259     0
-0.8159     0
-0.8059     0
-0.7959     0
-0.7859     0
-0.7759     0
-0.7659     0
-0.7559     0
-0.7459     0
-0.7359     0
-0.7259     0
-0.7159     0
-0.7059     0
-0.6959     0
-0.6859     0
-0.6759     0
-0.6659     0
-0.6559     0
-0.6459     0
-0.6359     0
-0.6259     0
-0.6159     0
-0.6059     0
-0.5959     0
-0.5859     0
-0.5759     0
-0.5659     0
-0.5559     0
-0.5459     0
-0.5359     0
-0.5259     0
-0.5159     0
-0.5059     0
-0.4959     0
-0.4859     0
-0.4759     0
-0.4659     0
-0.4559     0
-0.4459     0
-0.4359     0
-0.4259     0
-0.4159     0
-0.4059     0
-0.3959     0
-0.3859     0
-0.3759     0
-0.3659     0
-0.3559     0
-0.3459     0
-0.3359     0
-0.3259     0
-0.3159     0
-0.3059     0
-0.2959     0
-0.2859     0
-0.2759     0
-0.2659     0
-0.2559     0
-0.2459     0
-0.2359     0
-0.2259     0
-0.2159     0
-0.2059     0
-0.1959     0
-0.1859     0
-0.1759     0
-0.1659     0
-0.1559     0
-0.1459     0
-0.1359     0
-0.1259     1
-0.1159     3
-0.1059    15
-0.0959    79
-0.0859   268
-0.0759   901
-0.0659  2676
-0.0559  6658
-0.0459 14592
-0.0359 27400
-0.0259 43273
-0.0159 60001
-0.0059 70119
 0.0041 70469
 0.0141 61086
 0.0241 44596
 0.0341 28584
 0.0441 15326
 0.0541  7130
 0.0641  2805
 0.0741   961
 0.0841   307
 0.0941    84
 0.1041    33
 0.1141    17
 0.1241     6
 0.1341     7
 0.1441     3
 0.1541     0
 0.1641     3
 0.1741    28
 0.1841   196
 0.1941   415
 0.2041   392
 0.2141   361
 0.2241   345
 0.2341   376
 0.2441   390
 0.2541   366
 0.2641   372
 0.2741   364
 0.2841   370
 0.2941   349
 0.3041   353
 0.3141   357
 0.3241   348
 0.3341   368
 0.3441   341
 0.3541   375
 0.3641   370
 0.3741   357
 0.3841   385
 0.3941   346
 0.4041   333
 0.4141   324
 0.4241   347
 0.4341   354
 0.4441   320
 0.4541   322
 0.4641   312
 0.4741   303
 0.4841   329
 0.4941   339
 0.5041   335
 0.5141   343
 0.5241   341
 0.5341   348
 0.5441   314
 0.5541   312
 0.5641   301
 0.5741   315
 0.5841   303
 0.5941   302
 0.6041   311
 0.6141   315
 0.6241   300
 0.6341   281
 0.6441   274
 0.6541   277
 0.6641   269
 0.6741   259
 0.6841   288
 0.6941   287
 0.7041   276
 0.7141   269
 0.7241   284
 0.7341   300
 0.7441   288
 0.7541   277
 0.7641   265
 0.7741   271
 0.7841   279
 0.7941   281
 0.8041   264
 0.8141   264
 0.8241   267
 0.8341   275
 0.8441   256
 0.8541   281
 0.8641   284
 0.8741   252
 0.8841   264
 0.8941   258
 0.9041   256
 0.9141   244
 0.9241   247
 0.9341   234
 0.9441   248
 0.9541   238
 0.9641   251
 0.9741   244
 0.9841   237
 0.9941   251
 1.0041   241
 1.0141   245
 1.0241   262
 1.0341   249
 1.0441   233
 1.0541   241
 1.0641   228
 1.0741   251
 1.0841   272
 1.0941   245
 1.1041   199
 1.1141   221
 1.1241   236
 1.1341   230
 1.1441   256
 1.1541   209
 1.1641   247
 1.1741   233
 1.1841   246
 1.1941   240
 1.2041   231
 1.2141   247
 1.2241   224
 1.2341   212
 1.2441   213
 1.2541   230
 1.2641   233
 1.2741   219
 1.2841   217
 1.2941   236
 1.3041   238
 1.3141   211
 1.3241   212
 1.3341   216
 1.3441   219
 1.3541   207
 1.3641   237
 1.3741   242
 1.3841   215
 1.3941   224
 1.4041   225
 1.4141   235
 1.4241   240
 1.4341   218
 1.4441   253
 1.4541   224
 1.4641   228
 1.4741   199
 1.4841   212
 1.4941   234
 1.5041   222
 1.5141   214
 1.5241   214
 1.5341   220
 1.5441   208
 1.5541   198
 1.5641   200
 1.5741   216
 1.5841   207
 1.5941   199
 1.6041   200
 1.6141   193
 1.6241   217
 1.6341   234
 1.6441   250
 1.6541   281
 1.6641   352
 1.6741   394
 1.6841   479
 1.6941   562
 1.7041   715
 1.7141   763
 1.7241   882
 1.7341   932
 1.7441   963
 1.7541   873
 1.7641   788
 1.7741   696
 1.7841   576
 1.7941   489
 1.8041   412
 1.8141   346
 1.8241   309
 1.8341   299
 1.8441   280
 1.8541   280
 1.8641   254
 1.8741   231
 1.8841   239
 1.8941   230
 1.9041   227
 1.9141   230
 1.9241   245
 1.9341   222
 1.9441   196
 1.9541   233
 1.9641   236
 1.9741   251
 1.9841   258
 1.9941   267
 2.0041   242
 2.0141   283
 2.0241   261
 2.0341   260
 2.0441   262
 2.0541   242
 2.0641   229
 2.0741   183
 2.0841   227
 2.0941   216
 2.1041   200
 2.1141   168
 2.1241   199
 2.1341   184
 2.1441   202
 2.1541   196
 2.1641   182
 2.1741   199
 2.1841   179
 2.1941   201
 2.2041   228
 2.2141   173
 2.2241   194
 2.2341   185
 2.2441   196
 2.2541   228
 2.2641   184
 2.2741   213
 2.2841   192
 2.2941   181
 2.3041   198
 2.3141   161
 2.3241   187
 2.3341   190
 2.3441   168
 2.3541   178
 2.3641   204
 2.3741   185
 2.3841   168
 2.3941   181
 2.4041   198
 2.4141   198
 2.4241   193
 2.4341   181
 2.4441   179
 2.4541   186
 2.4641   179
 2.4741   181
 2.4841   188
 2.4941   187
 2.5041   179
 2.5141   177
 2.5241   171
 2.5341   175
 2.5441   168
 2.5541   171
 2.5641   187
 2.5741   152
 2.5841   153
 2.5941   167
 2.6041   162
 2.6141   168
 2.6241   178
 2.6341   180
 2.6441   167
 2.6541   168
 2.6641   170
 2.6741   140
 2.6841   159
 2.6941   140
 2.7041   161
 2.7141   169
 2.7241   171
 2.7341   175
 2.7441   152
 2.7541   159
 2.7641   178
 2.7741   147
 2.7841   161
 2.7941   178
 2.8041   158
 2.8141   190
 2.8241   174
 2.8341   172
 2.8441   183
 2.8541   210
 2.8641   141
 2.8741   140
 2.8841   155
 2.8941   161
 2.9041   160
 2.9141   159
 2.9241   166
 2.9341   165
 2.9441   142
 2.9541   164
 2.9641   163
 2.9741   158
 2.9841   154
 2.9941   165
 3.0041   156
 3.0141   144
 3.0241   158
 3.0341   159
 3.0441   151
 3.0541   137
 3.0641   151
 3.0741   136
 3.0841   133
 3.0941   133
 3.1041   126
 3.1141   125
 3.1241   152
 3.1341   146
 3.1441   148
 3.1541   152
 3.1641   157
 3.1741   119
 3.1841   124
 3.1941   141
 3.2041   163
 3.2141   138
 3.2241   145
 3.2341   173
 3.2441   180
 3.2541   218
 3.2641   258
 3.2741   243
 3.2841   263
 3.2941   257
 3.3041   296
 3.3141   288
 3.3241   289
 3.3341   276
 3.3441   287
 3.3541   249
 3.3641   222
 3.3741   193
 3.3841   160
 3.3941   160
 3.4041   136
 3.4141   133
 3.4241   145
 3.4341   156
 3.4441   141
 3.4541   134
 3.4641   113
 3.4741   117
 3.4841   129
 3.4941   124
 3.5041   119
 3.5141   153
 3.5241   165
 3.5341   158
 3.5441   179
 3.5541   214
 3.5641   217
 3.5741   256
 3.5841   335
 3.5941   376
 3.6041   453
 3.6141   601
 3.6241   759
 3.6341   862
 3.6441  1095
 3.6541  1284
 3.6641  1453
 3.6741  1520
 3.6841  1580
 3.6941  1679
 3.7041  1634
 3.7141  1458
 3.7241  1368
 3.7341  1090
 3.7441   909
 3.7541   717
 3.7641   585
 3.7741   459
 3.7841   338
 3.7941   233
 3.8041   188
 3.8141   184
 3.8241   131
 3.8341   134
 3.8441   128
 3.8541   104
 3.8641   101
 3.8741   121
 3.8841   130
 3.8941   115
 3.9041   125
 3.9141   142
 3.9241   158
 3.9341   169
 3.9441   213
 3.9541   262
 3.9641   274
 3.9741   277
 3.9841   295
 3.9941   340
 4.0041   355
 4.0141   353
 4.0241   327
 4.0341   300
 4.0441   280
 4.0541   253
 4.0641   234
 4.0741   212
 4.0841   176
 4.0941   163
 4.1041   148
 4.1141   118
 4.1241   102
 4.1341   108
 4.1441   102
 4.1541   101
 4.1641   100
 4.1741    88
 4.1841    84
 4.1941   102
 4.2041    98
 4.2141    90
 4.2241   106
 4.2341    86
 4.2441    84
 4.2541   110
 4.2641   110
 4.2741   100
 4.2841    88
 4.2941    96
 4.3041    84
 4.3141    98
 4.3241    93
 4.3341    84
 4.3441    99
 4.3541   104
 4.3641    88
 4.3741   102
 4.3841   114
 4.3941   140
 4.4041   152
 4.4141   174
 4.4241   211
 4.4341   258
 4.4441   298
 4.4541   325
 4.4641   365
 4.4741   457
 4.4841   471
 4.4941   494
 4.5041   483
 4.5141   497
 4.5241   493
 4.5341   464
 4.5441   453
 4.5541   380
 4.5641   349
 4.5741   302
 4.5841   235
 4.5941   222
 4.6041   155
 4.6141   155
 4.6241   117
 4.6341   131
 4.6441   142
 4.6541   114
 4.6641   111
 4.6741   111
 4.6841   135
 4.6941    95
 4.7041   115
 4.7141   110
 4.7241   111
 4.7341    88
 4.7441   112
 4.7541    96
 4.7641   109
 4.7741   109
 4.7841   107
 4.7941   101
 4.8041   123
 4.8141   101
 4.8241   129
 4.8341   133
 4.8441   157
 4.8541   124
 4.8641   134
 4.8741   182
 4.8841   189
 4.8941   180
 4.9041   174
 4.9141   200
 4.9241   210
 4.9341   190
 4.9441   211
 4.9541   211
 4.9641   189
 4.9741   178
 4.9841   169
 4.9941   153
 5.0041   138
 5.0141   145
 5.0241   128
 5.0341   127
 5.0441   115
 5.0541   113
 5.0641   116
 5.0741   119
 5.0841   102
 5.0941   139
 5.1041   107
 5.1141   106
 5.1241   106
 5.1341    95
 5.1441   106
 5.1541    98
 5.1641   107
 5.1741   122
 5.1841   103
 5.1941    98
 5.2041   112
 5.2141   113
 5.2241    99
 5.2341   101
 5.2441    98
 5.2541   116
 5.2641   101
 5.2741   105
 5.2841   132
 5.2941    99
 5.3041   116
 5.3141   109
 5.3241   104
 5.3341    98
 5.3441   121
 5.3541   111
 5.3641   121
 5.3741   133
 5.3841   130
 5.3941   124
 5.4041    99
 5.4141   128
 5.4241   137
 5.4341   127
 5.4441   135
 5.4541   110
 5.4641   128
 5.4741   131
 5.4841   117
 5.4941   114
 5.5041   124
 5.5141   114
 5.5241   116
 5.5341   121
 5.5441   107
 5.5541   108
 5.5641   117
 5.5741   103
 5.5841   109
 5.5941   115
 5.6041   129
 5.6141    96
 5.6241   111
 5.6341   101
 5.6441    96
 5.6541   105
 5.6641    99
 5.6741   108
 5.6841   123
 5.6941   135
 5.7041   121
 5.7141   125
 5.7241   125
 5.7341   120
 5.7441   116
 5.7541   107
 5.7641   140
 5.7741   175
 5.7841   138
 5.7941   152
 5.8041   188
 5.8141   219
 5.8241   213
 5.8341   232
 5.8441   234
 5.8541   272
 5.8641   314
 5.8741   339
 5.8841   307
 5.8941   325
 5.9041   351
 5.9141   317
 5.9241   275
 5.9341   290
 5.9441   266
 5.9541   250
 5.9641   237
 5.9741   202
 5.9841   179
 5.9941   156
 6.0041   144
 6.0141   116
 6.0241   161
 6.0341   148
 6.0441   117
 6.0541   149
 6.0641   153
 6.0741   167
 6.0841   146
 6.0941   138
 6.1041   135
 6.1141   134
 6.1241   143
 6.1341   185
 6.1441   177
 6.1541   165
 6.1641   193
 6.1741   187
 6.1841   241
 6.1941   267
 6.2041   317
 6.2141   438
 6.2241   563
 6.2341   758
 6.2441  1059
 6.2541  1461
 6.2641  2062
 6.2741  2653
 6.2841  3649
 6.2941  4855
 6.3041  6256
 6.3141  7716
 6.3241  9624
 6.3341 11732
 6.3441 13759
 6.3541 15713
 6.3641 17411
 6.3741 18889
 6.3841 20042
 6.3941 20251
 6.4041 20063
 6.4141 19705
 6.4241 18807
 6.4341 17370
 6.4441 15274
 6.4541 13233
 6.4641 11487
 6.4741  9198
 6.4841  7446
 6.4941  5944
 6.5041  4473
 6.5141  3325
 6.5241  2515
 6.5341  1800
 6.5441  1304
 6.5541   892
 6.5641   669
 6.5741   490
 6.5841   350
 6.5941   320
 6.6041   258
 6.6141   214
 6.6241   222
 6.6341   180
 6.6441   192
 6.6541   191
 6.6641   208
 6.6741   210
 6.6841   191
 6.6941   195
 6.7041   201
 6.7141   177
 6.7241   189
 6.7341   187
 6.7441   200
 6.7541   200
 6.7641   214
 6.7741   179
 6.7841   202
 6.7941   198
 6.8041   187
 6.8141   182
 6.8241   214
 6.8341   234
 6.8441   234
 6.8541   269
 6.8641   276
 6.8741   279
 6.8841   347
 6.8941   435
 6.9041   484
 6.9141   564
 6.9241   701
 6.9341   818
 6.9441   996
 6.9541  1178
 6.9641  1446
 6.9741  1617
 6.9841  1991
 6.9941  2297
 7.0041  2650
 7.0141  2871
 7.0241  3186
 7.0341  3241
 7.0441  3438
 7.0541  3440
 7.0641  3323
 7.0741  3263
 7.0841  3105
 7.0941  2790
 7.1041  2598
 7.1141  2284
 7.1241  1965
 7.1341  1689
 7.1441  1468
 7.1541  1141
 7.1641  1021
 7.1741   789
 7.1841   592
 7.1941   540
 7.2041   447
 7.2141   375
 7.2241   357
 7.2341   292
 7.2441   280
 7.2541   244
 7.2641   270
 7.2741   227
 7.2841   253
 7.2941   259
 7.3041   269
 7.3141   267
 7.3241   277
 7.3341   316
 7.3441   295
 7.3541   329
 7.3641   336
 7.3741   361
 7.3841   312
 7.3941   376
 7.4041   376
 7.4141   367
 7.4241   328
 7.4341   360
 7.4441   336
 7.4541   301
 7.4641   300
 7.4741   279
 7.4841   252
 7.4941   277
 7.5041   287
 7.5141   256
 7.5241   261
 7.5341   264
 7.5441   273
 7.5541   247
 7.5641   264
 7.5741   243
 7.5841   275
 7.5941   284
 7.6041   272
 7.6141   263
 7.6241   255
 7.6341   255
 7.6441   264
 7.6541   272
 7.6641   259
 7.6741   297
 7.6841   269
 7.6941   242
 7.7041   246
 7.7141   251
 7.7241   245
 7.7341   243
 7.7441   251
 7.7541   277
 7.7641   304
 7.7741   280
 7.7841   308
 7.7941   273
 7.8041   293
 7.8141   292
 7.8241   265
 7.8341   341
 7.8441   310
 7.8541   322
 7.8641   328
 7.8741   360
 7.8841   373
 7.8941   439
 7.9041   463
 7.9141   436
 7.9241   507
 7.9341   574
 7.9441   517
 7.9541   612
 7.9641   587
 7.9741   624
 7.9841   670
 7.9941   741
 8.0041   819
 8.0141   848
 8.0241   887
 8.0341   966
 8.0441   977
 8.0541  1072
 8.0641  1104
 8.0741  1176
 8.0841  1175
 8.0941  1223
 8.1041  1290
 8.1141  1355
 8.1241  1386
 8.1341  1520
 8.1441  1551
 8.1541  1602
 8.1641  1555
 8.1741  1548
 8.1841  1641
 8.1941  1662
 8.2041  1646
 8.2141  1700
 8.2241  1664
 8.2341  1678
 8.2441  1701
 8.2541  1766
 8.2641  1819
 8.2741  1926
 8.2841  2026
 8.2941  2000
 8.3041  2202
 8.3141  2244
 8.3241  2489
 8.3341  2435
 8.3441  2719
 8.3541  2766
 8.3641  2880
 8.3741  2887
 8.3841  2963
 8.3941  2883
 8.4041  2863
 8.4141  2683
 8.4241  2617
 8.4341  2395
 8.4441  2257
 8.4541  1938
 8.4641  1784
 8.4741  1556
 8.4841  1294
 8.4941  1109
 8.5041   983
 8.5141   825
 8.5241   697
 8.5341   606
 8.5441   546
 8.5541   536
 8.5641   519
 8.5741   481
 8.5841   455
 8.5941   468
 8.6041   462
 8.6141   493
 8.6241   514
 8.6341   469
 8.6441   537
 8.6541   556
 8.6641   532
 8.6741   545
 8.6841   569
 8.6941   600
 8.7041   567
 8.7141   595
 8.7241   573
 8.7341   626
 8.7441   599
 8.7541   572
 8.7641   554
 8.7741   574
 8.7841   540
 8.7941   534
 8.8041   456
 8.8141   462
 8.8241   415
 8.8341   403
 8.8441   409
 8.8541   379
 8.8641   350
 8.8741   394
 8.8841   378
 8.8941   369
 8.9041   357
 8.9141   368
 8.9241   401
 8.9341   382
 8.9441   359
 8.9541   359
 8.9641   427
 8.9741   404
 8.9841   410
 8.9941   419
 9.0041   450
 9.0141   418
 9.0241   424
 9.0341   451
 9.0441   479
 9.0541   523
 9.0641   519
 9.0741   512
 9.0841   534
 9.0941   550
 9.1041   578
 9.1141   620
 9.1241   622
 9.1341   634
 9.1441   643
 9.1541   658
 9.1641   705
 9.1741   761
 9.1841   807
 9.1941   846
 9.2041   854
 9.2141   904
 9.2241   926
 9.2341   955
 9.2441  1035
 9.2541  1068
 9.2641  1126
 9.2741  1208
 9.2841  1213
 9.2941  1306
 9.3041  1343
 9.3141  1425
 9.3241  1395
 9.3341  1477
 9.3441  1509
 9.3541  1539
 9.3641  1645
 9.3741  1612
 9.3841  1634
 9.3941  1630
 9.4041  1643
 9.4141  1655
 9.4241  1749
 9.4341  1723
 9.4441  1710
 9.4541  1718
 9.4641  1727
 9.4741  1738
 9.4841  1857
 9.4941  1841
 9.5041  1970
 9.5141  2068
 9.5241  2068
 9.5341  2213
 9.5441  2445
 9.5541  2550
 9.5641  2722
 9.5741  3023
 9.5841  3411
 9.5941  3705
 9.6041  3874
 9.6141  4074
 9.6241  4253
 9.6341  4510
 9.6441  4636
 9.6541  4752
 9.6641  4770
 9.6741  4749
 9.6841  4627
 9.6941  4466
 9.7041  4239
 9.7141  4002
 9.7241  3688
 9.7341  3334
 9.7441  3052
 9.7541  2811
 9.7641  2579
 9.7741  2283
 9.7841  2110
 9.7941  1972
 9.8041  1800
 9.8141  1726
 9.8241  1600
 9.8341  1520
 9.8441  1469
 9.8541  1429
 9.8641  1381
 9.8741  1435
 9.8841  1414
 9.8941  1445
 9.9041  1411
 9.9141  1464
 9.9241  1424
 9.9341  1492
 9.9441  1504
 9.9541  1476
 9.9641  1502
 9.9741  1424
 9.9841  1341
 9.9941  1371
10.0041  1261
10.0141  1148
10.0241  1067
10.0341   992
10.0441   893
10.0541   806
10.0641   741
10.0741   634
10.0841   583
10.0941   525
10.1041   468
10.1141   440
10.1241   417
10.1341   394
10.1441   365
10.1541   291
10.1641   301
10.1741   330
10.1841   304
10.1941   290
10.2041   302
10.2141   270
10.2241   254
10.2341   247
10.2441   260
10.2541   257
10.2641   234
10.2741   221
10.2841   229
10.2941   228
10.3041   237
10.3141   223
10.3241   226
10.3341   224
10.3441   231
10.3541   204
10.3641   203
10.3741   214
10.3841   220
10.3941   220
10.4041   194
10.4141   192
10.4241   198
10.4341   186
10.4441   198
10.4541   198
10.4641   190
10.4741   208
10.4841   207
10.4941   204
10.5041   207
10.5141   212
10.5241   237
10.5341   251
10.5441   232
10.5541   233
10.5641   221
10.5741   238
10.5841   240
10.5941   232
10.6041   230
10.6141   241
10.6241   251
10.6341   263
10.6441   291
10.6541   285
10.6641   268
10.6741   255
10.6841   253
10.6941   270
10.7041   273
10.7141   290
10.7241   298
10.7341   283
10.7441   293
10.7541   313
10.7641   294
10.7741   294
10.7841   312
10.7941   314
10.8041   334
10.8141   316
10.8241   319
10.8341   334
10.8441   347
10.8541   340
10.8641   346
10.8741   366
10.8841   364
10.8941   340
10.9041   350
10.9141   352
10.9241   373
10.9341   366
10.9441   346
10.9541   338
10.9641   352
10.9741   343
10.9841   341
10.9941   344
11.0041   346
11.0141   329
11.0241   341
11.0341   320
11.0441   338
11.0541   319
11.0641   314
11.0741   303
11.0841   310
11.0941   318
11.1041   299
11.1141   299
11.1241   293
11.1341   292
11.1441   300
11.1541   302
11.1641   317
11.1741   338
11.1841   351
11.1941   344
11.2041   363
11.2141   384
11.2241   406
11.2341   417
11.2441   440
11.2541   456
11.2641   440
11.2741   462
11.2841   452
11.2941   440
11.3041   426
11.3141   421
11.3241   413
11.3341   368
11.3441   360
11.3541   346
11.3641   351
11.3741   337
11.3841   315
11.3941   306
11.4041   291
11.4141   288
11.4241   260
11.4341   253
11.4441   231
11.4541   240
11.4641   263
11.4741   242
11.4841   238
11.4941   221
11.5041   220
11.5141   224
11.5241   227
11.5341   241
11.5441   253
11.5541   240
11.5641   247
11.5741   256
11.5841   271
11.5941   244
11.6041   247
11.6141   257
11.6241   254
11.6341   248
11.6441   249
11.6541   259
11.6641   267
11.6741   251
11.6841   253
11.6941   253
11.7041   254
11.7141   268
11.7241   228
11.7341   228
11.7441   222
11.7541   218
11.7641   211
11.7741   192
11.7841   190
11.7941   213
11.8041   207
11.8141   196
11.8241   173
11.8341   183
11.8441   188
11.8541   197
11.8641   195
11.8741   203
11.8841   204
11.8941   200
11.9041   193
11.9141   176
11.9241   197
11.9341   214
11.9441   208
11.9541   218
11.9641   213
11.9741   208
11.9841   217
11.9941   220
12.0041   226
12.0141   219
12.0241   204
12.0341   204
12.0441   205
12.0541   207
12.0641   184
12.0741   191
12.0841   205
12.0941   188
12.1041   201
12.1141   201
12.1241   203
12.1341   204
12.1441   212
12.1541   204
12.1641   199
12.1741   183
12.1841   191
12.1941   185
12.2041   175
12.2141   189
12.2241   185
12.2341   185
12.2441   182
12.2541   174
12.2641   168
12.2741   162
12.2841   177
12.2941   195
12.3041   185
12.3141   177
12.3241   186
12.3341   187
12.3441   179
12.3541   178
12.3641   192
12.3741   190
12.3841   194
12.3941   194
12.4041   185
12.4141   184
12.4241   189
12.4341   196
12.4441   199
12.4541   208
12.4641   204
12.4741   182
12.4841   202
12.4941   191
12.5041   182
12.5141   197
12.5241   195
12.5341   203
12.5441   197
12.5541   199
12.5641   216
12.5741   210
12.5841   206
12.5941   199
12.6041   212
12.6141   205
12.6241   175
12.6341   185
12.6441   190
12.6541   178
12.6641   183
12.6741   200
12.6841   209
12.6941   191
12.7041   192
12.7141   196
12.7241   201
12.7341   215
12.7441   221
12.7541   218
12.7641   210
12.7741   203
12.7841   199
12.7941   196
12.8041   194
12.8141   190
12.8241   190
12.8341   194
12.8441   201
12.8541   209
12.8641   214
12.8741   215
12.8841   213
12.8941   204
12.9041   196
12.9141   199
12.9241   200
12.9341   198
12.9441   203
12.9541   202
12.9641   199
12.9741   197
12.9841   182
12.9941   206
13.0041   212
13.0141   199
13.0241   204
13.0341   201
13.0441   215
13.0541   226
13.0641   247
13.0741   256
13.0841   239
13.0941   235
13.1041   234
13.1141   230
13.1241   232
13.1341   229
13.1441   226
13.1541   250
13.1641   256
13.1741   248
13.1841   244
13.1941   273
13.2041   268
13.2141   239
13.2241   246
13.2341   260
13.2441   287
13.2541   297
13.2641   305
13.2741   321
13.2841   326
13.2941   315
13.3041   331
13.3141   361
13.3241   355
13.3341   370
13.3441   386
13.3541   382
13.3641   392
13.3741   374
13.3841   358
13.3941   360
13.4041   372
13.4141   399
13.4241   385
13.4341   353
13.4441   339
13.4541   346
13.4641   344
13.4741   347
13.4841   331
13.4941   300
13.5041   298
13.5141   299
13.5241   284
13.5341   271
13.5441   273
13.5541   278
13.5641   270
13.5741   265
13.5841   273
13.5941   276
13.6041   284
13.6141   304
13.6241   302
13.6341   271
13.6441   255
13.6541   267
13.6641   268
13.6741   275
13.6841   269
13.6941   255
13.7041   258
13.7141   266
13.7241   264
13.7341   267
13.7441   269
13.7541   251
13.7641   254
13.7741   277
13.7841   263
13.7941   257
13.8041   272
13.8141   259
13.8241   255
13.8341   255
13.8441   257
13.8541   261
13.8641   274
13.8741   282
13.8841   274
13.8941   278
13.9041   292
13.9141   311
13.9241   296
13.9341   289
13.9441   305
13.9541   320
13.9641   325
13.9741   352
13.9841   396
13.9941   402
14.0041   407
14.0141   446
14.0241   495
14.0341   543
14.0441   587
14.0541   614
14.0641   631
14.0741   649
14.0841   671
14.0941   693
14.1041   715
14.1141   769
14.1241   758
14.1341   746
14.1441   793
14.1541   761
14.1641   750
14.1741   774
14.1841   762
14.1941   724
14.2041   673
14.2141   632
14.2241   616
14.2341   593
14.2441   557
14.2541   527
14.2641   508
14.2741   485
14.2841   443
14.2941   411
14.3041   411
14.3141   385
14.3241   346
14.3341   335
14.3441   334
14.3541   333
14.3641   341
14.3741   314
14.3841   284
14.3941   299
14.4041   301
14.4141   283
14.4241   302
14.4341   309
14.4441   282
14.4541   295
14.4641   333
14.4741   321
14.4841   305
14.4941   292
14.5041   266
14.5141   265
14.5241   273
14.5341   278
14.5441   297
14.5541   311
14.5641   303
14.5741   301
14.5841   300
14.5941   282
14.6041   286
14.6141   295
14.6241   291
14.6341   291
14.6441   305
14.6541   310
14.6641   294
14.6741   307
14.6841   298
14.6941   297
14.7041   308
14.7141   304
14.7241   301
14.7341   289
14.7441   300
14.7541   314
14.7641   322
14.7741   322
14.7841   320
14.7941   321
14.8041   313
14.8141   308
14.8241   325
14.8341   341
14.8441   328
14.8541   322
14.8641   324
14.8741   328
14.8841   340
14.8941   340
14.9041   332
14.9141   337
14.9241   355
14.9341   351
14.9441   341
14.9541   351
14.9641   354
14.9741   355
14.9841   361
14.9941   356
15.0041   331
15.0141   327
15.0241   335
15.0341   338
15.0441   346
15.0541   345
15.0641   360
15.0741   368
15.0841   318
15.0941   323
15.1041   355
15.1141   334
15.1241   293
15.1341   295
15.1441   333
15.1541   345
15.1641   351
15.1741   359
15.1841   364
15.1941   335
15.2041   330
15.2141   320
15.2241   344
15.2341   349
15.2441   339
15.2541   347
15.2641   344
15.2741   343
15.2841   344
15.2941   352
15.3041   345
15.3141   320
15.3241   339
15.3341   358
15.3441   376
15.3541   375
15.3641   351
15.3741   356
15.3841   344
15.3941   335
15.4041   340
15.4141   357
15.4241   370
15.4341   374
15.4441   346
15.4541   353
15.4641   365
15.4741   355
15.4841   352
15.4941   337
15.5041   357
15.5141   394
15.5241   374
15.5341   358
15.5441   360
15.5541   361
15.5641   359
15.5741   372
15.5841   395
15.5941   388
15.6041   360
15.6141   379
15.6241   403
15.6341   415
15.6441   416
15.6541   412
15.6641   410
15.6741   398
15.6841   392
15.6941   405
15.7041   438
15.7141   445
15.7241   426
15.7341   443
15.7441   466
15.7541   513
15.7641   494
15.7741   466
15.7841   478
15.7941   464
15.8041   481
15.8141   489
15.8241   469
15.8341   500
15.8441   496
15.8541   464
15.8641   487
15.8741   506
15.8841   486
15.8941   472
15.9041   449
15.9141   436
15.9241   424
15.9341   445
15.9441   442
15.9541   427
15.9641   409
15.9741   405
15.9841   409
15.9941   411
16.0041   399
16.0141   403
16.0241   377
16.0341   387
16.0441   415
16.0541   403
16.0641   383
16.0741   409
16.0841   429
16.0941   424
16.1041   398
16.1141   393
16.1241   394
16.1341   401
16.1441   410
16.1541   429
16.1641   407
16.1741   399
16.1841   406
16.1941   400
16.2041   410
16.2141   387
16.2241   397
16.2341   393
16.2441   385
16.2541   409
16.2641   409
16.2741   423
16.2841   401
16.2941   403
16.3041   421
16.3141   424
16.3241   398
16.3341   391
16.3441   414
16.3541   395
16.3641   385
16.3741   423
16.3841   406
16.3941   400
16.4041   411
16.4141   410
16.4241   415
16.4341   426
16.4441   412
16.4541   409
16.4641   422
16.4741   426
16.4841   401
16.4941   416
16.5041   424
16.5141   399
16.5241   420
16.5341   406
16.5441   414
16.5541   410
16.5641   418
16.5741   425
16.5841   424
16.5941   400
16.6041   412
16.6141   440
16.6241   437
16.6341   437
16.6441   421
16.6541   431
16.6641   417
16.6741   418
16.6841   418
16.6941   428
16.7041   426
16.7141   425
16.7241   402
16.7341   431
16.7441   429
16.7541   432
16.7641   438
16.7741   450
16.7841   462
16.7941   430
16.8041   415
16.8141   436
16.8241   431
16.8341   445
16.8441   421
16.8541   447
16.8641   462
16.8741   424
16.8841   442
16.8941   425
16.9041   432
16.9141   452
16.9241   442
16.9341   429
16.9441   477
16.9541   451
16.9641   437
16.9741   434
16.9841   444
16.9941   442
17.0041   429
17.0141   458
17.0241   465
17.0341   459
17.0441   485
17.0541   484
17.0641   449
17.0741   438
17.0841   437
17.0941   441
17.1041   458
17.1141   475
17.1241   447
17.1341   477
17.1441   469
17.1541   492
17.1641   496
17.1741   469
17.1841   469
17.1941   474
17.2041   467
17.2141   466
17.2241   467
17.2341   477
17.2441   495
17.2541   480
17.2641   488
17.2741   470
17.2841   463
17.2941   468
17.3041   464
17.3141   483
17.3241   488
17.3341   487
17.3441   496
17.3541   504
17.3641   503
17.3741   503
17.3841   474
17.3941   467
17.4041   478
17.4141   513
17.4241   495
17.4341   485
17.4441   493
17.4541   500
17.4641   499
17.4741   494
17.4841   491
17.4941   486
17.5041   511
17.5141   494
17.5241   491
17.5341   479
17.5441   521
17.5541   501
17.5641   504
17.5741   511
17.5841   496
17.5941   505
17.6041   498
17.6141   504
17.6241   489
17.6341   514
17.6441   514
17.6541   535
17.6641   516
17.6741   513
17.6841   508
17.6941   508
17.7041   519
17.7141   501
17.7241   492
17.7341   516
17.7441   514
17.7541   513
17.7641   502
17.7741   514
17.7841   534
17.7941   523
17.8041   525
17.8141   516
17.8241   536
17.8341   524
17.8441   482
17.8541   493
17.8641   510
17.8741   513
17.8841   493
17.8941   492
17.9041   519
17.9141   485
17.9241   525
17.9341   533
17.9441   523
17.9541   492
17.9641   540
17.9741   517
17.9841   517
17.9941   518
18.0041   524
18.0141   532
18.0241   561
18.0341   576
18.0441   543
18.0541   520
18.0641   526
18.0741   540
18.0841   539
18.0941   521
18.1041   551
18.1141   560
18.1241   531
18.1341   524
18.1441   509
18.1541   549
18.1641   563
18.1741   547
18.1841   517
18.1941   533
18.2041   500
18.2141   494
18.2241   516
18.2341   575
18.2441   559
18.2541   521
18.2641   529
18.2741   541
18.2841   541
18.2941   534
18.3041   533
18.3141   569
18.3241   556
18.3341   560
18.3441   547
18.3541   540
18.3641   530
18.3741   509
18.3841   551
18.3941   546
18.4041   540
18.4141   521
18.4241   568
18.4341   576
18.4441   542
18.4541   547
18.4641   518
18.4741   538
18.4841   528
18.4941   524
18.5041   543
18.5141   551
18.5241   537
18.5341   566
18.5441   586
18.5541   548
18.5641   532
18.5741   586
18.5841   532
18.5941   541
18.6041   553
18.6141   548
18.6241   534
18.6341   558
18.6441   586
18.6541   570
18.6641   572
18.6741   542
18.6841   554
18.6941   549
18.7041   556
18.7141   557
18.7241   567
18.7341   574
18.7441   572
18.7541   609
18.7641   593
18.7741   549
18.7841   590
18.7941   553
18.8041   546
18.8141   564
18.8241   579
18.8341   582
18.8441   576
18.8541   620
18.8641   562
18.8741   596
18.8841   587
18.8941   590
18.9041   616
18.9141   594
18.9241   573
18.9341   606
18.9441   576
18.9541   558
18.9641   557
18.9741   578
18.9841   561
18.9941   574
19.0041   586
19.0141   578
19.0241   585
19.0341   614
19.0441   613
19.0541   603
19.0641   534
19.0741   572
19.0841   579
19.0941   576
19.1041   612
19.1141   560
19.1241   595
19.1341   614
19.1441   585
19.1541   599
19.1641   631
19.1741   587
19.1841   572
19.1941   582
19.2041   608
19.2141   566
19.2241   581
19.2341   600
19.2441   638
19.2541   603
19.2641   610
19.2741   618
19.2841   601
19.2941   604
19.3041   664
19.3141   616
19.3241   598
19.3341   587
19.3441   606
19.3541   610
19.3641   624
19.3741   616
19.3841   560
19.3941   581
19.4041   613
19.4141   593
19.4241   629
19.4341   634
19.4441   678
19.4541   612
19.4641   584
19.4741   583
19.4841   595
19.4941   625
19.5041   637
19.5141   600
19.5241   608
19.5341   588
19.5441   612
19.5541   634
19.5641   593
19.5741   610
19.5841   610
19.5941   594
19.6041   611
19.6141   612
19.6241   620
19.6341   601
19.6441   643
19.6541   627
19.6641   622
19.6741   635
19.6841   617
19.6941   585
19.7041   650
19.7141   656
19.7241   644
19.7341   606
19.7441   635
19.7541   627
19.7641   644
19.7741   590
19.7841   601
19.7941   627
19.8041   645
19.8141   655
19.8241   645
19.8341   630
19.8441   588
19.8541   616
19.8641   582
19.8741   598
19.8841   625
19.8941   636
19.9041   677
19.9141   658
19.9241   657
19.9341   642
19.9441   638
19.9541   670
19.9641   629
19.9741   598
19.9841   627
19.9941   652
20.0041   656
20.0141   612
20.0241   627
20.0341   641
20.0441   615
20.0541   634
20.0641   604
20.0741   623
20.0841   616
20.0941   636
20.1041   636
20.1141   666
20.1241   642
20.1341   556
20.1441   616
20.1541   673
20.1641   686
20.1741   657
20.1841   621
20.1941   648
20.2041   599
20.2141   632
20.2241   634
20.2341   665
20.2441   653
20.2541   662
20.2641   666
20.2741   638
20.2841   650
20.2941   653
20.3041   627
20.3141   662
20.3241   657
20.3341   617
20.3441   626
20.3541   648
20.3641   626
20.3741   673
20.3841   653
20.3941   625
20.4041   648
20.4141   661
20.4241   656
20.4341   611
20.4441   622
20.4541   644
20.4641   690
20.4741   605
20.4841   633
20.4941   591
20.5041   624
20.5141   648
20.5241   647
20.5341   614
20.5441   663
20.5541   670
20.5641   670
20.5741   665
20.5841   642
20.5941   673
20.6041   682
20.6141   668
20.6241   631
20.6341   652
20.6441   646
20.6541   675
20.6641   623
20.6741   668
20.6841   697
20.6941   650
20.7041   639
20.7141   666
20.7241   657
20.7341   655
20.7441   658
20.7541   671
20.7641   654
20.7741   633
20.7841   671
20.7941   658
20.8041   667
20.8141   698
20.8241   694
20.8341   682
20.8441   719
20.8541   709
20.8641   716
20.8741   737
20.8841   755
20.8941   735
20.9041   773
20.9141   783
20.9241   800
20.9341   831
20.9441   898
20.9541   812
20.9641   842
20.9741   908
20.9841   897
20.9941   852
21.0041   898
21.0141   933
21.0241   956
21.0341   944
21.0441   935
21.0541   967
21.0641  1007
21.0741   990
21.0841   979
21.0941  1003
21.1041   996
21.1141  1043
21.1241  1045
21.1341  1054
21.1441  1056
21.1541  1037
21.1641  1050
21.1741  1032
21.1841  1081
21.1941  1028
21.2041  1006
21.2141   927
21.2241   957
21.2341   957
21.2441   950
21.2541   936
21.2641   917
21.2741   867
21.2841   861
21.2941   771
21.3041   809
21.3141   791
21.3241   788
21.3341   773
21.3441   781
21.3541   766
21.3641   719
21.3741   721
21.3841   702
21.3941   701
21.4041   634
21.4141   699
21.4241   687
21.4341   694
21.4441   707
21.4541   667
21.4641   705
21.4741   695
21.4841   651
21.4941   665
21.5041   683
21.5141   678
21.5241   697
21.5341   698
21.5441   727
21.5541   665
21.5641   654
21.5741   690
21.5841   731
21.5941   678
21.6041   667
21.6141   654
21.6241   689
21.6341   677
21.6441   674
21.6541   677
21.6641   668
21.6741   654
21.6841   657
21.6941   693
21.7041   658
21.7141   688
21.7241   674
21.7341   669
21.7441   682
21.7541   669
21.7641   683
21.7741   663
21.7841   643
21.7941   711
21.8041   722
21.8141   679
21.8241   652
21.8341   694
21.8441   714
21.8541   671
21.8641   691
21.8741   621
21.8841   667
21.8941   706
21.9041   684
21.9141   709
21.9241   664
21.9341   680
21.9441   659
21.9541   661
21.9641   665
21.9741   670
21.9841   666
21.9941   650
22.0041   687
22.0141   675
22.0241   691
22.0341   728
22.0441   678
22.0541   653
22.0641   673
22.0741   675
22.0841   700
22.0941   706
22.1041   705
22.1141   667
22.1241   683
22.1341   689
22.1441   699
22.1541   656
22.1641   691
22.1741   662
22.1841   681
22.1941   696
22.2041   725
22.2141   713
22.2241   635
22.2341   634
22.2441   673
22.2541   688
22.2641   661
22.2741   685
22.2841   711
22.2941   700
22.3041   666
22.3141   701
22.3241   677
22.3341   657
22.3441   687
22.3541   706
22.3641   660
22.3741   696
22.3841   698
22.3941   647
22.4041   632
22.4141   686
22.4241   688
22.4341   690
22.4441   694
22.4541   671
22.4641   689
22.4741   684
22.4841   694
22.4941   659
22.5041   698
22.5141   679
22.5241   684
22.5341   650
22.5441   700
22.5541   725
22.5641   668
22.5741   650
22.5841   696
22.5941   693
22.6041   702
22.6141   672
22.6241   646
22.6341   687
22.6441   725
22.6541   666
22.6641   674
22.6741   660
22.6841   728
22.6941   670
22.7041   661
22.7141   667
22.7241   694
22.7341   690
22.7441   652
22.7541   677
22.7641   699
22.7741   675
22.7841   658
22.7941   693
22.8041   655
22.8141   654
22.8241   709
22.8341   674
22.8441   666
22.8541   699
22.8641   677
22.8741   681
22.8841   695
22.8941   688
22.9041   671
22.9141   670
22.9241   623
22.9341   696
22.9441   714
22.9541   674
22.9641   698
22.9741   641
22.9841   686
22.9941   663
23.0041   661
23.0141   680
23.0241   654
23.0341   673
23.0441   701
23.0541   695
23.0641   638
23.0741   666
23.0841   683
23.0941   658
23.1041   656
23.1141   769
23.1241   679
23.1341   645
23.1441   619
23.1541   631
23.1641   679
23.1741   674
23.1841   640
23.1941   661
23.2041   693
23.2141   665
23.2241   631
23.2341   652
23.2441   641
23.2541   657
23.2641   682
23.2741   699
23.2841   644
23.2941   658
23.3041   661
23.3141   668
23.3241   669
23.3341   669
23.3441   628
23.3541   672
23.3641   673
23.3741   678
23.3841   666
23.3941   646
23.4041   629
23.4141   634
23.4241   668
23.4341   621
23.4441   642
23.4541   692
23.4641   636
23.4741   665
23.4841   652
23.4941   663
23.5041   656
23.5141   625
23.5241   648
23.5341   643
23.5441   622
23.5541   669
23.5641   616
23.5741   639
23.5841   668
23.5941   673
23.6041   673
23.6141   668
23.6241   674
23.6341   675
23.6441   694
23.6541   716
23.6641   676
23.6741   687
23.6841   715
23.6941   727
23.7041   684
23.7141   704
23.7241   719
23.7341   697
23.7441   684
23.7541   683
23.7641   728
23.7741   731
23.7841   717
23.7941   697
23.8041   696
23.8141   699
23.8241   720
23.8341   736
23.8441   728
23.8541   711
23.8641   729
23.8741   686
23.8841   736
23.8941   708
23.9041   611
23.9141   672
23.9241   704
23.9341   653
23.9441   706
23.9541   650
23.9641   637
23.9741   639
23.9841   684
23.9941   665
24.0041   659
24.0141   643
24.0241   660
24.0341   645
24.0441   656
24.0541   620
24.0641   673
24.0741   613
24.0841   625
24.0941   676
24.1041   622
24.1141   639
24.1241   690
24.1341   676
24.1441   633
24.1541   664
24.1641   630
24.1741   668
24.1841   649
24.1941   631
24.2041   617
24.2141   611
24.2241   661
24.2341   673
24.2441   629
24.2541   671
24.2641   626
24.2741   640
24.2841   635
24.2941   606
24.3041   643
24.3141   683
24.3241   617
24.3341   620
24.3441   639
24.3541   677
24.3641   634
24.3741   628
24.3841   607
24.3941   609
24.4041   620
24.4141   633
24.4241   625
24.4341   635
24.4441   634
24.4541   651
24.4641   658
24.4741   604
24.4841   628
24.4941   642
24.5041   644
24.5141   621
24.5241   618
24.5341   586
24.5441   647
24.5541   602
24.5641   659
24.5741   629
24.5841   630
24.5941   601
24.6041   647
24.6141   652
24.6241   640
24.6341   620
24.6441   659
24.6541   592
24.6641   653
24.6741   624
24.6841   599
24.6941   602
24.7041   590
24.7141   535
24.7241   636
24.7341   613
24.7441   570
24.7541   586
24.7641   654
24.7741   638
24.7841   615
24.7941   581
24.8041   616
24.8141   621
24.8241   640
24.8341   637
24.8441   608
24.8541   618
24.8641   627
24.8741   584
24.8841   563
24.8941   637
24.9041   618
24.9141   618
24.9241   613
24.9341   635
24.9441   595
24.9541   615
24.9641   619
24.9741   609
24.9841   621
24.9941   567
25.0041   625
25.0141   598
25.0241   671
25.0341   670
25.0441   606
25.0541   651
25.0641   658
25.0741   635
25.0841   597
25.0941   627
25.1041   628
25.1141   603
25.1241   637
25.1341   616
25.1441   646
25.1541   615
25.1641   634
25.1741   636
25.1841   610
25.1941   617
25.2041   662
25.2141   610
25.2241   638
25.2341   608
25.2441   617
25.2541   581
25.2641   619
25.2741   624
25.2841   635
25.2941   634
25.3041   631
25.3141   634
25.3241   616
25.3341   632
25.3441   673
25.3541   613
25.3641   577
25.3741   648
25.3841   596
25.3941   603
25.4041   603
25.4141   626
25.4241   635
25.4341   606
25.4441   604
25.4541   572
25.4641   610
25.4741   586
25.4841   599
25.4941   586
25.5041   579
25.5141   584
25.5241   593
25.5341   569
25.5441   598
25.5541   594
25.5641   571
25.5741   561
25.5841   618
25.5941   594
25.6041   596
25.6141   554
25.6241   570
25.6341   559
25.6441   573
25.6541   542
25.6641   586
25.6741   560
25.6841   600
25.6941   556
25.7041   584
25.7141   585
25.7241   587
25.7341   577
25.7441   564
25.7541   575
25.7641   569
25.7741   586
25.7841   573
25.7941   594
25.8041   583
25.8141   560
25.8241   592
25.8341   566
25.8441   611
25.8541   567
25.8641   584
25.8741   614
25.8841   587
25.8941   600
25.9041   569
25.9141   558
25.9241   562
25.9341   582
25.9441   596
25.9541   559
25.9641   572
25.9741   582
25.9841   600
25.9941   574
26.0041   587
26.0141   586
26.0241   574
26.0341   573
26.0441   535
26.0541   550
26.0641   603
26.0741   615
26.0841   615
26.0941   552
26.1041   599
26.1141   592
26.1241   559
26.1341   521
26.1441   553
26.1541   583
26.1641   547
26.1741   525
26.1841   546
26.1941   551
26.2041   551
26.2141   515
26.2241   557
26.2341   563
26.2441   571
26.2541   579
26.2641   548
26.2741   580
26.2841   574
26.2941   552
26.3041   540
26.3141   529
26.3241   559
26.3341   540
26.3441   616
26.3541   595
26.3641   571
26.3741   526
26.3841   567
26.3941   587
26.4041   587
26.4141   577
26.4241   552
26.4341   562
26.4441   539
26.4541   572
26.4641   554
26.4741   529
26.4841   562
26.4941   557
26.5041   512
26.5141   537
26.5241   556
26.5341   538
26.5441   537
26.5541   551
26.5641   543
26.5741   530
26.5841   493
26.5941   502
26.6041   480
26.6141   507
26.6241   550
26.6341   512
26.6441   543
26.6541   535
26.6641   510
26.6741   574
26.6841   497
26.6941   524
26.7041   550
26.7141   523
26.7241   542
26.7341   528
26.7441   516
26.7541   524
26.7641   536
26.7741   505
26.7841   478
26.7941   491
26.8041   534
26.8141   525
26.8241   532
26.8341   553
26.8441   527
26.8541   494
26.8641   549
26.8741   575
26.8841   547
26.8941   547
26.9041   524
26.9141   526
26.9241   556
26.9341   509
26.9441   507
26.9541   492
26.9641   499
26.9741   534
26.9841   490
26.9941   520
27.0041   501
27.0141   536
27.0241   503
27.0341   480
27.0441   497
27.0541   505
27.0641   541
27.0741   482
27.0841   507
27.0941   525
27.1041   539
27.1141   543
27.1241   480
27.1341   526
27.1441   531
27.1541   548
27.1641   511
27.1741   503
27.1841   494
27.1941   524
27.2041   523
27.2141   527
27.2241   526
27.2341   501
27.2441   515
27.2541   503
27.2641   523
27.2741   500
27.2841   518
27.2941   500
27.3041   500
27.3141   515
27.3241   503
27.3341   495
27.3441   524
27.3541   488
27.3641   512
27.3741   506
27.3841   508
27.3941   524
27.4041   481
27.4141   496
27.4241   480
27.4341   503
27.4441   522
27.4541   533
27.4641   512
27.4741   525
27.4841   514
27.4941   531
27.5041   475
27.5141   482
27.5241   503
27.5341   491
27.5441   485
27.5541   507
27.5641   497
27.5741   470
27.5841   451
27.5941   465
27.6041   518
27.6141   523
27.6241   519
27.6341   506
27.6441   496
27.6541   452
27.6641   487
27.6741   493
27.6841   477
27.6941   461
27.7041   468
27.7141   474
27.7241   456
27.7341   465
27.7441   478
27.7541   496
27.7641   499
27.7741   482
27.7841   481
27.7941   487
27.8041   462
27.8141   479
27.8241   499
27.8341   475
27.8441   498
27.8541   474
27.8641   465
27.8741   477
27.8841   477
27.8941   471
27.9041   441
27.9141   478
27.9241   480
27.9341   485
27.9441   445
27.9541   461
27.9641   448
27.9741   464
27.9841   466
27.9941   448
28.0041   480
28.0141   469
28.0241   464
28.0341   486
28.0441   482
28.0541   501
28.0641   440
28.0741   444
28.0841   440
28.0941   453
28.1041   500
28.1141   478
28.1241   497
28.1341   472
28.1441   478
28.1541   492
28.1641   473
28.1741   434
28.1841   464
28.1941   456
28.2041   453
28.2141   478
28.2241   479
28.2341   462
28.2441   468
28.2541   463
28.2641   456
28.2741   483
28.2841   444
28.2941   431
28.3041   484
28.3141   464
28.3241   485
28.3341   452
28.3441   442
28.3541   443
28.3641   453
28.3741   462
28.3841   468
28.3941   459
28.4041   473
28.4141   434
28.4241   454
28.4341   440
28.4441   458
28.4541   440
28.4641   427
28.4741   413
28.4841   431
28.4941   437
28.5041   474
28.5141   440
28.5241   419
28.5341   417
28.5441   420
28.5541   429
28.5641   437
28.5741   475
28.5841   449
28.5941   445
28.6041   448
28.6141   431
28.6241   409
28.6341   440
28.6441   463
28.6541   458
28.6641   424
28.6741   464
28.6841   454
28.6941   395
28.7041   466
28.7141   441
28.7241   420
28.7341   437
28.7441   459
28.7541   411
28.7641   411
28.7741   436
28.7841   417
28.7941   414
28.8041   415
28.8141   414
28.8241   395
28.8341   406
28.8441   417
28.8541   447
28.8641   411
28.8741   412
28.8841   418
28.8941   403
28.9041   424
28.9141   431
28.9241   420
28.9341   456
28.9441   417
28.9541   413
28.9641   388
28.9741   398
28.9841   390
28.9941   396
29.0041   396
29.0141   424
29.0241   422
29.0341   423
29.0441   428
29.0541   375
29.0641   412
29.0741   413
29.0841   414
29.0941   433
29.1041   429
29.1141   417
29.1241   445
29.1341   399
29.1441   433
29.1541   430
29.1641   421
29.1741   424
29.1841   412
29.1941   411
29.2041   412
29.2141   403
29.2241   400
29.2341   386
29.2441   412
29.2541   429
29.2641   414
29.2741   415
29.2841   394
29.2941   392
29.3041   371
29.3141   386
29.3241   395
29.3341   392
29.3441   389
29.3541   403
29.3641   388
29.3741   424
29.3841   393
29.3941   404
29.4041   404
29.4141   399
29.4241   371
29.4341   385
29.4441   365
29.4541   414
29.4641   395
29.4741   394
29.4841   362
29.4941   378
29.5041   401
29.5141   411
29.5241   391
29.5341   365
29.5441   366
29.5541   385
29.5641   374
29.5741   379
29.5841   407
29.5941   392
29.6041   388
29.6141   391
29.6241   394
29.6341   375
29.6441   374
29.6541   407
29.6641   371
29.6741   372
29.6841   399
29.6941   347
29.7041   405
29.7141   387
29.7241   391
29.7341   387
29.7441   363
29.7541   388
29.7641   406
29.7741   345
29.7841   389
29.7941   387
29.8041   405
29.8141   356
29.8241   367
29.8341   369
29.8441   376
29.8541   372
29.8641   405
29.8741   365
29.8841   400
29.8941   397
29.9041   380
29.9141   338
29.9241   370
29.9341   409
29.9441   365
29.9541   371
29.9641   362
29.9741   385
29.9841   391
29.9941   370
30.0041   349
30.0141   388
30.0241   362
30.0341   340
30.0441   361
30.0541   370
30.0641   362
30.0741   373
30.0841   387
30.0941   329
30.1041   350
30.1141   340
30.1241   366
30.1341   351
30.1441   353
30.1541   354
30.1641   369
30.1741   373
30.1841   302
30.1941   345
30.2041   348
30.2141   362
30.2241   342
30.2341   349
30.2441   359
30.2541   350
30.2641   359
30.2741   365
30.2841   357
30.2941   380
30.3041   349
30.3141   359
30.3241   363
30.3341   362
30.3441   356
30.3541   353
30.3641   359
30.3741   349
30.3841   378
30.3941   357
30.4041   355
30.4141   344
30.4241   340
30.4341   340
30.4441   349
30.4541   343
30.4641   362
30.4741   344
30.4841   346
30.4941   370
30.5041   356
30.5141   304
30.5241   346
30.5341   328
30.5441   327
30.5541   341
30.5641   348
30.5741   331
30.5841   339
30.5941   355
30.6041   328
30.6141   329
30.6241   345
30.6341   311
30.6441   342
30.6541   341
30.6641   297
30.6741   334
30.6841   344
30.6941   365
30.7041   354
30.7141   337
30.7241   323
30.7341   328
30.7441   344
30.7541   336
30.7641   339
30.7741   295
30.7841   333
30.7941   326
30.8041   328
30.8141   328
30.8241   312
30.8341   309
30.8441   321
30.8541   323
30.8641   323
30.8741   332
30.8841   317
30.8941   355
30.9041   313
30.9141   302
30.9241   329
30.9341   318
30.9441   296
30.9541   331
30.9641   324
30.9741   333
30.9841   323
30.9941   348
31.0041   343
31.0141   336
31.0241   329
31.0341   314
31.0441   308
31.0541   313
31.0641   324
31.0741   317
31.0841   296
31.0941   346
31.1041   301
31.1141   311
31.1241   313
31.1341   319
31.1441   316
31.1541   310
31.1641   326
31.1741   308
31.1841   286
31.1941   321
31.2041   313
31.2141   285
31.2241   318
31.2341   319
31.2441   308
31.2541   301
31.2641   310
31.2741   297
31.2841   320
31.2941   294
31.3041   311
31.3141   318
31.3241   305
31.3341   289
31.3441   268
31.3541   312
31.3641   320
31.3741   291
31.3841   303
31.3941   314
31.4041   307
31.4141   301
31.4241   310
31.4341   271
31.4441   297
31.4541   300
31.4641   280
31.4741   303
31.4841   288
31.4941   277
31.5041   271
31.5141   290
31.5241   288
31.5341   295
31.5441   299
31.5541   319
31.5641   286
31.5741   267
31.5841   324
31.5941   308
31.6041   274
31.6141   283
31.6241   286
31.6341   299
31.6441   285
31.6541   304
31.6641   277
31.6741   294
31.6841   306
31.6941   295
31.7041   312
31.7141   296
31.7241   325
31.7341   276
31.7441   312
31.7541   308
31.7641   280
31.7741   314
31.7841   287
31.7941   298
31.8041   288
31.8141   288
31.8241   313
31.8341   269
31.8441   298
31.8541   303
31.8641   309
31.8741   272
31.8841   302
31.8941   336
31.9041   322
31.9141   301
31.9241   283
31.9341   295
31.9441   283
31.9541   290
31.9641   331
31.9741   331
31.9841   275
31.9941   303
32.0041   284
32.0141   278
32.0241   292
32.0341   298
32.0441   298
32.0541   286
32.0641   308
32.0741   292
32.0841   303
32.0941   310
32.1041   313
32.1141   293
32.1241   280
32.1341   301
32.1441   300
32.1541   300
32.1641   303
32.1741   308
32.1841   291
32.1941   296
32.2041   276
32.2141   296
32.2241   292
32.2341   302
32.2441   291
32.2541   257
32.2641   300
32.2741   314
32.2841   277
32.2941   268
32.3041   299
32.3141   286
32.3241   284
32.3341   270
32.3441   268
32.3541   283
32.3641   276
32.3741   262
32.3841   278
32.3941   244
32.4041   266
32.4141   260
32.4241   252
32.4341   239
32.4441   259
32.4541   249
32.4641   290
32.4741   274
32.4841   258
32.4941   234
32.5041   252
32.5141   281
32.5241   233
32.5341   254
32.5441   255
32.5541   248
32.5641   256
32.5741   241
32.5841   249
32.5941   250
32.6041   250
32.6141   272
32.6241   266
32.6341   251
32.6441   261
32.6541   237
32.6641   241
32.6741   282
32.6841   242
32.6941   235
32.7041   263
32.7141   279
32.7241   249
32.7341   239
32.7441   274
32.7541   228
32.7641   244
32.7741   266
32.7841   227
32.7941   237
32.8041   228
32.8141   234
32.8241   252
32.8341   247
32.8441   231
32.8541   255
32.8641   236
32.8741   211
32.8841   239
32.8941   241
32.9041   216
32.9141   245
32.9241   226
32.9341   231
32.9441   234
32.9541   238
32.9641   243
32.9741   206
32.9841   237
32.9941   212
33.0041   238
33.0141   217
33.0241   219
33.0341   234
33.0441   240
33.0541   223
33.0641   241
33.0741   226
33.0841   221
33.0941   213
33.1041   208
33.1141   201
33.1241   214
33.1341   197
33.1441   254
33.1541   216
33.1641   233
33.1741   206
33.1841   213
33.1941   217
33.2041   238
33.2141   226
33.2241   209
33.2341   223
33.2441   213
33.2541   235
33.2641   226
33.2741   197
33.2841   236
33.2941   216
33.3041   193
33.3141   212
33.3241   201
33.3341   212
33.3441   210
33.3541   224
33.3641   230
33.3741   218
33.3841   238
33.3941   209
33.4041   217
33.4141   235
33.4241   222
33.4341   224
33.4441   217
33.4541   203
33.4641   223
33.4741   216
33.4841   206
33.4941   203
33.5041   207
33.5141   215
33.5241   216
33.5341   197
33.5441   207
33.5541   223
33.5641   206
33.5741   213
33.5841   226
33.5941   211
33.6041   212
33.6141   228
33.6241   227
33.6341   218
33.6441   209
33.6541   230
33.6641   208
33.6741   210
33.6841   203
33.6941   213
33.7041   212
33.7141   195
33.7241   202
33.7341   208
33.7441   198
33.7541   215
33.7641   205
33.7741   222
33.7841   198
33.7941   217
33.8041   200
33.8141   192
33.8241   183
33.8341   199
33.8441   185
33.8541   207
33.8641   205
33.8741   193
33.8841   188
33.8941   176
33.9041   183
33.9141   179
33.9241   187
33.9341   193
33.9441   183
33.9541   187
33.9641   202
33.9741   173
33.9841   208
33.9941   200
34.0041   193
34.0141   187
34.0241   181
34.0341   196
34.0441   194
34.0541   187
34.0641   172
34.0741   182
34.0841   198
34.0941   199
34.1041   165
34.1141   182
34.1241   203
34.1341   183
34.1441   176
34.1541   217
34.1641   211
34.1741   183
34.1841   190
34.1941   191
34.2041   174
34.2141   209
34.2241   183
34.2341   168
34.2441   181
34.2541   170
34.2641   189
34.2741   194
34.2841   167
34.2941   180
34.3041   190
34.3141   185
34.3241   184
34.3341   186
34.3441   177
34.3541   186
34.3641   191
34.3741   189
34.3841   158
34.3941   194
34.4041   200
34.4141   187
34.4241   147
34.4341   164
34.4441   182
34.4541   164
34.4641   178
34.4741   172
34.4841   187
34.4941   171
34.5041   182
34.5141   166
34.5241   163
34.5341   152
34.5441   168
34.5541   160
34.5641   175
34.5741   185
34.5841   173
34.5941   175
34.6041   182
34.6141   194
34.6241   162
34.6341   182
34.6441   148
34.6541   173
34.6641   165
34.6741   180
34.6841   168
34.6941   161
34.7041   179
34.7141   159
34.7241   146
34.7341   163
34.7441   158
34.7541   174
34.7641   173
34.7741   175
34.7841   174
34.7941   180
34.8041   164
34.8141   176
34.8241   164
34.8341   171
34.8441   155
34.8541   164
34.8641   169
34.8741   167
34.8841   163
34.8941   166
34.9041   160
34.9141   154
34.9241   147
34.9341   160
34.9441   170
34.9541   163
34.9641   156
34.9741   186
34.9841   159
34.9941   147
35.0041   167
35.0141   150
35.0241   147
35.0341   139
35.0441   155
35.0541   155
35.0641   158
35.0741   153
35.0841   166
35.0941   159
35.1041   149
35.1141   141
35.1241   149
35.1341   175
35.1441   162
35.1541   169
35.1641   167
35.1741   158
35.1841   141
35.1941   137
35.2041   171
35.2141   149
35.2241   160
35.2341   134
35.2441   155
35.2541   147
35.2641   140
35.2741   145
35.2841   156
35.2941   139
35.3041   146
35.3141   163
35.3241   132
35.3341   128
35.3441   149
35.3541   158
35.3641   139
35.3741   142
35.3841   151
35.3941   158
35.4041   144
35.4141   129
35.4241   124
35.4341   146
35.4441   164
35.4541   132
35.4641   150
35.4741   132
35.4841   125
35.4941   147
35.5041   145
35.5141   117
35.5241   126
35.5341   137
35.5441   127
35.5541   155
35.5641   137
35.5741   141
35.5841   135
35.5941   142
35.6041   126
35.6141   139
35.6241   160
35.6341   140
35.6441   149
35.6541   150
35.6641   122
35.6741   113
35.6841   133
35.6941   137
35.7041   124
35.7141   147
35.7241   124
35.7341   140
35.7441   150
35.7541   137
35.7641   143
35.7741   130
35.7841   134
35.7941   132
35.8041   128
35.8141   147
35.8241   140
35.8341   133
35.8441   141
35.8541   124
35.8641   141
35.8741   110
35.8841   134
35.8941   148
35.9041   151
35.9141   130
35.9241   148
35.9341   147
35.9441   138
35.9541   127
35.9641   147
35.9741   125
35.9841   137
35.9941   131
36.0041   144
36.0141   120
36.0241   146
36.0341   126
36.0441   111
36.0541   127
36.0641   135
36.0741   136
36.0841   115
36.0941   119
36.1041   126
36.1141   122
36.1241   132
36.1341   137
36.1441   132
36.1541   115
36.1641   115
36.1741   135
36.1841   119
36.1941   136
36.2041   123
36.2141   137
36.2241   124
36.2341   124
36.2441   120
36.2541   140
36.2641   130
36.2741   111
36.2841   135
36.2941   120
36.3041   128
36.3141   148
36.3241   127
36.3341   120
36.3441   126
36.3541   129
36.3641   150
36.3741   133
36.3841   103
36.3941   119
36.4041   122
36.4141   136
36.4241   116
36.4341   120
36.4441   131
36.4541   119
36.4641   116
36.4741   121
36.4841   122
36.4941   117
36.5041   132
36.5141   119
36.5241   132
36.5341   110
36.5441    93
36.5541   124
36.5641   113
36.5741   125
36.5841   148
36.5941   115
36.6041   122
36.6141   104
36.6241   103
36.6341   121
36.6441   109
36.6541   123
36.6641   116
36.6741    95
36.6841   104
36.6941   119
36.7041    96
36.7141   106
36.7241   110
36.7341   108
36.7441   122
36.7541   114
36.7641   108
36.7741    92
36.7841   117
36.7941   106
36.8041   114
36.8141   112
36.8241   104
36.8341    78
36.8441   107
36.8541    92
36.8641   100
36.8741    89
36.8841   106
36.8941   122
36.9041   109
36.9141    97
36.9241    80
36.9341    90
36.9441   104
36.9541   108
36.9641    96
36.9741    99
36.9841    96
36.9941   106
37.0041   106
37.0141    96
37.0241   100
37.0341   104
37.0441   103
37.0541   105
37.0641   107
37.0741    99
37.0841   100
37.0941    99
37.1041   112
37.1141    89
37.1241    84
37.1341    82
37.1441    85
37.1541    89
37.1641   120
37.1741    98
37.1841    98
37.1941    98
37.2041    96
37.2141    88
37.2241    97
37.2341   119
37.2441    92
37.2541   107
37.2641   104
37.2741    94
37.2841   105
37.2941    93
37.3041   103
37.3141    92
37.3241   103
37.3341   104
37.3441   107
37.3541   107
37.3641    94
37.3741    85
37.3841    88
37.3941   105
37.4041    91
37.4141    98
37.4241    86
37.4341    82
37.4441    99
37.4541    93
37.4641    75
37.4741   110
37.4841    99
37.4941   101
37.5041    82
37.5141    94
37.5241    94
37.5341    81
37.5441    79
37.5541    84
37.5641    94
37.5741    84
37.5841    80
37.5941    88
37.6041   101
37.6141    74
37.6241    65
37.6341    79
37.6441   105
37.6541    88
37.6641    94
37.6741    78
37.6841    76
37.6941    79
37.7041    95
37.7141    77
37.7241    87
37.7341    88
37.7441    81
37.7541    92
37.7641    87
37.7741    85
37.7841    73
37.7941    77
37.8041    75
37.8141    99
37.8241    94
37.8341    72
37.8441    87
37.8541    82
37.8641    76
37.8741    89
37.8841    91
37.8941    79
37.9041    92
37.9141    82
37.9241    76
37.9341    71
37.9441    91
37.9541    90
37.9641    72
37.9741    87
37.9841    76
37.9941    74
38.0041    88
38.0141    72
38.0241    83
38.0341    84
38.0441    63
38.0541    76
38.0641    68
38.0741    94
38.0841    84
38.0941    75
38.1041    86
38.1141    81
38.1241    82
38.1341    84
38.1441    83
38.1541    76
38.1641    70
38.1741    92
38.1841    85
38.1941    85
38.2041    58
38.2141    68
38.2241    87
38.2341    79
38.2441    77
38.2541    76
38.2641    70
38.2741    79
38.2841    77
38.2941    66
38.3041    73
38.3141    61
38.3241    77
38.3341    64
38.3441    70
38.3541    73
38.3641    86
38.3741    63
38.3841    71
38.3941    66
38.4041    83
38.4141    61
38.4241    67
38.4341    57
38.4441    71
38.4541    69
38.4641    68
38.4741    68
38.4841    67
38.4941    72
38.5041    65
38.5141    68
38.5241    68
38.5341    65
38.5441    67
38.5541    47
38.5641    62
38.5741    63
38.5841    70
38.5941    67
38.6041    71
38.6141    55
38.6241    59
38.6341    62
38.6441    76
38.6541    70
38.6641    70
38.6741    74
38.6841    61
38.6941    76
38.7041    72
38.7141    55
38.7241    58
38.7341    61
38.7441    64
38.7541    72
38.7641    54
38.7741    75
38.7841    79
38.7941    72
38.8041    60
38.8141    67
38.8241    53
38.8341    65
38.8441    57
38.8541    63
38.8641    63
38.8741    54
38.8841    68
38.8941    77
38.9041    75
38.9141    49
38.9241    52
38.9341    53
38.9441    48
38.9541    67
38.9641    53
38.9741    58
38.9841    59
38.9941    58
39.0041    49
39.0141    54
39.0241    60
39.0341    60
39.0441    80
39.0541    53
39.0641    52
39.0741    50
39.0841    60
39.0941    62
39.1041    63
39.1141    50
39.1241    51
39.1341    46
39.1441    56
39.1541    34
39.1641    55
39.1741    52
39.1841    62
39.1941    60
39.2041    61
39.2141    47
39.2241    50
39.2341    59
39.2441    53
39.2541    58
39.2641    50
39.2741    52
39.2841    40
39.2941    50
39.3041    69
39.3141    48
39.3241    44
39.3341    60
39.3441    59
39.3541    40
39.3641    54
39.3741    42
39.3841    54
39.3941    53
39.4041    54
39.4141    54
39.4241    55
39.4341    52
39.4441    47
39.4541    39
39.4641    47
39.4741    54
39.4841    63
39.4941    44
39.5041    46
39.5141    48
39.5241    49
39.5341    48
39.5441    44
39.5541    60
39.5641    60
39.5741    52
39.5841    42
39.5941    42
39.6041    50
39.6141    39
39.6241    40
39.6341    44
39.6441    40
39.6541    54
39.6641    42
39.6741    45
39.6841    42
39.6941    36
39.7041    49
39.7141    56
39.7241    50
39.7341    56
39.7441    38
39.7541    37
39.7641    43
39.7741    40
39.7841    43
39.7941    40
39.8041    41
39.8141    43
39.8241    55
39.8341    42
39.8441    32
39.8541    42
39.8641    42
39.8741    36
39.8841    47
39.8941    45
39.9041    48
39.9141    43
39.9241    46
39.9341    42
39.9441    37
39.9541    37
39.9641    46
39.9741    45
39.9841    38
