Bruker Nano GmbH Berlin, Germany
Esprit 1.9

Date: 4/1/2021 4:58:19 PM
Real time: 18337
Life time: 17090
Pulse density: 102134


Detector type: XFlash 430
Window type: Custom type
Detector thickness: 0.45
Si dead layer:0.029

Calibration, lin.: 10
Calibration, abs.: -955.9
Mn FWHM: 137.05
Fano factor: 0.121
Channels: 4095

Energy Counts
-0.9559     0
-0.9459     0
-0.9359     0
-0.9259     0
-0.9159     0
-0.9059     0
-0.8959     0
-0.8859     0
-0.8759     0
-0.8659     0
-0.8559     0
-0.8459     0
-0.8359     0
-0.8259     0
-0.8159     0
-0.8059     0
-0.7959     0
-0.7859     0
-0.7759     0
-0.7659     0
-0.7559     0
-0.7459     0
-0.7359     0
-0.7259     0
-0.7159     0
-0.7059     0
-0.6959     0
-0.6859     0
-0.6759     0
-0.6659     0
-0.6559     0
-0.6459     0
-0.6359     0
-0.6259     0
-0.6159     0
-0.6059     0
-0.5959     0
-0.5859     0
-0.5759     0
-0.5659     0
-0.5559     0
-0.5459     0
-0.5359     0
-0.5259     0
-0.5159     0
-0.5059     0
-0.4959     0
-0.4859     0
-0.4759     0
-0.4659     0
-0.4559     0
-0.4459     0
-0.4359     0
-0.4259     0
-0.4159     0
-0.4059     0
-0.3959     0
-0.3859     0
-0.3759     0
-0.3659     0
-0.3559     0
-0.3459     0
-0.3359     0
-0.3259     0
-0.3159     0
-0.3059     0
-0.2959     0
-0.2859     0
-0.2759     0
-0.2659     0
-0.2559     0
-0.2459     0
-0.2359     0
-0.2259     0
-0.2159     0
-0.2059     0
-0.1959     0
-0.1859     0
-0.1759     0
-0.1659     0
-0.1559     0
-0.1459     0
-0.1359     0
-0.1259     0
-0.1159     1
-0.1059    14
-0.0959    38
-0.0859   192
-0.0759   681
-0.0659  1920
-0.0559  5052
-0.0459 10790
-0.0359 20386
-0.0259 32231
-0.0159 44819
-0.0059 52270
 0.0041 52700
 0.0141 45652
 0.0241 33340
 0.0341 21305
 0.0441 11287
 0.0541  5435
 0.0641  2166
 0.0741   751
 0.0841   223
 0.0941    55
 0.1041    28
 0.1141     8
 0.1241     6
 0.1341     7
 0.1441     8
 0.1541     2
 0.1641     3
 0.1741    17
 0.1841   153
 0.1941   302
 0.2041   268
 0.2141   267
 0.2241   263
 0.2341   272
 0.2441   294
 0.2541   302
 0.2641   274
 0.2741   282
 0.2841   251
 0.2941   278
 0.3041   282
 0.3141   255
 0.3241   268
 0.3341   252
 0.3441   242
 0.3541   240
 0.3641   238
 0.3741   256
 0.3841   225
 0.3941   261
 0.4041   273
 0.4141   276
 0.4241   263
 0.4341   247
 0.4441   271
 0.4541   267
 0.4641   263
 0.4741   249
 0.4841   232
 0.4941   238
 0.5041   247
 0.5141   252
 0.5241   258
 0.5341   250
 0.5441   219
 0.5541   229
 0.5641   237
 0.5741   230
 0.5841   238
 0.5941   228
 0.6041   224
 0.6141   224
 0.6241   244
 0.6341   214
 0.6441   199
 0.6541   232
 0.6641   221
 0.6741   210
 0.6841   227
 0.6941   213
 0.7041   202
 0.7141   202
 0.7241   194
 0.7341   187
 0.7441   200
 0.7541   201
 0.7641   195
 0.7741   206
 0.7841   200
 0.7941   202
 0.8041   212
 0.8141   214
 0.8241   198
 0.8341   180
 0.8441   199
 0.8541   193
 0.8641   172
 0.8741   201
 0.8841   208
 0.8941   195
 0.9041   176
 0.9141   182
 0.9241   170
 0.9341   178
 0.9441   180
 0.9541   189
 0.9641   174
 0.9741   187
 0.9841   177
 0.9941   174
 1.0041   170
 1.0141   181
 1.0241   188
 1.0341   186
 1.0441   171
 1.0541   180
 1.0641   170
 1.0741   189
 1.0841   182
 1.0941   180
 1.1041   172
 1.1141   173
 1.1241   177
 1.1341   177
 1.1441   176
 1.1541   184
 1.1641   174
 1.1741   181
 1.1841   162
 1.1941   168
 1.2041   189
 1.2141   172
 1.2241   159
 1.2341   174
 1.2441   186
 1.2541   174
 1.2641   170
 1.2741   177
 1.2841   198
 1.2941   195
 1.3041   160
 1.3141   161
 1.3241   140
 1.3341   148
 1.3441   182
 1.3541   179
 1.3641   172
 1.3741   156
 1.3841   170
 1.3941   153
 1.4041   171
 1.4141   169
 1.4241   168
 1.4341   164
 1.4441   163
 1.4541   186
 1.4641   169
 1.4741   163
 1.4841   157
 1.4941   179
 1.5041   180
 1.5141   172
 1.5241   158
 1.5341   181
 1.5441   154
 1.5541   147
 1.5641   156
 1.5741   156
 1.5841   171
 1.5941   176
 1.6041   157
 1.6141   139
 1.6241   161
 1.6341   193
 1.6441   195
 1.6541   189
 1.6641   236
 1.6741   291
 1.6841   384
 1.6941   482
 1.7041   538
 1.7141   601
 1.7241   653
 1.7341   694
 1.7441   691
 1.7541   641
 1.7641   603
 1.7741   489
 1.7841   407
 1.7941   322
 1.8041   277
 1.8141   253
 1.8241   224
 1.8341   200
 1.8441   208
 1.8541   200
 1.8641   188
 1.8741   203
 1.8841   167
 1.8941   178
 1.9041   172
 1.9141   185
 1.9241   182
 1.9341   166
 1.9441   171
 1.9541   172
 1.9641   175
 1.9741   177
 1.9841   214
 1.9941   219
 2.0041   186
 2.0141   197
 2.0241   179
 2.0341   187
 2.0441   190
 2.0541   158
 2.0641   169
 2.0741   163
 2.0841   155
 2.0941   158
 2.1041   169
 2.1141   154
 2.1241   151
 2.1341   163
 2.1441   145
 2.1541   173
 2.1641   176
 2.1741   172
 2.1841   152
 2.1941   156
 2.2041   148
 2.2141   155
 2.2241   130
 2.2341   132
 2.2441   131
 2.2541   128
 2.2641   138
 2.2741   137
 2.2841   146
 2.2941   144
 2.3041   138
 2.3141   149
 2.3241   145
 2.3341   169
 2.3441   147
 2.3541   148
 2.3641   115
 2.3741   148
 2.3841   148
 2.3941   126
 2.4041   140
 2.4141   143
 2.4241   139
 2.4341   153
 2.4441   136
 2.4541   149
 2.4641   119
 2.4741   123
 2.4841   126
 2.4941   138
 2.5041   145
 2.5141   134
 2.5241   159
 2.5341   136
 2.5441   129
 2.5541   121
 2.5641   129
 2.5741   154
 2.5841   131
 2.5941   128
 2.6041   124
 2.6141   130
 2.6241   109
 2.6341   123
 2.6441   116
 2.6541   127
 2.6641   113
 2.6741   136
 2.6841   134
 2.6941   125
 2.7041   115
 2.7141   128
 2.7241   119
 2.7341   111
 2.7441   103
 2.7541   112
 2.7641   120
 2.7741   128
 2.7841   125
 2.7941   130
 2.8041   135
 2.8141   131
 2.8241   124
 2.8341   140
 2.8441   136
 2.8541   127
 2.8641   124
 2.8741   132
 2.8841   131
 2.8941   140
 2.9041   132
 2.9141   133
 2.9241   105
 2.9341   119
 2.9441   127
 2.9541   124
 2.9641   129
 2.9741   132
 2.9841   108
 2.9941   119
 3.0041   121
 3.0141   105
 3.0241   126
 3.0341   107
 3.0441   111
 3.0541   109
 3.0641   125
 3.0741   111
 3.0841   102
 3.0941   109
 3.1041    85
 3.1141   105
 3.1241   102
 3.1341   113
 3.1441   107
 3.1541   118
 3.1641   109
 3.1741   110
 3.1841   133
 3.1941   125
 3.2041   104
 3.2141   134
 3.2241   121
 3.2341   126
 3.2441   159
 3.2541   170
 3.2641   193
 3.2741   227
 3.2841   213
 3.2941   233
 3.3041   242
 3.3141   252
 3.3241   227
 3.3341   230
 3.3441   209
 3.3541   191
 3.3641   171
 3.3741   157
 3.3841   160
 3.3941   131
 3.4041   110
 3.4141   105
 3.4241   103
 3.4341   108
 3.4441    80
 3.4541    78
 3.4641    82
 3.4741   101
 3.4841    90
 3.4941   105
 3.5041    92
 3.5141    99
 3.5241   103
 3.5341   127
 3.5441   122
 3.5541   135
 3.5641   161
 3.5741   165
 3.5841   206
 3.5941   232
 3.6041   341
 3.6141   435
 3.6241   539
 3.6341   627
 3.6441   755
 3.6541   878
 3.6641   989
 3.6741   994
 3.6841  1053
 3.6941  1023
 3.7041  1024
 3.7141   919
 3.7241   887
 3.7341   754
 3.7441   627
 3.7541   501
 3.7641   373
 3.7741   296
 3.7841   218
 3.7941   165
 3.8041   135
 3.8141   115
 3.8241    88
 3.8341    95
 3.8441    85
 3.8541    87
 3.8641    90
 3.8741    96
 3.8841    87
 3.8941    85
 3.9041   107
 3.9141   112
 3.9241   126
 3.9341   126
 3.9441   148
 3.9541   146
 3.9641   157
 3.9741   185
 3.9841   195
 3.9941   228
 4.0041   220
 4.0141   229
 4.0241   191
 4.0341   185
 4.0441   188
 4.0541   157
 4.0641   173
 4.0741   161
 4.0841   129
 4.0941   112
 4.1041   103
 4.1141    90
 4.1241    89
 4.1341    73
 4.1441    82
 4.1541    78
 4.1641    78
 4.1741    77
 4.1841    60
 4.1941    84
 4.2041    65
 4.2141    73
 4.2241    70
 4.2341    71
 4.2441    78
 4.2541    87
 4.2641    59
 4.2741    77
 4.2841    74
 4.2941    85
 4.3041    82
 4.3141    69
 4.3241    75
 4.3341    82
 4.3441    77
 4.3541    83
 4.3641    84
 4.3741    86
 4.3841   116
 4.3941   129
 4.4041   165
 4.4141   206
 4.4241   235
 4.4341   277
 4.4441   337
 4.4541   427
 4.4641   468
 4.4741   513
 4.4841   537
 4.4941   650
 4.5041   628
 4.5141   620
 4.5241   563
 4.5341   563
 4.5441   503
 4.5541   441
 4.5641   371
 4.5741   307
 4.5841   267
 4.5941   180
 4.6041   180
 4.6141   147
 4.6241   116
 4.6341   118
 4.6441    90
 4.6541   114
 4.6641    77
 4.6741    78
 4.6841    69
 4.6941    79
 4.7041    96
 4.7141    88
 4.7241    68
 4.7341    63
 4.7441    79
 4.7541    79
 4.7641    78
 4.7741    92
 4.7841    79
 4.7941    88
 4.8041   102
 4.8141   105
 4.8241   126
 4.8341   122
 4.8441   111
 4.8541   139
 4.8641   147
 4.8741   165
 4.8841   164
 4.8941   181
 4.9041   188
 4.9141   203
 4.9241   203
 4.9341   233
 4.9441   220
 4.9541   189
 4.9641   209
 4.9741   172
 4.9841   153
 4.9941   157
 5.0041   131
 5.0141   132
 5.0241   135
 5.0341   116
 5.0441    91
 5.0541   106
 5.0641   118
 5.0741    98
 5.0841    79
 5.0941    92
 5.1041    98
 5.1141    89
 5.1241    99
 5.1341    86
 5.1441    96
 5.1541    93
 5.1641    90
 5.1741    76
 5.1841    95
 5.1941    90
 5.2041    92
 5.2141   102
 5.2241    80
 5.2341    77
 5.2441    99
 5.2541    96
 5.2641    94
 5.2741    92
 5.2841    85
 5.2941    94
 5.3041   104
 5.3141   101
 5.3241    92
 5.3341   101
 5.3441    90
 5.3541   101
 5.3641   117
 5.3741   143
 5.3841   137
 5.3941   155
 5.4041   133
 5.4141   137
 5.4241   138
 5.4341   139
 5.4441   127
 5.4541   122
 5.4641   113
 5.4741   105
 5.4841   116
 5.4941   101
 5.5041   120
 5.5141   103
 5.5241    91
 5.5341    98
 5.5441   110
 5.5541    83
 5.5641    88
 5.5741    92
 5.5841   120
 5.5941    95
 5.6041   101
 5.6141   104
 5.6241    77
 5.6341    93
 5.6441    93
 5.6541   107
 5.6641    89
 5.6741    86
 5.6841    89
 5.6941   100
 5.7041    90
 5.7141   104
 5.7241   128
 5.7341   127
 5.7441   144
 5.7541   129
 5.7641   149
 5.7741   187
 5.7841   213
 5.7941   258
 5.8041   335
 5.8141   355
 5.8241   460
 5.8341   529
 5.8441   661
 5.8541   662
 5.8641   728
 5.8741   722
 5.8841   844
 5.8941   815
 5.9041   861
 5.9141   786
 5.9241   756
 5.9341   686
 5.9441   610
 5.9541   534
 5.9641   450
 5.9741   377
 5.9841   369
 5.9941   245
 6.0041   263
 6.0141   214
 6.0241   183
 6.0341   168
 6.0441   140
 6.0541   155
 6.0641   128
 6.0741   152
 6.0841   126
 6.0941   136
 6.1041   150
 6.1141   142
 6.1241   172
 6.1341   171
 6.1441   186
 6.1541   179
 6.1641   227
 6.1741   217
 6.1841   246
 6.1941   324
 6.2041   436
 6.2141   536
 6.2241   733
 6.2341  1056
 6.2441  1420
 6.2541  2008
 6.2641  2783
 6.2741  3901
 6.2841  5294
 6.2941  7104
 6.3041  9170
 6.3141 11498
 6.3241 14352
 6.3341 17012
 6.3441 19905
 6.3541 22710
 6.3641 25311
 6.3741 27323
 6.3841 28855
 6.3941 29535
 6.4041 29500
 6.4141 28172
 6.4241 26931
 6.4341 24782
 6.4441 21947
 6.4541 19131
 6.4641 16308
 6.4741 13172
 6.4841 10803
 6.4941  8339
 6.5041  6412
 6.5141  4720
 6.5241  3418
 6.5341  2479
 6.5441  1733
 6.5541  1179
 6.5641   824
 6.5741   620
 6.5841   427
 6.5941   324
 6.6041   289
 6.6141   223
 6.6241   189
 6.6341   186
 6.6441   172
 6.6541   155
 6.6641   174
 6.6741   176
 6.6841   149
 6.6941   158
 6.7041   171
 6.7141   196
 6.7241   164
 6.7341   169
 6.7441   182
 6.7541   165
 6.7641   203
 6.7741   172
 6.7841   195
 6.7941   198
 6.8041   194
 6.8141   195
 6.8241   241
 6.8341   224
 6.8441   285
 6.8541   287
 6.8641   282
 6.8741   375
 6.8841   392
 6.8941   504
 6.9041   582
 6.9141   729
 6.9241   903
 6.9341  1147
 6.9441  1336
 6.9541  1549
 6.9641  2019
 6.9741  2332
 6.9841  2733
 6.9941  3245
 7.0041  3688
 7.0141  3925
 7.0241  4148
 7.0341  4742
 7.0441  4855
 7.0541  4982
 7.0641  4805
 7.0741  4693
 7.0841  4253
 7.0941  3832
 7.1041  3477
 7.1141  3068
 7.1241  2597
 7.1341  2219
 7.1441  1867
 7.1541  1398
 7.1641  1141
 7.1741   933
 7.1841   695
 7.1941   551
 7.2041   436
 7.2141   353
 7.2241   271
 7.2341   257
 7.2441   217
 7.2541   226
 7.2641   201
 7.2741   204
 7.2841   173
 7.2941   186
 7.3041   195
 7.3141   198
 7.3241   193
 7.3341   209
 7.3441   197
 7.3541   250
 7.3641   211
 7.3741   232
 7.3841   246
 7.3941   249
 7.4041   254
 7.4141   262
 7.4241   247
 7.4341   245
 7.4441   245
 7.4541   230
 7.4641   233
 7.4741   237
 7.4841   260
 7.4941   198
 7.5041   229
 7.5141   217
 7.5241   180
 7.5341   190
 7.5441   195
 7.5541   187
 7.5641   183
 7.5741   158
 7.5841   203
 7.5941   176
 7.6041   212
 7.6141   172
 7.6241   203
 7.6341   167
 7.6441   174
 7.6541   184
 7.6641   176
 7.6741   206
 7.6841   192
 7.6941   172
 7.7041   188
 7.7141   187
 7.7241   207
 7.7341   204
 7.7441   196
 7.7541   173
 7.7641   196
 7.7741   223
 7.7841   222
 7.7941   206
 7.8041   230
 7.8141   229
 7.8241   251
 7.8341   234
 7.8441   248
 7.8541   259
 7.8641   260
 7.8741   248
 7.8841   295
 7.8941   258
 7.9041   290
 7.9141   284
 7.9241   334
 7.9341   356
 7.9441   353
 7.9541   368
 7.9641   420
 7.9741   437
 7.9841   470
 7.9941   487
 8.0041   552
 8.0141   578
 8.0241   645
 8.0341   636
 8.0441   718
 8.0541   749
 8.0641   759
 8.0741   801
 8.0841   854
 8.0941   918
 8.1041   957
 8.1141   984
 8.1241  1093
 8.1341  1051
 8.1441  1134
 8.1541  1185
 8.1641  1232
 8.1741  1168
 8.1841  1226
 8.1941  1198
 8.2041  1267
 8.2141  1222
 8.2241  1176
 8.2341  1282
 8.2441  1375
 8.2541  1349
 8.2641  1406
 8.2741  1563
 8.2841  1581
 8.2941  1766
 8.3041  1814
 8.3141  1977
 8.3241  2111
 8.3341  2268
 8.3441  2346
 8.3541  2587
 8.3641  2639
 8.3741  2737
 8.3841  2776
 8.3941  2638
 8.4041  2636
 8.4141  2407
 8.4241  2331
 8.4341  2315
 8.4441  2011
 8.4541  1820
 8.4641  1643
 8.4741  1439
 8.4841  1219
 8.4941  1050
 8.5041   895
 8.5141   719
 8.5241   638
 8.5341   559
 8.5441   488
 8.5541   446
 8.5641   390
 8.5741   363
 8.5841   340
 8.5941   337
 8.6041   350
 8.6141   366
 8.6241   353
 8.6341   345
 8.6441   359
 8.6541   327
 8.6641   324
 8.6741   348
 8.6841   352
 8.6941   340
 8.7041   309
 8.7141   327
 8.7241   307
 8.7341   305
 8.7441   305
 8.7541   288
 8.7641   312
 8.7741   291
 8.7841   297
 8.7941   264
 8.8041   254
 8.8141   258
 8.8241   257
 8.8341   270
 8.8441   282
 8.8541   253
 8.8641   293
 8.8741   287
 8.8841   288
 8.8941   293
 8.9041   257
 8.9141   283
 8.9241   302
 8.9341   298
 8.9441   285
 8.9541   284
 8.9641   298
 8.9741   303
 8.9841   323
 8.9941   304
 9.0041   320
 9.0141   320
 9.0241   337
 9.0341   363
 9.0441   365
 9.0541   358
 9.0641   392
 9.0741   365
 9.0841   354
 9.0941   409
 9.1041   385
 9.1141   419
 9.1241   426
 9.1341   467
 9.1441   454
 9.1541   538
 9.1641   495
 9.1741   548
 9.1841   571
 9.1941   559
 9.2041   627
 9.2141   684
 9.2241   693
 9.2341   728
 9.2441   763
 9.2541   832
 9.2641   817
 9.2741   807
 9.2841   894
 9.2941   979
 9.3041   961
 9.3141   989
 9.3241  1020
 9.3341  1071
 9.3441  1081
 9.3541  1110
 9.3641  1157
 9.3741  1147
 9.3841  1151
 9.3941  1139
 9.4041  1233
 9.4141  1267
 9.4241  1226
 9.4341  1251
 9.4441  1291
 9.4541  1259
 9.4641  1282
 9.4741  1388
 9.4841  1352
 9.4941  1375
 9.5041  1372
 9.5141  1384
 9.5241  1490
 9.5341  1556
 9.5441  1571
 9.5541  1682
 9.5641  1795
 9.5741  1891
 9.5841  2088
 9.5941  2134
 9.6041  2241
 9.6141  2344
 9.6241  2502
 9.6341  2559
 9.6441  2640
 9.6541  2732
 9.6641  2717
 9.6741  2633
 9.6841  2642
 9.6941  2559
 9.7041  2543
 9.7141  2349
 9.7241  2273
 9.7341  2121
 9.7441  1927
 9.7541  1791
 9.7641  1611
 9.7741  1555
 9.7841  1390
 9.7941  1297
 9.8041  1248
 9.8141  1170
 9.8241  1139
 9.8341  1103
 9.8441  1085
 9.8541  1104
 9.8641  1133
 9.8741  1141
 9.8841  1103
 9.8941  1180
 9.9041  1153
 9.9141  1198
 9.9241  1222
 9.9341  1219
 9.9441  1226
 9.9541  1226
 9.9641  1184
 9.9741  1175
 9.9841  1137
 9.9941  1091
10.0041  1028
10.0141   972
10.0241   900
10.0341   809
10.0441   682
10.0541   636
10.0641   560
10.0741   501
10.0841   467
10.0941   409
10.1041   380
10.1141   351
10.1241   317
10.1341   295
10.1441   275
10.1541   260
10.1641   226
10.1741   226
10.1841   255
10.1941   218
10.2041   193
10.2141   191
10.2241   185
10.2341   179
10.2441   192
10.2541   173
10.2641   178
10.2741   165
10.2841   183
10.2941   170
10.3041   179
10.3141   156
10.3241   151
10.3341   172
10.3441   154
10.3541   137
10.3641   150
10.3741   159
10.3841   160
10.3941   147
10.4041   146
10.4141   128
10.4241   146
10.4341   152
10.4441   161
10.4541   165
10.4641   153
10.4741   162
10.4841   166
10.4941   146
10.5041   161
10.5141   170
10.5241   172
10.5341   167
10.5441   171
10.5541   166
10.5641   161
10.5741   166
10.5841   174
10.5941   174
10.6041   179
10.6141   167
10.6241   167
10.6341   169
10.6441   175
10.6541   170
10.6641   185
10.6741   201
10.6841   182
10.6941   165
10.7041   168
10.7141   201
10.7241   214
10.7341   212
10.7441   206
10.7541   207
10.7641   208
10.7741   215
10.7841   203
10.7941   221
10.8041   244
10.8141   270
10.8241   252
10.8341   246
10.8441   253
10.8541   250
10.8641   247
10.8741   258
10.8841   260
10.8941   273
10.9041   273
10.9141   282
10.9241   267
10.9341   266
10.9441   280
10.9541   280
10.9641   275
10.9741   244
10.9841   225
10.9941   257
11.0041   273
11.0141   253
11.0241   247
11.0341   246
11.0441   221
11.0541   225
11.0641   237
11.0741   212
11.0841   233
11.0941   258
11.1041   234
11.1141   239
11.1241   227
11.1341   243
11.1441   238
11.1541   259
11.1641   278
11.1741   269
11.1841   278
11.1941   272
11.2041   311
11.2141   333
11.2241   356
11.2341   353
11.2441   353
11.2541   340
11.2641   361
11.2741   359
11.2841   370
11.2941   357
11.3041   359
11.3141   343
11.3241   348
11.3341   326
11.3441   337
11.3541   324
11.3641   297
11.3741   279
11.3841   244
11.3941   243
11.4041   242
11.4141   242
11.4241   221
11.4341   198
11.4441   187
11.4541   189
11.4641   182
11.4741   170
11.4841   187
11.4941   186
11.5041   199
11.5141   190
11.5241   192
11.5341   200
11.5441   199
11.5541   191
11.5641   196
11.5741   201
11.5841   198
11.5941   218
11.6041   202
11.6141   181
11.6241   192
11.6341   199
11.6441   196
11.6541   179
11.6641   190
11.6741   187
11.6841   181
11.6941   182
11.7041   160
11.7141   178
11.7241   191
11.7341   176
11.7441   180
11.7541   186
11.7641   153
11.7741   149
11.7841   150
11.7941   138
11.8041   128
11.8141   146
11.8241   140
11.8341   132
11.8441   136
11.8541   136
11.8641   147
11.8741   147
11.8841   147
11.8941   134
11.9041   126
11.9141   133
11.9241   151
11.9341   142
11.9441   128
11.9541   135
11.9641   132
11.9741   144
11.9841   140
11.9941   142
12.0041   130
12.0141   139
12.0241   161
12.0341   160
12.0441   148
12.0541   139
12.0641   144
12.0741   144
12.0841   164
12.0941   143
12.1041   132
12.1141   129
12.1241   129
12.1341   140
12.1441   145
12.1541   136
12.1641   129
12.1741   128
12.1841   144
12.1941   138
12.2041   120
12.2141   122
12.2241   145
12.2341   149
12.2441   134
12.2541   127
12.2641   126
12.2741   130
12.2841   131
12.2941   139
12.3041   148
12.3141   132
12.3241   121
12.3341   122
12.3441   129
12.3541   137
12.3641   130
12.3741   133
12.3841   146
12.3941   141
12.4041   132
12.4141   145
12.4241   134
12.4341   129
12.4441   130
12.4541   138
12.4641   137
12.4741   137
12.4841   140
12.4941   135
12.5041   139
12.5141   135
12.5241   140
12.5341   155
12.5441   158
12.5541   157
12.5641   144
12.5741   142
12.5841   147
12.5941   155
12.6041   155
12.6141   159
12.6241   148
12.6341   158
12.6441   145
12.6541   129
12.6641   134
12.6741   148
12.6841   161
12.6941   163
12.7041   153
12.7141   143
12.7241   143
12.7341   148
12.7441   146
12.7541   143
12.7641   149
12.7741   152
12.7841   150
12.7941   151
12.8041   150
12.8141   145
12.8241   141
12.8341   145
12.8441   159
12.8541   171
12.8641   170
12.8741   161
12.8841   150
12.8941   143
12.9041   150
12.9141   158
12.9241   153
12.9341   150
12.9441   157
12.9541   161
12.9641   158
12.9741   158
12.9841   157
12.9941   161
13.0041   165
13.0141   160
13.0241   161
13.0341   168
13.0441   169
13.0541   157
13.0641   154
13.0741   160
13.0841   156
13.0941   146
13.1041   154
13.1141   160
13.1241   162
13.1341   158
13.1441   157
13.1541   150
13.1641   169
13.1741   174
13.1841   176
13.1941   182
13.2041   184
13.2141   198
13.2241   190
13.2341   195
13.2441   191
13.2541   186
13.2641   193
13.2741   204
13.2841   207
13.2941   221
13.3041   212
13.3141   222
13.3241   235
13.3341   229
13.3441   238
13.3541   243
13.3641   241
13.3741   241
13.3841   251
13.3941   256
13.4041   248
13.4141   240
13.4241   234
13.4341   231
13.4441   225
13.4541   215
13.4641   210
13.4741   208
13.4841   206
13.4941   209
13.5041   208
13.5141   200
13.5241   190
13.5341   184
13.5441   185
13.5541   188
13.5641   188
13.5741   186
13.5841   182
13.5941   181
13.6041   184
13.6141   189
13.6241   198
13.6341   205
13.6441   190
13.6541   185
13.6641   184
13.6741   198
13.6841   198
13.6941   174
13.7041   186
13.7141   206
13.7241   193
13.7341   178
13.7441   180
13.7541   172
13.7641   168
13.7741   187
13.7841   186
13.7941   180
13.8041   185
13.8141   193
13.8241   185
13.8341   174
13.8441   191
13.8541   184
13.8641   187
13.8741   205
13.8841   192
13.8941   183
13.9041   191
13.9141   197
13.9241   200
13.9341   201
13.9441   202
13.9541   205
13.9641   208
13.9741   214
13.9841   224
13.9941   224
14.0041   217
14.0141   217
14.0241   227
14.0341   241
14.0441   250
14.0541   255
14.0641   260
14.0741   263
14.0841   266
14.0941   278
14.1041   295
14.1141   305
14.1241   311
14.1341   310
14.1441   306
14.1541   310
14.1641   311
14.1741   297
14.1841   281
14.1941   277
14.2041   282
14.2141   275
14.2241   253
14.2341   250
14.2441   253
14.2541   235
14.2641   228
14.2741   236
14.2841   237
14.2941   227
14.3041   217
14.3141   218
14.3241   223
14.3341   213
14.3441   213
14.3541   206
14.3641   206
14.3741   207
14.3841   205
14.3941   206
14.4041   202
14.4141   211
14.4241   208
14.4341   212
14.4441   213
14.4541   212
14.4641   200
14.4741   192
14.4841   205
14.4941   201
14.5041   211
14.5141   211
14.5241   205
14.5341   217
14.5441   223
14.5541   223
14.5641   218
14.5741   212
14.5841   207
14.5941   206
14.6041   208
14.6141   214
14.6241   221
14.6341   214
14.6441   220
14.6541   216
14.6641   193
14.6741   180
14.6841   202
14.6941   221
14.7041   227
14.7141   220
14.7241   214
14.7341   240
14.7441   232
14.7541   212
14.7641   219
14.7741   209
14.7841   207
14.7941   222
14.8041   229
14.8141   245
14.8241   254
14.8341   258
14.8441   261
14.8541   252
14.8641   243
14.8741   245
14.8841   251
14.8941   249
14.9041   256
14.9141   251
14.9241   256
14.9341   263
14.9441   250
14.9541   248
14.9641   259
14.9741   267
14.9841   275
14.9941   262
15.0041   258
15.0141   237
15.0241   245
15.0341   254
15.0441   239
15.0541   255
15.0641   250
15.0741   235
15.0841   246
15.0941   249
15.1041   225
15.1141   229
15.1241   250
15.1341   229
15.1441   228
15.1541   232
15.1641   234
15.1741   240
15.1841   244
15.1941   244
15.2041   233
15.2141   223
15.2241   231
15.2341   226
15.2441   234
15.2541   251
15.2641   245
15.2741   236
15.2841   235
15.2941   231
15.3041   222
15.3141   225
15.3241   237
15.3341   249
15.3441   245
15.3541   227
15.3641   233
15.3741   246
15.3841   240
15.3941   233
15.4041   242
15.4141   236
15.4241   247
15.4341   237
15.4441   225
15.4541   239
15.4641   242
15.4741   255
15.4841   256
15.4941   255
15.5041   250
15.5141   266
15.5241   273
15.5341   258
15.5441   267
15.5541   285
15.5641   295
15.5741   284
15.5841   284
15.5941   296
15.6041   329
15.6141   366
15.6241   353
15.6341   381
15.6441   399
15.6541   405
15.6641   419
15.6741   419
15.6841   435
15.6941   442
15.7041   447
15.7141   451
15.7241   458
15.7341   476
15.7441   485
15.7541   526
15.7641   521
15.7741   490
15.7841   477
15.7941   465
15.8041   462
15.8141   463
15.8241   436
15.8341   425
15.8441   438
15.8541   428
15.8641   392
15.8741   360
15.8841   365
15.8941   337
15.9041   320
15.9141   298
15.9241   323
15.9341   318
15.9441   306
15.9541   298
15.9641   280
15.9741   270
15.9841   271
15.9941   281
16.0041   265
16.0141   260
16.0241   257
16.0341   268
16.0441   270
16.0541   276
16.0641   275
16.0741   287
16.0841   267
16.0941   251
16.1041   279
16.1141   276
16.1241   272
16.1341   275
16.1441   272
16.1541   283
16.1641   291
16.1741   292
16.1841   283
16.1941   269
16.2041   272
16.2141   277
16.2241   288
16.2341   301
16.2441   280
16.2541   268
16.2641   269
16.2741   272
16.2841   287
16.2941   284
16.3041   268
16.3141   295
16.3241   269
16.3341   272
16.3441   289
16.3541   263
16.3641   279
16.3741   285
16.3841   276
16.3941   270
16.4041   273
16.4141   302
16.4241   312
16.4341   263
16.4441   280
16.4541   288
16.4641   290
16.4741   308
16.4841   304
16.4941   295
16.5041   286
16.5141   304
16.5241   319
16.5341   308
16.5441   297
16.5541   285
16.5641   302
16.5741   285
16.5841   312
16.5941   318
16.6041   327
16.6141   309
16.6241   298
16.6341   301
16.6441   297
16.6541   288
16.6641   301
16.6741   319
16.6841   300
16.6941   295
16.7041   318
16.7141   325
16.7241   322
16.7341   319
16.7441   302
16.7541   289
16.7641   298
16.7741   296
16.7841   307
16.7941   308
16.8041   308
16.8141   296
16.8241   288
16.8341   293
16.8441   296
16.8541   274
16.8641   303
16.8741   286
16.8841   308
16.8941   305
16.9041   312
16.9141   299
16.9241   308
16.9341   295
16.9441   306
16.9541   317
16.9641   320
16.9741   311
16.9841   300
16.9941   312
17.0041   303
17.0141   302
17.0241   299
17.0341   317
17.0441   320
17.0541   315
17.0641   320
17.0741   313
17.0841   323
17.0941   331
17.1041   345
17.1141   334
17.1241   312
17.1341   317
17.1441   344
17.1541   351
17.1641   318
17.1741   310
17.1841   324
17.1941   335
17.2041   342
17.2141   314
17.2241   314
17.2341   343
17.2441   322
17.2541   325
17.2641   324
17.2741   335
17.2841   335
17.2941   336
17.3041   339
17.3141   324
17.3241   338
17.3341   338
17.3441   340
17.3541   343
17.3641   344
17.3741   323
17.3841   327
17.3941   355
17.4041   375
17.4141   345
17.4241   335
17.4341   348
17.4441   346
17.4541   345
17.4641   347
17.4741   329
17.4841   353
17.4941   368
17.5041   329
17.5141   352
17.5241   347
17.5341   353
17.5441   360
17.5541   346
17.5641   354
17.5741   366
17.5841   377
17.5941   369
17.6041   346
17.6141   367
17.6241   378
17.6341   370
17.6441   372
17.6541   367
17.6641   404
17.6741   404
17.6841   372
17.6941   390
17.7041   382
17.7141   385
17.7241   397
17.7341   370
17.7441   364
17.7541   407
17.7641   372
17.7741   370
17.7841   376
17.7941   361
17.8041   373
17.8141   376
17.8241   358
17.8341   377
17.8441   352
17.8541   341
17.8641   354
17.8741   366
17.8841   358
17.8941   353
17.9041   349
17.9141   371
17.9241   380
17.9341   384
17.9441   366
17.9541   370
17.9641   368
17.9741   345
17.9841   351
17.9941   364
18.0041   349
18.0141   354
18.0241   357
18.0341   402
18.0441   406
18.0541   369
18.0641   363
18.0741   363
18.0841   382
18.0941   345
18.1041   339
18.1141   361
18.1241   380
18.1341   386
18.1441   402
18.1541   403
18.1641   376
18.1741   359
18.1841   370
18.1941   372
18.2041   368
18.2141   346
18.2241   369
18.2341   379
18.2441   382
18.2541   369
18.2641   351
18.2741   361
18.2841   360
18.2941   376
18.3041   350
18.3141   350
18.3241   391
18.3341   361
18.3441   388
18.3541   396
18.3641   380
18.3741   361
18.3841   400
18.3941   389
18.4041   377
18.4141   382
18.4241   394
18.4341   391
18.4441   419
18.4541   407
18.4641   375
18.4741   375
18.4841   372
18.4941   375
18.5041   394
18.5141   405
18.5241   384
18.5341   355
18.5441   389
18.5541   395
18.5641   371
18.5741   377
18.5841   374
18.5941   383
18.6041   374
18.6141   381
18.6241   379
18.6341   371
18.6441   414
18.6541   382
18.6641   395
18.6741   400
18.6841   392
18.6941   397
18.7041   422
18.7141   393
18.7241   405
18.7341   401
18.7441   403
18.7541   395
18.7641   388
18.7741   409
18.7841   380
18.7941   401
18.8041   449
18.8141   438
18.8241   393
18.8341   401
18.8441   412
18.8541   398
18.8641   398
18.8741   426
18.8841   442
18.8941   425
18.9041   387
18.9141   409
18.9241   389
18.9341   422
18.9441   439
18.9541   436
18.9641   430
18.9741   395
18.9841   402
18.9941   396
19.0041   400
19.0141   405
19.0241   420
19.0341   429
19.0441   411
19.0541   394
19.0641   412
19.0741   414
19.0841   427
19.0941   417
19.1041   431
19.1141   427
19.1241   419
19.1341   424
19.1441   420
19.1541   416
19.1641   423
19.1741   415
19.1841   399
19.1941   413
19.2041   390
19.2141   412
19.2241   432
19.2341   446
19.2441   431
19.2541   417
19.2641   424
19.2741   429
19.2841   439
19.2941   435
19.3041   408
19.3141   415
19.3241   474
19.3341   438
19.3441   435
19.3541   428
19.3641   429
19.3741   452
19.3841   402
19.3941   415
19.4041   408
19.4141   424
19.4241   429
19.4341   433
19.4441   413
19.4541   437
19.4641   446
19.4741   423
19.4841   449
19.4941   462
19.5041   424
19.5141   439
19.5241   422
19.5341   432
19.5441   433
19.5541   446
19.5641   413
19.5741   395
19.5841   434
19.5941   451
19.6041   457
19.6141   449
19.6241   430
19.6341   440
19.6441   436
19.6541   430
19.6641   433
19.6741   433
19.6841   412
19.6941   424
19.7041   425
19.7141   481
19.7241   485
19.7341   425
19.7441   422
19.7541   436
19.7641   433
19.7741   433
19.7841   423
19.7941   406
19.8041   446
19.8141   421
19.8241   409
19.8341   462
19.8441   413
19.8541   433
19.8641   406
19.8741   452
19.8841   469
19.8941   443
19.9041   465
19.9141   446
19.9241   455
19.9341   461
19.9441   437
19.9541   440
19.9641   451
19.9741   453
19.9841   433
19.9941   440
20.0041   450
20.0141   429
20.0241   438
20.0341   430
20.0441   430
20.0541   452
20.0641   463
20.0741   451
20.0841   440
20.0941   416
20.1041   435
20.1141   448
20.1241   469
20.1341   437
20.1441   454
20.1541   430
20.1641   443
20.1741   443
20.1841   478
20.1941   453
20.2041   452
20.2141   445
20.2241   468
20.2341   454
20.2441   441
20.2541   461
20.2641   434
20.2741   449
20.2841   467
20.2941   498
20.3041   449
20.3141   432
20.3241   478
20.3341   450
20.3441   444
20.3541   463
20.3641   441
20.3741   460
20.3841   468
20.3941   487
20.4041   465
20.4141   461
20.4241   473
20.4341   472
20.4441   469
20.4541   474
20.4641   423
20.4741   456
20.4841   466
20.4941   492
20.5041   465
20.5141   448
20.5241   451
20.5341   471
20.5441   442
20.5541   456
20.5641   458
20.5741   462
20.5841   498
20.5941   448
20.6041   492
20.6141   459
20.6241   473
20.6341   476
20.6441   456
20.6541   466
20.6641   501
20.6741   484
20.6841   472
20.6941   453
20.7041   494
20.7141   479
20.7241   476
20.7341   476
20.7441   485
20.7541   441
20.7641   459
20.7741   470
20.7841   481
20.7941   484
20.8041   513
20.8141   520
20.8241   496
20.8341   470
20.8441   503
20.8541   505
20.8641   487
20.8741   473
20.8841   497
20.8941   521
20.9041   553
20.9141   550
20.9241   609
20.9341   607
20.9441   590
20.9541   632
20.9641   616
20.9741   602
20.9841   598
20.9941   660
21.0041   677
21.0141   687
21.0241   699
21.0341   670
21.0441   658
21.0541   697
21.0641   707
21.0741   689
21.0841   700
21.0941   735
21.1041   758
21.1141   750
21.1241   768
21.1341   743
21.1441   705
21.1541   733
21.1641   745
21.1741   741
21.1841   732
21.1941   729
21.2041   678
21.2141   699
21.2241   661
21.2341   648
21.2441   668
21.2541   650
21.2641   651
21.2741   626
21.2841   630
21.2941   592
21.3041   586
21.3141   570
21.3241   559
21.3341   577
21.3441   520
21.3541   525
21.3641   507
21.3741   504
21.3841   513
21.3941   495
21.4041   500
21.4141   506
21.4241   495
21.4341   487
21.4441   497
21.4541   460
21.4641   459
21.4741   512
21.4841   486
21.4941   455
21.5041   513
21.5141   497
21.5241   473
21.5341   464
21.5441   487
21.5541   459
21.5641   484
21.5741   456
21.5841   466
21.5941   493
21.6041   442
21.6141   454
21.6241   499
21.6341   501
21.6441   477
21.6541   493
21.6641   463
21.6741   467
21.6841   492
21.6941   504
21.7041   501
21.7141   473
21.7241   503
21.7341   489
21.7441   482
21.7541   500
21.7641   487
21.7741   491
21.7841   531
21.7941   520
21.8041   529
21.8141   477
21.8241   527
21.8341   492
21.8441   470
21.8541   472
21.8641   502
21.8741   503
21.8841   494
21.8941   481
21.9041   474
21.9141   494
21.9241   463
21.9341   466
21.9441   483
21.9541   511
21.9641   506
21.9741   471
21.9841   468
21.9941   473
22.0041   489
22.0141   458
22.0241   516
22.0341   486
22.0441   480
22.0541   486
22.0641   486
22.0741   506
22.0841   471
22.0941   476
22.1041   498
22.1141   492
22.1241   498
22.1341   530
22.1441   466
22.1541   500
22.1641   505
22.1741   465
22.1841   480
22.1941   483
22.2041   485
22.2141   528
22.2241   494
22.2341   496
22.2441   473
22.2541   502
22.2641   461
22.2741   485
22.2841   463
22.2941   487
22.3041   490
22.3141   469
22.3241   514
22.3341   475
22.3441   495
22.3541   435
22.3641   494
22.3741   446
22.3841   429
22.3941   480
22.4041   460
22.4141   477
22.4241   466
22.4341   458
22.4441   477
22.4541   462
22.4641   479
22.4741   492
22.4841   477
22.4941   503
22.5041   487
22.5141   489
22.5241   485
22.5341   447
22.5441   526
22.5541   497
22.5641   455
22.5741   469
22.5841   465
22.5941   499
22.6041   485
22.6141   505
22.6241   491
22.6341   484
22.6441   502
22.6541   478
22.6641   508
22.6741   466
22.6841   461
22.6941   482
22.7041   491
22.7141   474
22.7241   440
22.7341   523
22.7441   455
22.7541   491
22.7641   500
22.7741   459
22.7841   498
22.7941   517
22.8041   479
22.8141   463
22.8241   446
22.8341   500
22.8441   494
22.8541   477
22.8641   487
22.8741   476
22.8841   517
22.8941   471
22.9041   483
22.9141   511
22.9241   460
22.9341   467
22.9441   490
22.9541   492
22.9641   477
22.9741   498
22.9841   453
22.9941   512
23.0041   508
23.0141   469
23.0241   483
23.0341   449
23.0441   456
23.0541   479
23.0641   469
23.0741   511
23.0841   485
23.0941   476
23.1041   494
23.1141   506
23.1241   469
23.1341   468
23.1441   510
23.1541   480
23.1641   460
23.1741   509
23.1841   478
23.1941   510
23.2041   475
23.2141   506
23.2241   492
23.2341   493
23.2441   493
23.2541   509
23.2641   434
23.2741   488
23.2841   493
23.2941   522
23.3041   475
23.3141   450
23.3241   466
23.3341   480
23.3441   486
23.3541   488
23.3641   501
23.3741   500
23.3841   463
23.3941   456
23.4041   431
23.4141   491
23.4241   474
23.4341   507
23.4441   474
23.4541   472
23.4641   508
23.4741   481
23.4841   508
23.4941   501
23.5041   533
23.5141   489
23.5241   482
23.5341   479
23.5441   452
23.5541   488
23.5641   491
23.5741   494
23.5841   486
23.5941   466
23.6041   484
23.6141   483
23.6241   515
23.6341   499
23.6441   494
23.6541   516
23.6641   503
23.6741   503
23.6841   533
23.6941   503
23.7041   525
23.7141   466
23.7241   493
23.7341   535
23.7441   497
23.7541   520
23.7641   531
23.7741   509
23.7841   539
23.7941   494
23.8041   550
23.8141   490
23.8241   503
23.8341   514
23.8441   498
23.8541   505
23.8641   524
23.8741   538
23.8841   523
23.8941   498
23.9041   499
23.9141   487
23.9241   509
23.9341   499
23.9441   488
23.9541   523
23.9641   489
23.9741   482
23.9841   467
23.9941   521
24.0041   487
24.0141   499
24.0241   490
24.0341   531
24.0441   486
24.0541   486
24.0641   489
24.0741   464
24.0841   475
24.0941   498
24.1041   468
24.1141   459
24.1241   493
24.1341   488
24.1441   451
24.1541   483
24.1641   523
24.1741   487
24.1841   454
24.1941   478
24.2041   465
24.2141   475
24.2241   466
24.2341   518
24.2441   495
24.2541   490
24.2641   461
24.2741   495
24.2841   504
24.2941   472
24.3041   485
24.3141   459
24.3241   451
24.3341   495
24.3441   463
24.3541   454
24.3641   467
24.3741   460
24.3841   436
24.3941   489
24.4041   480
24.4141   428
24.4241   467
24.4341   442
24.4441   464
24.4541   439
24.4641   454
24.4741   438
24.4841   478
24.4941   457
24.5041   430
24.5141   471
24.5241   470
24.5341   438
24.5441   443
24.5541   479
24.5641   447
24.5741   467
24.5841   457
24.5941   456
24.6041   435
24.6141   450
24.6241   452
24.6341   473
24.6441   468
24.6541   421
24.6641   459
24.6741   434
24.6841   446
24.6941   424
24.7041   458
24.7141   474
24.7241   420
24.7341   462
24.7441   480
24.7541   426
24.7641   460
24.7741   496
24.7841   425
24.7941   447
24.8041   439
24.8141   433
24.8241   455
24.8341   436
24.8441   464
24.8541   461
24.8641   435
24.8741   465
24.8841   469
24.8941   481
24.9041   465
24.9141   442
24.9241   444
24.9341   437
24.9441   457
24.9541   427
24.9641   455
24.9741   459
24.9841   442
24.9941   465
25.0041   463
25.0141   456
25.0241   454
25.0341   422
25.0441   445
25.0541   474
25.0641   436
25.0741   453
25.0841   489
25.0941   462
25.1041   462
25.1141   460
25.1241   509
25.1341   453
25.1441   462
25.1541   490
25.1641   469
25.1741   468
25.1841   474
25.1941   474
25.2041   476
25.2141   441
25.2241   470
25.2341   430
25.2441   476
25.2541   445
25.2641   456
25.2741   458
25.2841   492
25.2941   466
25.3041   438
25.3141   469
25.3241   466
25.3341   469
25.3441   465
25.3541   454
25.3641   369
25.3741   450
25.3841   446
25.3941   423
25.4041   432
25.4141   456
25.4241   446
25.4341   429
25.4441   473
25.4541   494
25.4641   438
25.4741   451
25.4841   409
25.4941   422
25.5041   413
25.5141   425
25.5241   445
25.5341   415
25.5441   464
25.5541   434
25.5641   450
25.5741   440
25.5841   402
25.5941   393
25.6041   407
25.6141   452
25.6241   415
25.6341   434
25.6441   436
25.6541   410
25.6641   435
25.6741   395
25.6841   431
25.6941   422
25.7041   412
25.7141   407
25.7241   451
25.7341   392
25.7441   438
25.7541   430
25.7641   407
25.7741   419
25.7841   437
25.7941   442
25.8041   449
25.8141   438
25.8241   408
25.8341   417
25.8441   412
25.8541   413
25.8641   411
25.8741   405
25.8841   450
25.8941   411
25.9041   408
25.9141   415
25.9241   415
25.9341   416
25.9441   425
25.9541   400
25.9641   385
25.9741   409
25.9841   424
25.9941   421
26.0041   441
26.0141   415
26.0241   442
26.0341   427
26.0441   395
26.0541   408
26.0641   421
26.0741   421
26.0841   392
26.0941   376
26.1041   418
26.1141   408
26.1241   426
26.1341   417
26.1441   419
26.1541   390
26.1641   417
26.1741   407
26.1841   388
26.1941   419
26.2041   427
26.2141   418
26.2241   429
26.2341   430
26.2441   408
26.2541   423
26.2641   420
26.2741   435
26.2841   398
26.2941   401
26.3041   435
26.3141   419
26.3241   398
26.3341   383
26.3441   428
26.3541   411
26.3641   414
26.3741   424
26.3841   424
26.3941   408
26.4041   424
26.4141   385
26.4241   403
26.4341   413
26.4441   370
26.4541   398
26.4641   427
26.4741   419
26.4841   415
26.4941   391
26.5041   391
26.5141   401
26.5241   366
26.5341   391
26.5441   403
26.5541   402
26.5641   432
26.5741   434
26.5841   431
26.5941   387
26.6041   348
26.6141   366
26.6241   402
26.6341   409
26.6441   403
26.6541   395
26.6641   365
26.6741   397
26.6841   373
26.6941   384
26.7041   397
26.7141   380
26.7241   390
26.7341   366
26.7441   393
26.7541   400
26.7641   403
26.7741   385
26.7841   403
26.7941   403
26.8041   417
26.8141   421
26.8241   399
26.8341   379
26.8441   375
26.8541   351
26.8641   363
26.8741   369
26.8841   378
26.8941   399
26.9041   402
26.9141   402
26.9241   397
26.9341   391
26.9441   397
26.9541   385
26.9641   378
26.9741   380
26.9841   357
26.9941   376
27.0041   396
27.0141   354
27.0241   388
27.0341   392
27.0441   388
27.0541   425
27.0641   385
27.0741   381
27.0841   396
27.0941   360
27.1041   380
27.1141   407
27.1241   363
27.1341   358
27.1441   383
27.1541   360
27.1641   374
27.1741   401
27.1841   360
27.1941   341
27.2041   394
27.2141   363
27.2241   401
27.2341   360
27.2441   338
27.2541   370
27.2641   370
27.2741   386
27.2841   357
27.2941   389
27.3041   373
27.3141   392
27.3241   393
27.3341   368
27.3441   385
27.3541   398
27.3641   403
27.3741   377
27.3841   362
27.3941   352
27.4041   341
27.4141   409
27.4241   384
27.4341   368
27.4441   423
27.4541   398
27.4641   380
27.4741   362
27.4841   368
27.4941   374
27.5041   373
27.5141   368
27.5241   348
27.5341   351
27.5441   368
27.5541   356
27.5641   381
27.5741   381
27.5841   389
27.5941   355
27.6041   361
27.6141   394
27.6241   387
27.6341   383
27.6441   343
27.6541   382
27.6641   358
27.6741   335
27.6841   368
27.6941   393
27.7041   363
27.7141   335
27.7241   335
27.7341   340
27.7441   370
27.7541   339
27.7641   368
27.7741   354
27.7841   370
27.7941   361
27.8041   372
27.8141   357
27.8241   319
27.8341   331
27.8441   333
27.8541   353
27.8641   351
27.8741   374
27.8841   332
27.8941   343
27.9041   355
27.9141   374
27.9241   334
27.9341   313
27.9441   375
27.9541   344
27.9641   365
27.9741   382
27.9841   358
27.9941   355
28.0041   379
28.0141   345
28.0241   329
28.0341   352
28.0441   317
28.0541   344
28.0641   338
28.0741   356
28.0841   340
28.0941   337
28.1041   332
28.1141   312
28.1241   324
28.1341   313
28.1441   362
28.1541   329
28.1641   330
28.1741   370
28.1841   343
28.1941   331
28.2041   374
28.2141   345
28.2241   291
28.2341   340
28.2441   337
28.2541   359
28.2641   354
28.2741   349
28.2841   325
28.2941   327
28.3041   361
28.3141   337
28.3241   326
28.3341   346
28.3441   341
28.3541   337
28.3641   349
28.3741   323
28.3841   367
28.3941   323
28.4041   372
28.4141   323
28.4241   327
28.4341   322
28.4441   334
28.4541   330
28.4641   328
28.4741   339
28.4841   353
28.4941   345
28.5041   317
28.5141   336
28.5241   321
28.5341   328
28.5441   325
28.5541   329
28.5641   313
28.5741   300
28.5841   340
28.5941   369
28.6041   334
28.6141   312
28.6241   347
28.6341   339
28.6441   328
28.6541   351
28.6641   334
28.6741   369
28.6841   316
28.6941   324
28.7041   340
28.7141   307
28.7241   309
28.7341   312
28.7441   316
28.7541   331
28.7641   295
28.7741   332
28.7841   341
28.7941   321
28.8041   329
28.8141   313
28.8241   305
28.8341   331
28.8441   306
28.8541   324
28.8641   314
28.8741   342
28.8841   315
28.8941   329
28.9041   324
28.9141   288
28.9241   289
28.9341   310
28.9441   322
28.9541   303
28.9641   316
28.9741   340
28.9841   319
28.9941   314
29.0041   319
29.0141   312
29.0241   290
29.0341   318
29.0441   341
29.0541   285
29.0641   289
29.0741   341
29.0841   305
29.0941   316
29.1041   296
29.1141   288
29.1241   275
29.1341   277
29.1441   280
29.1541   312
29.1641   322
29.1741   295
29.1841   284
29.1941   303
29.2041   299
29.2141   299
29.2241   332
29.2341   321
29.2441   304
29.2541   300
29.2641   301
29.2741   308
29.2841   318
29.2941   268
29.3041   279
29.3141   294
29.3241   306
29.3341   305
29.3441   289
29.3541   284
29.3641   284
29.3741   289
29.3841   310
29.3941   311
29.4041   301
29.4141   275
29.4241   282
29.4341   286
29.4441   300
29.4541   296
29.4641   267
29.4741   294
29.4841   295
29.4941   298
29.5041   299
29.5141   273
29.5241   272
29.5341   296
29.5441   319
29.5541   300
29.5641   276
29.5741   292
29.5841   280
29.5941   295
29.6041   305
29.6141   302
29.6241   314
29.6341   277
29.6441   270
29.6541   242
29.6641   289
29.6741   298
29.6841   281
29.6941   284
29.7041   294
29.7141   266
29.7241   315
29.7341   292
29.7441   290
29.7541   309
29.7641   266
29.7741   277
29.7841   277
29.7941   270
29.8041   285
29.8141   277
29.8241   285
29.8341   264
29.8441   299
29.8541   302
29.8641   302
29.8741   286
29.8841   276
29.8941   269
29.9041   282
29.9141   281
29.9241   258
29.9341   268
29.9441   283
29.9541   277
29.9641   277
29.9741   257
29.9841   275
29.9941   285
30.0041   264
30.0141   289
30.0241   293
30.0341   254
30.0441   244
30.0541   269
30.0641   278
30.0741   253
30.0841   294
30.0941   301
30.1041   296
30.1141   272
30.1241   288
30.1341   253
30.1441   264
30.1541   290
30.1641   284
30.1741   278
30.1841   268
30.1941   277
30.2041   270
30.2141   245
30.2241   263
30.2341   266
30.2441   252
30.2541   263
30.2641   263
30.2741   265
30.2841   262
30.2941   251
30.3041   271
30.3141   260
30.3241   250
30.3341   263
30.3441   274
30.3541   234
30.3641   256
30.3741   250
30.3841   264
30.3941   245
30.4041   253
30.4141   268
30.4241   275
30.4341   245
30.4441   276
30.4541   231
30.4641   290
30.4741   289
30.4841   248
30.4941   267
30.5041   252
30.5141   260
30.5241   253
30.5341   223
30.5441   254
30.5541   260
30.5641   265
30.5741   269
30.5841   258
30.5941   253
30.6041   255
30.6141   261
30.6241   260
30.6341   258
30.6441   228
30.6541   271
30.6641   243
30.6741   240
30.6841   227
30.6941   273
30.7041   260
30.7141   251
30.7241   253
30.7341   279
30.7441   227
30.7541   236
30.7641   231
30.7741   233
30.7841   224
30.7941   263
30.8041   247
30.8141   258
30.8241   234
30.8341   265
30.8441   247
30.8541   244
30.8641   240
30.8741   239
30.8841   267
30.8941   240
30.9041   242
30.9141   234
30.9241   241
30.9341   253
30.9441   232
30.9541   247
30.9641   250
30.9741   246
30.9841   241
30.9941   246
31.0041   216
31.0141   255
31.0241   238
31.0341   232
31.0441   234
31.0541   239
31.0641   232
31.0741   226
31.0841   221
31.0941   230
31.1041   229
31.1141   237
31.1241   231
31.1341   232
31.1441   230
31.1541   250
31.1641   262
31.1741   225
31.1841   232
31.1941   213
31.2041   218
31.2141   228
31.2241   236
31.2341   242
31.2441   236
31.2541   216
31.2641   233
31.2741   228
31.2841   209
31.2941   219
31.3041   219
31.3141   247
31.3241   213
31.3341   206
31.3441   222
31.3541   215
31.3641   236
31.3741   223
31.3841   245
31.3941   232
31.4041   213
31.4141   215
31.4241   215
31.4341   232
31.4441   236
31.4541   256
31.4641   233
31.4741   242
31.4841   224
31.4941   240
31.5041   226
31.5141   219
31.5241   225
31.5341   234
31.5441   220
31.5541   221
31.5641   199
31.5741   221
31.5841   234
31.5941   233
31.6041   238
31.6141   219
31.6241   243
31.6341   210
31.6441   204
31.6541   221
31.6641   234
31.6741   225
31.6841   220
31.6941   217
31.7041   222
31.7141   234
31.7241   232
31.7341   222
31.7441   239
31.7541   243
31.7641   242
31.7741   211
31.7841   214
31.7941   203
31.8041   199
31.8141   192
31.8241   210
31.8341   201
31.8441   230
31.8541   197
31.8641   217
31.8741   232
31.8841   229
31.8941   222
31.9041   192
31.9141   240
31.9241   202
31.9341   228
31.9441   192
31.9541   215
31.9641   225
31.9741   245
31.9841   232
31.9941   194
32.0041   184
32.0141   176
32.0241   207
32.0341   232
32.0441   236
32.0541   220
32.0641   216
32.0741   200
32.0841   203
32.0941   204
32.1041   218
32.1141   212
32.1241   223
32.1341   192
32.1441   201
32.1541   183
32.1641   196
32.1741   210
32.1841   189
32.1941   196
32.2041   196
32.2141   195
32.2241   215
32.2341   226
32.2441   186
32.2541   216
32.2641   216
32.2741   207
32.2841   218
32.2941   202
32.3041   221
32.3141   215
32.3241   183
32.3341   201
32.3441   202
32.3541   180
32.3641   198
32.3741   197
32.3841   209
32.3941   209
32.4041   219
32.4141   206
32.4241   210
32.4341   208
32.4441   201
32.4541   188
32.4641   186
32.4741   192
32.4841   201
32.4941   183
32.5041   185
32.5141   182
32.5241   189
32.5341   183
32.5441   182
32.5541   200
32.5641   190
32.5741   187
32.5841   181
32.5941   202
32.6041   187
32.6141   184
32.6241   177
32.6341   198
32.6441   188
32.6541   191
32.6641   199
32.6741   184
32.6841   166
32.6941   183
32.7041   184
32.7141   189
32.7241   182
32.7341   170
32.7441   186
32.7541   191
32.7641   174
32.7741   162
32.7841   179
32.7941   183
32.8041   183
32.8141   179
32.8241   159
32.8341   185
32.8441   174
32.8541   168
32.8641   183
32.8741   177
32.8841   192
32.8941   198
32.9041   199
32.9141   186
32.9241   189
32.9341   183
32.9441   162
32.9541   203
32.9641   188
32.9741   168
32.9841   182
32.9941   176
33.0041   182
33.0141   176
33.0241   148
33.0341   194
33.0441   166
33.0541   164
33.0641   193
33.0741   174
33.0841   178
33.0941   168
33.1041   181
33.1141   195
33.1241   178
33.1341   175
33.1441   169
33.1541   165
33.1641   167
33.1741   176
33.1841   178
33.1941   161
33.2041   172
33.2141   166
33.2241   151
33.2341   166
33.2441   144
33.2541   166
33.2641   175
33.2741   159
33.2841   160
33.2941   181
33.3041   149
33.3141   170
33.3241   184
33.3341   175
33.3441   179
33.3541   159
33.3641   168
33.3741   174
33.3841   188
33.3941   154
33.4041   153
33.4141   144
33.4241   163
33.4341   165
33.4441   175
33.4541   167
33.4641   147
33.4741   175
33.4841   160
33.4941   125
33.5041   145
33.5141   188
33.5241   173
33.5341   161
33.5441   147
33.5541   175
33.5641   151
33.5741   147
33.5841   168
33.5941   134
33.6041   156
33.6141   166
33.6241   153
33.6341   146
33.6441   153
33.6541   148
33.6641   147
33.6741   184
33.6841   173
33.6941   167
33.7041   176
33.7141   156
33.7241   152
33.7341   133
33.7441   145
33.7541   144
33.7641   160
33.7741   140
33.7841   167
33.7941   150
33.8041   160
33.8141   146
33.8241   154
33.8341   165
33.8441   151
33.8541   144
33.8641   146
33.8741   126
33.8841   139
33.8941   146
33.9041   155
33.9141   141
33.9241   147
33.9341   144
33.9441   165
33.9541   148
33.9641   156
33.9741   139
33.9841   139
33.9941   155
34.0041   122
34.0141   150
34.0241   179
34.0341   137
34.0441   129
34.0541   159
34.0641   152
34.0741   149
34.0841   163
34.0941   145
34.1041   158
34.1141   138
34.1241   135
34.1341   136
34.1441   155
34.1541   134
34.1641   128
34.1741   151
34.1841   127
34.1941   140
34.2041   128
34.2141   164
34.2241   146
34.2341   139
34.2441   147
34.2541   156
34.2641   149
34.2741   139
34.2841   162
34.2941   147
34.3041   136
34.3141   132
34.3241   162
34.3341   155
34.3441   140
34.3541   135
34.3641   150
34.3741   133
34.3841   152
34.3941   148
34.4041   138
34.4141   116
34.4241   136
34.4341   140
34.4441   129
34.4541   164
34.4641   126
34.4741   129
34.4841   121
34.4941   124
34.5041   141
34.5141   158
34.5241   114
34.5341   128
34.5441   133
34.5541   113
34.5641   136
34.5741   115
34.5841   139
34.5941   132
34.6041   129
34.6141   134
34.6241   124
34.6341   117
34.6441   139
34.6541   118
34.6641   128
34.6741   113
34.6841   119
34.6941   139
34.7041   139
34.7141   147
34.7241   128
34.7341   133
34.7441   136
34.7541   124
34.7641   136
34.7741   133
34.7841   121
34.7941   131
34.8041   123
34.8141   130
34.8241   108
34.8341   129
34.8441   117
34.8541   111
34.8641   115
34.8741   134
34.8841   131
34.8941   127
34.9041   119
34.9141   121
34.9241   115
34.9341   131
34.9441   116
34.9541   114
34.9641   125
34.9741   132
34.9841   121
34.9941   123
35.0041   127
35.0141   145
35.0241   120
35.0341   103
35.0441   131
35.0541    99
35.0641   104
35.0741   114
35.0841   116
35.0941   112
35.1041   102
35.1141   129
35.1241   111
35.1341   112
35.1441   122
35.1541   123
35.1641   108
35.1741   101
35.1841   115
35.1941   131
35.2041   104
35.2141   114
35.2241   117
35.2341   111
35.2441   121
35.2541   106
35.2641   127
35.2741   101
35.2841   113
35.2941   118
35.3041   106
35.3141   104
35.3241   110
35.3341   111
35.3441   103
35.3541   109
35.3641   116
35.3741   132
35.3841   127
35.3941   111
35.4041    97
35.4141   125
35.4241   111
35.4341   108
35.4441   119
35.4541   126
35.4641    95
35.4741   111
35.4841   110
35.4941   101
35.5041   100
35.5141   109
35.5241   119
35.5341   100
35.5441   111
35.5541   112
35.5641   105
35.5741   130
35.5841   108
35.5941   112
35.6041   106
35.6141   109
35.6241   105
35.6341   117
35.6441   110
35.6541   112
35.6641   101
35.6741   115
35.6841   118
35.6941   109
35.7041   114
35.7141   105
35.7241    99
35.7341   108
35.7441    90
35.7541   105
35.7641   107
35.7741    91
35.7841   118
35.7941    96
35.8041   112
35.8141    93
35.8241   113
35.8341    99
35.8441   109
35.8541    97
35.8641    94
35.8741    97
35.8841   105
35.8941    99
35.9041    96
35.9141   102
35.9241    94
35.9341   102
35.9441   103
35.9541    93
35.9641    99
35.9741   102
35.9841    95
35.9941   106
36.0041   104
36.0141    88
36.0241    87
36.0341    96
36.0441    95
36.0541    84
36.0641    93
36.0741   101
36.0841    94
36.0941   102
36.1041    93
36.1141    84
36.1241    83
36.1341    98
36.1441   113
36.1541    91
36.1641    84
36.1741    90
36.1841    90
36.1941   110
36.2041   100
36.2141    93
36.2241    91
36.2341   120
36.2441    97
36.2541   109
36.2641    85
36.2741    88
36.2841    92
36.2941    97
36.3041   105
36.3141    92
36.3241    82
36.3341    79
36.3441   101
36.3541    91
36.3641    85
36.3741    87
36.3841    89
36.3941    83
36.4041    95
36.4141    84
36.4241    82
36.4341    97
36.4441    95
36.4541    81
36.4641    96
36.4741    95
36.4841    82
36.4941    87
36.5041    92
36.5141    79
36.5241    81
36.5341    97
36.5441    86
36.5541    85
36.5641    79
36.5741    80
36.5841    76
36.5941    77
36.6041    81
36.6141    88
36.6241    90
36.6341    92
36.6441    73
36.6541    88
36.6641    95
36.6741    96
36.6841    70
36.6941    93
36.7041    94
36.7141    76
36.7241    83
36.7341    72
36.7441    84
36.7541    91
36.7641    67
36.7741    82
36.7841    88
36.7941    81
36.8041    80
36.8141    86
36.8241    93
36.8341    85
36.8441    93
36.8541    78
36.8641    79
36.8741    74
36.8841    74
36.8941    78
36.9041    86
36.9141    74
36.9241    83
36.9341    76
36.9441    80
36.9541    76
36.9641    80
36.9741    84
36.9841    77
36.9941    85
37.0041    75
37.0141    68
37.0241    71
37.0341    69
37.0441    73
37.0541    82
37.0641    67
37.0741    90
37.0841    80
37.0941    71
37.1041    71
37.1141    71
37.1241    63
37.1341    83
37.1441    63
37.1541    60
37.1641    83
37.1741    86
37.1841    73
37.1941    84
37.2041    54
37.2141    71
37.2241    77
37.2341    71
37.2441    62
37.2541    72
37.2641    60
37.2741    87
37.2841    73
37.2941    67
37.3041    72
37.3141    71
37.3241    72
37.3341    70
37.3441    67
37.3541    75
37.3641    83
37.3741    84
37.3841    81
37.3941    73
37.4041    71
37.4141    70
37.4241    70
37.4341    67
37.4441    77
37.4541    71
37.4641    63
37.4741    59
37.4841    70
37.4941    66
37.5041    73
37.5141    88
37.5241    69
37.5341    61
37.5441    65
37.5541    66
37.5641    61
37.5741    58
37.5841    63
37.5941    59
37.6041    62
37.6141    64
37.6241    70
37.6341    52
37.6441    53
37.6541    60
37.6641    60
37.6741    66
37.6841    66
37.6941    61
37.7041    53
37.7141    53
37.7241    61
37.7341    66
37.7441    49
37.7541    60
37.7641    53
37.7741    59
37.7841    64
37.7941    76
37.8041    74
37.8141    73
37.8241    73
37.8341    51
37.8441    65
37.8541    76
37.8641    70
37.8741    58
37.8841    57
37.8941    69
37.9041    54
37.9141    63
37.9241    55
37.9341    68
37.9441    58
37.9541    61
37.9641    60
37.9741    61
37.9841    56
37.9941    56
38.0041    69
38.0141    68
38.0241    62
38.0341    63
38.0441    64
38.0541    65
38.0641    55
38.0741    65
38.0841    62
38.0941    68
38.1041    47
38.1141    43
38.1241    63
38.1341    48
38.1441    45
38.1541    67
38.1641    52
38.1741    52
38.1841    57
38.1941    62
38.2041    65
38.2141    45
38.2241    64
38.2341    51
38.2441    66
38.2541    54
38.2641    67
38.2741    53
38.2841    50
38.2941    65
38.3041    69
38.3141    44
38.3241    51
38.3341    46
38.3441    67
38.3541    61
38.3641    49
38.3741    53
38.3841    47
38.3941    48
38.4041    55
38.4141    46
38.4241    61
38.4341    37
38.4441    47
38.4541    50
38.4641    47
38.4741    46
38.4841    52
38.4941    52
38.5041    62
38.5141    57
38.5241    45
38.5341    57
38.5441    58
38.5541    44
38.5641    44
38.5741    50
38.5841    60
38.5941    37
38.6041    54
38.6141    59
38.6241    61
38.6341    47
38.6441    41
38.6541    59
38.6641    57
38.6741    46
38.6841    49
38.6941    49
38.7041    45
38.7141    39
38.7241    42
38.7341    43
38.7441    59
38.7541    38
38.7641    44
38.7741    44
38.7841    52
38.7941    58
38.8041    52
38.8141    57
38.8241    36
38.8341    48
38.8441    52
38.8541    35
38.8641    60
38.8741    50
38.8841    37
38.8941    38
38.9041    54
38.9141    51
38.9241    41
38.9341    52
38.9441    40
38.9541    44
38.9641    40
38.9741    40
38.9841    38
38.9941    48
39.0041    45
39.0141    46
39.0241    48
39.0341    46
39.0441    53
39.0541    38
39.0641    39
39.0741    52
39.0841    40
39.0941    41
39.1041    35
39.1141    39
39.1241    49
39.1341    42
39.1441    37
39.1541    45
39.1641    41
39.1741    43
39.1841    38
39.1941    44
39.2041    38
39.2141    43
39.2241    26
39.2341    45
39.2441    36
39.2541    48
39.2641    41
39.2741    47
39.2841    41
39.2941    43
39.3041    49
39.3141    38
39.3241    45
39.3341    49
39.3441    54
39.3541    37
39.3641    33
39.3741    33
39.3841    37
39.3941    35
39.4041    38
39.4141    28
39.4241    34
39.4341    42
39.4441    49
39.4541    53
39.4641    44
39.4741    45
39.4841    51
39.4941    28
39.5041    33
39.5141    39
39.5241    38
39.5341    37
39.5441    42
39.5541    38
39.5641    33
39.5741    34
39.5841    37
39.5941    35
39.6041    35
39.6141    32
39.6241    26
39.6341    40
39.6441    39
39.6541    41
39.6641    47
39.6741    46
39.6841    43
39.6941    41
39.7041    45
39.7141    34
39.7241    37
39.7341    43
39.7441    36
39.7541    33
39.7641    29
39.7741    38
39.7841    26
39.7941    32
39.8041    37
39.8141    36
39.8241    37
39.8341    45
39.8441    31
39.8541    36
39.8641    34
39.8741    30
39.8841    28
39.8941    31
39.9041    35
39.9141    38
39.9241    39
39.9341    39
39.9441    25
39.9541    32
39.9641    31
39.9741    29
39.9841    25
