Bruker Nano GmbH Berlin, Germany
Esprit 1.9

Date: 5/14/2021 1:31:56 PM
Real time: 15925
Life time: 14843
Pulse density: 100715


Detector type: XFlash 430
Window type: Custom type
Detector thickness: 0.45
Si dead layer:0.029

Calibration, lin.: 10
Calibration, abs.: -955.9
Mn FWHM: 137.05
Fano factor: 0.121
Channels: 4095

Energy Counts
-0.9559     0
-0.9459     0
-0.9359     0
-0.9259     0
-0.9159     0
-0.9059     0
-0.8959     0
-0.8859     0
-0.8759     0
-0.8659     0
-0.8559     0
-0.8459     0
-0.8359     0
-0.8259     0
-0.8159     0
-0.8059     0
-0.7959     0
-0.7859     0
-0.7759     0
-0.7659     0
-0.7559     0
-0.7459     0
-0.7359     0
-0.7259     0
-0.7159     0
-0.7059     0
-0.6959     0
-0.6859     0
-0.6759     0
-0.6659     0
-0.6559     0
-0.6459     0
-0.6359     0
-0.6259     0
-0.6159     0
-0.6059     0
-0.5959     0
-0.5859     0
-0.5759     0
-0.5659     0
-0.5559     0
-0.5459     0
-0.5359     0
-0.5259     0
-0.5159     0
-0.5059     0
-0.4959     0
-0.4859     0
-0.4759     0
-0.4659     0
-0.4559     0
-0.4459     0
-0.4359     0
-0.4259     0
-0.4159     0
-0.4059     0
-0.3959     0
-0.3859     0
-0.3759     0
-0.3659     0
-0.3559     0
-0.3459     0
-0.3359     0
-0.3259     0
-0.3159     0
-0.3059     0
-0.2959     0
-0.2859     0
-0.2759     0
-0.2659     0
-0.2559     0
-0.2459     0
-0.2359     0
-0.2259     0
-0.2159     0
-0.2059     0
-0.1959     0
-0.1859     0
-0.1759     0
-0.1659     0
-0.1559     0
-0.1459     0
-0.1359     1
-0.1259     0
-0.1159     3
-0.1059    12
-0.0959    32
-0.0859   164
-0.0759   626
-0.0659  1714
-0.0559  4342
-0.0459  9481
-0.0359 17717
-0.0259 28171
-0.0159 38700
-0.0059 45599
 0.0041 45501
 0.0141 39651
 0.0241 29143
 0.0341 18140
 0.0441 10037
 0.0541  4629
 0.0641  1894
 0.0741   662
 0.0841   202
 0.0941    53
 0.1041    12
 0.1141     8
 0.1241     7
 0.1341     7
 0.1441     6
 0.1541     3
 0.1641     2
 0.1741    13
 0.1841   133
 0.1941   298
 0.2041   261
 0.2141   245
 0.2241   235
 0.2341   260
 0.2441   232
 0.2541   246
 0.2641   251
 0.2741   251
 0.2841   259
 0.2941   244
 0.3041   233
 0.3141   235
 0.3241   236
 0.3341   227
 0.3441   242
 0.3541   226
 0.3641   192
 0.3741   203
 0.3841   228
 0.3941   246
 0.4041   219
 0.4141   223
 0.4241   208
 0.4341   200
 0.4441   207
 0.4541   206
 0.4641   201
 0.4741   199
 0.4841   201
 0.4941   215
 0.5041   194
 0.5141   215
 0.5241   213
 0.5341   210
 0.5441   201
 0.5541   207
 0.5641   202
 0.5741   198
 0.5841   207
 0.5941   217
 0.6041   205
 0.6141   200
 0.6241   192
 0.6341   196
 0.6441   189
 0.6541   183
 0.6641   184
 0.6741   178
 0.6841   171
 0.6941   159
 0.7041   175
 0.7141   181
 0.7241   176
 0.7341   175
 0.7441   175
 0.7541   178
 0.7641   169
 0.7741   167
 0.7841   160
 0.7941   168
 0.8041   184
 0.8141   183
 0.8241   177
 0.8341   170
 0.8441   167
 0.8541   162
 0.8641   172
 0.8741   173
 0.8841   164
 0.8941   166
 0.9041   158
 0.9141   152
 0.9241   171
 0.9341   166
 0.9441   155
 0.9541   156
 0.9641   151
 0.9741   168
 0.9841   160
 0.9941   185
 1.0041   175
 1.0141   138
 1.0241   159
 1.0341   185
 1.0441   159
 1.0541   163
 1.0641   148
 1.0741   152
 1.0841   141
 1.0941   155
 1.1041   161
 1.1141   160
 1.1241   162
 1.1341   155
 1.1441   138
 1.1541   152
 1.1641   160
 1.1741   152
 1.1841   154
 1.1941   141
 1.2041   167
 1.2141   145
 1.2241   143
 1.2341   137
 1.2441   148
 1.2541   145
 1.2641   157
 1.2741   142
 1.2841   160
 1.2941   141
 1.3041   142
 1.3141   152
 1.3241   140
 1.3341   155
 1.3441   142
 1.3541   157
 1.3641   148
 1.3741   152
 1.3841   142
 1.3941   150
 1.4041   148
 1.4141   136
 1.4241   130
 1.4341   133
 1.4441   125
 1.4541   153
 1.4641   134
 1.4741   146
 1.4841   149
 1.4941   134
 1.5041   151
 1.5141   115
 1.5241   135
 1.5341   124
 1.5441   144
 1.5541   141
 1.5641   139
 1.5741   116
 1.5841   123
 1.5941   134
 1.6041   138
 1.6141   126
 1.6241   125
 1.6341   137
 1.6441   157
 1.6541   171
 1.6641   220
 1.6741   279
 1.6841   300
 1.6941   370
 1.7041   438
 1.7141   470
 1.7241   554
 1.7341   595
 1.7441   587
 1.7541   567
 1.7641   509
 1.7741   408
 1.7841   336
 1.7941   293
 1.8041   260
 1.8141   216
 1.8241   206
 1.8341   197
 1.8441   169
 1.8541   152
 1.8641   158
 1.8741   167
 1.8841   153
 1.8941   118
 1.9041   142
 1.9141   128
 1.9241   124
 1.9341   126
 1.9441   152
 1.9541   156
 1.9641   152
 1.9741   152
 1.9841   163
 1.9941   163
 2.0041   157
 2.0141   188
 2.0241   173
 2.0341   156
 2.0441   146
 2.0541   149
 2.0641   134
 2.0741   138
 2.0841   136
 2.0941   138
 2.1041   131
 2.1141   145
 2.1241   123
 2.1341   126
 2.1441   112
 2.1541   143
 2.1641   130
 2.1741   126
 2.1841   133
 2.1941   117
 2.2041   125
 2.2141   112
 2.2241   117
 2.2341   135
 2.2441   128
 2.2541    99
 2.2641   115
 2.2741   111
 2.2841   119
 2.2941   103
 2.3041   129
 2.3141   139
 2.3241   128
 2.3341   120
 2.3441   121
 2.3541   134
 2.3641   113
 2.3741   121
 2.3841   109
 2.3941   108
 2.4041   116
 2.4141   120
 2.4241   120
 2.4341   104
 2.4441   118
 2.4541   102
 2.4641   108
 2.4741   102
 2.4841   113
 2.4941   101
 2.5041   120
 2.5141   121
 2.5241   119
 2.5341   112
 2.5441   114
 2.5541   111
 2.5641   104
 2.5741   111
 2.5841   111
 2.5941    99
 2.6041   106
 2.6141   102
 2.6241    99
 2.6341   110
 2.6441    96
 2.6541    91
 2.6641   105
 2.6741    90
 2.6841    86
 2.6941   117
 2.7041   103
 2.7141    96
 2.7241   108
 2.7341   121
 2.7441   106
 2.7541    86
 2.7641   102
 2.7741   119
 2.7841   121
 2.7941   118
 2.8041   119
 2.8141   122
 2.8241   104
 2.8341   112
 2.8441   103
 2.8541    98
 2.8641   121
 2.8741   107
 2.8841   114
 2.8941    86
 2.9041    99
 2.9141    94
 2.9241    97
 2.9341   109
 2.9441    95
 2.9541    99
 2.9641    90
 2.9741   104
 2.9841   103
 2.9941    81
 3.0041   106
 3.0141    88
 3.0241   101
 3.0341   106
 3.0441    81
 3.0541    99
 3.0641   102
 3.0741    79
 3.0841    88
 3.0941   105
 3.1041    93
 3.1141    83
 3.1241    90
 3.1341    81
 3.1441    78
 3.1541    90
 3.1641    87
 3.1741    79
 3.1841    93
 3.1941    83
 3.2041   102
 3.2141   109
 3.2241   113
 3.2341   114
 3.2441   131
 3.2541   147
 3.2641   142
 3.2741   156
 3.2841   200
 3.2941   194
 3.3041   192
 3.3141   184
 3.3241   214
 3.3341   197
 3.3441   172
 3.3541   175
 3.3641   142
 3.3741   126
 3.3841    97
 3.3941   107
 3.4041    89
 3.4141    83
 3.4241    79
 3.4341    93
 3.4441    77
 3.4541    77
 3.4641    83
 3.4741    79
 3.4841    89
 3.4941    78
 3.5041    99
 3.5141   104
 3.5241    88
 3.5341   101
 3.5441   125
 3.5541   144
 3.5641   146
 3.5741   169
 3.5841   199
 3.5941   262
 3.6041   330
 3.6141   403
 3.6241   540
 3.6341   714
 3.6441   798
 3.6541   893
 3.6641  1070
 3.6741  1148
 3.6841  1186
 3.6941  1180
 3.7041  1132
 3.7141  1093
 3.7241   963
 3.7341   781
 3.7441   649
 3.7541   542
 3.7641   410
 3.7741   303
 3.7841   228
 3.7941   193
 3.8041   158
 3.8141    94
 3.8241    96
 3.8341    78
 3.8441    74
 3.8541    68
 3.8641    69
 3.8741    84
 3.8841    70
 3.8941    87
 3.9041    99
 3.9141    99
 3.9241    93
 3.9341   117
 3.9441   140
 3.9541   178
 3.9641   173
 3.9741   187
 3.9841   222
 3.9941   226
 4.0041   232
 4.0141   233
 4.0241   248
 4.0341   209
 4.0441   227
 4.0541   186
 4.0641   178
 4.0741   137
 4.0841   116
 4.0941   109
 4.1041   100
 4.1141    79
 4.1241    85
 4.1341    79
 4.1441    70
 4.1541    72
 4.1641    69
 4.1741    50
 4.1841    61
 4.1941    54
 4.2041    70
 4.2141    64
 4.2241    73
 4.2341    71
 4.2441    69
 4.2541    62
 4.2641    65
 4.2741    58
 4.2841    67
 4.2941    52
 4.3041    60
 4.3141    51
 4.3241    61
 4.3341    64
 4.3441    57
 4.3541    62
 4.3641    75
 4.3741    92
 4.3841    99
 4.3941   107
 4.4041   128
 4.4141   160
 4.4241   204
 4.4341   244
 4.4441   283
 4.4541   349
 4.4641   389
 4.4741   400
 4.4841   400
 4.4941   483
 4.5041   481
 4.5141   450
 4.5241   430
 4.5341   429
 4.5441   383
 4.5541   315
 4.5641   269
 4.5741   222
 4.5841   205
 4.5941   167
 4.6041   141
 4.6141   102
 4.6241   112
 4.6341   106
 4.6441    95
 4.6541    90
 4.6641    83
 4.6741    64
 4.6841    70
 4.6941    76
 4.7041    62
 4.7141    77
 4.7241    71
 4.7341    80
 4.7441    57
 4.7541    77
 4.7641    75
 4.7741    78
 4.7841    80
 4.7941    82
 4.8041    81
 4.8141    74
 4.8241   103
 4.8341   112
 4.8441   105
 4.8541   140
 4.8641   126
 4.8741   135
 4.8841   136
 4.8941   136
 4.9041   144
 4.9141   139
 4.9241   147
 4.9341   157
 4.9441   159
 4.9541   152
 4.9641   141
 4.9741   151
 4.9841   130
 4.9941   138
 5.0041   110
 5.0141   110
 5.0241    89
 5.0341    76
 5.0441    95
 5.0541    96
 5.0641    89
 5.0741    67
 5.0841    60
 5.0941    67
 5.1041    72
 5.1141    79
 5.1241    91
 5.1341    80
 5.1441    75
 5.1541    70
 5.1641    81
 5.1741    58
 5.1841    86
 5.1941    82
 5.2041    69
 5.2141    82
 5.2241    82
 5.2341    84
 5.2441    71
 5.2541    76
 5.2641    81
 5.2741    79
 5.2841    73
 5.2941    89
 5.3041    74
 5.3141    66
 5.3241    81
 5.3341    92
 5.3441    92
 5.3541    74
 5.3641    90
 5.3741   101
 5.3841   106
 5.3941   100
 5.4041    96
 5.4141   107
 5.4241   105
 5.4341   110
 5.4441   109
 5.4541   105
 5.4641    91
 5.4741    78
 5.4841    73
 5.4941    83
 5.5041    92
 5.5141    77
 5.5241    98
 5.5341    90
 5.5441    90
 5.5541    77
 5.5641    72
 5.5741    87
 5.5841    89
 5.5941    77
 5.6041    80
 5.6141    70
 5.6241    74
 5.6341    79
 5.6441    86
 5.6541    73
 5.6641    75
 5.6741    67
 5.6841    72
 5.6941    66
 5.7041    84
 5.7141    59
 5.7241    90
 5.7341    93
 5.7441   107
 5.7541    99
 5.7641   114
 5.7741   104
 5.7841   120
 5.7941   149
 5.8041   154
 5.8141   174
 5.8241   222
 5.8341   230
 5.8441   239
 5.8541   278
 5.8641   325
 5.8741   335
 5.8841   343
 5.8941   341
 5.9041   323
 5.9141   320
 5.9241   306
 5.9341   272
 5.9441   256
 5.9541   226
 5.9641   240
 5.9741   195
 5.9841   162
 5.9941   138
 6.0041   153
 6.0141   153
 6.0241   129
 6.0341   117
 6.0441   100
 6.0541   101
 6.0641   108
 6.0741    93
 6.0841   134
 6.0941   117
 6.1041   115
 6.1141   128
 6.1241   140
 6.1341   150
 6.1441   160
 6.1541   135
 6.1641   178
 6.1741   181
 6.1841   210
 6.1941   261
 6.2041   321
 6.2141   435
 6.2241   580
 6.2341   795
 6.2441  1042
 6.2541  1487
 6.2641  2081
 6.2741  2862
 6.2841  3916
 6.2941  5261
 6.3041  6708
 6.3141  8289
 6.3241 10426
 6.3341 12623
 6.3441 14579
 6.3541 16832
 6.3641 18792
 6.3741 19988
 6.3841 21074
 6.3941 21907
 6.4041 21849
 6.4141 20850
 6.4241 20157
 6.4341 18425
 6.4441 16410
 6.4541 14140
 6.4641 11825
 6.4741  9905
 6.4841  7881
 6.4941  6113
 6.5041  4604
 6.5141  3532
 6.5241  2539
 6.5341  1885
 6.5441  1284
 6.5541   883
 6.5641   612
 6.5741   488
 6.5841   348
 6.5941   250
 6.6041   210
 6.6141   151
 6.6241   151
 6.6341   153
 6.6441   138
 6.6541   136
 6.6641   128
 6.6741   148
 6.6841   143
 6.6941   145
 6.7041   117
 6.7141   137
 6.7241   146
 6.7341   122
 6.7441   132
 6.7541   151
 6.7641   152
 6.7741   171
 6.7841   146
 6.7941   161
 6.8041   159
 6.8141   193
 6.8241   172
 6.8341   181
 6.8441   202
 6.8541   249
 6.8641   246
 6.8741   311
 6.8841   316
 6.8941   364
 6.9041   482
 6.9141   528
 6.9241   684
 6.9341   826
 6.9441   991
 6.9541  1293
 6.9641  1560
 6.9741  1831
 6.9841  2129
 6.9941  2498
 7.0041  2811
 7.0141  3050
 7.0241  3323
 7.0341  3499
 7.0441  3523
 7.0541  3713
 7.0641  3611
 7.0741  3512
 7.0841  3363
 7.0941  2963
 7.1041  2649
 7.1141  2334
 7.1241  1961
 7.1341  1708
 7.1441  1391
 7.1541  1171
 7.1641   908
 7.1741   727
 7.1841   556
 7.1941   462
 7.2041   377
 7.2141   276
 7.2241   244
 7.2341   209
 7.2441   182
 7.2541   171
 7.2641   154
 7.2741   161
 7.2841   169
 7.2941   155
 7.3041   177
 7.3141   181
 7.3241   162
 7.3341   175
 7.3441   205
 7.3541   195
 7.3641   200
 7.3741   168
 7.3841   178
 7.3941   193
 7.4041   188
 7.4141   238
 7.4241   198
 7.4341   222
 7.4441   194
 7.4541   210
 7.4641   199
 7.4741   205
 7.4841   179
 7.4941   185
 7.5041   175
 7.5141   157
 7.5241   182
 7.5341   158
 7.5441   170
 7.5541   164
 7.5641   162
 7.5741   168
 7.5841   159
 7.5941   159
 7.6041   142
 7.6141   147
 7.6241   147
 7.6341   151
 7.6441   163
 7.6541   165
 7.6641   157
 7.6741   160
 7.6841   182
 7.6941   177
 7.7041   163
 7.7141   160
 7.7241   177
 7.7341   187
 7.7441   174
 7.7541   174
 7.7641   183
 7.7741   182
 7.7841   173
 7.7941   192
 7.8041   196
 7.8141   199
 7.8241   203
 7.8341   207
 7.8441   219
 7.8541   222
 7.8641   237
 7.8741   254
 7.8841   245
 7.8941   231
 7.9041   289
 7.9141   301
 7.9241   297
 7.9341   318
 7.9441   303
 7.9541   336
 7.9641   408
 7.9741   414
 7.9841   400
 7.9941   442
 8.0041   474
 8.0141   528
 8.0241   561
 8.0341   605
 8.0441   656
 8.0541   655
 8.0641   686
 8.0741   813
 8.0841   828
 8.0941   850
 8.1041   906
 8.1141   915
 8.1241   920
 8.1341   987
 8.1441   977
 8.1541  1002
 8.1641  1065
 8.1741  1012
 8.1841  1121
 8.1941  1107
 8.2041  1011
 8.2141  1069
 8.2241  1149
 8.2341  1064
 8.2441  1100
 8.2541  1109
 8.2641  1234
 8.2741  1337
 8.2841  1370
 8.2941  1485
 8.3041  1635
 8.3141  1788
 8.3241  2015
 8.3341  2084
 8.3441  2251
 8.3541  2438
 8.3641  2457
 8.3741  2451
 8.3841  2557
 8.3941  2591
 8.4041  2570
 8.4141  2428
 8.4241  2367
 8.4341  2167
 8.4441  2047
 8.4541  1848
 8.4641  1587
 8.4741  1437
 8.4841  1197
 8.4941  1128
 8.5041   943
 8.5141   877
 8.5241   737
 8.5341   731
 8.5441   680
 8.5541   703
 8.5641   726
 8.5741   675
 8.5841   769
 8.5941   763
 8.6041   718
 8.6141   787
 8.6241   800
 8.6341   813
 8.6441   805
 8.6541   833
 8.6641   730
 8.6741   743
 8.6841   668
 8.6941   617
 8.7041   608
 8.7141   542
 8.7241   460
 8.7341   438
 8.7441   388
 8.7541   355
 8.7641   310
 8.7741   284
 8.7841   300
 8.7941   255
 8.8041   241
 8.8141   236
 8.8241   254
 8.8341   209
 8.8441   243
 8.8541   235
 8.8641   221
 8.8741   228
 8.8841   255
 8.8941   216
 8.9041   238
 8.9141   239
 8.9241   241
 8.9341   251
 8.9441   262
 8.9541   288
 8.9641   236
 8.9741   289
 8.9841   260
 8.9941   250
 9.0041   289
 9.0141   297
 9.0241   281
 9.0341   307
 9.0441   293
 9.0541   318
 9.0641   320
 9.0741   306
 9.0841   335
 9.0941   357
 9.1041   381
 9.1141   366
 9.1241   381
 9.1341   418
 9.1441   457
 9.1541   472
 9.1641   485
 9.1741   490
 9.1841   539
 9.1941   555
 9.2041   619
 9.2141   601
 9.2241   604
 9.2341   661
 9.2441   680
 9.2541   739
 9.2641   759
 9.2741   765
 9.2841   805
 9.2941   867
 9.3041   864
 9.3141   890
 9.3241   904
 9.3341   944
 9.3441   956
 9.3541   971
 9.3641   981
 9.3741  1072
 9.3841  1052
 9.3941  1066
 9.4041  1036
 9.4141  1092
 9.4241  1077
 9.4341  1073
 9.4441  1134
 9.4541  1082
 9.4641  1169
 9.4741  1195
 9.4841  1175
 9.4941  1221
 9.5041  1267
 9.5141  1266
 9.5241  1305
 9.5341  1352
 9.5441  1439
 9.5541  1519
 9.5641  1574
 9.5741  1639
 9.5841  1708
 9.5941  1902
 9.6041  1981
 9.6141  1984
 9.6241  2093
 9.6341  2158
 9.6441  2229
 9.6541  2264
 9.6641  2262
 9.6741  2183
 9.6841  2139
 9.6941  2085
 9.7041  1993
 9.7141  1863
 9.7241  1829
 9.7341  1663
 9.7441  1564
 9.7541  1493
 9.7641  1358
 9.7741  1276
 9.7841  1182
 9.7941  1093
 9.8041  1041
 9.8141   951
 9.8241   941
 9.8341   912
 9.8441   852
 9.8541   890
 9.8641   918
 9.8741   893
 9.8841   912
 9.8941   920
 9.9041   984
 9.9141   980
 9.9241   981
 9.9341   993
 9.9441  1018
 9.9541  1005
 9.9641   987
 9.9741   961
 9.9841   892
 9.9941   889
10.0041   819
10.0141   760
10.0241   743
10.0341   656
10.0441   592
10.0541   534
10.0641   476
10.0741   408
10.0841   386
10.0941   362
10.1041   315
10.1141   269
10.1241   293
10.1341   244
10.1441   237
10.1541   239
10.1641   213
10.1741   194
10.1841   190
10.1941   191
10.2041   186
10.2141   176
10.2241   172
10.2341   156
10.2441   158
10.2541   159
10.2641   138
10.2741   114
10.2841   134
10.2941   129
10.3041   129
10.3141   128
10.3241   124
10.3341   134
10.3441   137
10.3541   118
10.3641   111
10.3741   125
10.3841   131
10.3941   132
10.4041   134
10.4141   134
10.4241   131
10.4341   122
10.4441   134
10.4541   140
10.4641   153
10.4741   148
10.4841   155
10.4941   162
10.5041   155
10.5141   150
10.5241   162
10.5341   181
10.5441   160
10.5541   159
10.5641   158
10.5741   167
10.5841   154
10.5941   164
10.6041   179
10.6141   171
10.6241   161
10.6341   166
10.6441   166
10.6541   174
10.6641   178
10.6741   173
10.6841   170
10.6941   172
10.7041   182
10.7141   187
10.7241   181
10.7341   168
10.7441   179
10.7541   172
10.7641   170
10.7741   192
10.7841   205
10.7941   209
10.8041   210
10.8141   191
10.8241   198
10.8341   207
10.8441   217
10.8541   217
10.8641   234
10.8741   228
10.8841   227
10.8941   238
10.9041   259
10.9141   235
10.9241   223
10.9341   227
10.9441   231
10.9541   235
10.9641   240
10.9741   239
10.9841   251
10.9941   227
11.0041   212
11.0141   201
11.0241   221
11.0341   223
11.0441   198
11.0541   202
11.0641   189
11.0741   204
11.0841   202
11.0941   202
11.1041   210
11.1141   208
11.1241   211
11.1341   218
11.1441   203
11.1541   223
11.1641   226
11.1741   237
11.1841   255
11.1941   267
11.2041   269
11.2141   277
11.2241   297
11.2341   282
11.2441   324
11.2541   335
11.2641   341
11.2741   337
11.2841   343
11.2941   345
11.3041   320
11.3141   311
11.3241   311
11.3341   278
11.3441   283
11.3541   261
11.3641   252
11.3741   253
11.3841   222
11.3941   213
11.4041   207
11.4141   217
11.4241   192
11.4341   199
11.4441   184
11.4541   161
11.4641   157
11.4741   172
11.4841   185
11.4941   170
11.5041   166
11.5141   158
11.5241   163
11.5341   171
11.5441   180
11.5541   178
11.5641   175
11.5741   182
11.5841   181
11.5941   171
11.6041   160
11.6141   168
11.6241   171
11.6341   162
11.6441   168
11.6541   162
11.6641   167
11.6741   168
11.6841   176
11.6941   151
11.7041   137
11.7141   154
11.7241   159
11.7341   158
11.7441   147
11.7541   120
11.7641   135
11.7741   138
11.7841   126
11.7941   126
11.8041   140
11.8141   132
11.8241   127
11.8341   133
11.8441   134
11.8541   121
11.8641   131
11.8741   127
11.8841   128
11.8941   121
11.9041   111
11.9141   110
11.9241   115
11.9341   122
11.9441   111
11.9541   101
11.9641   109
11.9741   121
11.9841   125
11.9941   133
12.0041   127
12.0141   123
12.0241   129
12.0341   131
12.0441   109
12.0541   119
12.0641   125
12.0741   109
12.0841   116
12.0941   131
12.1041   122
12.1141   136
12.1241   135
12.1341   120
12.1441   119
12.1541   130
12.1641   132
12.1741   128
12.1841   124
12.1941   127
12.2041   134
12.2141   121
12.2241   118
12.2341   116
12.2441   118
12.2541   125
12.2641   120
12.2741   109
12.2841   113
12.2941   121
12.3041   129
12.3141   127
12.3241   117
12.3341   119
12.3441   108
12.3541   101
12.3641   112
12.3741   112
12.3841   121
12.3941   118
12.4041   108
12.4141   123
12.4241   121
12.4341   123
12.4441   129
12.4541   124
12.4641   132
12.4741   131
12.4841   125
12.4941   131
12.5041   127
12.5141   128
12.5241   141
12.5341   139
12.5441   140
12.5541   147
12.5641   148
12.5741   147
12.5841   144
12.5941   152
12.6041   133
12.6141   145
12.6241   151
12.6341   133
12.6441   139
12.6541   149
12.6641   130
12.6741   128
12.6841   138
12.6941   141
12.7041   134
12.7141   123
12.7241   130
12.7341   135
12.7441   136
12.7541   142
12.7641   143
12.7741   138
12.7841   137
12.7941   140
12.8041   145
12.8141   149
12.8241   143
12.8341   136
12.8441   137
12.8541   138
12.8641   139
12.8741   140
12.8841   138
12.8941   139
12.9041   138
12.9141   138
12.9241   143
12.9341   149
12.9441   149
12.9541   143
12.9641   148
12.9741   153
12.9841   154
12.9941   147
13.0041   140
13.0141   141
13.0241   144
13.0341   128
13.0441   127
13.0541   142
13.0641   143
13.0741   148
13.0841   150
13.0941   149
13.1041   149
13.1141   138
13.1241   152
13.1341   156
13.1441   145
13.1541   155
13.1641   159
13.1741   161
13.1841   166
13.1941   164
13.2041   171
13.2141   178
13.2241   178
13.2341   186
13.2441   191
13.2541   205
13.2641   207
13.2741   208
13.2841   228
13.2941   224
13.3041   222
13.3141   226
13.3241   234
13.3341   253
13.3441   259
13.3541   254
13.3641   269
13.3741   253
13.3841   249
13.3941   253
13.4041   246
13.4141   240
13.4241   248
13.4341   254
13.4441   234
13.4541   219
13.4641   218
13.4741   215
13.4841   208
13.4941   209
13.5041   205
13.5141   199
13.5241   195
13.5341   183
13.5441   166
13.5541   168
13.5641   179
13.5741   199
13.5841   192
13.5941   164
13.6041   160
13.6141   166
13.6241   169
13.6341   161
13.6441   163
13.6541   173
13.6641   172
13.6741   164
13.6841   175
13.6941   188
13.7041   176
13.7141   163
13.7241   169
13.7341   161
13.7441   159
13.7541   187
13.7641   193
13.7741   182
13.7841   178
13.7941   176
13.8041   177
13.8141   167
13.8241   175
13.8341   192
13.8441   186
13.8541   186
13.8641   179
13.8741   188
13.8841   194
13.8941   189
13.9041   196
13.9141   213
13.9241   230
13.9341   221
13.9441   247
13.9541   274
13.9641   277
13.9741   285
13.9841   322
13.9941   372
14.0041   407
14.0141   438
14.0241   489
14.0341   497
14.0441   532
14.0541   620
14.0641   659
14.0741   699
14.0841   733
14.0941   770
14.1041   794
14.1141   861
14.1241   910
14.1341   870
14.1441   867
14.1541   864
14.1641   842
14.1741   837
14.1841   825
14.1941   801
14.2041   757
14.2141   701
14.2241   644
14.2341   609
14.2441   564
14.2541   511
14.2641   474
14.2741   446
14.2841   401
14.2941   349
14.3041   328
14.3141   321
14.3241   303
14.3341   284
14.3441   279
14.3541   280
14.3641   254
14.3741   219
14.3841   211
14.3941   227
14.4041   230
14.4141   201
14.4241   177
14.4341   196
14.4441   196
14.4541   178
14.4641   193
14.4741   201
14.4841   184
14.4941   181
14.5041   192
14.5141   194
14.5241   199
14.5341   202
14.5441   180
14.5541   184
14.5641   208
14.5741   196
14.5841   200
14.5941   219
14.6041   212
14.6141   195
14.6241   205
14.6341   216
14.6441   221
14.6541   216
14.6641   206
14.6741   202
14.6841   210
14.6941   208
14.7041   198
14.7141   197
14.7241   206
14.7341   220
14.7441   226
14.7541   205
14.7641   204
14.7741   214
14.7841   216
14.7941   220
14.8041   226
14.8141   230
14.8241   219
14.8341   226
14.8441   235
14.8541   225
14.8641   210
14.8741   221
14.8841   247
14.8941   258
14.9041   257
14.9141   264
14.9241   251
14.9341   231
14.9441   255
14.9541   275
14.9641   273
14.9741   266
14.9841   249
14.9941   247
15.0041   247
15.0141   248
15.0241   255
15.0341   246
15.0441   242
15.0541   225
15.0641   233
15.0741   242
15.0841   236
15.0941   237
15.1041   231
15.1141   235
15.1241   250
15.1341   245
15.1441   234
15.1541   229
15.1641   224
15.1741   228
15.1841   227
15.1941   225
15.2041   231
15.2141   229
15.2241   216
15.2341   237
15.2441   233
15.2541   226
15.2641   235
15.2741   233
15.2841   251
15.2941   253
15.3041   228
15.3141   236
15.3241   246
15.3341   220
15.3441   235
15.3541   250
15.3641   259
15.3741   239
15.3841   235
15.3941   238
15.4041   227
15.4141   225
15.4241   223
15.4341   235
15.4441   253
15.4541   233
15.4641   223
15.4741   239
15.4841   252
15.4941   249
15.5041   249
15.5141   255
15.5241   245
15.5341   255
15.5441   271
15.5541   274
15.5641   290
15.5741   299
15.5841   296
15.5941   297
15.6041   293
15.6141   303
15.6241   331
15.6341   326
15.6441   351
15.6541   368
15.6641   372
15.6741   389
15.6841   429
15.6941   424
15.7041   420
15.7141   434
15.7241   441
15.7341   465
15.7441   503
15.7541   485
15.7641   488
15.7741   500
15.7841   485
15.7941   506
15.8041   492
15.8141   517
15.8241   511
15.8341   467
15.8441   483
15.8541   476
15.8641   456
15.8741   431
15.8841   418
15.8941   400
15.9041   389
15.9141   376
15.9241   371
15.9341   354
15.9441   328
15.9541   327
15.9641   322
15.9741   311
15.9841   313
15.9941   328
16.0041   311
16.0141   299
16.0241   272
16.0341   273
16.0441   267
16.0541   272
16.0641   279
16.0741   301
16.0841   307
16.0941   305
16.1041   307
16.1141   297
16.1241   277
16.1341   273
16.1441   260
16.1541   258
16.1641   276
16.1741   286
16.1841   284
16.1941   270
16.2041   257
16.2141   288
16.2241   290
16.2341   273
16.2441   270
16.2541   280
16.2641   277
16.2741   255
16.2841   258
16.2941   258
16.3041   273
16.3141   300
16.3241   307
16.3341   294
16.3441   248
16.3541   252
16.3641   275
16.3741   274
16.3841   289
16.3941   278
16.4041   258
16.4141   261
16.4241   269
16.4341   286
16.4441   288
16.4541   294
16.4641   275
16.4741   294
16.4841   285
16.4941   276
16.5041   281
16.5141   288
16.5241   299
16.5341   295
16.5441   304
16.5541   317
16.5641   283
16.5741   275
16.5841   300
16.5941   304
16.6041   306
16.6141   288
16.6241   298
16.6341   308
16.6441   300
16.6541   313
16.6641   307
16.6741   281
16.6841   301
16.6941   315
16.7041   315
16.7141   291
16.7241   317
16.7341   317
16.7441   296
16.7541   307
16.7641   312
16.7741   289
16.7841   288
16.7941   278
16.8041   301
16.8141   295
16.8241   271
16.8341   306
16.8441   316
16.8541   312
16.8641   282
16.8741   293
16.8841   293
16.8941   292
16.9041   310
16.9141   307
16.9241   302
16.9341   320
16.9441   308
16.9541   310
16.9641   312
16.9741   295
16.9841   311
16.9941   314
17.0041   327
17.0141   329
17.0241   320
17.0341   302
17.0441   308
17.0541   324
17.0641   296
17.0741   323
17.0841   324
17.0941   310
17.1041   335
17.1141   324
17.1241   304
17.1341   304
17.1441   314
17.1541   330
17.1641   324
17.1741   322
17.1841   300
17.1941   325
17.2041   324
17.2141   271
17.2241   268
17.2341   303
17.2441   343
17.2541   337
17.2641   324
17.2741   321
17.2841   301
17.2941   316
17.3041   329
17.3141   339
17.3241   339
17.3341   320
17.3441   342
17.3541   334
17.3641   346
17.3741   339
17.3841   319
17.3941   331
17.4041   316
17.4141   296
17.4241   331
17.4341   347
17.4441   354
17.4541   344
17.4641   335
17.4741   360
17.4841   331
17.4941   345
17.5041   351
17.5141   355
17.5241   347
17.5341   341
17.5441   334
17.5541   354
17.5641   378
17.5741   354
17.5841   352
17.5941   349
17.6041   373
17.6141   360
17.6241   336
17.6341   360
17.6441   387
17.6541   396
17.6641   378
17.6741   341
17.6841   364
17.6941   370
17.7041   352
17.7141   360
17.7241   372
17.7341   379
17.7441   361
17.7541   373
17.7641   351
17.7741   357
17.7841   349
17.7941   366
17.8041   350
17.8141   336
17.8241   357
17.8341   347
17.8441   355
17.8541   357
17.8641   345
17.8741   360
17.8841   355
17.8941   364
17.9041   367
17.9141   367
17.9241   369
17.9341   348
17.9441   337
17.9541   363
17.9641   364
17.9741   376
17.9841   367
17.9941   349
18.0041   362
18.0141   367
18.0241   368
18.0341   367
18.0441   343
18.0541   377
18.0641   368
18.0741   354
18.0841   325
18.0941   360
18.1041   359
18.1141   386
18.1241   362
18.1341   383
18.1441   391
18.1541   363
18.1641   359
18.1741   358
18.1841   353
18.1941   366
18.2041   354
18.2141   372
18.2241   350
18.2341   392
18.2441   375
18.2541   350
18.2641   380
18.2741   343
18.2841   365
18.2941   361
18.3041   369
18.3141   367
18.3241   349
18.3341   362
18.3441   391
18.3541   377
18.3641   370
18.3741   389
18.3841   386
18.3941   367
18.4041   387
18.4141   379
18.4241   360
18.4341   423
18.4441   394
18.4541   370
18.4641   371
18.4741   381
18.4841   387
18.4941   379
18.5041   402
18.5141   368
18.5241   384
18.5341   388
18.5441   347
18.5541   364
18.5641   358
18.5741   365
18.5841   374
18.5941   381
18.6041   382
18.6141   372
18.6241   399
18.6341   394
18.6441   373
18.6541   401
18.6641   383
18.6741   350
18.6841   364
18.6941   382
18.7041   375
18.7141   404
18.7241   376
18.7341   408
18.7441   395
18.7541   390
18.7641   388
18.7741   398
18.7841   394
18.7941   383
18.8041   414
18.8141   393
18.8241   394
18.8341   385
18.8441   377
18.8541   392
18.8641   406
18.8741   407
18.8841   396
18.8941   405
18.9041   387
18.9141   391
18.9241   357
18.9341   396
18.9441   397
18.9541   394
18.9641   374
18.9741   396
18.9841   383
18.9941   390
19.0041   403
19.0141   398
19.0241   371
19.0341   383
19.0441   385
19.0541   391
19.0641   400
19.0741   404
19.0841   401
19.0941   370
19.1041   404
19.1141   418
19.1241   428
19.1341   408
19.1441   432
19.1541   422
19.1641   436
19.1741   407
19.1841   433
19.1941   388
19.2041   395
19.2141   398
19.2241   383
19.2341   424
19.2441   390
19.2541   409
19.2641   401
19.2741   403
19.2841   390
19.2941   402
19.3041   426
19.3141   404
19.3241   441
19.3341   411
19.3441   418
19.3541   408
19.3641   423
19.3741   406
19.3841   406
19.3941   393
19.4041   381
19.4141   379
19.4241   369
19.4341   412
19.4441   395
19.4541   404
19.4641   412
19.4741   421
19.4841   406
19.4941   425
19.5041   393
19.5141   388
19.5241   408
19.5341   385
19.5441   391
19.5541   416
19.5641   419
19.5741   468
19.5841   424
19.5941   408
19.6041   408
19.6141   393
19.6241   408
19.6341   409
19.6441   454
19.6541   425
19.6641   421
19.6741   418
19.6841   406
19.6941   427
19.7041   386
19.7141   377
19.7241   415
19.7341   421
19.7441   423
19.7541   402
19.7641   431
19.7741   437
19.7841   397
19.7941   400
19.8041   432
19.8141   428
19.8241   404
19.8341   412
19.8441   417
19.8541   430
19.8641   391
19.8741   449
19.8841   440
19.8941   423
19.9041   421
19.9141   402
19.9241   412
19.9341   426
19.9441   453
19.9541   464
19.9641   439
19.9741   445
19.9841   412
19.9941   435
20.0041   410
20.0141   417
20.0241   416
20.0341   449
20.0441   449
20.0541   411
20.0641   420
20.0741   398
20.0841   406
20.0941   411
20.1041   433
20.1141   413
20.1241   421
20.1341   413
20.1441   411
20.1541   403
20.1641   417
20.1741   428
20.1841   393
20.1941   451
20.2041   454
20.2141   445
20.2241   412
20.2341   384
20.2441   435
20.2541   440
20.2641   456
20.2741   409
20.2841   430
20.2941   443
20.3041   468
20.3141   432
20.3241   449
20.3341   465
20.3441   427
20.3541   422
20.3641   438
20.3741   413
20.3841   429
20.3941   431
20.4041   418
20.4141   423
20.4241   422
20.4341   416
20.4441   434
20.4541   435
20.4641   457
20.4741   421
20.4841   431
20.4941   454
20.5041   440
20.5141   457
20.5241   431
20.5341   438
20.5441   443
20.5541   434
20.5641   423
20.5741   433
20.5841   441
20.5941   416
20.6041   442
20.6141   457
20.6241   444
20.6341   445
20.6441   422
20.6541   440
20.6641   459
20.6741   423
20.6841   459
20.6941   444
20.7041   405
20.7141   445
20.7241   462
20.7341   443
20.7441   462
20.7541   475
20.7641   424
20.7741   419
20.7841   440
20.7941   459
20.8041   451
20.8141   458
20.8241   437
20.8341   465
20.8441   490
20.8541   527
20.8641   481
20.8741   452
20.8841   491
20.8941   467
20.9041   480
20.9141   529
20.9241   494
20.9341   507
20.9441   520
20.9541   575
20.9641   577
20.9741   550
20.9841   567
20.9941   593
21.0041   591
21.0141   600
21.0241   606
21.0341   618
21.0441   592
21.0541   598
21.0641   602
21.0741   612
21.0841   661
21.0941   644
21.1041   671
21.1141   658
21.1241   654
21.1341   623
21.1441   631
21.1541   650
21.1641   652
21.1741   683
21.1841   659
21.1941   622
21.2041   632
21.2141   645
21.2241   617
21.2341   619
21.2441   635
21.2541   573
21.2641   564
21.2741   522
21.2841   573
21.2941   575
21.3041   555
21.3141   521
21.3241   506
21.3341   496
21.3441   507
21.3541   476
21.3641   505
21.3741   445
21.3841   454
21.3941   466
21.4041   442
21.4141   454
21.4241   479
21.4341   425
21.4441   436
21.4541   447
21.4641   465
21.4741   460
21.4841   441
21.4941   425
21.5041   420
21.5141   453
21.5241   445
21.5341   478
21.5441   435
21.5541   436
21.5641   448
21.5741   424
21.5841   453
21.5941   462
21.6041   438
21.6141   440
21.6241   475
21.6341   442
21.6441   454
21.6541   446
21.6641   438
21.6741   425
21.6841   481
21.6941   438
21.7041   414
21.7141   469
21.7241   445
21.7341   470
21.7441   444
21.7541   452
21.7641   446
21.7741   503
21.7841   459
21.7941   428
21.8041   434
21.8141   433
21.8241   421
21.8341   470
21.8441   456
21.8541   419
21.8641   506
21.8741   464
21.8841   467
21.8941   425
21.9041   449
21.9141   442
21.9241   457
21.9341   449
21.9441   429
21.9541   460
21.9641   456
21.9741   459
21.9841   476
21.9941   433
22.0041   428
22.0141   466
22.0241   448
22.0341   444
22.0441   447
22.0541   444
22.0641   409
22.0741   450
22.0841   487
22.0941   456
22.1041   495
22.1141   442
22.1241   439
22.1341   414
22.1441   438
22.1541   437
22.1641   476
22.1741   459
22.1841   398
22.1941   401
22.2041   448
22.2141   420
22.2241   474
22.2341   502
22.2441   475
22.2541   448
22.2641   451
22.2741   437
22.2841   471
22.2941   447
22.3041   445
22.3141   404
22.3241   451
22.3341   414
22.3441   436
22.3541   471
22.3641   441
22.3741   448
22.3841   449
22.3941   442
22.4041   492
22.4141   420
22.4241   448
22.4341   419
22.4441   433
22.4541   436
22.4641   445
22.4741   477
22.4841   457
22.4941   451
22.5041   469
22.5141   457
22.5241   475
22.5341   482
22.5441   432
22.5541   426
22.5641   413
22.5741   447
22.5841   447
22.5941   431
22.6041   429
22.6141   453
22.6241   470
22.6341   451
22.6441   451
22.6541   421
22.6641   439
22.6741   456
22.6841   409
22.6941   446
22.7041   438
22.7141   467
22.7241   434
22.7341   450
22.7441   426
22.7541   429
22.7641   453
22.7741   403
22.7841   427
22.7941   428
22.8041   443
22.8141   443
22.8241   443
22.8341   444
22.8441   437
22.8541   471
22.8641   413
22.8741   438
22.8841   443
22.8941   443
22.9041   422
22.9141   401
22.9241   448
22.9341   445
22.9441   433
22.9541   430
22.9641   420
22.9741   441
22.9841   413
22.9941   427
23.0041   423
23.0141   420
23.0241   439
23.0341   431
23.0441   422
23.0541   454
23.0641   433
23.0741   452
23.0841   456
23.0941   474
23.1041   431
23.1141   429
23.1241   417
23.1341   459
23.1441   407
23.1541   435
23.1641   436
23.1741   424
23.1841   409
23.1941   411
23.2041   405
23.2141   439
23.2241   419
23.2341   393
23.2441   447
23.2541   422
23.2641   409
23.2741   432
23.2841   451
23.2941   434
23.3041   420
23.3141   417
23.3241   441
23.3341   404
23.3441   439
23.3541   466
23.3641   462
23.3741   471
23.3841   386
23.3941   406
23.4041   389
23.4141   396
23.4241   413
23.4341   371
23.4441   396
23.4541   442
23.4641   436
23.4741   443
23.4841   469
23.4941   424
23.5041   450
23.5141   411
23.5241   431
23.5341   409
23.5441   453
23.5541   430
23.5641   445
23.5741   423
23.5841   410
23.5941   445
23.6041   444
23.6141   405
23.6241   429
23.6341   434
23.6441   416
23.6541   421
23.6641   431
23.6741   424
23.6841   430
23.6941   439
23.7041   450
23.7141   434
23.7241   472
23.7341   482
23.7441   446
23.7541   449
23.7641   460
23.7741   469
23.7841   446
23.7941   467
23.8041   456
23.8141   463
23.8241   460
23.8341   450
23.8441   486
23.8541   471
23.8641   474
23.8741   432
23.8841   462
23.8941   447
23.9041   418
23.9141   442
23.9241   452
23.9341   455
23.9441   460
23.9541   454
23.9641   440
23.9741   423
23.9841   431
23.9941   433
24.0041   415
24.0141   436
24.0241   441
24.0341   386
24.0441   421
24.0541   432
24.0641   427
24.0741   436
24.0841   414
24.0941   401
24.1041   406
24.1141   382
24.1241   431
24.1341   415
24.1441   403
24.1541   414
24.1641   422
24.1741   389
24.1841   434
24.1941   425
24.2041   428
24.2141   406
24.2241   391
24.2341   413
24.2441   423
24.2541   400
24.2641   401
24.2741   427
24.2841   433
24.2941   459
24.3041   426
24.3141   430
24.3241   421
24.3341   437
24.3441   384
24.3541   390
24.3641   422
24.3741   435
24.3841   416
24.3941   420
24.4041   392
24.4141   411
24.4241   414
24.4341   371
24.4441   372
24.4541   393
24.4641   391
24.4741   407
24.4841   409
24.4941   414
24.5041   391
24.5141   418
24.5241   365
24.5341   418
24.5441   421
24.5541   379
24.5641   421
24.5741   418
24.5841   399
24.5941   393
24.6041   434
24.6141   379
24.6241   408
24.6341   364
24.6441   382
24.6541   394
24.6641   389
24.6741   401
24.6841   375
24.6941   373
24.7041   391
24.7141   422
24.7241   410
24.7341   414
24.7441   403
24.7541   389
24.7641   431
24.7741   423
24.7841   392
24.7941   398
24.8041   384
24.8141   381
24.8241   437
24.8341   401
24.8441   393
24.8541   417
24.8641   398
24.8741   410
24.8841   373
24.8941   367
24.9041   408
24.9141   431
24.9241   397
24.9341   371
24.9441   407
24.9541   416
24.9641   381
24.9741   376
24.9841   396
24.9941   391
25.0041   407
25.0141   394
25.0241   407
25.0341   448
25.0441   395
25.0541   366
25.0641   378
25.0741   405
25.0841   405
25.0941   405
25.1041   422
25.1141   402
25.1241   424
25.1341   420
25.1441   427
25.1541   407
25.1641   388
25.1741   366
25.1841   396
25.1941   393
25.2041   384
25.2141   380
25.2241   366
25.2341   415
25.2441   418
25.2541   399
25.2641   401
25.2741   392
25.2841   406
25.2941   416
25.3041   426
25.3141   405
25.3241   384
25.3341   398
25.3441   387
25.3541   389
25.3641   411
25.3741   394
25.3841   372
25.3941   379
25.4041   386
25.4141   395
25.4241   348
25.4341   359
25.4441   365
25.4541   369
25.4641   395
25.4741   426
25.4841   420
25.4941   390
25.5041   366
25.5141   402
25.5241   373
25.5341   371
25.5441   379
25.5541   371
25.5641   384
25.5741   401
25.5841   351
25.5941   379
25.6041   352
25.6141   375
25.6241   353
25.6341   386
25.6441   380
25.6541   382
25.6641   374
25.6741   335
25.6841   364
25.6941   343
25.7041   376
25.7141   379
25.7241   384
25.7341   365
25.7441   364
25.7541   354
25.7641   400
25.7741   380
25.7841   373
25.7941   365
25.8041   360
25.8141   371
25.8241   372
25.8341   372
25.8441   366
25.8541   326
25.8641   364
25.8741   410
25.8841   365
25.8941   387
25.9041   359
25.9141   370
25.9241   364
25.9341   363
25.9441   374
25.9541   354
25.9641   389
25.9741   383
25.9841   375
25.9941   360
26.0041   395
26.0141   323
26.0241   344
26.0341   346
26.0441   345
26.0541   354
26.0641   333
26.0741   368
26.0841   345
26.0941   347
26.1041   363
26.1141   371
26.1241   379
26.1341   373
26.1441   325
26.1541   367
26.1641   335
26.1741   352
26.1841   366
26.1941   343
26.2041   356
26.2141   405
26.2241   362
26.2341   354
26.2441   401
26.2541   373
26.2641   348
26.2741   345
26.2841   362
26.2941   377
26.3041   330
26.3141   351
26.3241   385
26.3341   376
26.3441   378
26.3541   339
26.3641   302
26.3741   372
26.3841   353
26.3941   341
26.4041   347
26.4141   341
26.4241   379
26.4341   366
26.4441   361
26.4541   335
26.4641   321
26.4741   342
26.4841   368
26.4941   363
26.5041   322
26.5141   348
26.5241   358
26.5341   338
26.5441   324
26.5541   347
26.5641   346
26.5741   343
26.5841   341
26.5941   358
26.6041   312
26.6141   341
26.6241   358
26.6341   364
26.6441   332
26.6541   333
26.6641   346
26.6741   344
26.6841   340
26.6941   358
26.7041   362
26.7141   344
26.7241   332
26.7341   319
26.7441   320
26.7541   316
26.7641   338
26.7741   334
26.7841   320
26.7941   363
26.8041   330
26.8141   315
26.8241   319
26.8341   341
26.8441   322
26.8541   351
26.8641   327
26.8741   330
26.8841   347
26.8941   326
26.9041   341
26.9141   324
26.9241   327
26.9341   347
26.9441   357
26.9541   333
26.9641   347
26.9741   346
26.9841   335
26.9941   350
27.0041   321
27.0141   348
27.0241   341
27.0341   311
27.0441   302
27.0541   309
27.0641   318
27.0741   330
27.0841   334
27.0941   325
27.1041   347
27.1141   309
27.1241   307
27.1341   295
27.1441   373
27.1541   314
27.1641   317
27.1741   303
27.1841   337
27.1941   339
27.2041   342
27.2141   321
27.2241   331
27.2341   317
27.2441   317
27.2541   319
27.2641   326
27.2741   319
27.2841   334
27.2941   346
27.3041   337
27.3141   361
27.3241   339
27.3341   319
27.3441   308
27.3541   336
27.3641   320
27.3741   309
27.3841   303
27.3941   325
27.4041   327
27.4141   306
27.4241   327
27.4341   335
27.4441   330
27.4541   325
27.4641   313
27.4741   305
27.4841   308
27.4941   311
27.5041   304
27.5141   308
27.5241   367
27.5341   310
27.5441   299
27.5541   293
27.5641   337
27.5741   314
27.5841   307
27.5941   284
27.6041   301
27.6141   298
27.6241   325
27.6341   306
27.6441   317
27.6541   315
27.6641   340
27.6741   290
27.6841   296
27.6941   270
27.7041   321
27.7141   316
27.7241   334
27.7341   312
27.7441   312
27.7541   299
27.7641   305
27.7741   330
27.7841   306
27.7941   315
27.8041   281
27.8141   320
27.8241   301
27.8341   298
27.8441   287
27.8541   300
27.8641   287
27.8741   283
27.8841   291
27.8941   271
27.9041   295
27.9141   320
27.9241   291
27.9341   318
27.9441   291
27.9541   300
27.9641   310
27.9741   329
27.9841   274
27.9941   334
28.0041   290
28.0141   304
28.0241   294
28.0341   271
28.0441   313
28.0541   294
28.0641   310
28.0741   293
28.0841   299
28.0941   276
28.1041   292
28.1141   280
28.1241   296
28.1341   289
28.1441   276
28.1541   311
28.1641   292
28.1741   280
28.1841   291
28.1941   284
28.2041   294
28.2141   283
28.2241   323
28.2341   264
28.2441   299
28.2541   277
28.2641   286
28.2741   302
28.2841   321
28.2941   294
28.3041   277
28.3141   276
28.3241   310
28.3341   273
28.3441   281
28.3541   292
28.3641   275
28.3741   270
28.3841   266
28.3941   283
28.4041   282
28.4141   289
28.4241   255
28.4341   270
28.4441   271
28.4541   276
28.4641   273
28.4741   269
28.4841   287
28.4941   292
28.5041   279
28.5141   280
28.5241   271
28.5341   307
28.5441   269
28.5541   270
28.5641   256
28.5741   261
28.5841   288
28.5941   272
28.6041   267
28.6141   259
28.6241   269
28.6341   293
28.6441   305
28.6541   277
28.6641   257
28.6741   280
28.6841   258
28.6941   279
28.7041   274
28.7141   276
28.7241   274
28.7341   261
28.7441   294
28.7541   296
28.7641   283
28.7741   277
28.7841   254
28.7941   251
28.8041   246
28.8141   267
28.8241   255
28.8341   274
28.8441   239
28.8541   266
28.8641   249
28.8741   275
28.8841   273
28.8941   268
28.9041   296
28.9141   290
28.9241   243
28.9341   287
28.9441   256
28.9541   255
28.9641   258
28.9741   271
28.9841   277
28.9941   250
29.0041   276
29.0141   245
29.0241   251
29.0341   268
29.0441   255
29.0541   258
29.0641   224
29.0741   295
29.0841   294
29.0941   248
29.1041   236
29.1141   263
29.1241   273
29.1341   263
29.1441   277
29.1541   270
29.1641   285
29.1741   287
29.1841   274
29.1941   238
29.2041   274
29.2141   250
29.2241   236
29.2341   267
29.2441   252
29.2541   247
29.2641   244
29.2741   247
29.2841   246
29.2941   249
29.3041   231
29.3141   248
29.3241   259
29.3341   249
29.3441   270
29.3541   246
29.3641   257
29.3741   247
29.3841   269
29.3941   245
29.4041   269
29.4141   228
29.4241   231
29.4341   246
29.4441   262
29.4541   247
29.4641   245
29.4741   276
29.4841   259
29.4941   243
29.5041   234
29.5141   247
29.5241   261
29.5341   275
29.5441   238
29.5541   249
29.5641   221
29.5741   243
29.5841   244
29.5941   248
29.6041   245
29.6141   233
29.6241   247
29.6341   219
29.6441   244
29.6541   222
29.6641   244
29.6741   239
29.6841   240
29.6941   252
29.7041   261
29.7141   259
29.7241   246
29.7341   228
29.7441   223
29.7541   239
29.7641   222
29.7741   255
29.7841   224
29.7941   223
29.8041   228
29.8141   250
29.8241   211
29.8341   229
29.8441   227
29.8541   222
29.8641   226
29.8741   232
29.8841   227
29.8941   225
29.9041   212
29.9141   233
29.9241   221
29.9341   246
29.9441   258
29.9541   234
29.9641   212
29.9741   234
29.9841   213
29.9941   251
30.0041   225
30.0141   226
30.0241   231
30.0341   228
30.0441   222
30.0541   229
30.0641   214
30.0741   223
30.0841   211
30.0941   249
30.1041   213
30.1141   229
30.1241   214
30.1341   225
30.1441   215
30.1541   218
30.1641   234
30.1741   260
30.1841   239
30.1941   233
30.2041   194
30.2141   226
30.2241   230
30.2341   225
30.2441   211
30.2541   238
30.2641   222
30.2741   207
30.2841   200
30.2941   225
30.3041   231
30.3141   236
30.3241   226
30.3341   212
30.3441   219
30.3541   216
30.3641   225
30.3741   234
30.3841   243
30.3941   196
30.4041   206
30.4141   247
30.4241   246
30.4341   219
30.4441   218
30.4541   222
30.4641   212
30.4741   203
30.4841   229
30.4941   225
30.5041   191
30.5141   196
30.5241   211
30.5341   200
30.5441   223
30.5541   238
30.5641   198
30.5741   213
30.5841   212
30.5941   218
30.6041   195
30.6141   193
30.6241   221
30.6341   213
30.6441   211
30.6541   207
30.6641   215
30.6741   222
30.6841   191
30.6941   194
30.7041   187
30.7141   213
30.7241   213
30.7341   185
30.7441   191
30.7541   193
30.7641   201
30.7741   192
30.7841   222
30.7941   194
30.8041   189
30.8141   198
30.8241   195
30.8341   188
30.8441   195
30.8541   208
30.8641   186
30.8741   197
30.8841   210
30.8941   187
30.9041   208
30.9141   192
30.9241   190
30.9341   196
30.9441   199
30.9541   202
30.9641   215
30.9741   191
30.9841   203
30.9941   201
31.0041   183
31.0141   199
31.0241   171
31.0341   191
31.0441   202
31.0541   192
31.0641   200
31.0741   184
31.0841   206
31.0941   201
31.1041   177
31.1141   213
31.1241   192
31.1341   188
31.1441   178
31.1541   193
31.1641   205
31.1741   215
31.1841   190
31.1941   192
31.2041   194
31.2141   197
31.2241   216
31.2341   186
31.2441   190
31.2541   192
31.2641   183
31.2741   185
31.2841   198
31.2941   203
31.3041   187
31.3141   190
31.3241   184
31.3341   172
31.3441   181
31.3541   175
31.3641   208
31.3741   173
31.3841   192
31.3941   189
31.4041   175
31.4141   193
31.4241   172
31.4341   197
31.4441   184
31.4541   192
31.4641   206
31.4741   190
31.4841   167
31.4941   169
31.5041   191
31.5141   161
31.5241   191
31.5341   176
31.5441   186
31.5541   178
31.5641   182
31.5741   191
31.5841   191
31.5941   201
31.6041   206
31.6141   197
31.6241   196
31.6341   175
31.6441   194
31.6541   168
31.6641   190
31.6741   189
31.6841   182
31.6941   212
31.7041   197
31.7141   193
31.7241   186
31.7341   198
31.7441   198
31.7541   167
31.7641   191
31.7741   179
31.7841   163
31.7941   190
31.8041   201
31.8141   203
31.8241   208
31.8341   179
31.8441   173
31.8541   187
31.8641   202
31.8741   188
31.8841   175
31.8941   182
31.9041   209
31.9141   207
31.9241   206
31.9341   166
31.9441   202
31.9541   203
31.9641   169
31.9741   187
31.9841   194
31.9941   198
32.0041   183
32.0141   170
32.0241   171
32.0341   191
32.0441   173
32.0541   166
32.0641   187
32.0741   178
32.0841   201
32.0941   193
32.1041   181
32.1141   189
32.1241   197
32.1341   187
32.1441   210
32.1541   203
32.1641   194
32.1741   197
32.1841   176
32.1941   192
32.2041   216
32.2141   184
32.2241   201
32.2341   210
32.2441   160
32.2541   178
32.2641   187
32.2741   186
32.2841   193
32.2941   173
32.3041   176
32.3141   164
32.3241   163
32.3341   160
32.3441   173
32.3541   172
32.3641   162
32.3741   175
32.3841   158
32.3941   180
32.4041   162
32.4141   166
32.4241   167
32.4341   159
32.4441   158
32.4541   160
32.4641   158
32.4741   142
32.4841   145
32.4941   160
32.5041   144
32.5141   134
32.5241   155
32.5341   167
32.5441   171
32.5541   171
32.5641   162
32.5741   172
32.5841   158
32.5941   141
32.6041   141
32.6141   163
32.6241   142
32.6341   153
32.6441   165
32.6541   151
32.6641   151
32.6741   154
32.6841   152
32.6941   158
32.7041   156
32.7141   165
32.7241   159
32.7341   147
32.7441   131
32.7541   131
32.7641   143
32.7741   132
32.7841   160
32.7941   147
32.8041   137
32.8141   162
32.8241   149
32.8341   159
32.8441   147
32.8541   137
32.8641   154
32.8741   150
32.8841   149
32.8941   153
32.9041   140
32.9141   142
32.9241   132
32.9341   148
32.9441   127
32.9541   137
32.9641   126
32.9741   137
32.9841   131
32.9941   161
33.0041   168
33.0141   125
33.0241   152
33.0341   131
33.0441   150
33.0541   142
33.0641   145
33.0741   161
33.0841   137
33.0941   153
33.1041   128
33.1141   139
33.1241   147
33.1341   147
33.1441   153
33.1541   133
33.1641   131
33.1741   136
33.1841   138
33.1941   137
33.2041   138
33.2141   155
33.2241   147
33.2341   153
33.2441   131
33.2541   137
33.2641   141
33.2741   141
33.2841   151
33.2941   138
33.3041   149
33.3141   135
33.3241   139
33.3341   139
33.3441   134
33.3541   145
33.3641   136
33.3741   128
33.3841   132
33.3941   134
33.4041   131
33.4141   144
33.4241   137
33.4341   125
33.4441   135
33.4541   119
33.4641   108
33.4741   117
33.4841   124
33.4941   119
33.5041   128
33.5141   144
33.5241   160
33.5341   149
33.5441   132
33.5541   128
33.5641   141
33.5741   146
33.5841   145
33.5941   120
33.6041   129
33.6141   141
33.6241   121
33.6341   119
33.6441   129
33.6541   127
33.6641   123
33.6741   135
33.6841   127
33.6941   124
33.7041   130
33.7141   116
33.7241   121
33.7341   137
33.7441   117
33.7541   132
33.7641   138
33.7741   115
33.7841   128
33.7941   129
33.8041   136
33.8141   120
33.8241   108
33.8341   102
33.8441   104
33.8541   118
33.8641   115
33.8741   123
33.8841   116
33.8941   124
33.9041   126
33.9141   119
33.9241   116
33.9341   124
33.9441   130
33.9541   130
33.9641   114
33.9741   135
33.9841   103
33.9941   129
34.0041   121
34.0141   117
34.0241   130
34.0341   114
34.0441   126
34.0541   129
34.0641   131
34.0741   130
34.0841   122
34.0941   135
34.1041   108
34.1141   134
34.1241   121
34.1341   105
34.1441   111
34.1541   128
34.1641   127
34.1741   134
34.1841   119
34.1941   104
34.2041   111
34.2141   115
34.2241   127
34.2341   109
34.2441   114
34.2541   100
34.2641    93
34.2741   125
34.2841   111
34.2941   119
34.3041   106
34.3141   103
34.3241   124
34.3341   123
34.3441   103
34.3541   101
34.3641   107
34.3741   117
34.3841   115
34.3941   110
34.4041   120
34.4141   105
34.4241   101
34.4341   113
34.4441   118
34.4541   127
34.4641   118
34.4741   106
34.4841   120
34.4941   122
34.5041   122
34.5141   112
34.5241   116
34.5341   103
34.5441    86
34.5541   101
34.5641   110
34.5741    95
34.5841    97
34.5941   109
34.6041   107
34.6141   118
34.6241   105
34.6341   101
34.6441   120
34.6541   117
34.6641    94
34.6741   104
34.6841   119
34.6941   111
34.7041   108
34.7141   107
34.7241    99
34.7341   108
34.7441    88
34.7541   106
34.7641   125
34.7741   113
34.7841    92
34.7941    90
34.8041    93
34.8141   110
34.8241   108
34.8341   106
34.8441   109
34.8541    96
34.8641   111
34.8741   119
34.8841   119
34.8941   103
34.9041   108
34.9141   109
34.9241   105
34.9341   104
34.9441   111
34.9541    98
34.9641    89
34.9741    97
34.9841    87
34.9941   107
35.0041   106
35.0141    87
35.0241   117
35.0341    98
35.0441    78
35.0541    95
35.0641    88
35.0741    98
35.0841   109
35.0941    92
35.1041   101
35.1141    98
35.1241   102
35.1341   103
35.1441    76
35.1541   109
35.1641    83
35.1741    93
35.1841   101
35.1941    96
35.2041    98
35.2141   102
35.2241    87
35.2341   103
35.2441   112
35.2541    94
35.2641    87
35.2741   100
35.2841    91
35.2941   102
35.3041   102
35.3141   102
35.3241    95
35.3341    93
35.3441   100
35.3541   107
35.3641    88
35.3741    98
35.3841    86
35.3941    86
35.4041   110
35.4141    81
35.4241    89
35.4341   100
35.4441    86
35.4541    83
35.4641   101
35.4741    92
35.4841    89
35.4941    81
35.5041   100
35.5141    95
35.5241    79
35.5341    85
35.5441    67
35.5541   102
35.5641    97
35.5741    84
35.5841    87
35.5941    95
35.6041    73
35.6141    67
35.6241    94
35.6341    71
35.6441    84
35.6541    87
35.6641    81
35.6741    84
35.6841   102
35.6941    78
35.7041    86
35.7141    78
35.7241    62
35.7341    73
35.7441    89
35.7541    75
35.7641    76
35.7741    77
35.7841    78
35.7941    89
35.8041   104
35.8141   110
35.8241    85
35.8341    88
35.8441    91
35.8541    85
35.8641    79
35.8741    89
35.8841    75
35.8941    79
35.9041    85
35.9141    86
35.9241    82
35.9341    78
35.9441    73
35.9541    82
35.9641    69
35.9741    85
35.9841    80
35.9941    80
36.0041    81
36.0141    80
36.0241    71
36.0341    85
36.0441    71
36.0541    79
36.0641    91
36.0741    80
36.0841    70
36.0941    90
36.1041    68
36.1141    70
36.1241    73
36.1341    80
36.1441    83
36.1541    79
36.1641    68
36.1741    87
36.1841    83
36.1941    78
36.2041    75
36.2141    62
36.2241    92
36.2341    91
36.2441    76
36.2541    77
36.2641    76
36.2741    69
36.2841    89
36.2941    76
36.3041    74
36.3141    80
36.3241    76
36.3341    82
36.3441    71
36.3541    78
36.3641    78
36.3741    63
36.3841    72
36.3941    84
36.4041    96
36.4141    68
36.4241    87
36.4341    87
36.4441    70
36.4541    80
36.4641    86
36.4741    66
36.4841    70
36.4941    63
36.5041    86
36.5141    73
36.5241    78
36.5341    74
36.5441    76
36.5541    76
36.5641    70
36.5741    67
36.5841    73
36.5941    67
36.6041    77
36.6141    75
36.6241    62
36.6341    68
36.6441    57
36.6541    62
36.6641    66
36.6741    74
36.6841    71
36.6941    70
36.7041    88
36.7141    73
36.7241    57
36.7341    65
36.7441    63
36.7541    64
36.7641    65
36.7741    70
36.7841    71
36.7941    70
36.8041    55
36.8141    74
36.8241    64
36.8341    57
36.8441    67
36.8541    69
36.8641    68
36.8741    56
36.8841    59
36.8941    62
36.9041    59
36.9141    64
36.9241    67
36.9341    52
36.9441    54
36.9541    64
36.9641    76
36.9741    62
36.9841    51
36.9941    54
37.0041    68
37.0141    55
37.0241    65
37.0341    70
37.0441    61
37.0541    62
37.0641    54
37.0741    68
37.0841    69
37.0941    63
37.1041    70
37.1141    61
37.1241    54
37.1341    63
37.1441    67
37.1541    66
37.1641    68
37.1741    66
37.1841    51
37.1941    48
37.2041    56
37.2141    75
37.2241    66
37.2341    59
37.2441    67
37.2541    61
37.2641    70
37.2741    52
37.2841    55
37.2941    68
37.3041    58
37.3141    57
37.3241    63
37.3341    63
37.3441    56
37.3541    41
37.3641    37
37.3741    54
37.3841    67
37.3941    59
37.4041    63
37.4141    60
37.4241    71
37.4341    43
37.4441    69
37.4541    58
37.4641    54
37.4741    56
37.4841    58
37.4941    54
37.5041    63
37.5141    62
37.5241    48
37.5341    59
37.5441    46
37.5541    57
37.5641    65
37.5741    45
37.5841    55
37.5941    60
37.6041    50
37.6141    54
37.6241    51
37.6341    40
37.6441    51
37.6541    46
37.6641    53
37.6741    42
37.6841    56
37.6941    58
37.7041    56
37.7141    57
37.7241    51
37.7341    52
37.7441    46
37.7541    63
37.7641    59
37.7741    56
37.7841    46
37.7941    53
37.8041    57
37.8141    52
37.8241    47
37.8341    62
37.8441    58
37.8541    38
37.8641    49
37.8741    38
37.8841    40
37.8941    56
37.9041    67
37.9141    50
37.9241    54
37.9341    43
37.9441    48
37.9541    43
37.9641    42
37.9741    54
37.9841    49
37.9941    38
38.0041    36
38.0141    50
38.0241    53
38.0341    42
38.0441    52
38.0541    57
38.0641    57
38.0741    51
38.0841    29
38.0941    47
38.1041    50
38.1141    52
38.1241    54
38.1341    36
38.1441    59
38.1541    52
38.1641    54
38.1741    40
38.1841    48
38.1941    35
38.2041    44
38.2141    43
38.2241    53
38.2341    43
38.2441    42
38.2541    33
38.2641    43
38.2741    41
38.2841    46
38.2941    46
38.3041    39
38.3141    33
38.3241    40
38.3341    47
38.3441    35
38.3541    39
38.3641    47
38.3741    46
38.3841    48
38.3941    54
38.4041    41
38.4141    36
38.4241    42
38.4341    36
38.4441    40
38.4541    53
38.4641    53
38.4741    30
38.4841    44
38.4941    43
38.5041    44
38.5141    39
38.5241    37
38.5341    42
38.5441    40
38.5541    36
38.5641    38
38.5741    40
38.5841    49
38.5941    35
38.6041    36
38.6141    49
38.6241    40
38.6341    29
38.6441    36
38.6541    30
38.6641    47
38.6741    39
38.6841    36
38.6941    28
38.7041    39
38.7141    30
38.7241    41
38.7341    42
38.7441    44
38.7541    34
38.7641    44
38.7741    33
38.7841    42
38.7941    38
38.8041    34
38.8141    32
38.8241    31
38.8341    35
38.8441    40
38.8541    37
38.8641    36
38.8741    37
38.8841    45
38.8941    40
38.9041    39
38.9141    52
38.9241    38
38.9341    39
38.9441    49
38.9541    34
38.9641    34
38.9741    38
38.9841    25
38.9941    33
39.0041    50
39.0141    36
39.0241    36
39.0341    40
39.0441    36
39.0541    29
39.0641    29
39.0741    34
39.0841    32
39.0941    40
39.1041    41
39.1141    33
39.1241    35
39.1341    34
39.1441    41
39.1541    27
39.1641    24
39.1741    25
39.1841    45
39.1941    38
39.2041    39
39.2141    30
39.2241    39
39.2341    33
39.2441    34
39.2541    32
39.2641    23
39.2741    31
39.2841    27
39.2941    29
39.3041    32
39.3141    31
39.3241    32
39.3341    36
39.3441    31
39.3541    29
39.3641    38
39.3741    39
39.3841    36
39.3941    29
39.4041    30
39.4141    29
39.4241    33
39.4341    29
39.4441    24
39.4541    23
39.4641    28
39.4741    24
39.4841    34
39.4941    26
39.5041    28
39.5141    24
39.5241    34
39.5341    34
39.5441    36
39.5541    31
39.5641    35
39.5741    26
39.5841    26
39.5941    34
39.6041    26
39.6141    41
39.6241    30
39.6341    25
39.6441    22
39.6541    42
39.6641    32
39.6741    19
39.6841    23
39.6941    19
39.7041    32
39.7141    32
39.7241    17
39.7341    33
39.7441    25
39.7541    22
39.7641    28
39.7741    22
39.7841    32
39.7941    32
39.8041    20
39.8141    34
39.8241    21
39.8341    20
39.8441    35
39.8541    25
39.8641    20
39.8741    24
39.8841    20
39.8941    23
39.9041    20
39.9141    27
39.9241    26
39.9341    30
39.9441    16
39.9541    21
39.9641    23
39.9741    28
39.9841    17
