Bruker Nano GmbH Berlin, Germany
Esprit 1.9

Date: 5/14/2021 1:30:15 PM
Real time: 18449
Life time: 17309
Pulse density: 90113


Detector type: XFlash 430
Window type: Custom type
Detector thickness: 0.45
Si dead layer:0.029

Calibration, lin.: 10
Calibration, abs.: -955.9
Mn FWHM: 137.05
Fano factor: 0.121
Channels: 4096

Energy Counts
-0.9559     0
-0.9459     0
-0.9359     0
-0.9259     0
-0.9159     0
-0.9059     0
-0.8959     0
-0.8859     0
-0.8759     0
-0.8659     0
-0.8559     0
-0.8459     0
-0.8359     0
-0.8259     0
-0.8159     0
-0.8059     0
-0.7959     0
-0.7859     0
-0.7759     0
-0.7659     0
-0.7559     0
-0.7459     0
-0.7359     0
-0.7259     0
-0.7159     0
-0.7059     0
-0.6959     0
-0.6859     0
-0.6759     0
-0.6659     0
-0.6559     0
-0.6459     0
-0.6359     0
-0.6259     0
-0.6159     0
-0.6059     0
-0.5959     0
-0.5859     0
-0.5759     0
-0.5659     0
-0.5559     0
-0.5459     0
-0.5359     0
-0.5259     0
-0.5159     0
-0.5059     0
-0.4959     0
-0.4859     0
-0.4759     0
-0.4659     0
-0.4559     0
-0.4459     0
-0.4359     0
-0.4259     0
-0.4159     0
-0.4059     0
-0.3959     0
-0.3859     0
-0.3759     0
-0.3659     0
-0.3559     0
-0.3459     0
-0.3359     0
-0.3259     0
-0.3159     0
-0.3059     0
-0.2959     0
-0.2859     0
-0.2759     0
-0.2659     0
-0.2559     0
-0.2459     0
-0.2359     0
-0.2259     0
-0.2159     0
-0.2059     0
-0.1959     0
-0.1859     0
-0.1759     0
-0.1659     0
-0.1559     0
-0.1459     0
-0.1359     0
-0.1259     1
-0.1159     1
-0.1059    17
-0.0959    32
-0.0859   194
-0.0759   659
-0.0659  1940
-0.0559  5020
-0.0459 11231
-0.0359 20646
-0.0259 33065
-0.0159 45275
-0.0059 53047
 0.0041 53398
 0.0141 45604
 0.0241 33668
 0.0341 21508
 0.0441 11615
 0.0541  5538
 0.0641  2198
 0.0741   741
 0.0841   251
 0.0941    62
 0.1041    21
 0.1141    16
 0.1241     8
 0.1341     5
 0.1441     2
 0.1541     9
 0.1641     2
 0.1741    19
 0.1841   165
 0.1941   286
 0.2041   260
 0.2141   277
 0.2241   258
 0.2341   265
 0.2441   273
 0.2541   267
 0.2641   246
 0.2741   242
 0.2841   247
 0.2941   255
 0.3041   265
 0.3141   261
 0.3241   241
 0.3341   277
 0.3441   265
 0.3541   244
 0.3641   249
 0.3741   243
 0.3841   249
 0.3941   236
 0.4041   242
 0.4141   250
 0.4241   247
 0.4341   241
 0.4441   233
 0.4541   230
 0.4641   238
 0.4741   242
 0.4841   222
 0.4941   224
 0.5041   240
 0.5141   256
 0.5241   245
 0.5341   244
 0.5441   247
 0.5541   222
 0.5641   228
 0.5741   227
 0.5841   223
 0.5941   224
 0.6041   207
 0.6141   195
 0.6241   202
 0.6341   205
 0.6441   196
 0.6541   208
 0.6641   212
 0.6741   205
 0.6841   199
 0.6941   196
 0.7041   197
 0.7141   193
 0.7241   195
 0.7341   201
 0.7441   203
 0.7541   185
 0.7641   182
 0.7741   199
 0.7841   196
 0.7941   188
 0.8041   192
 0.8141   197
 0.8241   180
 0.8341   187
 0.8441   192
 0.8541   167
 0.8641   177
 0.8741   175
 0.8841   177
 0.8941   193
 0.9041   194
 0.9141   177
 0.9241   177
 0.9341   177
 0.9441   167
 0.9541   178
 0.9641   183
 0.9741   174
 0.9841   181
 0.9941   171
 1.0041   182
 1.0141   198
 1.0241   181
 1.0341   185
 1.0441   165
 1.0541   184
 1.0641   193
 1.0741   172
 1.0841   175
 1.0941   159
 1.1041   173
 1.1141   161
 1.1241   172
 1.1341   149
 1.1441   157
 1.1541   187
 1.1641   186
 1.1741   176
 1.1841   168
 1.1941   174
 1.2041   162
 1.2141   165
 1.2241   164
 1.2341   168
 1.2441   164
 1.2541   162
 1.2641   148
 1.2741   162
 1.2841   152
 1.2941   150
 1.3041   154
 1.3141   161
 1.3241   159
 1.3341   172
 1.3441   150
 1.3541   150
 1.3641   168
 1.3741   156
 1.3841   159
 1.3941   149
 1.4041   162
 1.4141   141
 1.4241   148
 1.4341   147
 1.4441   153
 1.4541   161
 1.4641   147
 1.4741   167
 1.4841   168
 1.4941   163
 1.5041   157
 1.5141   142
 1.5241   148
 1.5341   184
 1.5441   151
 1.5541   155
 1.5641   154
 1.5741   145
 1.5841   145
 1.5941   141
 1.6041   130
 1.6141   157
 1.6241   164
 1.6341   170
 1.6441   173
 1.6541   215
 1.6641   198
 1.6741   256
 1.6841   324
 1.6941   397
 1.7041   499
 1.7141   585
 1.7241   664
 1.7341   701
 1.7441   663
 1.7541   641
 1.7641   602
 1.7741   500
 1.7841   404
 1.7941   331
 1.8041   273
 1.8141   225
 1.8241   219
 1.8341   208
 1.8441   165
 1.8541   182
 1.8641   187
 1.8741   160
 1.8841   161
 1.8941   158
 1.9041   167
 1.9141   153
 1.9241   160
 1.9341   154
 1.9441   146
 1.9541   148
 1.9641   169
 1.9741   167
 1.9841   184
 1.9941   176
 2.0041   169
 2.0141   193
 2.0241   164
 2.0341   154
 2.0441   166
 2.0541   155
 2.0641   138
 2.0741   150
 2.0841   148
 2.0941   144
 2.1041   140
 2.1141   129
 2.1241   135
 2.1341   137
 2.1441   117
 2.1541   126
 2.1641   120
 2.1741   133
 2.1841   127
 2.1941   124
 2.2041   114
 2.2141   131
 2.2241   141
 2.2341   150
 2.2441   134
 2.2541   128
 2.2641   137
 2.2741   131
 2.2841   117
 2.2941   113
 2.3041   112
 2.3141   121
 2.3241   117
 2.3341   137
 2.3441   144
 2.3541   157
 2.3641   119
 2.3741   118
 2.3841   136
 2.3941   125
 2.4041   125
 2.4141   117
 2.4241   115
 2.4341   138
 2.4441   107
 2.4541   118
 2.4641   124
 2.4741    90
 2.4841    91
 2.4941   126
 2.5041   124
 2.5141    98
 2.5241   119
 2.5341   111
 2.5441   112
 2.5541   111
 2.5641   133
 2.5741    96
 2.5841   111
 2.5941    94
 2.6041   121
 2.6141   116
 2.6241   108
 2.6341   110
 2.6441   109
 2.6541   113
 2.6641   125
 2.6741   112
 2.6841   104
 2.6941   122
 2.7041   117
 2.7141   111
 2.7241   122
 2.7341    92
 2.7441    94
 2.7541    92
 2.7641   109
 2.7741   119
 2.7841   104
 2.7941   129
 2.8041   121
 2.8141   112
 2.8241   110
 2.8341   129
 2.8441    82
 2.8541   109
 2.8641   103
 2.8741   112
 2.8841    99
 2.8941    97
 2.9041   111
 2.9141    93
 2.9241   113
 2.9341   102
 2.9441    99
 2.9541    94
 2.9641   116
 2.9741    83
 2.9841   114
 2.9941    88
 3.0041   115
 3.0141   106
 3.0241   107
 3.0341    90
 3.0441   104
 3.0541    90
 3.0641    97
 3.0741   101
 3.0841    87
 3.0941   105
 3.1041    90
 3.1141    79
 3.1241    88
 3.1341    90
 3.1441    80
 3.1541    91
 3.1641    78
 3.1741    74
 3.1841    81
 3.1941    99
 3.2041    96
 3.2141    98
 3.2241    83
 3.2341   107
 3.2441   108
 3.2541   126
 3.2641   127
 3.2741   120
 3.2841   116
 3.2941   130
 3.3041   133
 3.3141   133
 3.3241   123
 3.3341   114
 3.3441   136
 3.3541   120
 3.3641   102
 3.3741    99
 3.3841    90
 3.3941    87
 3.4041    97
 3.4141    79
 3.4241    95
 3.4341    88
 3.4441    96
 3.4541    71
 3.4641    75
 3.4741    92
 3.4841    74
 3.4941    91
 3.5041    94
 3.5141    87
 3.5241    84
 3.5341    90
 3.5441   102
 3.5541   113
 3.5641   125
 3.5741   159
 3.5841   179
 3.5941   238
 3.6041   277
 3.6141   384
 3.6241   441
 3.6341   530
 3.6441   621
 3.6541   763
 3.6641   871
 3.6741   928
 3.6841   986
 3.6941   924
 3.7041   991
 3.7141   907
 3.7241   753
 3.7341   651
 3.7441   561
 3.7541   410
 3.7641   360
 3.7741   246
 3.7841   220
 3.7941   177
 3.8041   130
 3.8141   102
 3.8241    90
 3.8341    73
 3.8441    75
 3.8541    77
 3.8641    77
 3.8741    73
 3.8841    78
 3.8941    89
 3.9041    76
 3.9141    93
 3.9241   103
 3.9341   104
 3.9441   126
 3.9541   129
 3.9641   138
 3.9741   153
 3.9841   161
 3.9941   184
 4.0041   176
 4.0141   164
 4.0241   170
 4.0341   175
 4.0441   165
 4.0541   167
 4.0641   142
 4.0741   120
 4.0841   110
 4.0941    95
 4.1041    91
 4.1141    79
 4.1241    87
 4.1341    65
 4.1441    63
 4.1541    62
 4.1641    75
 4.1741    57
 4.1841    66
 4.1941    51
 4.2041    63
 4.2141    59
 4.2241    64
 4.2341    59
 4.2441    53
 4.2541    70
 4.2641    58
 4.2741    52
 4.2841    65
 4.2941    66
 4.3041    56
 4.3141    55
 4.3241    50
 4.3341    58
 4.3441    80
 4.3541    65
 4.3641    80
 4.3741   102
 4.3841   108
 4.3941   115
 4.4041   151
 4.4141   162
 4.4241   200
 4.4341   268
 4.4441   345
 4.4541   376
 4.4641   457
 4.4741   507
 4.4841   533
 4.4941   562
 4.5041   606
 4.5141   581
 4.5241   566
 4.5341   530
 4.5441   466
 4.5541   407
 4.5641   347
 4.5741   286
 4.5841   246
 4.5941   167
 4.6041   192
 4.6141   162
 4.6241   114
 4.6341   113
 4.6441    85
 4.6541    84
 4.6641    87
 4.6741    87
 4.6841    66
 4.6941    65
 4.7041    66
 4.7141    77
 4.7241    79
 4.7341    68
 4.7441    72
 4.7541    63
 4.7641    67
 4.7741    73
 4.7841    68
 4.7941    84
 4.8041    83
 4.8141   111
 4.8241    90
 4.8341   100
 4.8441   130
 4.8541   117
 4.8641   138
 4.8741   161
 4.8841   152
 4.8941   151
 4.9041   162
 4.9141   185
 4.9241   159
 4.9341   170
 4.9441   187
 4.9541   187
 4.9641   173
 4.9741   147
 4.9841   165
 4.9941   155
 5.0041   123
 5.0141   126
 5.0241   112
 5.0341    89
 5.0441    80
 5.0541    88
 5.0641    98
 5.0741    90
 5.0841    75
 5.0941    77
 5.1041    66
 5.1141    73
 5.1241    98
 5.1341    84
 5.1441    64
 5.1541    76
 5.1641    72
 5.1741    85
 5.1841    65
 5.1941    71
 5.2041    68
 5.2141    93
 5.2241    84
 5.2341    71
 5.2441    81
 5.2541    85
 5.2641    91
 5.2741    97
 5.2841    99
 5.2941   106
 5.3041   101
 5.3141   115
 5.3241   108
 5.3341   136
 5.3441   144
 5.3541   181
 5.3641   202
 5.3741   190
 5.3841   221
 5.3941   222
 5.4041   230
 5.4141   218
 5.4241   248
 5.4341   213
 5.4441   221
 5.4541   194
 5.4641   186
 5.4741   149
 5.4841   155
 5.4941   131
 5.5041   118
 5.5141   121
 5.5241   109
 5.5341   101
 5.5441   110
 5.5541    89
 5.5641    86
 5.5741    99
 5.5841    77
 5.5941    74
 5.6041    96
 5.6141    92
 5.6241    77
 5.6341    82
 5.6441    71
 5.6541    91
 5.6641    83
 5.6741    94
 5.6841   108
 5.6941    93
 5.7041    96
 5.7141    82
 5.7241    85
 5.7341   100
 5.7441    92
 5.7541   100
 5.7641    97
 5.7741   129
 5.7841   133
 5.7941   136
 5.8041   158
 5.8141   157
 5.8241   176
 5.8341   190
 5.8441   225
 5.8541   245
 5.8641   251
 5.8741   268
 5.8841   254
 5.8941   266
 5.9041   293
 5.9141   264
 5.9241   284
 5.9341   263
 5.9441   215
 5.9541   220
 5.9641   214
 5.9741   180
 5.9841   165
 5.9941   155
 6.0041   135
 6.0141   132
 6.0241   127
 6.0341   108
 6.0441   103
 6.0541   110
 6.0641   102
 6.0741   103
 6.0841   118
 6.0941   121
 6.1041   109
 6.1141   125
 6.1241   104
 6.1341   112
 6.1441    97
 6.1541   114
 6.1641   141
 6.1741   125
 6.1841   149
 6.1941   169
 6.2041   192
 6.2141   249
 6.2241   322
 6.2341   399
 6.2441   566
 6.2541   749
 6.2641  1008
 6.2741  1323
 6.2841  1797
 6.2941  2318
 6.3041  3118
 6.3141  3788
 6.3241  4621
 6.3341  5842
 6.3441  6733
 6.3541  7568
 6.3641  8634
 6.3741  9156
 6.3841  9589
 6.3941  9916
 6.4041  9768
 6.4141  9622
 6.4241  8890
 6.4341  8464
 6.4441  7333
 6.4541  6525
 6.4641  5353
 6.4741  4584
 6.4841  3548
 6.4941  2819
 6.5041  2197
 6.5141  1678
 6.5241  1240
 6.5341   900
 6.5441   693
 6.5541   486
 6.5641   323
 6.5741   253
 6.5841   199
 6.5941   201
 6.6041   159
 6.6141   135
 6.6241   147
 6.6341   130
 6.6441   132
 6.6541   137
 6.6641   131
 6.6741   124
 6.6841   121
 6.6941   144
 6.7041   149
 6.7141   154
 6.7241   139
 6.7341   148
 6.7441   114
 6.7541   131
 6.7641   122
 6.7741   125
 6.7841   126
 6.7941   139
 6.8041   144
 6.8141   148
 6.8241   151
 6.8341   172
 6.8441   183
 6.8541   194
 6.8641   207
 6.8741   228
 6.8841   218
 6.8941   259
 6.9041   284
 6.9141   338
 6.9241   378
 6.9341   462
 6.9441   509
 6.9541   641
 6.9641   800
 6.9741   899
 6.9841  1022
 6.9941  1234
 7.0041  1399
 7.0141  1415
 7.0241  1563
 7.0341  1660
 7.0441  1738
 7.0541  1732
 7.0641  1822
 7.0741  1622
 7.0841  1645
 7.0941  1550
 7.1041  1318
 7.1141  1160
 7.1241  1083
 7.1341   833
 7.1441   715
 7.1541   601
 7.1641   514
 7.1741   431
 7.1841   351
 7.1941   304
 7.2041   269
 7.2141   263
 7.2241   250
 7.2341   224
 7.2441   208
 7.2541   196
 7.2641   164
 7.2741   196
 7.2841   211
 7.2941   209
 7.3041   172
 7.3141   220
 7.3241   261
 7.3341   255
 7.3441   292
 7.3541   281
 7.3641   325
 7.3741   328
 7.3841   350
 7.3941   391
 7.4041   393
 7.4141   415
 7.4241   420
 7.4341   446
 7.4441   447
 7.4541   452
 7.4641   475
 7.4741   456
 7.4841   449
 7.4941   380
 7.5041   436
 7.5141   410
 7.5241   404
 7.5341   369
 7.5441   324
 7.5541   304
 7.5641   241
 7.5741   254
 7.5841   237
 7.5941   248
 7.6041   239
 7.6141   243
 7.6241   214
 7.6341   231
 7.6441   214
 7.6541   205
 7.6641   215
 7.6741   200
 7.6841   200
 7.6941   223
 7.7041   214
 7.7141   240
 7.7241   232
 7.7341   232
 7.7441   204
 7.7541   253
 7.7641   211
 7.7741   253
 7.7841   252
 7.7941   275
 7.8041   252
 7.8141   264
 7.8241   261
 7.8341   277
 7.8441   272
 7.8541   255
 7.8641   272
 7.8741   330
 7.8841   307
 7.8941   336
 7.9041   317
 7.9141   343
 7.9241   385
 7.9341   378
 7.9441   416
 7.9541   435
 7.9641   456
 7.9741   520
 7.9841   529
 7.9941   565
 8.0041   598
 8.0141   657
 8.0241   700
 8.0341   785
 8.0441   813
 8.0541   873
 8.0641   975
 8.0741   939
 8.0841  1002
 8.0941  1108
 8.1041  1150
 8.1141  1156
 8.1241  1262
 8.1341  1333
 8.1441  1333
 8.1541  1296
 8.1641  1333
 8.1741  1446
 8.1841  1481
 8.1941  1435
 8.2041  1525
 8.2141  1475
 8.2241  1469
 8.2341  1560
 8.2441  1590
 8.2541  1609
 8.2641  1723
 8.2741  1765
 8.2841  1889
 8.2941  2071
 8.3041  2167
 8.3141  2351
 8.3241  2551
 8.3341  2705
 8.3441  3035
 8.3541  3126
 8.3641  3275
 8.3741  3445
 8.3841  3467
 8.3941  3437
 8.4041  3279
 8.4141  3233
 8.4241  3142
 8.4341  2943
 8.4441  2604
 8.4541  2406
 8.4641  2023
 8.4741  1744
 8.4841  1647
 8.4941  1348
 8.5041  1068
 8.5141   937
 8.5241   860
 8.5341   697
 8.5441   642
 8.5541   593
 8.5641   505
 8.5741   442
 8.5841   430
 8.5941   436
 8.6041   422
 8.6141   423
 8.6241   362
 8.6341   389
 8.6441   392
 8.6541   381
 8.6641   373
 8.6741   381
 8.6841   365
 8.6941   378
 8.7041   373
 8.7141   359
 8.7241   357
 8.7341   349
 8.7441   336
 8.7541   324
 8.7641   351
 8.7741   352
 8.7841   332
 8.7941   352
 8.8041   319
 8.8141   329
 8.8241   299
 8.8341   332
 8.8441   322
 8.8541   332
 8.8641   315
 8.8741   358
 8.8841   327
 8.8941   315
 8.9041   344
 8.9141   345
 8.9241   328
 8.9341   336
 8.9441   361
 8.9541   352
 8.9641   355
 8.9741   359
 8.9841   379
 8.9941   367
 9.0041   381
 9.0141   392
 9.0241   393
 9.0341   414
 9.0441   392
 9.0541   395
 9.0641   428
 9.0741   425
 9.0841   455
 9.0941   514
 9.1041   524
 9.1141   527
 9.1241   502
 9.1341   543
 9.1441   596
 9.1541   574
 9.1641   620
 9.1741   688
 9.1841   755
 9.1941   705
 9.2041   732
 9.2141   805
 9.2241   859
 9.2341   909
 9.2441   950
 9.2541   996
 9.2641  1063
 9.2741  1059
 9.2841  1106
 9.2941  1140
 9.3041  1197
 9.3141  1241
 9.3241  1315
 9.3341  1301
 9.3441  1338
 9.3541  1374
 9.3641  1425
 9.3741  1399
 9.3841  1403
 9.3941  1465
 9.4041  1498
 9.4141  1511
 9.4241  1574
 9.4341  1490
 9.4441  1545
 9.4541  1520
 9.4641  1563
 9.4741  1611
 9.4841  1660
 9.4941  1723
 9.5041  1687
 9.5141  1692
 9.5241  1704
 9.5341  1783
 9.5441  1894
 9.5541  1938
 9.5641  2030
 9.5741  2165
 9.5841  2241
 9.5941  2404
 9.6041  2498
 9.6141  2706
 9.6241  2737
 9.6341  2888
 9.6441  3052
 9.6541  3103
 9.6641  3118
 9.6741  3060
 9.6841  3129
 9.6941  3000
 9.7041  2881
 9.7141  2741
 9.7241  2571
 9.7341  2397
 9.7441  2312
 9.7541  2136
 9.7641  1926
 9.7741  1772
 9.7841  1571
 9.7941  1491
 9.8041  1441
 9.8141  1404
 9.8241  1269
 9.8341  1298
 9.8441  1233
 9.8541  1197
 9.8641  1197
 9.8741  1290
 9.8841  1244
 9.8941  1290
 9.9041  1339
 9.9141  1332
 9.9241  1336
 9.9341  1368
 9.9441  1406
 9.9541  1432
 9.9641  1362
 9.9741  1275
 9.9841  1284
 9.9941  1237
10.0041  1156
10.0141  1066
10.0241   979
10.0341   916
10.0441   812
10.0541   731
10.0641   667
10.0741   587
10.0841   520
10.0941   467
10.1041   412
10.1141   373
10.1241   356
10.1341   333
10.1441   316
10.1541   297
10.1641   291
10.1741   273
10.1841   252
10.1941   257
10.2041   231
10.2141   221
10.2241   213
10.2341   226
10.2441   225
10.2541   208
10.2641   215
10.2741   185
10.2841   182
10.2941   197
10.3041   200
10.3141   178
10.3241   183
10.3341   200
10.3441   205
10.3541   206
10.3641   191
10.3741   177
10.3841   176
10.3941   176
10.4041   163
10.4141   169
10.4241   174
10.4341   179
10.4441   184
10.4541   169
10.4641   174
10.4741   193
10.4841   197
10.4941   196
10.5041   195
10.5141   196
10.5241   207
10.5341   206
10.5441   192
10.5541   215
10.5641   243
10.5741   230
10.5841   221
10.5941   194
10.6041   215
10.6141   198
10.6241   204
10.6341   223
10.6441   224
10.6541   232
10.6641   231
10.6741   215
10.6841   254
10.6941   242
10.7041   261
10.7141   267
10.7241   247
10.7341   248
10.7441   256
10.7541   274
10.7641   286
10.7741   297
10.7841   293
10.7941   302
10.8041   286
10.8141   290
10.8241   305
10.8341   316
10.8441   323
10.8541   318
10.8641   309
10.8741   362
10.8841   358
10.8941   348
10.9041   344
10.9141   341
10.9241   327
10.9341   338
10.9441   349
10.9541   329
10.9641   330
10.9741   332
10.9841   325
10.9941   332
11.0041   342
11.0141   328
11.0241   300
11.0341   309
11.0441   307
11.0541   296
11.0641   291
11.0741   299
11.0841   284
11.0941   284
11.1041   289
11.1141   291
11.1241   287
11.1341   301
11.1441   311
11.1541   296
11.1641   306
11.1741   341
11.1841   325
11.1941   367
11.2041   362
11.2141   388
11.2241   426
11.2341   433
11.2441   449
11.2541   451
11.2641   431
11.2741   443
11.2841   448
11.2941   449
11.3041   428
11.3141   445
11.3241   447
11.3341   414
11.3441   391
11.3541   378
11.3641   338
11.3741   334
11.3841   310
11.3941   310
11.4041   291
11.4141   264
11.4241   248
11.4341   244
11.4441   260
11.4541   241
11.4641   251
11.4741   244
11.4841   218
11.4941   221
11.5041   236
11.5141   236
11.5241   244
11.5341   240
11.5441   220
11.5541   243
11.5641   258
11.5741   232
11.5841   240
11.5941   264
11.6041   247
11.6141   247
11.6241   267
11.6341   246
11.6441   253
11.6541   248
11.6641   258
11.6741   269
11.6841   244
11.6941   239
11.7041   240
11.7141   225
11.7241   203
11.7341   206
11.7441   205
11.7541   191
11.7641   184
11.7741   199
11.7841   198
11.7941   177
11.8041   194
11.8141   199
11.8241   190
11.8341   176
11.8441   182
11.8541   186
11.8641   192
11.8741   193
11.8841   199
11.8941   195
11.9041   182
11.9141   180
11.9241   200
11.9341   186
11.9441   192
11.9541   206
11.9641   178
11.9741   173
11.9841   196
11.9941   200
12.0041   193
12.0141   197
12.0241   189
12.0341   194
12.0441   194
12.0541   194
12.0641   197
12.0741   191
12.0841   190
12.0941   169
12.1041   184
12.1141   182
12.1241   178
12.1341   184
12.1441   178
12.1541   180
12.1641   191
12.1741   189
12.1841   175
12.1941   178
12.2041   166
12.2141   176
12.2241   176
12.2341   164
12.2441   185
12.2541   199
12.2641   169
12.2741   176
12.2841   199
12.2941   201
12.3041   184
12.3141   171
12.3241   175
12.3341   179
12.3441   175
12.3541   178
12.3641   169
12.3741   173
12.3841   170
12.3941   185
12.4041   191
12.4141   182
12.4241   171
12.4341   165
12.4441   195
12.4541   204
12.4641   210
12.4741   206
12.4841   203
12.4941   200
12.5041   197
12.5141   205
12.5241   200
12.5341   194
12.5441   192
12.5541   203
12.5641   209
12.5741   219
12.5841   221
12.5941   201
12.6041   203
12.6141   209
12.6241   208
12.6341   213
12.6441   221
12.6541   223
12.6641   213
12.6741   207
12.6841   207
12.6941   202
12.7041   198
12.7141   213
12.7241   220
12.7341   211
12.7441   204
12.7541   203
12.7641   219
12.7741   213
12.7841   219
12.7941   204
12.8041   188
12.8141   205
12.8241   205
12.8341   208
12.8441   222
12.8541   236
12.8641   236
12.8741   221
12.8841   203
12.8941   201
12.9041   219
12.9141   221
12.9241   199
12.9341   204
12.9441   222
12.9541   219
12.9641   225
12.9741   242
12.9841   233
12.9941   205
13.0041   213
13.0141   225
13.0241   213
13.0341   213
13.0441   224
13.0541   230
13.0641   230
13.0741   230
13.0841   237
13.0941   232
13.1041   211
13.1141   211
13.1241   219
13.1341   213
13.1441   206
13.1541   225
13.1641   248
13.1741   238
13.1841   238
13.1941   244
13.2041   238
13.2141   223
13.2241   229
13.2341   245
13.2441   254
13.2541   250
13.2641   253
13.2741   265
13.2841   264
13.2941   276
13.3041   268
13.3141   259
13.3241   256
13.3341   248
13.3441   252
13.3541   281
13.3641   274
13.3741   270
13.3841   280
13.3941   285
13.4041   286
13.4141   287
13.4241   295
13.4341   301
13.4441   286
13.4541   264
13.4641   264
13.4741   265
13.4841   278
13.4941   269
13.5041   261
13.5141   284
13.5241   282
13.5341   263
13.5441   246
13.5541   245
13.5641   275
13.5741   283
13.5841   259
13.5941   253
13.6041   252
13.6141   255
13.6241   267
13.6341   263
13.6441   256
13.6541   253
13.6641   276
13.6741   277
13.6841   269
13.6941   266
13.7041   274
13.7141   304
13.7241   305
13.7341   285
13.7441   259
13.7541   262
13.7641   279
13.7741   279
13.7841   272
13.7941   261
13.8041   270
13.8141   291
13.8241   280
13.8341   277
13.8441   294
13.8541   293
13.8641   309
13.8741   324
13.8841   304
13.8941   278
13.9041   280
13.9141   298
13.9241   293
13.9341   308
13.9441   310
13.9541   297
13.9641   301
13.9741   310
13.9841   300
13.9941   293
14.0041   321
14.0141   325
14.0241   321
14.0341   339
14.0441   336
14.0541   324
14.0641   334
14.0741   336
14.0841   337
14.0941   356
14.1041   378
14.1141   383
14.1241   370
14.1341   366
14.1441   376
14.1541   378
14.1641   379
14.1741   383
14.1841   394
14.1941   393
14.2041   396
14.2141   393
14.2241   372
14.2341   357
14.2441   345
14.2541   332
14.2641   338
14.2741   355
14.2841   350
14.2941   342
14.3041   333
14.3141   323
14.3241   328
14.3341   313
14.3441   318
14.3541   318
14.3641   315
14.3741   323
14.3841   324
14.3941   310
14.4041   309
14.4141   338
14.4241   320
14.4341   307
14.4441   311
14.4541   331
14.4641   333
14.4741   323
14.4841   341
14.4941   331
14.5041   324
14.5141   321
14.5241   327
14.5341   325
14.5441   326
14.5541   315
14.5641   316
14.5741   322
14.5841   319
14.5941   318
14.6041   324
14.6141   326
14.6241   324
14.6341   348
14.6441   358
14.6541   349
14.6641   336
14.6741   340
14.6841   343
14.6941   343
14.7041   365
14.7141   363
14.7241   364
14.7341   370
14.7441   349
14.7541   350
14.7641   359
14.7741   349
14.7841   353
14.7941   354
14.8041   351
14.8141   365
14.8241   368
14.8341   372
14.8441   385
14.8541   378
14.8641   365
14.8741   387
14.8841   406
14.8941   407
14.9041   386
14.9141   387
14.9241   394
14.9341   409
14.9441   390
14.9541   376
14.9641   399
14.9741   402
14.9841   384
14.9941   393
15.0041   394
15.0141   397
15.0241   409
15.0341   392
15.0441   395
15.0541   396
15.0641   389
15.0741   368
15.0841   358
15.0941   375
15.1041   395
15.1141   382
15.1241   372
15.1341   403
15.1441   409
15.1541   373
15.1641   369
15.1741   379
15.1841   387
15.1941   394
15.2041   381
15.2141   370
15.2241   358
15.2341   381
15.2441   371
15.2541   391
15.2641   411
15.2741   413
15.2841   412
15.2941   385
15.3041   390
15.3141   401
15.3241   413
15.3341   390
15.3441   358
15.3541   374
15.3641   383
15.3741   385
15.3841   384
15.3941   381
15.4041   380
15.4141   417
15.4241   411
15.4341   402
15.4441   414
15.4541   392
15.4641   393
15.4741   410
15.4841   446
15.4941   464
15.5041   473
15.5141   473
15.5241   460
15.5341   510
15.5441   554
15.5541   545
15.5641   602
15.5741   658
15.5841   666
15.5941   742
15.6041   802
15.6141   828
15.6241   875
15.6341   928
15.6441   956
15.6541  1050
15.6641  1195
15.6741  1256
15.6841  1277
15.6941  1329
15.7041  1358
15.7141  1367
15.7241  1452
15.7341  1485
15.7441  1444
15.7541  1495
15.7641  1470
15.7741  1431
15.7841  1408
15.7941  1390
15.8041  1303
15.8141  1231
15.8241  1215
15.8341  1185
15.8441  1090
15.8541  1020
15.8641   974
15.8741   908
15.8841   859
15.8941   809
15.9041   777
15.9141   709
15.9241   627
15.9341   600
15.9441   587
15.9541   552
15.9641   523
15.9741   527
15.9841   509
15.9941   468
16.0041   456
16.0141   466
16.0241   442
16.0341   435
16.0441   461
16.0541   440
16.0641   441
16.0741   440
16.0841   433
16.0941   455
16.1041   449
16.1141   463
16.1241   433
16.1341   443
16.1441   460
16.1541   423
16.1641   433
16.1741   456
16.1841   465
16.1941   465
16.2041   439
16.2141   422
16.2241   437
16.2341   455
16.2441   458
16.2541   505
16.2641   479
16.2741   441
16.2841   466
16.2941   476
16.3041   459
16.3141   444
16.3241   418
16.3341   436
16.3441   464
16.3541   453
16.3641   465
16.3741   464
16.3841   479
16.3941   474
16.4041   469
16.4141   456
16.4241   467
16.4341   474
16.4441   469
16.4541   455
16.4641   470
16.4741   445
16.4841   445
16.4941   435
16.5041   483
16.5141   476
16.5241   489
16.5341   493
16.5441   507
16.5541   494
16.5641   503
16.5741   501
16.5841   478
16.5941   485
16.6041   521
16.6141   506
16.6241   507
16.6341   498
16.6441   505
16.6541   509
16.6641   502
16.6741   495
16.6841   467
16.6941   505
16.7041   517
16.7141   515
16.7241   517
16.7341   505
16.7441   496
16.7541   534
16.7641   510
16.7741   484
16.7841   485
16.7941   506
16.8041   492
16.8141   483
16.8241   492
16.8341   465
16.8441   497
16.8541   491
16.8641   473
16.8741   485
16.8841   501
16.8941   521
16.9041   501
16.9141   470
16.9241   476
16.9341   459
16.9441   494
16.9541   496
16.9641   474
16.9741   497
16.9841   485
16.9941   491
17.0041   497
17.0141   499
17.0241   494
17.0341   483
17.0441   523
17.0541   513
17.0641   517
17.0741   519
17.0841   519
17.0941   492
17.1041   511
17.1141   511
17.1241   524
17.1341   507
17.1441   511
17.1541   495
17.1641   499
17.1741   511
17.1841   498
17.1941   508
17.2041   499
17.2141   504
17.2241   513
17.2341   545
17.2441   524
17.2541   517
17.2641   529
17.2741   519
17.2841   550
17.2941   547
17.3041   537
17.3141   534
17.3241   539
17.3341   546
17.3441   545
17.3541   526
17.3641   546
17.3741   528
17.3841   557
17.3941   555
17.4041   541
17.4141   505
17.4241   524
17.4341   583
17.4441   592
17.4541   568
17.4641   568
17.4741   550
17.4841   552
17.4941   567
17.5041   593
17.5141   597
17.5241   598
17.5341   628
17.5441   657
17.5541   615
17.5641   617
17.5741   646
17.5841   699
17.5941   672
17.6041   687
17.6141   690
17.6241   673
17.6341   694
17.6441   709
17.6541   720
17.6641   697
17.6741   723
17.6841   713
17.6941   685
17.7041   700
17.7141   704
17.7241   714
17.7341   704
17.7441   688
17.7541   683
17.7641   665
17.7741   623
17.7841   639
17.7941   623
17.8041   634
17.8141   622
17.8241   596
17.8341   593
17.8441   600
17.8541   570
17.8641   573
17.8741   571
17.8841   553
17.8941   575
17.9041   567
17.9141   579
17.9241   569
17.9341   556
17.9441   569
17.9541   569
17.9641   577
17.9741   596
17.9841   594
17.9941   589
18.0041   556
18.0141   532
18.0241   565
18.0341   597
18.0441   560
18.0541   564
18.0641   572
18.0741   567
18.0841   559
18.0941   543
18.1041   572
18.1141   518
18.1241   555
18.1341   562
18.1441   558
18.1541   542
18.1641   569
18.1741   578
18.1841   565
18.1941   566
18.2041   569
18.2141   553
18.2241   551
18.2341   551
18.2441   549
18.2541   564
18.2641   564
18.2741   562
18.2841   565
18.2941   591
18.3041   592
18.3141   569
18.3241   564
18.3341   586
18.3441   569
18.3541   557
18.3641   574
18.3741   580
18.3841   558
18.3941   525
18.4041   580
18.4141   563
18.4241   553
18.4341   556
18.4441   562
18.4541   567
18.4641   555
18.4741   578
18.4841   555
18.4941   570
18.5041   601
18.5141   567
18.5241   573
18.5341   590
18.5441   601
18.5541   590
18.5641   584
18.5741   606
18.5841   577
18.5941   585
18.6041   591
18.6141   589
18.6241   550
18.6341   558
18.6441   546
18.6541   573
18.6641   604
18.6741   601
18.6841   556
18.6941   597
18.7041   575
18.7141   592
18.7241   609
18.7341   612
18.7441   604
18.7541   606
18.7641   574
18.7741   572
18.7841   590
18.7941   570
18.8041   585
18.8141   587
18.8241   557
18.8341   607
18.8441   569
18.8541   569
18.8641   603
18.8741   546
18.8841   590
18.8941   583
18.9041   595
18.9141   618
18.9241   557
18.9341   570
18.9441   585
18.9541   588
18.9641   579
18.9741   596
18.9841   612
18.9941   601
19.0041   575
19.0141   558
19.0241   585
19.0341   565
19.0441   567
19.0541   591
19.0641   559
19.0741   596
19.0841   633
19.0941   579
19.1041   560
19.1141   563
19.1241   552
19.1341   584
19.1441   553
19.1541   606
19.1641   601
19.1741   584
19.1841   560
19.1941   594
19.2041   596
19.2141   557
19.2241   629
19.2341   629
19.2441   582
19.2541   596
19.2641   595
19.2741   591
19.2841   574
19.2941   568
19.3041   582
19.3141   545
19.3241   571
19.3341   608
19.3441   562
19.3541   619
19.3641   584
19.3741   567
19.3841   567
19.3941   561
19.4041   542
19.4141   555
19.4241   607
19.4341   570
19.4441   593
19.4541   574
19.4641   552
19.4741   560
19.4841   562
19.4941   596
19.5041   616
19.5141   586
19.5241   558
19.5341   594
19.5441   607
19.5541   619
19.5641   586
19.5741   594
19.5841   568
19.5941   577
19.6041   604
19.6141   603
19.6241   604
19.6341   597
19.6441   577
19.6541   578
19.6641   599
19.6741   602
19.6841   597
19.6941   599
19.7041   627
19.7141   569
19.7241   558
19.7341   582
19.7441   547
19.7541   617
19.7641   606
19.7741   586
19.7841   587
19.7941   577
19.8041   570
19.8141   558
19.8241   551
19.8341   577
19.8441   611
19.8541   623
19.8641   598
19.8741   611
19.8841   585
19.8941   620
19.9041   580
19.9141   591
19.9241   574
19.9341   592
19.9441   584
19.9541   560
19.9641   591
19.9741   590
19.9841   599
19.9941   579
20.0041   587
20.0141   600
20.0241   559
20.0341   574
20.0441   608
20.0541   597
20.0641   587
20.0741   581
20.0841   581
20.0941   573
20.1041   632
20.1141   629
20.1241   594
20.1341   589
20.1441   582
20.1541   585
20.1641   558
20.1741   601
20.1841   607
20.1941   571
20.2041   572
20.2141   549
20.2241   564
20.2341   601
20.2441   595
20.2541   624
20.2641   621
20.2741   604
20.2841   583
20.2941   631
20.3041   607
20.3141   624
20.3241   594
20.3341   580
20.3441   609
20.3541   577
20.3641   562
20.3741   580
20.3841   611
20.3941   582
20.4041   563
20.4141   617
20.4241   595
20.4341   640
20.4441   606
20.4541   604
20.4641   595
20.4741   568
20.4841   591
20.4941   584
20.5041   600
20.5141   593
20.5241   610
20.5341   596
20.5441   622
20.5541   599
20.5641   537
20.5741   577
20.5841   647
20.5941   551
20.6041   606
20.6141   593
20.6241   587
20.6341   608
20.6441   592
20.6541   640
20.6641   543
20.6741   594
20.6841   616
20.6941   625
20.7041   561
20.7141   578
20.7241   592
20.7341   642
20.7441   588
20.7541   567
20.7641   565
20.7741   604
20.7841   604
20.7941   603
20.8041   593
20.8141   596
20.8241   615
20.8341   558
20.8441   595
20.8541   630
20.8641   670
20.8741   615
20.8841   630
20.8941   632
20.9041   641
20.9141   633
20.9241   651
20.9341   665
20.9441   676
20.9541   686
20.9641   691
20.9741   751
20.9841   740
20.9941   744
21.0041   723
21.0141   756
21.0241   814
21.0341   775
21.0441   812
21.0541   793
21.0641   735
21.0741   776
21.0841   821
21.0941   803
21.1041   822
21.1141   836
21.1241   833
21.1341   833
21.1441   753
21.1541   783
21.1641   810
21.1741   775
21.1841   821
21.1941   784
21.2041   770
21.2141   770
21.2241   730
21.2341   728
21.2441   708
21.2541   721
21.2641   672
21.2741   671
21.2841   676
21.2941   656
21.3041   682
21.3141   685
21.3241   657
21.3341   647
21.3441   646
21.3541   620
21.3641   616
21.3741   630
21.3841   612
21.3941   597
21.4041   592
21.4141   571
21.4241   572
21.4341   604
21.4441   608
21.4541   624
21.4641   588
21.4741   566
21.4841   591
21.4941   559
21.5041   593
21.5141   570
21.5241   589
21.5341   560
21.5441   561
21.5541   565
21.5641   560
21.5741   575
21.5841   601
21.5941   593
21.6041   595
21.6141   624
21.6241   551
21.6341   571
21.6441   572
21.6541   598
21.6641   586
21.6741   584
21.6841   578
21.6941   577
21.7041   618
21.7141   572
21.7241   589
21.7341   615
21.7441   586
21.7541   581
21.7641   599
21.7741   561
21.7841   559
21.7941   574
21.8041   585
21.8141   533
21.8241   577
21.8341   577
21.8441   593
21.8541   580
21.8641   556
21.8741   540
21.8841   564
21.8941   578
21.9041   576
21.9141   535
21.9241   588
21.9341   589
21.9441   565
21.9541   580
21.9641   574
21.9741   582
21.9841   567
21.9941   532
22.0041   586
22.0141   567
22.0241   572
22.0341   570
22.0441   508
22.0541   587
22.0641   571
22.0741   539
22.0841   571
22.0941   577
22.1041   543
22.1141   583
22.1241   544
22.1341   538
22.1441   530
22.1541   547
22.1641   590
22.1741   584
22.1841   549
22.1941   505
22.2041   537
22.2141   559
22.2241   558
22.2341   571
22.2441   592
22.2541   566
22.2641   548
22.2741   537
22.2841   528
22.2941   537
22.3041   576
22.3141   583
22.3241   555
22.3341   583
22.3441   543
22.3541   535
22.3641   506
22.3741   562
22.3841   558
22.3941   568
22.4041   535
22.4141   546
22.4241   535
22.4341   553
22.4441   543
22.4541   538
22.4641   609
22.4741   572
22.4841   561
22.4941   569
22.5041   562
22.5141   553
22.5241   533
22.5341   543
22.5441   549
22.5541   529
22.5641   521
22.5741   535
22.5841   507
22.5941   566
22.6041   540
22.6141   564
22.6241   565
22.6341   552
22.6441   550
22.6541   563
22.6641   527
22.6741   543
22.6841   573
22.6941   562
22.7041   522
22.7141   546
22.7241   549
22.7341   545
22.7441   552
22.7541   539
22.7641   560
22.7741   584
22.7841   528
22.7941   565
22.8041   564
22.8141   569
22.8241   543
22.8341   545
22.8441   519
22.8541   534
22.8641   518
22.8741   566
22.8841   529
22.8941   515
22.9041   531
22.9141   540
22.9241   513
22.9341   522
22.9441   532
22.9541   511
22.9641   541
22.9741   548
22.9841   533
22.9941   500
23.0041   523
23.0141   555
23.0241   582
23.0341   543
23.0441   520
23.0541   544
23.0641   529
23.0741   543
23.0841   553
23.0941   529
23.1041   505
23.1141   538
23.1241   598
23.1341   545
23.1441   544
23.1541   576
23.1641   523
23.1741   518
23.1841   540
23.1941   538
23.2041   502
23.2141   545
23.2241   520
23.2341   547
23.2441   508
23.2541   514
23.2641   487
23.2741   518
23.2841   531
23.2941   484
23.3041   560
23.3141   532
23.3241   524
23.3341   541
23.3441   528
23.3541   559
23.3641   532
23.3741   555
23.3841   519
23.3941   502
23.4041   465
23.4141   516
23.4241   550
23.4341   508
23.4441   526
23.4541   496
23.4641   518
23.4741   522
23.4841   550
23.4941   516
23.5041   520
23.5141   550
23.5241   486
23.5341   544
23.5441   494
23.5541   523
23.5641   537
23.5741   520
23.5841   541
23.5941   505
23.6041   533
23.6141   517
23.6241   510
23.6341   544
23.6441   518
23.6541   532
23.6641   548
23.6741   521
23.6841   534
23.6941   540
23.7041   543
23.7141   514
23.7241   545
23.7341   571
23.7441   581
23.7541   579
23.7641   563
23.7741   549
23.7841   535
23.7941   557
23.8041   548
23.8141   572
23.8241   474
23.8341   515
23.8441   545
23.8541   561
23.8641   529
23.8741   521
23.8841   564
23.8941   556
23.9041   537
23.9141   543
23.9241   532
23.9341   534
23.9441   492
23.9541   513
23.9641   523
23.9741   506
23.9841   522
23.9941   497
24.0041   470
24.0141   490
24.0241   507
24.0341   518
24.0441   479
24.0541   534
24.0641   488
24.0741   450
24.0841   510
24.0941   521
24.1041   498
24.1141   508
24.1241   478
24.1341   498
24.1441   510
24.1541   507
24.1641   531
24.1741   475
24.1841   458
24.1941   442
24.2041   444
24.2141   463
24.2241   451
24.2341   518
24.2441   490
24.2541   464
24.2641   513
24.2741   525
24.2841   473
24.2941   490
24.3041   498
24.3141   506
24.3241   454
24.3341   509
24.3441   480
24.3541   475
24.3641   476
24.3741   459
24.3841   446
24.3941   443
24.4041   507
24.4141   484
24.4241   479
24.4341   488
24.4441   507
24.4541   499
24.4641   474
24.4741   477
24.4841   491
24.4941   497
24.5041   481
24.5141   448
24.5241   485
24.5341   468
24.5441   480
24.5541   486
24.5641   515
24.5741   442
24.5841   486
24.5941   474
24.6041   490
24.6141   483
24.6241   479
24.6341   447
24.6441   477
24.6541   450
24.6641   484
24.6741   445
24.6841   435
24.6941   467
24.7041   490
24.7141   473
24.7241   454
24.7341   458
24.7441   504
24.7541   455
24.7641   470
24.7741   448
24.7841   440
24.7941   423
24.8041   497
24.8141   460
24.8241   444
24.8341   441
24.8441   484
24.8541   463
24.8641   457
24.8741   418
24.8841   416
24.8941   480
24.9041   431
24.9141   419
24.9241   464
24.9341   446
24.9441   459
24.9541   455
24.9641   443
24.9741   469
24.9841   444
24.9941   446
25.0041   483
25.0141   447
25.0241   463
25.0341   466
25.0441   474
25.0541   474
25.0641   468
25.0741   410
25.0841   472
25.0941   486
25.1041   423
25.1141   467
25.1241   417
25.1341   444
25.1441   446
25.1541   466
25.1641   462
25.1741   466
25.1841   441
25.1941   433
25.2041   419
25.2141   414
25.2241   455
25.2341   450
25.2441   425
25.2541   444
25.2641   449
25.2741   424
25.2841   480
25.2941   471
25.3041   437
25.3141   432
25.3241   485
25.3341   440
25.3441   464
25.3541   437
25.3641   411
25.3741   401
25.3841   440
25.3941   446
25.4041   445
25.4141   442
25.4241   442
25.4341   471
25.4441   470
25.4541   440
25.4641   451
25.4741   432
25.4841   435
25.4941   432
25.5041   445
25.5141   432
25.5241   429
25.5341   430
25.5441   436
25.5541   472
25.5641   446
25.5741   423
25.5841   429
25.5941   387
25.6041   429
25.6141   413
25.6241   400
25.6341   447
25.6441   394
25.6541   417
25.6641   403
25.6741   421
25.6841   412
25.6941   410
25.7041   430
25.7141   412
25.7241   416
25.7341   398
25.7441   424
25.7541   416
25.7641   397
25.7741   412
25.7841   430
25.7941   388
25.8041   422
25.8141   400
25.8241   420
25.8341   420
25.8441   422
25.8541   437
25.8641   415
25.8741   415
25.8841   402
25.8941   426
25.9041   398
25.9141   404
25.9241   436
25.9341   398
25.9441   397
25.9541   426
25.9641   425
25.9741   374
25.9841   412
25.9941   437
26.0041   401
26.0141   391
26.0241   386
26.0341   384
26.0441   415
26.0541   451
26.0641   402
26.0741   388
26.0841   390
26.0941   397
26.1041   443
26.1141   404
26.1241   384
26.1341   383
26.1441   411
26.1541   376
26.1641   406
26.1741   399
26.1841   412
26.1941   437
26.2041   382
26.2141   400
26.2241   396
26.2341   382
26.2441   373
26.2541   406
26.2641   399
26.2741   394
26.2841   396
26.2941   365
26.3041   426
26.3141   385
26.3241   393
26.3341   416
26.3441   396
26.3541   370
26.3641   361
26.3741   385
26.3841   384
26.3941   379
26.4041   381
26.4141   366
26.4241   369
26.4341   398
26.4441   434
26.4541   390
26.4641   358
26.4741   394
26.4841   385
26.4941   388
26.5041   419
26.5141   375
26.5241   396
26.5341   381
26.5441   379
26.5541   367
26.5641   345
26.5741   374
26.5841   368
26.5941   373
26.6041   379
26.6141   385
26.6241   352
26.6341   375
26.6441   372
26.6541   367
26.6641   364
26.6741   344
26.6841   374
26.6941   367
26.7041   338
26.7141   372
26.7241   380
26.7341   371
26.7441   376
26.7541   352
26.7641   383
26.7741   352
26.7841   362
26.7941   361
26.8041   380
26.8141   378
26.8241   326
26.8341   374
26.8441   375
26.8541   374
26.8641   352
26.8741   348
26.8841   369
26.8941   336
26.9041   357
26.9141   377
26.9241   326
26.9341   329
26.9441   366
26.9541   351
26.9641   382
26.9741   348
26.9841   366
26.9941   353
27.0041   370
27.0141   335
27.0241   330
27.0341   343
27.0441   355
27.0541   345
27.0641   386
27.0741   362
27.0841   365
27.0941   364
27.1041   369
27.1141   356
27.1241   357
27.1341   352
27.1441   348
27.1541   361
27.1641   333
27.1741   347
27.1841   375
27.1941   345
27.2041   332
27.2141   347
27.2241   338
27.2341   339
27.2441   337
27.2541   355
27.2641   364
27.2741   360
27.2841   358
27.2941   365
27.3041   344
27.3141   335
27.3241   336
27.3341   325
27.3441   350
27.3541   354
27.3641   370
27.3741   338
27.3841   346
27.3941   342
27.4041   352
27.4141   320
27.4241   354
27.4341   330
27.4441   333
27.4541   339
27.4641   355
27.4741   361
27.4841   337
27.4941   318
27.5041   340
27.5141   353
27.5241   326
27.5341   357
27.5441   344
27.5541   333
27.5641   340
27.5741   376
27.5841   318
27.5941   310
27.6041   361
27.6141   334
27.6241   335
27.6341   333
27.6441   322
27.6541   354
27.6641   334
27.6741   340
27.6841   318
27.6941   369
27.7041   329
27.7141   330
27.7241   354
27.7341   351
27.7441   341
27.7541   316
27.7641   348
27.7741   329
27.7841   324
27.7941   325
27.8041   333
27.8141   340
27.8241   285
27.8341   333
27.8441   340
27.8541   336
27.8641   376
27.8741   357
27.8841   313
27.8941   353
27.9041   321
27.9141   315
27.9241   321
27.9341   302
27.9441   319
27.9541   297
27.9641   297
27.9741   335
27.9841   330
27.9941   319
28.0041   274
28.0141   313
28.0241   303
28.0341   327
28.0441   311
28.0541   344
28.0641   318
28.0741   306
28.0841   317
28.0941   304
28.1041   291
28.1141   296
28.1241   315
28.1341   298
28.1441   302
28.1541   309
28.1641   330
28.1741   308
28.1841   304
28.1941   317
28.2041   314
28.2141   345
28.2241   293
28.2341   312
28.2441   324
28.2541   297
28.2641   305
28.2741   297
28.2841   289
28.2941   297
28.3041   320
28.3141   317
28.3241   289
28.3341   291
28.3441   315
28.3541   322
28.3641   306
28.3741   289
28.3841   336
28.3941   298
28.4041   294
28.4141   295
28.4241   303
28.4341   321
28.4441   311
28.4541   277
28.4641   298
28.4741   318
28.4841   298
28.4941   299
28.5041   285
28.5141   297
28.5241   327
28.5341   315
28.5441   304
28.5541   294
28.5641   276
28.5741   302
28.5841   320
28.5941   300
28.6041   291
28.6141   269
28.6241   280
28.6341   298
28.6441   288
28.6541   306
28.6641   272
28.6741   251
28.6841   301
28.6941   287
28.7041   266
28.7141   302
28.7241   291
28.7341   308
28.7441   268
28.7541   292
28.7641   294
28.7741   284
28.7841   281
28.7941   243
28.8041   254
28.8141   247
28.8241   286
28.8341   304
28.8441   295
28.8541   289
28.8641   269
28.8741   285
28.8841   275
28.8941   253
28.9041   297
28.9141   301
28.9241   253
28.9341   302
28.9441   262
28.9541   294
28.9641   271
28.9741   294
28.9841   274
28.9941   250
29.0041   301
29.0141   266
29.0241   268
29.0341   259
29.0441   254
29.0541   286
29.0641   282
29.0741   261
29.0841   267
29.0941   256
29.1041   273
29.1141   245
29.1241   256
29.1341   257
29.1441   267
29.1541   265
29.1641   253
29.1741   271
29.1841   245
29.1941   270
29.2041   277
29.2141   268
29.2241   282
29.2341   254
29.2441   260
29.2541   249
29.2641   272
29.2741   277
29.2841   272
29.2941   274
29.3041   238
29.3141   253
29.3241   247
29.3341   249
29.3441   264
29.3541   276
29.3641   268
29.3741   227
29.3841   272
29.3941   265
29.4041   254
29.4141   251
29.4241   270
29.4341   261
29.4441   263
29.4541   296
29.4641   267
29.4741   259
29.4841   234
29.4941   251
29.5041   242
29.5141   260
29.5241   262
29.5341   279
29.5441   251
29.5541   223
29.5641   256
29.5741   245
29.5841   261
29.5941   253
29.6041   246
29.6141   218
29.6241   272
29.6341   251
29.6441   259
29.6541   228
29.6641   238
29.6741   269
29.6841   229
29.6941   221
29.7041   220
29.7141   256
29.7241   230
29.7341   230
29.7441   227
29.7541   231
29.7641   256
29.7741   220
29.7841   262
29.7941   283
29.8041   233
29.8141   243
29.8241   213
29.8341   241
29.8441   231
29.8541   219
29.8641   234
29.8741   240
29.8841   241
29.8941   260
29.9041   247
29.9141   245
29.9241   257
29.9341   248
29.9441   240
29.9541   215
29.9641   257
29.9741   245
29.9841   238
29.9941   250
30.0041   235
30.0141   238
30.0241   225
30.0341   215
30.0441   222
30.0541   246
30.0641   262
30.0741   220
30.0841   234
30.0941   251
30.1041   227
30.1141   224
30.1241   212
30.1341   222
30.1441   223
30.1541   253
30.1641   237
30.1741   221
30.1841   228
30.1941   236
30.2041   220
30.2141   227
30.2241   235
30.2341   221
30.2441   237
30.2541   235
30.2641   232
30.2741   219
30.2841   227
30.2941   234
30.3041   240
30.3141   209
30.3241   212
30.3341   223
30.3441   204
30.3541   205
30.3641   185
30.3741   229
30.3841   238
30.3941   247
30.4041   228
30.4141   253
30.4241   214
30.4341   198
30.4441   211
30.4541   193
30.4641   207
30.4741   209
30.4841   226
30.4941   211
30.5041   209
30.5141   204
30.5241   220
30.5341   210
30.5441   209
30.5541   221
30.5641   210
30.5741   226
30.5841   210
30.5941   233
30.6041   232
30.6141   238
30.6241   229
30.6341   234
30.6441   236
30.6541   222
30.6641   236
30.6741   215
30.6841   214
30.6941   203
30.7041   209
30.7141   213
30.7241   220
30.7341   214
30.7441   205
30.7541   220
30.7641   196
30.7741   231
30.7841   181
30.7941   206
30.8041   238
30.8141   197
30.8241   207
30.8341   231
30.8441   196
30.8541   210
30.8641   197
30.8741   219
30.8841   199
30.8941   216
30.9041   182
30.9141   209
30.9241   221
30.9341   194
30.9441   229
30.9541   199
30.9641   198
30.9741   183
30.9841   194
30.9941   207
31.0041   180
31.0141   192
31.0241   210
31.0341   185
31.0441   209
31.0541   210
31.0641   174
31.0741   202
31.0841   179
31.0941   194
31.1041   208
31.1141   178
31.1241   194
31.1341   198
31.1441   197
31.1541   200
31.1641   196
31.1741   204
31.1841   203
31.1941   194
31.2041   200
31.2141   175
31.2241   180
31.2341   212
31.2441   171
31.2541   203
31.2641   206
31.2741   187
31.2841   205
31.2941   189
31.3041   199
31.3141   184
31.3241   192
31.3341   177
31.3441   165
31.3541   192
31.3641   222
31.3741   199
31.3841   200
31.3941   195
31.4041   190
31.4141   210
31.4241   174
31.4341   216
31.4441   193
31.4541   191
31.4641   185
31.4741   212
31.4841   165
31.4941   203
31.5041   193
31.5141   183
31.5241   188
31.5341   180
31.5441   177
31.5541   195
31.5641   204
31.5741   202
31.5841   153
31.5941   176
31.6041   173
31.6141   173
31.6241   187
31.6341   183
31.6441   190
31.6541   186
31.6641   173
31.6741   196
31.6841   185
31.6941   191
31.7041   194
31.7141   189
31.7241   192
31.7341   168
31.7441   176
31.7541   190
31.7641   173
31.7741   163
31.7841   164
31.7941   198
31.8041   185
31.8141   185
31.8241   154
31.8341   177
31.8441   169
31.8541   188
31.8641   198
31.8741   179
31.8841   192
31.8941   180
31.9041   199
31.9141   182
31.9241   167
31.9341   184
31.9441   170
31.9541   170
31.9641   174
31.9741   180
31.9841   179
31.9941   167
32.0041   171
32.0141   144
32.0241   179
32.0341   186
32.0441   168
32.0541   166
32.0641   159
32.0741   191
32.0841   156
32.0941   176
32.1041   198
32.1141   174
32.1241   154
32.1341   178
32.1441   155
32.1541   172
32.1641   174
32.1741   183
32.1841   162
32.1941   161
32.2041   155
32.2141   179
32.2241   167
32.2341   154
32.2441   151
32.2541   145
32.2641   192
32.2741   181
32.2841   169
32.2941   153
32.3041   164
32.3141   154
32.3241   180
32.3341   180
32.3441   179
32.3541   146
32.3641   146
32.3741   156
32.3841   164
32.3941   148
32.4041   153
32.4141   173
32.4241   156
32.4341   157
32.4441   162
32.4541   178
32.4641   164
32.4741   153
32.4841   163
32.4941   143
32.5041   141
32.5141   143
32.5241   143
32.5341   149
32.5441   142
32.5541   145
32.5641   179
32.5741   144
32.5841   133
32.5941   150
32.6041   153
32.6141   155
32.6241   169
32.6341   149
32.6441   145
32.6541   127
32.6641   157
32.6741   158
32.6841   148
32.6941   141
32.7041   158
32.7141   135
32.7241   133
32.7341   152
32.7441   145
32.7541   153
32.7641   144
32.7741   139
32.7841   167
32.7941   164
32.8041   140
32.8141   158
32.8241   147
32.8341   141
32.8441   148
32.8541   147
32.8641   129
32.8741   133
32.8841   162
32.8941   143
32.9041   150
32.9141   134
32.9241   140
32.9341   121
32.9441   142
32.9541   134
32.9641   132
32.9741   125
32.9841   133
32.9941   141
33.0041   139
33.0141   137
33.0241   158
33.0341   138
33.0441   119
33.0541   149
33.0641   163
33.0741   137
33.0841   165
33.0941   134
33.1041   129
33.1141   133
33.1241   142
33.1341   131
33.1441   133
33.1541   144
33.1641   144
33.1741   144
33.1841   122
33.1941   148
33.2041   149
33.2141   126
33.2241   140
33.2341   149
33.2441   129
33.2541   151
33.2641   115
33.2741   132
33.2841   143
33.2941   133
33.3041   127
33.3141   147
33.3241   138
33.3341   131
33.3441   125
33.3541   144
33.3641   123
33.3741   133
33.3841   114
33.3941   119
33.4041   127
33.4141   160
33.4241   126
33.4341   134
33.4441   112
33.4541   139
33.4641   137
33.4741   137
33.4841   134
33.4941   135
33.5041   116
33.5141   141
33.5241   137
33.5341   125
33.5441   123
33.5541   135
33.5641   134
33.5741   142
33.5841   107
33.5941   135
33.6041   113
33.6141   125
33.6241   112
33.6341   118
33.6441   138
33.6541   140
33.6641   128
33.6741   108
33.6841   125
33.6941   123
33.7041   111
33.7141   116
33.7241   132
33.7341   121
33.7441   121
33.7541   134
33.7641   124
33.7741   133
33.7841   113
33.7941   120
33.8041   111
33.8141   139
33.8241   125
33.8341   115
33.8441   121
33.8541   121
33.8641   125
33.8741   119
33.8841   105
33.8941   125
33.9041   129
33.9141   125
33.9241   133
33.9341   115
33.9441   125
33.9541   134
33.9641   122
33.9741   123
33.9841   103
33.9941    95
34.0041   117
34.0141   121
34.0241   123
34.0341   125
34.0441   117
34.0541   109
34.0641   107
34.0741   126
34.0841   117
34.0941   114
34.1041   106
34.1141   115
34.1241   121
34.1341   129
34.1441   112
34.1541   118
34.1641   121
34.1741   119
34.1841   112
34.1941   106
34.2041   125
34.2141   128
34.2241   107
34.2341   104
34.2441   103
34.2541   108
34.2641   103
34.2741   113
34.2841   112
34.2941   105
34.3041    99
34.3141   109
34.3241   109
34.3341   100
34.3441   104
34.3541   109
34.3641   109
34.3741   120
34.3841   111
34.3941   105
34.4041   104
34.4141   119
34.4241    98
34.4341   105
34.4441    88
34.4541    90
34.4641    96
34.4741    96
34.4841    86
34.4941   112
34.5041   109
34.5141   102
34.5241   103
34.5341   107
34.5441   124
34.5541   103
34.5641   108
34.5741    94
34.5841   101
34.5941    94
34.6041   106
34.6141   115
34.6241   112
34.6341   104
34.6441    83
34.6541   100
34.6641   101
34.6741   100
34.6841   106
34.6941   100
34.7041   115
34.7141   112
34.7241   108
34.7341   101
34.7441    97
34.7541   123
34.7641   114
34.7741   103
34.7841   101
34.7941    95
34.8041   102
34.8141   103
34.8241   102
34.8341   103
34.8441    92
34.8541   125
34.8641   105
34.8741   106
34.8841   100
34.8941   108
34.9041   111
34.9141    86
34.9241    93
34.9341   115
34.9441    93
34.9541   104
34.9641   103
34.9741   106
34.9841    88
34.9941   104
35.0041   101
35.0141    91
35.0241    96
35.0341    92
35.0441    84
35.0541    92
35.0641   100
35.0741    96
35.0841   104
35.0941   101
35.1041    78
35.1141    96
35.1241    90
35.1341   100
35.1441    93
35.1541    88
35.1641    90
35.1741    96
35.1841    96
35.1941    93
35.2041    94
35.2141   103
35.2241   108
35.2341    85
35.2441    95
35.2541    80
35.2641    99
35.2741    80
35.2841   104
35.2941   117
35.3041    86
35.3141    85
35.3241    89
35.3341    94
35.3441   103
35.3541   106
35.3641    97
35.3741    94
35.3841    98
35.3941   112
35.4041    99
35.4141    84
35.4241   100
35.4341    85
35.4441    98
35.4541    91
35.4641    91
35.4741    97
35.4841    91
35.4941    79
35.5041    80
35.5141    87
35.5241    85
35.5341    90
35.5441    86
35.5541    89
35.5641    95
35.5741    79
35.5841    72
35.5941    90
35.6041    87
35.6141    85
35.6241    87
35.6341    71
35.6441    93
35.6541    77
35.6641    69
35.6741    74
35.6841    79
35.6941    89
35.7041    90
35.7141    99
35.7241    73
35.7341    90
35.7441    77
35.7541    81
35.7641    82
35.7741    71
35.7841    81
35.7941    85
35.8041    87
35.8141    73
35.8241    72
35.8341    75
35.8441    82
35.8541    95
35.8641    83
35.8741    82
35.8841    79
35.8941    70
35.9041    87
35.9141    78
35.9241    79
35.9341    69
35.9441    60
35.9541    85
35.9641    79
35.9741    78
35.9841    84
35.9941    66
36.0041    71
36.0141    69
36.0241    71
36.0341    80
36.0441    75
36.0541    63
36.0641    78
36.0741    72
36.0841    73
36.0941    72
36.1041    80
36.1141    72
36.1241    64
36.1341    67
36.1441    71
36.1541    79
36.1641    87
36.1741    76
36.1841    62
36.1941    87
36.2041    74
36.2141    83
36.2241    98
36.2341    64
36.2441    68
36.2541    77
36.2641    75
36.2741    67
36.2841    75
36.2941    80
36.3041    72
36.3141    79
36.3241    82
36.3341    84
36.3441    87
36.3541    76
36.3641    78
36.3741    80
36.3841    79
36.3941    79
36.4041    85
36.4141    67
36.4241    78
36.4341    71
36.4441    67
36.4541    76
36.4641    70
36.4741    69
36.4841    79
36.4941    72
36.5041    74
36.5141    76
36.5241    72
36.5341    73
36.5441    67
36.5541    64
36.5641    75
36.5741    54
36.5841    62
36.5941    69
36.6041    72
36.6141    65
36.6241    67
36.6341    59
36.6441    65
36.6541    66
36.6641    60
36.6741    71
36.6841    64
36.6941    64
36.7041    74
36.7141    67
36.7241    67
36.7341    55
36.7441    73
36.7541    73
36.7641    71
36.7741    60
36.7841    75
36.7941    66
36.8041    67
36.8141    49
36.8241    58
36.8341    76
36.8441    65
36.8541    65
36.8641    63
36.8741    68
36.8841    60
36.8941    66
36.9041    78
36.9141    59
36.9241    60
36.9341    76
36.9441    63
36.9541    59
36.9641    59
36.9741    65
36.9841    62
36.9941    70
37.0041    55
37.0141    57
37.0241    66
37.0341    71
37.0441    70
37.0541    53
37.0641    51
37.0741    49
37.0841    64
37.0941    54
37.1041    45
37.1141    59
37.1241    59
37.1341    59
37.1441    52
37.1541    60
37.1641    64
37.1741    59
37.1841    63
37.1941    70
37.2041    59
37.2141    68
37.2241    63
37.2341    54
37.2441    70
37.2541    60
37.2641    59
37.2741    58
37.2841    60
37.2941    51
37.3041    58
37.3141    54
37.3241    67
37.3341    61
37.3441    52
37.3541    54
37.3641    51
37.3741    54
37.3841    45
37.3941    48
37.4041    47
37.4141    54
37.4241    54
37.4341    61
37.4441    50
37.4541    52
37.4641    57
37.4741    55
37.4841    32
37.4941    52
37.5041    60
37.5141    52
37.5241    51
37.5341    67
37.5441    58
37.5541    48
37.5641    49
37.5741    49
37.5841    50
37.5941    53
37.6041    52
37.6141    57
37.6241    51
37.6341    53
37.6441    54
37.6541    54
37.6641    53
37.6741    58
37.6841    49
37.6941    43
37.7041    59
37.7141    56
37.7241    58
37.7341    40
37.7441    56
37.7541    51
37.7641    45
37.7741    58
37.7841    57
37.7941    40
37.8041    42
37.8141    50
37.8241    44
37.8341    53
37.8441    52
37.8541    50
37.8641    51
37.8741    47
37.8841    54
37.8941    46
37.9041    54
37.9141    57
37.9241    51
37.9341    58
37.9441    47
37.9541    57
37.9641    45
37.9741    42
37.9841    50
37.9941    49
38.0041    47
38.0141    35
38.0241    52
38.0341    41
38.0441    59
38.0541    37
38.0641    47
38.0741    55
38.0841    56
38.0941    61
38.1041    52
38.1141    49
38.1241    44
38.1341    42
38.1441    61
38.1541    49
38.1641    49
38.1741    46
38.1841    41
38.1941    40
38.2041    46
38.2141    44
38.2241    43
38.2341    35
38.2441    34
38.2541    36
38.2641    47
38.2741    46
38.2841    43
38.2941    41
38.3041    58
38.3141    43
38.3241    49
38.3341    40
38.3441    46
38.3541    50
38.3641    46
38.3741    45
38.3841    36
38.3941    58
38.4041    39
38.4141    43
38.4241    36
38.4341    48
38.4441    46
38.4541    32
38.4641    42
38.4741    39
38.4841    32
38.4941    30
38.5041    32
38.5141    45
38.5241    41
38.5341    43
38.5441    49
38.5541    41
38.5641    37
38.5741    42
38.5841    39
38.5941    38
38.6041    31
38.6141    37
38.6241    39
38.6341    37
38.6441    48
38.6541    36
38.6641    41
38.6741    36
38.6841    45
38.6941    36
38.7041    48
38.7141    45
38.7241    46
38.7341    39
38.7441    30
38.7541    33
38.7641    51
38.7741    49
38.7841    28
38.7941    43
38.8041    47
38.8141    40
38.8241    37
38.8341    34
38.8441    40
38.8541    39
38.8641    48
38.8741    35
38.8841    42
38.8941    25
38.9041    27
38.9141    42
38.9241    33
38.9341    32
38.9441    32
38.9541    39
38.9641    35
38.9741    46
38.9841    31
38.9941    36
39.0041    23
39.0141    34
39.0241    25
39.0341    36
39.0441    35
39.0541    40
39.0641    36
39.0741    44
39.0841    31
39.0941    38
39.1041    40
39.1141    32
39.1241    46
39.1341    34
39.1441    32
39.1541    36
39.1641    28
39.1741    21
39.1841    34
39.1941    32
39.2041    38
39.2141    39
39.2241    33
39.2341    32
39.2441    25
39.2541    41
39.2641    33
39.2741    36
39.2841    36
39.2941    27
39.3041    45
39.3141    27
39.3241    30
39.3341    36
39.3441    31
39.3541    25
39.3641    25
39.3741    27
39.3841    36
39.3941    28
39.4041    32
39.4141    31
39.4241    27
39.4341    31
39.4441    26
39.4541    37
39.4641    30
39.4741    35
39.4841    24
39.4941    34
39.5041    23
39.5141    26
39.5241    19
39.5341    29
39.5441    29
39.5541    31
39.5641    29
39.5741    30
39.5841    30
39.5941    30
39.6041    22
39.6141    34
39.6241    19
39.6341    28
39.6441    20
39.6541    35
39.6641    39
39.6741    27
39.6841    21
39.6941    29
39.7041    27
39.7141    34
39.7241    21
39.7341    23
39.7441    27
39.7541    24
39.7641    35
39.7741    34
39.7841    28
39.7941    22
39.8041    33
39.8141    23
39.8241    26
39.8341    26
39.8441    25
39.8541    31
39.8641    20
39.8741    31
39.8841    25
39.8941    25
39.9041    28
39.9141    31
39.9241    25
39.9341    19
39.9441    20
39.9541    28
39.9641    22
39.9741    23
39.9841    15
39.9941    32
