Bruker Nano GmbH Berlin, Germany
Esprit 1.9

Date: 4/21/2021 1:48:24 PM
Real time: 15980
Life time: 14828
Pulse density: 109625


Detector type: XFlash 430
Window type: Custom type
Detector thickness: 0.45
Si dead layer:0.029

Calibration, lin.: 10
Calibration, abs.: -955.9
Mn FWHM: 137.05
Fano factor: 0.121
Channels: 4095

Energy Counts
-0.9559     0
-0.9459     0
-0.9359     0
-0.9259     0
-0.9159     0
-0.9059     0
-0.8959     0
-0.8859     0
-0.8759     0
-0.8659     0
-0.8559     0
-0.8459     0
-0.8359     0
-0.8259     0
-0.8159     0
-0.8059     0
-0.7959     0
-0.7859     0
-0.7759     0
-0.7659     0
-0.7559     0
-0.7459     0
-0.7359     0
-0.7259     0
-0.7159     0
-0.7059     0
-0.6959     0
-0.6859     0
-0.6759     0
-0.6659     0
-0.6559     0
-0.6459     0
-0.6359     0
-0.6259     0
-0.6159     0
-0.6059     0
-0.5959     0
-0.5859     0
-0.5759     0
-0.5659     0
-0.5559     0
-0.5459     0
-0.5359     0
-0.5259     0
-0.5159     0
-0.5059     0
-0.4959     0
-0.4859     0
-0.4759     0
-0.4659     0
-0.4559     0
-0.4459     0
-0.4359     0
-0.4259     0
-0.4159     0
-0.4059     0
-0.3959     0
-0.3859     0
-0.3759     0
-0.3659     0
-0.3559     0
-0.3459     0
-0.3359     0
-0.3259     0
-0.3159     0
-0.3059     0
-0.2959     0
-0.2859     0
-0.2759     0
-0.2659     0
-0.2559     0
-0.2459     0
-0.2359     0
-0.2259     0
-0.2159     0
-0.2059     0
-0.1959     0
-0.1859     0
-0.1759     0
-0.1659     0
-0.1559     0
-0.1459     1
-0.1359     0
-0.1259     1
-0.1159     2
-0.1059     4
-0.0959    49
-0.0859   180
-0.0759   577
-0.0659  1718
-0.0559  4325
-0.0459  9440
-0.0359 17496
-0.0259 28046
-0.0159 38761
-0.0059 45618
 0.0041 46230
 0.0141 39342
 0.0241 28994
 0.0341 18239
 0.0441  9888
 0.0541  4466
 0.0641  1883
 0.0741   669
 0.0841   204
 0.0941    61
 0.1041    23
 0.1141     4
 0.1241     4
 0.1341     8
 0.1441     0
 0.1541     1
 0.1641     0
 0.1741    14
 0.1841   125
 0.1941   241
 0.2041   209
 0.2141   201
 0.2241   209
 0.2341   213
 0.2441   201
 0.2541   220
 0.2641   226
 0.2741   215
 0.2841   201
 0.2941   216
 0.3041   200
 0.3141   190
 0.3241   206
 0.3341   216
 0.3441   211
 0.3541   199
 0.3641   198
 0.3741   189
 0.3841   192
 0.3941   204
 0.4041   204
 0.4141   193
 0.4241   196
 0.4341   193
 0.4441   190
 0.4541   196
 0.4641   184
 0.4741   181
 0.4841   173
 0.4941   194
 0.5041   193
 0.5141   187
 0.5241   175
 0.5341   188
 0.5441   189
 0.5541   174
 0.5641   170
 0.5741   173
 0.5841   174
 0.5941   174
 0.6041   172
 0.6141   164
 0.6241   178
 0.6341   172
 0.6441   152
 0.6541   160
 0.6641   170
 0.6741   161
 0.6841   163
 0.6941   174
 0.7041   159
 0.7141   161
 0.7241   171
 0.7341   169
 0.7441   178
 0.7541   175
 0.7641   160
 0.7741   158
 0.7841   157
 0.7941   163
 0.8041   152
 0.8141   133
 0.8241   145
 0.8341   138
 0.8441   140
 0.8541   153
 0.8641   152
 0.8741   145
 0.8841   141
 0.8941   162
 0.9041   146
 0.9141   141
 0.9241   147
 0.9341   144
 0.9441   146
 0.9541   148
 0.9641   126
 0.9741   137
 0.9841   152
 0.9941   150
 1.0041   142
 1.0141   142
 1.0241   150
 1.0341   150
 1.0441   147
 1.0541   147
 1.0641   138
 1.0741   146
 1.0841   129
 1.0941   126
 1.1041   124
 1.1141   125
 1.1241   139
 1.1341   139
 1.1441   142
 1.1541   148
 1.1641   139
 1.1741   147
 1.1841   147
 1.1941   133
 1.2041   141
 1.2141   126
 1.2241   141
 1.2341   134
 1.2441   119
 1.2541   115
 1.2641   117
 1.2741   121
 1.2841   124
 1.2941   117
 1.3041   144
 1.3141   131
 1.3241   142
 1.3341   132
 1.3441   140
 1.3541   136
 1.3641   134
 1.3741   152
 1.3841   122
 1.3941   131
 1.4041   134
 1.4141   133
 1.4241   118
 1.4341   120
 1.4441   140
 1.4541   134
 1.4641   127
 1.4741   132
 1.4841   137
 1.4941   124
 1.5041   128
 1.5141   104
 1.5241   131
 1.5341   109
 1.5441   126
 1.5541   124
 1.5641   125
 1.5741   122
 1.5841   119
 1.5941   119
 1.6041   130
 1.6141   115
 1.6241   132
 1.6341   136
 1.6441   129
 1.6541   177
 1.6641   208
 1.6741   233
 1.6841   288
 1.6941   378
 1.7041   448
 1.7141   499
 1.7241   579
 1.7341   582
 1.7441   623
 1.7541   566
 1.7641   503
 1.7741   414
 1.7841   364
 1.7941   302
 1.8041   258
 1.8141   230
 1.8241   198
 1.8341   180
 1.8441   163
 1.8541   151
 1.8641   156
 1.8741   121
 1.8841   136
 1.8941   119
 1.9041   137
 1.9141   131
 1.9241   124
 1.9341   137
 1.9441   143
 1.9541   127
 1.9641   142
 1.9741   140
 1.9841   148
 1.9941   159
 2.0041   181
 2.0141   161
 2.0241   162
 2.0341   143
 2.0441   160
 2.0541   147
 2.0641   137
 2.0741   124
 2.0841   103
 2.0941   113
 2.1041   116
 2.1141   120
 2.1241   102
 2.1341    96
 2.1441   110
 2.1541   121
 2.1641   128
 2.1741   117
 2.1841   109
 2.1941   112
 2.2041   103
 2.2141   109
 2.2241   114
 2.2341   111
 2.2441   107
 2.2541   122
 2.2641   116
 2.2741   136
 2.2841   111
 2.2941   109
 2.3041   102
 2.3141   111
 2.3241   110
 2.3341   112
 2.3441    81
 2.3541    98
 2.3641   111
 2.3741    98
 2.3841    95
 2.3941   104
 2.4041   115
 2.4141   101
 2.4241   110
 2.4341   104
 2.4441   108
 2.4541   118
 2.4641    95
 2.4741   102
 2.4841    97
 2.4941   103
 2.5041   109
 2.5141   102
 2.5241   100
 2.5341   106
 2.5441   110
 2.5541   107
 2.5641    93
 2.5741    98
 2.5841   109
 2.5941   105
 2.6041   108
 2.6141   105
 2.6241   108
 2.6341   107
 2.6441   107
 2.6541   107
 2.6641   114
 2.6741   107
 2.6841    94
 2.6941    88
 2.7041   106
 2.7141   107
 2.7241    83
 2.7341    92
 2.7441    82
 2.7541   100
 2.7641    98
 2.7741   102
 2.7841   101
 2.7941    99
 2.8041   104
 2.8141   103
 2.8241   112
 2.8341    92
 2.8441   107
 2.8541   109
 2.8641    94
 2.8741   101
 2.8841    96
 2.8941    98
 2.9041    91
 2.9141    89
 2.9241    73
 2.9341   100
 2.9441    75
 2.9541    86
 2.9641   107
 2.9741    87
 2.9841   105
 2.9941    93
 3.0041    79
 3.0141    96
 3.0241    86
 3.0341    90
 3.0441    73
 3.0541    85
 3.0641   100
 3.0741    81
 3.0841    81
 3.0941    83
 3.1041    95
 3.1141    87
 3.1241    84
 3.1341    80
 3.1441    68
 3.1541    77
 3.1641    71
 3.1741    72
 3.1841    79
 3.1941    73
 3.2041    83
 3.2141    93
 3.2241   101
 3.2341   105
 3.2441    89
 3.2541   101
 3.2641   135
 3.2741   161
 3.2841   175
 3.2941   188
 3.3041   208
 3.3141   196
 3.3241   224
 3.3341   189
 3.3441   159
 3.3541   156
 3.3641   144
 3.3741   129
 3.3841   124
 3.3941   104
 3.4041   104
 3.4141    68
 3.4241    85
 3.4341    68
 3.4441    59
 3.4541    80
 3.4641    70
 3.4741    73
 3.4841    74
 3.4941    94
 3.5041    91
 3.5141    65
 3.5241   103
 3.5341   109
 3.5441    90
 3.5541   120
 3.5641   134
 3.5741   155
 3.5841   183
 3.5941   205
 3.6041   288
 3.6141   328
 3.6241   416
 3.6341   496
 3.6441   605
 3.6541   701
 3.6641   842
 3.6741   873
 3.6841   888
 3.6941   863
 3.7041   919
 3.7141   835
 3.7241   733
 3.7341   593
 3.7441   481
 3.7541   415
 3.7641   321
 3.7741   254
 3.7841   200
 3.7941   147
 3.8041   129
 3.8141    90
 3.8241    81
 3.8341    64
 3.8441    67
 3.8541    61
 3.8641    86
 3.8741    75
 3.8841    53
 3.8941    60
 3.9041    77
 3.9141    83
 3.9241    97
 3.9341    93
 3.9441   110
 3.9541   110
 3.9641   140
 3.9741   145
 3.9841   152
 3.9941   168
 4.0041   180
 4.0141   183
 4.0241   180
 4.0341   172
 4.0441   145
 4.0541   154
 4.0641   143
 4.0741   114
 4.0841   100
 4.0941    98
 4.1041    85
 4.1141    69
 4.1241    72
 4.1341    83
 4.1441    65
 4.1541    48
 4.1641    61
 4.1741    58
 4.1841    67
 4.1941    53
 4.2041    65
 4.2141    60
 4.2241    48
 4.2341    62
 4.2441    56
 4.2541    58
 4.2641    50
 4.2741    50
 4.2841    59
 4.2941    58
 4.3041    61
 4.3141    64
 4.3241    58
 4.3341    59
 4.3441    72
 4.3541    60
 4.3641    79
 4.3741    76
 4.3841   104
 4.3941   114
 4.4041   121
 4.4141   147
 4.4241   178
 4.4341   228
 4.4441   282
 4.4541   323
 4.4641   378
 4.4741   423
 4.4841   456
 4.4941   522
 4.5041   500
 4.5141   547
 4.5241   483
 4.5341   465
 4.5441   396
 4.5541   359
 4.5641   316
 4.5741   232
 4.5841   213
 4.5941   167
 4.6041   127
 4.6141   108
 4.6241   122
 4.6341    88
 4.6441    98
 4.6541    78
 4.6641    84
 4.6741   101
 4.6841    59
 4.6941    69
 4.7041    68
 4.7141    86
 4.7241    77
 4.7341    83
 4.7441    77
 4.7541    70
 4.7641    83
 4.7741    99
 4.7841    81
 4.7941   100
 4.8041   126
 4.8141   100
 4.8241   118
 4.8341   113
 4.8441   110
 4.8541   114
 4.8641   131
 4.8741   157
 4.8841   148
 4.8941   184
 4.9041   186
 4.9141   170
 4.9241   177
 4.9341   185
 4.9441   181
 4.9541   160
 4.9641   171
 4.9741   171
 4.9841   138
 4.9941   124
 5.0041   110
 5.0141   118
 5.0241   107
 5.0341    95
 5.0441    74
 5.0541    78
 5.0641    92
 5.0741    85
 5.0841    90
 5.0941    96
 5.1041    89
 5.1141    65
 5.1241    72
 5.1341    72
 5.1441    60
 5.1541    78
 5.1641    69
 5.1741    92
 5.1841    91
 5.1941    83
 5.2041    83
 5.2141    76
 5.2241    78
 5.2341    73
 5.2441    65
 5.2541    78
 5.2641   100
 5.2741    87
 5.2841    64
 5.2941    95
 5.3041    95
 5.3141    76
 5.3241   103
 5.3341   112
 5.3441    90
 5.3541   104
 5.3641   120
 5.3741   115
 5.3841   110
 5.3941   111
 5.4041   130
 5.4141   144
 5.4241   132
 5.4341   117
 5.4441   118
 5.4541   133
 5.4641   100
 5.4741   108
 5.4841   116
 5.4941    92
 5.5041    93
 5.5141    91
 5.5241    99
 5.5341   100
 5.5441    78
 5.5541    86
 5.5641   104
 5.5741    89
 5.5841    83
 5.5941    83
 5.6041    69
 5.6141    86
 5.6241    98
 5.6341    97
 5.6441    91
 5.6541    70
 5.6641    99
 5.6741    81
 5.6841    74
 5.6941    63
 5.7041    92
 5.7141    84
 5.7241    92
 5.7341   106
 5.7441   124
 5.7541   123
 5.7641   101
 5.7741   156
 5.7841   160
 5.7941   205
 5.8041   233
 5.8141   240
 5.8241   300
 5.8341   380
 5.8441   399
 5.8541   433
 5.8641   531
 5.8741   551
 5.8841   542
 5.8941   586
 5.9041   553
 5.9141   542
 5.9241   509
 5.9341   435
 5.9441   414
 5.9541   352
 5.9641   314
 5.9741   275
 5.9841   251
 5.9941   208
 6.0041   181
 6.0141   178
 6.0241   157
 6.0341   131
 6.0441   131
 6.0541   136
 6.0641   129
 6.0741   114
 6.0841   134
 6.0941   122
 6.1041   153
 6.1141   147
 6.1241   138
 6.1341   160
 6.1441   185
 6.1541   188
 6.1641   209
 6.1741   234
 6.1841   275
 6.1941   351
 6.2041   458
 6.2141   566
 6.2241   817
 6.2341  1148
 6.2441  1575
 6.2541  2211
 6.2641  3033
 6.2741  4270
 6.2841  5615
 6.2941  7618
 6.3041  9839
 6.3141 12405
 6.3241 15250
 6.3341 18620
 6.3441 22132
 6.3541 24906
 6.3641 27780
 6.3741 30209
 6.3841 31854
 6.3941 32495
 6.4041 32322
 6.4141 31454
 6.4241 29606
 6.4341 27443
 6.4441 24526
 6.4541 21115
 6.4641 17902
 6.4741 14701
 6.4841 12029
 6.4941  9130
 6.5041  7028
 6.5141  5346
 6.5241  3695
 6.5341  2703
 6.5441  1907
 6.5541  1349
 6.5641   836
 6.5741   633
 6.5841   438
 6.5941   300
 6.6041   253
 6.6141   235
 6.6241   194
 6.6341   164
 6.6441   166
 6.6541   159
 6.6641   155
 6.6741   166
 6.6841   162
 6.6941   169
 6.7041   151
 6.7141   155
 6.7241   178
 6.7341   164
 6.7441   159
 6.7541   175
 6.7641   181
 6.7741   176
 6.7841   185
 6.7941   198
 6.8041   203
 6.8141   200
 6.8241   224
 6.8341   237
 6.8441   221
 6.8541   277
 6.8641   297
 6.8741   367
 6.8841   453
 6.8941   544
 6.9041   646
 6.9141   750
 6.9241   945
 6.9341  1207
 6.9441  1567
 6.9541  1872
 6.9641  2258
 6.9741  2627
 6.9841  3204
 6.9941  3559
 7.0041  4085
 7.0141  4546
 7.0241  4982
 7.0341  5262
 7.0441  5489
 7.0541  5473
 7.0641  5449
 7.0741  5308
 7.0841  4911
 7.0941  4438
 7.1041  4023
 7.1141  3628
 7.1241  2931
 7.1341  2589
 7.1441  2079
 7.1541  1634
 7.1641  1264
 7.1741  1047
 7.1841   814
 7.1941   600
 7.2041   491
 7.2141   361
 7.2241   321
 7.2341   282
 7.2441   208
 7.2541   190
 7.2641   170
 7.2741   156
 7.2841   175
 7.2941   178
 7.3041   197
 7.3141   163
 7.3241   162
 7.3341   185
 7.3441   204
 7.3541   188
 7.3641   220
 7.3741   219
 7.3841   252
 7.3941   232
 7.4041   255
 7.4141   273
 7.4241   217
 7.4341   262
 7.4441   257
 7.4541   269
 7.4641   245
 7.4741   232
 7.4841   246
 7.4941   211
 7.5041   205
 7.5141   216
 7.5241   189
 7.5341   215
 7.5441   188
 7.5541   174
 7.5641   180
 7.5741   167
 7.5841   168
 7.5941   153
 7.6041   185
 7.6141   148
 7.6241   142
 7.6341   164
 7.6441   162
 7.6541   155
 7.6641   183
 7.6741   163
 7.6841   160
 7.6941   162
 7.7041   179
 7.7141   179
 7.7241   163
 7.7341   180
 7.7441   171
 7.7541   175
 7.7641   171
 7.7741   167
 7.7841   196
 7.7941   197
 7.8041   195
 7.8141   200
 7.8241   212
 7.8341   212
 7.8441   218
 7.8541   207
 7.8641   220
 7.8741   245
 7.8841   259
 7.8941   271
 7.9041   292
 7.9141   315
 7.9241   296
 7.9341   315
 7.9441   303
 7.9541   344
 7.9641   402
 7.9741   406
 7.9841   403
 7.9941   475
 8.0041   447
 8.0141   532
 8.0241   565
 8.0341   589
 8.0441   617
 8.0541   701
 8.0641   734
 8.0741   727
 8.0841   838
 8.0941   881
 8.1041   881
 8.1141   938
 8.1241   936
 8.1341   992
 8.1441  1027
 8.1541  1050
 8.1641  1049
 8.1741  1098
 8.1841  1062
 8.1941  1085
 8.2041  1094
 8.2141  1101
 8.2241  1137
 8.2341  1167
 8.2441  1181
 8.2541  1241
 8.2641  1266
 8.2741  1350
 8.2841  1480
 8.2941  1512
 8.3041  1721
 8.3141  1780
 8.3241  2018
 8.3341  2105
 8.3441  2182
 8.3541  2326
 8.3641  2432
 8.3741  2517
 8.3841  2555
 8.3941  2512
 8.4041  2550
 8.4141  2473
 8.4241  2308
 8.4341  2118
 8.4441  1891
 8.4541  1750
 8.4641  1662
 8.4741  1391
 8.4841  1152
 8.4941   990
 8.5041   886
 8.5141   777
 8.5241   602
 8.5341   535
 8.5441   482
 8.5541   432
 8.5641   416
 8.5741   369
 8.5841   325
 8.5941   355
 8.6041   350
 8.6141   318
 8.6241   329
 8.6341   357
 8.6441   336
 8.6541   355
 8.6641   321
 8.6741   287
 8.6841   321
 8.6941   314
 8.7041   302
 8.7141   275
 8.7241   284
 8.7341   277
 8.7441   252
 8.7541   268
 8.7641   268
 8.7741   244
 8.7841   230
 8.7941   261
 8.8041   240
 8.8141   224
 8.8241   243
 8.8341   259
 8.8441   242
 8.8541   239
 8.8641   235
 8.8741   227
 8.8841   221
 8.8941   228
 8.9041   237
 8.9141   231
 8.9241   252
 8.9341   254
 8.9441   257
 8.9541   246
 8.9641   259
 8.9741   282
 8.9841   282
 8.9941   286
 9.0041   266
 9.0141   288
 9.0241   307
 9.0341   295
 9.0441   298
 9.0541   307
 9.0641   341
 9.0741   314
 9.0841   355
 9.0941   367
 9.1041   376
 9.1141   404
 9.1241   434
 9.1341   405
 9.1441   419
 9.1541   500
 9.1641   485
 9.1741   473
 9.1841   501
 9.1941   541
 9.2041   539
 9.2141   586
 9.2241   650
 9.2341   643
 9.2441   620
 9.2541   696
 9.2641   705
 9.2741   799
 9.2841   794
 9.2941   848
 9.3041   870
 9.3141   871
 9.3241   914
 9.3341   966
 9.3441   941
 9.3541   971
 9.3641  1007
 9.3741  1008
 9.3841   987
 9.3941  1061
 9.4041  1058
 9.4141  1069
 9.4241  1096
 9.4341  1121
 9.4441  1116
 9.4541  1147
 9.4641  1163
 9.4741  1172
 9.4841  1137
 9.4941  1138
 9.5041  1204
 9.5141  1204
 9.5241  1270
 9.5341  1347
 9.5441  1378
 9.5541  1440
 9.5641  1498
 9.5741  1608
 9.5841  1743
 9.5941  1802
 9.6041  1931
 9.6141  2082
 9.6241  2136
 9.6341  2178
 9.6441  2270
 9.6541  2369
 9.6641  2340
 9.6741  2252
 9.6841  2227
 9.6941  2155
 9.7041  2074
 9.7141  2016
 9.7241  1895
 9.7341  1783
 9.7441  1696
 9.7541  1525
 9.7641  1376
 9.7741  1286
 9.7841  1188
 9.7941  1124
 9.8041  1041
 9.8141   954
 9.8241   886
 9.8341   918
 9.8441   901
 9.8541   912
 9.8641   879
 9.8741   910
 9.8841   918
 9.8941   920
 9.9041  1003
 9.9141   920
 9.9241   915
 9.9341   974
 9.9441   961
 9.9541   958
 9.9641   964
 9.9741   986
 9.9841   915
 9.9941   898
10.0041   819
10.0141   779
10.0241   729
10.0341   657
10.0441   600
10.0541   526
10.0641   490
10.0741   424
10.0841   389
10.0941   354
10.1041   318
10.1141   305
10.1241   268
10.1341   238
10.1441   207
10.1541   216
10.1641   214
10.1741   181
10.1841   185
10.1941   175
10.2041   180
10.2141   182
10.2241   165
10.2341   170
10.2441   165
10.2541   152
10.2641   144
10.2741   145
10.2841   140
10.2941   149
10.3041   137
10.3141   126
10.3241   143
10.3341   133
10.3441   127
10.3541   130
10.3641   125
10.3741   141
10.3841   135
10.3941   133
10.4041   110
10.4141   109
10.4241   124
10.4341   128
10.4441   136
10.4541   139
10.4641   135
10.4741   142
10.4841   129
10.4941   132
10.5041   139
10.5141   145
10.5241   151
10.5341   129
10.5441   146
10.5541   159
10.5641   142
10.5741   146
10.5841   152
10.5941   156
10.6041   152
10.6141   157
10.6241   147
10.6341   158
10.6441   169
10.6541   165
10.6641   151
10.6741   148
10.6841   158
10.6941   164
10.7041   151
10.7141   163
10.7241   165
10.7341   175
10.7441   165
10.7541   176
10.7641   180
10.7741   193
10.7841   198
10.7941   199
10.8041   207
10.8141   202
10.8241   201
10.8341   219
10.8441   208
10.8541   214
10.8641   238
10.8741   239
10.8841   241
10.8941   234
10.9041   232
10.9141   223
10.9241   230
10.9341   219
10.9441   231
10.9541   225
10.9641   229
10.9741   237
10.9841   226
10.9941   226
11.0041   226
11.0141   207
11.0241   217
11.0341   224
11.0441   219
11.0541   196
11.0641   182
11.0741   190
11.0841   195
11.0941   200
11.1041   211
11.1141   213
11.1241   199
11.1341   210
11.1441   221
11.1541   222
11.1641   223
11.1741   246
11.1841   249
11.1941   277
11.2041   275
11.2141   269
11.2241   293
11.2341   308
11.2441   305
11.2541   318
11.2641   327
11.2741   324
11.2841   316
11.2941   322
11.3041   331
11.3141   323
11.3241   314
11.3341   293
11.3441   304
11.3541   305
11.3641   262
11.3741   226
11.3841   242
11.3941   219
11.4041   217
11.4141   189
11.4241   178
11.4341   189
11.4441   154
11.4541   159
11.4641   150
11.4741   163
11.4841   162
11.4941   157
11.5041   155
11.5141   148
11.5241   170
11.5341   163
11.5441   157
11.5541   159
11.5641   152
11.5741   172
11.5841   172
11.5941   174
11.6041   176
11.6141   171
11.6241   180
11.6341   175
11.6441   157
11.6541   161
11.6641   178
11.6741   176
11.6841   166
11.6941   163
11.7041   166
11.7141   152
11.7241   148
11.7341   136
11.7441   147
11.7541   146
11.7641   144
11.7741   133
11.7841   141
11.7941   130
11.8041   133
11.8141   132
11.8241   122
11.8341   111
11.8441   111
11.8541   117
11.8641   106
11.8741   122
11.8841   143
11.8941   125
11.9041   133
11.9141   114
11.9241   113
11.9341   123
11.9441   121
11.9541   115
11.9641   115
11.9741   116
11.9841   111
11.9941   112
12.0041   131
12.0141   117
12.0241   129
12.0341   134
12.0441   133
12.0541   130
12.0641   118
12.0741   104
12.0841   112
12.0941   119
12.1041   116
12.1141   112
12.1241   120
12.1341   132
12.1441   140
12.1541   129
12.1641   108
12.1741   112
12.1841   119
12.1941   108
12.2041    94
12.2141   105
12.2241   117
12.2341   115
12.2441   113
12.2541   127
12.2641   123
12.2741   116
12.2841   118
12.2941   114
12.3041   108
12.3141   119
12.3241   112
12.3341   121
12.3441   124
12.3541   125
12.3641   115
12.3741   121
12.3841   123
12.3941   133
12.4041   126
12.4141   122
12.4241   122
12.4341   114
12.4441   113
12.4541   129
12.4641   131
12.4741   122
12.4841   117
12.4941   120
12.5041   131
12.5141   121
12.5241   114
12.5341   122
12.5441   126
12.5541   120
12.5641   131
12.5741   127
12.5841   128
12.5941   124
12.6041   117
12.6141   121
12.6241   125
12.6341   134
12.6441   140
12.6541   137
12.6641   131
12.6741   125
12.6841   122
12.6941   122
12.7041   124
12.7141   128
12.7241   135
12.7341   138
12.7441   135
12.7541   134
12.7641   137
12.7741   140
12.7841   140
12.7941   137
12.8041   134
12.8141   142
12.8241   149
12.8341   146
12.8441   139
12.8541   135
12.8641   129
12.8741   125
12.8841   129
12.8941   136
12.9041   143
12.9141   145
12.9241   141
12.9341   139
12.9441   142
12.9541   145
12.9641   142
12.9741   146
12.9841   152
12.9941   144
13.0041   133
13.0141   134
13.0241   152
13.0341   154
13.0441   137
13.0541   120
13.0641   127
13.0741   139
13.0841   135
13.0941   129
13.1041   134
13.1141   152
13.1241   155
13.1341   147
13.1441   137
13.1541   140
13.1641   146
13.1741   148
13.1841   151
13.1941   142
13.2041   159
13.2141   167
13.2241   163
13.2341   172
13.2441   178
13.2541   189
13.2641   202
13.2741   205
13.2841   196
13.2941   182
13.3041   195
13.3141   205
13.3241   211
13.3341   223
13.3441   223
13.3541   218
13.3641   217
13.3741   221
13.3841   222
13.3941   221
13.4041   219
13.4141   211
13.4241   202
13.4341   206
13.4441   217
13.4541   220
13.4641   210
13.4741   199
13.4841   193
13.4941   195
13.5041   201
13.5141   198
13.5241   188
13.5341   181
13.5441   179
13.5541   168
13.5641   163
13.5741   173
13.5841   183
13.5941   183
13.6041   177
13.6141   166
13.6241   157
13.6341   154
13.6441   144
13.6541   151
13.6641   160
13.6741   150
13.6841   161
13.6941   180
13.7041   174
13.7141   164
13.7241   170
13.7341   166
13.7441   160
13.7541   173
13.7641   179
13.7741   171
13.7841   162
13.7941   161
13.8041   169
13.8141   166
13.8241   161
13.8341   158
13.8441   159
13.8541   165
13.8641   173
13.8741   185
13.8841   188
13.8941   182
13.9041   181
13.9141   187
13.9241   189
13.9341   194
13.9441   206
13.9541   221
13.9641   235
13.9741   246
13.9841   259
13.9941   274
14.0041   288
14.0141   299
14.0241   312
14.0341   336
14.0441   368
14.0541   396
14.0641   421
14.0741   443
14.0841   461
14.0941   477
14.1041   492
14.1141   514
14.1241   542
14.1341   546
14.1441   523
14.1541   508
14.1641   510
14.1741   514
14.1841   516
14.1941   502
14.2041   473
14.2141   439
14.2241   412
14.2341   402
14.2441   392
14.2541   365
14.2641   337
14.2741   316
14.2841   300
14.2941   279
14.3041   251
14.3141   242
14.3241   236
14.3341   222
14.3441   225
14.3541   214
14.3641   197
14.3741   196
14.3841   187
14.3941   192
14.4041   193
14.4141   180
14.4241   181
14.4341   188
14.4441   192
14.4541   189
14.4641   179
14.4741   166
14.4841   191
14.4941   216
14.5041   203
14.5141   178
14.5241   183
14.5341   195
14.5441   179
14.5541   186
14.5641   194
14.5741   193
14.5841   197
14.5941   202
14.6041   205
14.6141   198
14.6241   190
14.6341   182
14.6441   190
14.6541   212
14.6641   200
14.6741   180
14.6841   187
14.6941   196
14.7041   217
14.7141   194
14.7241   180
14.7341   201
14.7441   209
14.7541   202
14.7641   201
14.7741   204
14.7841   201
14.7941   204
14.8041   219
14.8141   232
14.8241   222
14.8341   214
14.8441   240
14.8541   228
14.8641   229
14.8741   248
14.8841   245
14.8941   245
14.9041   242
14.9141   234
14.9241   229
14.9341   237
14.9441   247
14.9541   251
14.9641   251
14.9741   230
14.9841   220
14.9941   221
15.0041   227
15.0141   255
15.0241   258
15.0341   227
15.0441   219
15.0541   223
15.0641   219
15.0741   221
15.0841   226
15.0941   222
15.1041   219
15.1141   237
15.1241   220
15.1341   205
15.1441   196
15.1541   200
15.1641   214
15.1741   234
15.1841   237
15.1941   232
15.2041   223
15.2141   218
15.2241   226
15.2341   232
15.2441   223
15.2541   228
15.2641   229
15.2741   220
15.2841   220
15.2941   233
15.3041   242
15.3141   230
15.3241   214
15.3341   233
15.3441   247
15.3541   247
15.3641   245
15.3741   247
15.3841   237
15.3941   235
15.4041   229
15.4141   226
15.4241   234
15.4341   235
15.4441   228
15.4541   243
15.4641   249
15.4741   239
15.4841   242
15.4941   260
15.5041   276
15.5141   259
15.5241   249
15.5341   258
15.5441   275
15.5541   298
15.5641   301
15.5741   293
15.5841   285
15.5941   292
15.6041   286
15.6141   305
15.6241   305
15.6341   296
15.6441   319
15.6541   328
15.6641   334
15.6741   376
15.6841   403
15.6941   410
15.7041   408
15.7141   398
15.7241   414
15.7341   423
15.7441   431
15.7541   433
15.7641   458
15.7741   459
15.7841   450
15.7941   438
15.8041   458
15.8141   441
15.8241   422
15.8341   440
15.8441   446
15.8541   414
15.8641   374
15.8741   352
15.8841   359
15.8941   348
15.9041   333
15.9141   325
15.9241   339
15.9341   332
15.9441   291
15.9541   278
15.9641   275
15.9741   288
15.9841   314
15.9941   278
16.0041   288
16.0141   286
16.0241   263
16.0341   263
16.0441   257
16.0541   274
16.0641   296
16.0741   282
16.0841   289
16.0941   284
16.1041   275
16.1141   278
16.1241   273
16.1341   286
16.1441   290
16.1541   270
16.1641   284
16.1741   280
16.1841   277
16.1941   273
16.2041   294
16.2141   271
16.2241   278
16.2341   297
16.2441   275
16.2541   267
16.2641   252
16.2741   305
16.2841   293
16.2941   254
16.3041   262
16.3141   265
16.3241   285
16.3341   288
16.3441   274
16.3541   287
16.3641   277
16.3741   257
16.3841   264
16.3941   284
16.4041   290
16.4141   283
16.4241   267
16.4341   269
16.4441   296
16.4541   270
16.4641   296
16.4741   317
16.4841   295
16.4941   294
16.5041   297
16.5141   283
16.5241   274
16.5341   275
16.5441   276
16.5541   301
16.5641   336
16.5741   284
16.5841   266
16.5941   288
16.6041   271
16.6141   295
16.6241   316
16.6341   322
16.6441   286
16.6541   274
16.6641   293
16.6741   312
16.6841   323
16.6941   321
16.7041   296
16.7141   282
16.7241   281
16.7341   285
16.7441   292
16.7541   302
16.7641   315
16.7741   321
16.7841   312
16.7941   305
16.8041   310
16.8141   312
16.8241   288
16.8341   292
16.8441   325
16.8541   326
16.8641   296
16.8741   284
16.8841   302
16.8941   314
16.9041   332
16.9141   306
16.9241   307
16.9341   319
16.9441   311
16.9541   311
16.9641   324
16.9741   317
16.9841   306
16.9941   289
17.0041   297
17.0141   316
17.0241   308
17.0341   313
17.0441   322
17.0541   299
17.0641   319
17.0741   314
17.0841   318
17.0941   318
17.1041   310
17.1141   308
17.1241   312
17.1341   296
17.1441   296
17.1541   322
17.1641   336
17.1741   326
17.1841   320
17.1941   319
17.2041   298
17.2141   315
17.2241   313
17.2341   330
17.2441   330
17.2541   303
17.2641   304
17.2741   326
17.2841   348
17.2941   333
17.3041   352
17.3141   335
17.3241   326
17.3341   329
17.3441   336
17.3541   327
17.3641   344
17.3741   349
17.3841   324
17.3941   333
17.4041   348
17.4141   334
17.4241   351
17.4341   320
17.4441   316
17.4541   344
17.4641   340
17.4741   351
17.4841   342
17.4941   352
17.5041   324
17.5141   325
17.5241   343
17.5341   349
17.5441   381
17.5541   366
17.5641   343
17.5741   368
17.5841   362
17.5941   347
17.6041   360
17.6141   365
17.6241   355
17.6341   370
17.6441   362
17.6541   371
17.6641   366
17.6741   378
17.6841   396
17.6941   396
17.7041   385
17.7141   379
17.7241   369
17.7341   367
17.7441   334
17.7541   364
17.7641   370
17.7741   364
17.7841   348
17.7941   369
17.8041   354
17.8141   340
17.8241   349
17.8341   361
17.8441   352
17.8541   342
17.8641   369
17.8741   332
17.8841   354
17.8941   365
17.9041   354
17.9141   355
17.9241   355
17.9341   350
17.9441   366
17.9541   363
17.9641   357
17.9741   351
17.9841   358
17.9941   369
18.0041   346
18.0141   331
18.0241   356
18.0341   374
18.0441   373
18.0541   369
18.0641   332
18.0741   356
18.0841   385
18.0941   373
18.1041   369
18.1141   375
18.1241   383
18.1341   367
18.1441   345
18.1541   324
18.1641   384
18.1741   383
18.1841   381
18.1941   381
18.2041   351
18.2141   344
18.2241   363
18.2341   362
18.2441   388
18.2541   413
18.2641   373
18.2741   362
18.2841   389
18.2941   376
18.3041   385
18.3141   380
18.3241   377
18.3341   398
18.3441   380
18.3541   367
18.3641   374
18.3741   387
18.3841   348
18.3941   370
18.4041   389
18.4141   403
18.4241   384
18.4341   355
18.4441   367
18.4541   364
18.4641   381
18.4741   364
18.4841   372
18.4941   386
18.5041   377
18.5141   371
18.5241   403
18.5341   387
18.5441   370
18.5541   379
18.5641   378
18.5741   384
18.5841   380
18.5941   412
18.6041   408
18.6141   390
18.6241   359
18.6341   364
18.6441   364
18.6541   401
18.6641   386
18.6741   376
18.6841   373
18.6941   391
18.7041   379
18.7141   379
18.7241   407
18.7341   395
18.7441   426
18.7541   369
18.7641   385
18.7741   384
18.7841   372
18.7941   392
18.8041   412
18.8141   401
18.8241   409
18.8341   386
18.8441   374
18.8541   371
18.8641   389
18.8741   393
18.8841   389
18.8941   376
18.9041   390
18.9141   376
18.9241   374
18.9341   402
18.9441   418
18.9541   431
18.9641   399
18.9741   366
18.9841   396
18.9941   371
19.0041   395
19.0141   408
19.0241   409
19.0341   397
19.0441   380
19.0541   383
19.0641   397
19.0741   383
19.0841   409
19.0941   415
19.1041   401
19.1141   387
19.1241   380
19.1341   401
19.1441   418
19.1541   403
19.1641   406
19.1741   398
19.1841   378
19.1941   366
19.2041   378
19.2141   371
19.2241   395
19.2341   420
19.2441   411
19.2541   406
19.2641   380
19.2741   392
19.2841   436
19.2941   401
19.3041   388
19.3141   429
19.3241   410
19.3341   381
19.3441   423
19.3541   441
19.3641   393
19.3741   417
19.3841   404
19.3941   396
19.4041   414
19.4141   425
19.4241   414
19.4341   404
19.4441   422
19.4541   378
19.4641   369
19.4741   416
19.4841   413
19.4941   381
19.5041   406
19.5141   430
19.5241   417
19.5341   386
19.5441   390
19.5541   407
19.5641   401
19.5741   390
19.5841   404
19.5941   430
19.6041   433
19.6141   421
19.6241   417
19.6341   387
19.6441   408
19.6541   398
19.6641   416
19.6741   436
19.6841   422
19.6941   437
19.7041   404
19.7141   379
19.7241   408
19.7341   416
19.7441   405
19.7541   413
19.7641   430
19.7741   413
19.7841   390
19.7941   414
19.8041   411
19.8141   418
19.8241   397
19.8341   426
19.8441   416
19.8541   388
19.8641   402
19.8741   420
19.8841   429
19.8941   445
19.9041   424
19.9141   403
19.9241   390
19.9341   403
19.9441   437
19.9541   418
19.9641   379
19.9741   412
19.9841   434
19.9941   433
20.0041   423
20.0141   430
20.0241   429
20.0341   438
20.0441   446
20.0541   406
20.0641   390
20.0741   432
20.0841   403
20.0941   396
20.1041   390
20.1141   404
20.1241   416
20.1341   428
20.1441   405
20.1541   404
20.1641   398
20.1741   404
20.1841   428
20.1941   422
20.2041   432
20.2141   423
20.2241   432
20.2341   393
20.2441   435
20.2541   445
20.2641   434
20.2741   440
20.2841   422
20.2941   430
20.3041   434
20.3141   441
20.3241   433
20.3341   409
20.3441   402
20.3541   461
20.3641   427
20.3741   402
20.3841   447
20.3941   401
20.4041   439
20.4141   421
20.4241   416
20.4341   396
20.4441   437
20.4541   437
20.4641   426
20.4741   434
20.4841   456
20.4941   417
20.5041   414
20.5141   425
20.5241   478
20.5341   458
20.5441   433
20.5541   425
20.5641   406
20.5741   412
20.5841   414
20.5941   418
20.6041   416
20.6141   430
20.6241   433
20.6341   457
20.6441   411
20.6541   405
20.6641   450
20.6741   452
20.6841   456
20.6941   443
20.7041   452
20.7141   449
20.7241   435
20.7341   432
20.7441   460
20.7541   416
20.7641   437
20.7741   429
20.7841   428
20.7941   459
20.8041   461
20.8141   437
20.8241   418
20.8341   446
20.8441   454
20.8541   436
20.8641   472
20.8741   471
20.8841   460
20.8941   473
20.9041   475
20.9141   487
20.9241   497
20.9341   506
20.9441   495
20.9541   513
20.9641   508
20.9741   518
20.9841   499
20.9941   506
21.0041   569
21.0141   535
21.0241   578
21.0341   623
21.0441   557
21.0541   603
21.0641   607
21.0741   627
21.0841   631
21.0941   640
21.1041   603
21.1141   614
21.1241   624
21.1341   617
21.1441   617
21.1541   602
21.1641   626
21.1741   606
21.1841   658
21.1941   630
21.2041   639
21.2141   597
21.2241   589
21.2341   579
21.2441   581
21.2541   556
21.2641   561
21.2741   517
21.2841   508
21.2941   500
21.3041   497
21.3141   524
21.3241   498
21.3341   471
21.3441   463
21.3541   462
21.3641   452
21.3741   488
21.3841   462
21.3941   443
21.4041   466
21.4141   419
21.4241   430
21.4341   429
21.4441   392
21.4541   433
21.4641   425
21.4741   452
21.4841   434
21.4941   414
21.5041   443
21.5141   425
21.5241   410
21.5341   395
21.5441   480
21.5541   419
21.5641   459
21.5741   441
21.5841   412
21.5941   400
21.6041   399
21.6141   423
21.6241   432
21.6341   405
21.6441   429
21.6541   426
21.6641   434
21.6741   441
21.6841   465
21.6941   421
21.7041   433
21.7141   441
21.7241   435
21.7341   428
21.7441   463
21.7541   478
21.7641   443
21.7741   424
21.7841   437
21.7941   441
21.8041   464
21.8141   440
21.8241   428
21.8341   441
21.8441   428
21.8541   416
21.8641   399
21.8741   411
21.8841   430
21.8941   427
21.9041   425
21.9141   450
21.9241   391
21.9341   432
21.9441   435
21.9541   389
21.9641   421
21.9741   426
21.9841   456
21.9941   448
22.0041   421
22.0141   422
22.0241   439
22.0341   501
22.0441   437
22.0541   417
22.0641   406
22.0741   421
22.0841   374
22.0941   444
22.1041   431
22.1141   426
22.1241   401
22.1341   386
22.1441   388
22.1541   407
22.1641   398
22.1741   436
22.1841   482
22.1941   445
22.2041   425
22.2141   424
22.2241   417
22.2341   431
22.2441   403
22.2541   469
22.2641   452
22.2741   397
22.2841   442
22.2941   382
22.3041   450
22.3141   391
22.3241   432
22.3341   438
22.3441   420
22.3541   415
22.3641   390
22.3741   406
22.3841   419
22.3941   428
22.4041   411
22.4141   415
22.4241   416
22.4341   411
22.4441   403
22.4541   433
22.4641   419
22.4741   457
22.4841   427
22.4941   421
22.5041   406
22.5141   457
22.5241   408
22.5341   412
22.5441   369
22.5541   437
22.5641   413
22.5741   403
22.5841   400
22.5941   375
22.6041   385
22.6141   420
22.6241   439
22.6341   409
22.6441   464
22.6541   414
22.6641   403
22.6741   415
22.6841   441
22.6941   444
22.7041   370
22.7141   405
22.7241   392
22.7341   418
22.7441   407
22.7541   431
22.7641   355
22.7741   398
22.7841   396
22.7941   405
22.8041   395
22.8141   467
22.8241   441
22.8341   443
22.8441   434
22.8541   451
22.8641   424
22.8741   411
22.8841   428
22.8941   423
22.9041   429
22.9141   420
22.9241   386
22.9341   437
22.9441   434
22.9541   408
22.9641   395
22.9741   360
22.9841   379
22.9941   405
23.0041   417
23.0141   400
23.0241   415
23.0341   367
23.0441   397
23.0541   409
23.0641   418
23.0741   376
23.0841   414
23.0941   399
23.1041   397
23.1141   429
23.1241   415
23.1341   403
23.1441   425
23.1541   426
23.1641   439
23.1741   421
23.1841   420
23.1941   403
23.2041   371
23.2141   433
23.2241   354
23.2341   422
23.2441   398
23.2541   405
23.2641   384
23.2741   432
23.2841   382
23.2941   435
23.3041   443
23.3141   376
23.3241   437
23.3341   386
23.3441   403
23.3541   424
23.3641   412
23.3741   429
23.3841   416
23.3941   392
23.4041   396
23.4141   420
23.4241   417
23.4341   401
23.4441   409
23.4541   385
23.4641   408
23.4741   439
23.4841   418
23.4941   425
23.5041   412
23.5141   405
23.5241   408
23.5341   409
23.5441   391
23.5541   420
23.5641   404
23.5741   374
23.5841   388
23.5941   399
23.6041   428
23.6141   451
23.6241   385
23.6341   404
23.6441   413
23.6541   408
23.6641   427
23.6741   382
23.6841   427
23.6941   429
23.7041   454
23.7141   421
23.7241   404
23.7341   423
23.7441   440
23.7541   426
23.7641   412
23.7741   438
23.7841   458
23.7941   412
23.8041   451
23.8141   471
23.8241   416
23.8341   441
23.8441   414
23.8541   392
23.8641   420
23.8741   400
23.8841   413
23.8941   448
23.9041   411
23.9141   407
23.9241   415
23.9341   419
23.9441   421
23.9541   379
23.9641   407
23.9741   388
23.9841   357
23.9941   382
24.0041   408
24.0141   410
24.0241   372
24.0341   388
24.0441   390
24.0541   394
24.0641   379
24.0741   385
24.0841   416
24.0941   380
24.1041   402
24.1141   393
24.1241   338
24.1341   408
24.1441   376
24.1541   388
24.1641   420
24.1741   409
24.1841   393
24.1941   413
24.2041   401
24.2141   388
24.2241   382
24.2341   378
24.2441   376
24.2541   415
24.2641   374
24.2741   408
24.2841   398
24.2941   378
24.3041   385
24.3141   374
24.3241   413
24.3341   423
24.3441   403
24.3541   401
24.3641   390
24.3741   370
24.3841   398
24.3941   390
24.4041   368
24.4141   389
24.4241   355
24.4341   406
24.4441   400
24.4541   367
24.4641   374
24.4741   365
24.4841   401
24.4941   422
24.5041   402
24.5141   400
24.5241   384
24.5341   365
24.5441   356
24.5541   363
24.5641   410
24.5741   385
24.5841   401
24.5941   374
24.6041   377
24.6141   383
24.6241   366
24.6341   395
24.6441   388
24.6541   378
24.6641   387
24.6741   384
24.6841   376
24.6941   378
24.7041   352
24.7141   377
24.7241   361
24.7341   386
24.7441   370
24.7541   355
24.7641   326
24.7741   368
24.7841   380
24.7941   362
24.8041   354
24.8141   349
24.8241   377
24.8341   377
24.8441   354
24.8541   379
24.8641   376
24.8741   332
24.8841   352
24.8941   383
24.9041   356
24.9141   392
24.9241   375
24.9341   352
24.9441   355
24.9541   378
24.9641   363
24.9741   339
24.9841   356
24.9941   366
25.0041   347
25.0141   355
25.0241   381
25.0341   386
25.0441   360
25.0541   376
25.0641   393
25.0741   356
25.0841   359
25.0941   325
25.1041   402
25.1141   355
25.1241   390
25.1341   375
25.1441   363
25.1541   358
25.1641   362
25.1741   363
25.1841   355
25.1941   314
25.2041   332
25.2141   368
25.2241   368
25.2341   343
25.2441   362
25.2541   347
25.2641   376
25.2741   356
25.2841   334
25.2941   374
25.3041   353
25.3141   401
25.3241   324
25.3341   363
25.3441   354
25.3541   335
25.3641   348
25.3741   363
25.3841   353
25.3941   403
25.4041   355
25.4141   387
25.4241   360
25.4341   362
25.4441   357
25.4541   343
25.4641   329
25.4741   329
25.4841   338
25.4941   360
25.5041   380
25.5141   338
25.5241   368
25.5341   355
25.5441   347
25.5541   343
25.5641   360
25.5741   353
25.5841   351
25.5941   361
25.6041   335
25.6141   330
25.6241   367
25.6341   319
25.6441   336
25.6541   324
25.6641   333
25.6741   303
25.6841   351
25.6941   324
25.7041   347
25.7141   344
25.7241   350
25.7341   357
25.7441   340
25.7541   335
25.7641   337
25.7741   356
25.7841   322
25.7941   367
25.8041   343
25.8141   340
25.8241   348
25.8341   343
25.8441   354
25.8541   357
25.8641   299
25.8741   289
25.8841   314
25.8941   328
25.9041   326
25.9141   352
25.9241   320
25.9341   334
25.9441   332
25.9541   313
25.9641   338
25.9741   332
25.9841   335
25.9941   342
26.0041   324
26.0141   328
26.0241   331
26.0341   313
26.0441   310
26.0541   338
26.0641   331
26.0741   353
26.0841   347
26.0941   306
26.1041   367
26.1141   341
26.1241   310
26.1341   297
26.1441   361
26.1541   335
26.1641   340
26.1741   317
26.1841   306
26.1941   328
26.2041   309
26.2141   336
26.2241   344
26.2341   324
26.2441   312
26.2541   297
26.2641   328
26.2741   326
26.2841   349
26.2941   349
26.3041   318
26.3141   332
26.3241   307
26.3341   331
26.3441   320
26.3541   326
26.3641   308
26.3741   323
26.3841   312
26.3941   314
26.4041   325
26.4141   339
26.4241   319
26.4341   285
26.4441   331
26.4541   339
26.4641   315
26.4741   315
26.4841   305
26.4941   330
26.5041   322
26.5141   292
26.5241   304
26.5341   293
26.5441   316
26.5541   320
26.5641   295
26.5741   296
26.5841   305
26.5941   323
26.6041   295
26.6141   324
26.6241   278
26.6341   318
26.6441   320
26.6541   298
26.6641   328
26.6741   298
26.6841   311
26.6941   298
26.7041   346
26.7141   317
26.7241   304
26.7341   297
26.7441   291
26.7541   329
26.7641   347
26.7741   307
26.7841   272
26.7941   284
26.8041   290
26.8141   320
26.8241   285
26.8341   291
26.8441   279
26.8541   304
26.8641   281
26.8741   292
26.8841   278
26.8941   277
26.9041   302
26.9141   296
26.9241   302
26.9341   287
26.9441   287
26.9541   293
26.9641   287
26.9741   257
26.9841   290
26.9941   306
27.0041   292
27.0141   298
27.0241   309
27.0341   299
27.0441   284
27.0541   284
27.0641   297
27.0741   305
27.0841   323
27.0941   290
27.1041   281
27.1141   283
27.1241   294
27.1341   298
27.1441   312
27.1541   307
27.1641   300
27.1741   304
27.1841   294
27.1941   303
27.2041   289
27.2141   317
27.2241   281
27.2341   285
27.2441   314
27.2541   305
27.2641   308
27.2741   264
27.2841   269
27.2941   312
27.3041   295
27.3141   290
27.3241   290
27.3341   279
27.3441   305
27.3541   275
27.3641   308
27.3741   290
27.3841   273
27.3941   312
27.4041   286
27.4141   300
27.4241   299
27.4341   298
27.4441   324
27.4541   298
27.4641   276
27.4741   273
27.4841   286
27.4941   327
27.5041   278
27.5141   310
27.5241   297
27.5341   301
27.5441   284
27.5541   284
27.5641   268
27.5741   291
27.5841   280
27.5941   296
27.6041   293
27.6141   298
27.6241   241
27.6341   282
27.6441   274
27.6541   290
27.6641   271
27.6741   284
27.6841   254
27.6941   288
27.7041   264
27.7141   266
27.7241   264
27.7341   278
27.7441   281
27.7541   275
27.7641   290
27.7741   268
27.7841   263
27.7941   268
27.8041   287
27.8141   263
27.8241   270
27.8341   258
27.8441   284
27.8541   282
27.8641   294
27.8741   260
27.8841   265
27.8941   279
27.9041   273
27.9141   265
27.9241   268
27.9341   276
27.9441   291
27.9541   277
27.9641   274
27.9741   277
27.9841   264
27.9941   245
28.0041   256
28.0141   270
28.0241   270
28.0341   258
28.0441   241
28.0541   263
28.0641   253
28.0741   264
28.0841   272
28.0941   265
28.1041   278
28.1141   254
28.1241   289
28.1341   253
28.1441   247
28.1541   255
28.1641   238
28.1741   232
28.1841   258
28.1941   256
28.2041   256
28.2141   273
28.2241   270
28.2341   262
28.2441   257
28.2541   243
28.2641   265
28.2741   228
28.2841   234
28.2941   257
28.3041   278
28.3141   241
28.3241   239
28.3341   227
28.3441   281
28.3541   260
28.3641   235
28.3741   255
28.3841   265
28.3941   230
28.4041   219
28.4141   236
28.4241   262
28.4341   273
28.4441   235
28.4541   242
28.4641   247
28.4741   273
28.4841   254
28.4941   252
28.5041   245
28.5141   259
28.5241   289
28.5341   250
28.5441   230
28.5541   236
28.5641   249
28.5741   261
28.5841   259
28.5941   258
28.6041   265
28.6141   262
28.6241   250
28.6341   245
28.6441   241
28.6541   242
28.6641   235
28.6741   259
28.6841   230
28.6941   244
28.7041   235
28.7141   236
28.7241   224
28.7341   253
28.7441   227
28.7541   231
28.7641   227
28.7741   234
28.7841   242
28.7941   221
28.8041   270
28.8141   238
28.8241   250
28.8341   238
28.8441   228
28.8541   226
28.8641   239
28.8741   233
28.8841   225
28.8941   226
28.9041   240
28.9141   227
28.9241   241
28.9341   242
28.9441   217
28.9541   216
28.9641   248
28.9741   240
28.9841   228
28.9941   226
29.0041   222
29.0141   212
29.0241   229
29.0341   228
29.0441   185
29.0541   242
29.0641   208
29.0741   215
29.0841   240
29.0941   224
29.1041   226
29.1141   197
29.1241   223
29.1341   220
29.1441   219
29.1541   244
29.1641   247
29.1741   205
29.1841   234
29.1941   212
29.2041   218
29.2141   230
29.2241   236
29.2341   244
29.2441   210
29.2541   230
29.2641   213
29.2741   238
29.2841   215
29.2941   229
29.3041   235
29.3141   225
29.3241   216
29.3341   212
29.3441   215
29.3541   215
29.3641   217
29.3741   211
29.3841   222
29.3941   226
29.4041   203
29.4141   208
29.4241   212
29.4341   186
29.4441   198
29.4541   213
29.4641   209
29.4741   210
29.4841   246
29.4941   216
29.5041   206
29.5141   198
29.5241   211
29.5341   214
29.5441   229
29.5541   202
29.5641   241
29.5741   228
29.5841   208
29.5941   212
29.6041   194
29.6141   217
29.6241   226
29.6341   217
29.6441   210
29.6541   207
29.6641   191
29.6741   216
29.6841   216
29.6941   206
29.7041   222
29.7141   226
29.7241   185
29.7341   207
29.7441   222
29.7541   198
29.7641   183
29.7741   212
29.7841   189
29.7941   228
29.8041   228
29.8141   214
29.8241   206
29.8341   203
29.8441   204
29.8541   203
29.8641   238
29.8741   215
29.8841   222
29.8941   215
29.9041   207
29.9141   198
29.9241   201
29.9341   225
29.9441   215
29.9541   201
29.9641   185
29.9741   215
29.9841   188
29.9941   212
30.0041   205
30.0141   186
30.0241   201
30.0341   193
30.0441   225
30.0541   201
30.0641   207
30.0741   201
30.0841   183
30.0941   192
30.1041   204
30.1141   218
30.1241   192
30.1341   179
30.1441   188
30.1541   208
30.1641   195
30.1741   182
30.1841   180
30.1941   199
30.2041   190
30.2141   192
30.2241   208
30.2341   192
30.2441   198
30.2541   192
30.2641   207
30.2741   199
30.2841   182
30.2941   183
30.3041   212
30.3141   186
30.3241   183
30.3341   186
30.3441   191
30.3541   201
30.3641   172
30.3741   210
30.3841   177
30.3941   186
30.4041   190
30.4141   189
30.4241   194
30.4341   195
30.4441   181
30.4541   186
30.4641   178
30.4741   176
30.4841   177
30.4941   199
30.5041   207
30.5141   181
30.5241   178
30.5341   167
30.5441   188
30.5541   182
30.5641   196
30.5741   177
30.5841   167
30.5941   215
30.6041   182
30.6141   188
30.6241   201
30.6341   179
30.6441   166
30.6541   176
30.6641   205
30.6741   172
30.6841   178
30.6941   164
30.7041   169
30.7141   163
30.7241   179
30.7341   194
30.7441   176
30.7541   180
30.7641   196
30.7741   161
30.7841   174
30.7941   208
30.8041   179
30.8141   167
30.8241   175
30.8341   166
30.8441   169
30.8541   175
30.8641   180
30.8741   185
30.8841   179
30.8941   171
30.9041   198
30.9141   188
30.9241   161
30.9341   182
30.9441   180
30.9541   147
30.9641   186
30.9741   203
30.9841   178
30.9941   170
31.0041   187
31.0141   169
31.0241   166
31.0341   188
31.0441   177
31.0541   185
31.0641   189
31.0741   184
31.0841   177
31.0941   154
31.1041   171
31.1141   178
31.1241   159
31.1341   162
31.1441   145
31.1541   167
31.1641   173
31.1741   174
31.1841   163
31.1941   167
31.2041   156
31.2141   181
31.2241   142
31.2341   169
31.2441   149
31.2541   170
31.2641   172
31.2741   174
31.2841   170
31.2941   156
31.3041   165
31.3141   170
31.3241   176
31.3341   166
31.3441   169
31.3541   156
31.3641   191
31.3741   168
31.3841   160
31.3941   143
31.4041   173
31.4141   169
31.4241   171
31.4341   172
31.4441   161
31.4541   161
31.4641   158
31.4741   158
31.4841   158
31.4941   165
31.5041   162
31.5141   142
31.5241   154
31.5341   161
31.5441   156
31.5541   141
31.5641   154
31.5741   159
31.5841   150
31.5941   178
31.6041   173
31.6141   162
31.6241   164
31.6341   152
31.6441   156
31.6541   153
31.6641   144
31.6741   126
31.6841   150
31.6941   133
31.7041   169
31.7141   154
31.7241   158
31.7341   176
31.7441   170
31.7541   171
31.7641   164
31.7741   158
31.7841   148
31.7941   178
31.8041   166
31.8141   148
31.8241   149
31.8341   183
31.8441   157
31.8541   169
31.8641   194
31.8741   191
31.8841   156
31.8941   162
31.9041   162
31.9141   158
31.9241   168
31.9341   185
31.9441   164
31.9541   180
31.9641   134
31.9741   154
31.9841   147
31.9941   142
32.0041   155
32.0141   161
32.0241   162
32.0341   151
32.0441   159
32.0541   169
32.0641   172
32.0741   154
32.0841   144
32.0941   167
32.1041   149
32.1141   154
32.1241   165
32.1341   169
32.1441   168
32.1541   153
32.1641   159
32.1741   170
32.1841   173
32.1941   182
32.2041   172
32.2141   152
32.2241   158
32.2341   165
32.2441   158
32.2541   165
32.2641   145
32.2741   157
32.2841   173
32.2941   163
32.3041   151
32.3141   156
32.3241   163
32.3341   135
32.3441   147
32.3541   157
32.3641   122
32.3741   134
32.3841   156
32.3941   157
32.4041   140
32.4141   150
32.4241   155
32.4341   161
32.4441   127
32.4541   121
32.4641   150
32.4741   156
32.4841   153
32.4941   155
32.5041   131
32.5141   131
32.5241   145
32.5341   149
32.5441   125
32.5541   143
32.5641   124
32.5741   157
32.5841   130
32.5941   134
32.6041   124
32.6141   128
32.6241   138
32.6341   133
32.6441   134
32.6541   143
32.6641   117
32.6741   130
32.6841   121
32.6941   145
32.7041   131
32.7141   139
32.7241   125
32.7341   136
32.7441   126
32.7541   118
32.7641   121
32.7741   115
32.7841   135
32.7941   123
32.8041   107
32.8141   121
32.8241   130
32.8341   128
32.8441   140
32.8541   141
32.8641   123
32.8741   115
32.8841   131
32.8941   117
32.9041   121
32.9141   132
32.9241   134
32.9341   138
32.9441   158
32.9541   122
32.9641   144
32.9741   135
32.9841   130
32.9941   126
33.0041   146
33.0141   125
33.0241   118
33.0341   116
33.0441   115
33.0541   124
33.0641   132
33.0741   121
33.0841   126
33.0941   114
33.1041   123
33.1141   117
33.1241   119
33.1341   127
33.1441   129
33.1541   122
33.1641   108
33.1741   121
33.1841   112
33.1941   109
33.2041   107
33.2141   111
33.2241   116
33.2341   121
33.2441   118
33.2541   153
33.2641   103
33.2741   106
33.2841   130
33.2941   125
33.3041   121
33.3141   116
33.3241   127
33.3341   126
33.3441   116
33.3541   125
33.3641   119
33.3741   134
33.3841   104
33.3941    99
33.4041   122
33.4141   113
33.4241   117
33.4341   113
33.4441   107
33.4541   116
33.4641   108
33.4741   103
33.4841   123
33.4941   112
33.5041   119
33.5141   101
33.5241   114
33.5341   100
33.5441   114
33.5541    94
33.5641   108
33.5741   117
33.5841   110
33.5941   105
33.6041   122
33.6141   101
33.6241   118
33.6341   116
33.6441   115
33.6541   119
33.6641   117
33.6741    85
33.6841   100
33.6941   104
33.7041   115
33.7141   101
33.7241   110
33.7341    97
33.7441   100
33.7541   115
33.7641   113
33.7741    95
33.7841   111
33.7941   124
33.8041   101
33.8141   106
33.8241    94
33.8341   117
33.8441   121
33.8541   104
33.8641   113
33.8741   114
33.8841   114
33.8941    97
33.9041    98
33.9141   111
33.9241    95
33.9341    88
33.9441   102
33.9541    94
33.9641   103
33.9741   105
33.9841    96
33.9941    94
34.0041    93
34.0141   108
34.0241    96
34.0341   110
34.0441   103
34.0541    96
34.0641    93
34.0741   113
34.0841    82
34.0941   101
34.1041    90
34.1141    99
34.1241    89
34.1341   108
34.1441    83
34.1541    82
34.1641    94
34.1741    84
34.1841    95
34.1941    93
34.2041    87
34.2141    91
34.2241    77
34.2341    93
34.2441    96
34.2541   108
34.2641   118
34.2741    88
34.2841   102
34.2941   109
34.3041    90
34.3141    92
34.3241   100
34.3341    83
34.3441    99
34.3541    97
34.3641    96
34.3741    99
34.3841    99
34.3941   100
34.4041    89
34.4141   103
34.4241    92
34.4341   101
34.4441    84
34.4541    85
34.4641    88
34.4741    87
34.4841    98
34.4941    92
34.5041    97
34.5141    98
34.5241    80
34.5341    95
34.5441    79
34.5541    96
34.5641    77
34.5741    99
34.5841   100
34.5941    93
34.6041   104
34.6141    83
34.6241   100
34.6341    96
34.6441    81
34.6541    94
34.6641    82
34.6741    89
34.6841    97
34.6941    88
34.7041    99
34.7141    85
34.7241    79
34.7341    92
34.7441   100
34.7541    82
34.7641    78
34.7741    95
34.7841    94
34.7941    87
34.8041    82
34.8141    82
34.8241    99
34.8341    92
34.8441    92
34.8541    92
34.8641    85
34.8741    88
34.8841    90
34.8941    97
34.9041    65
34.9141    93
34.9241    82
34.9341    65
34.9441    76
34.9541    99
34.9641    72
34.9741    92
34.9841    76
34.9941    71
35.0041    85
35.0141    90
35.0241    91
35.0341    86
35.0441    83
35.0541    78
35.0641    91
35.0741    83
35.0841    89
35.0941    88
35.1041    83
35.1141    81
35.1241    78
35.1341    86
35.1441    94
35.1541    84
35.1641    82
35.1741    81
35.1841    75
35.1941    74
35.2041    92
35.2141    77
35.2241    88
35.2341    81
35.2441    69
35.2541    74
35.2641    88
35.2741    71
35.2841    88
35.2941    73
35.3041    87
35.3141    88
35.3241    71
35.3341    77
35.3441    86
35.3541    84
35.3641    75
35.3741    60
35.3841    67
35.3941    76
35.4041    81
35.4141    78
35.4241    96
35.4341    82
35.4441    81
35.4541    71
35.4641    77
35.4741    76
35.4841    75
35.4941    72
35.5041    60
35.5141    71
35.5241    72
35.5341    76
35.5441    71
35.5541    75
35.5641    74
35.5741    60
35.5841    79
35.5941    81
35.6041    81
35.6141    78
35.6241    82
35.6341    71
35.6441    68
35.6541    77
35.6641    82
35.6741    77
35.6841    76
35.6941    81
35.7041    75
35.7141    79
35.7241    79
35.7341    66
35.7441    76
35.7541    80
35.7641    69
35.7741    67
35.7841    61
35.7941    65
35.8041    77
35.8141    78
35.8241    68
35.8341    71
35.8441    63
35.8541    74
35.8641    78
35.8741    62
35.8841    97
35.8941    83
35.9041    69
35.9141    77
35.9241    77
35.9341    70
35.9441    61
35.9541    61
35.9641    67
35.9741    76
35.9841    71
35.9941    62
36.0041    63
36.0141    82
36.0241    64
36.0341    67
36.0441    68
36.0541    77
36.0641    62
36.0741    62
36.0841    58
36.0941    62
36.1041    63
36.1141    66
36.1241    65
36.1341    78
36.1441    72
36.1541    62
36.1641    63
36.1741    69
36.1841    70
36.1941    76
36.2041    69
36.2141    89
36.2241    86
36.2341    65
36.2441    65
36.2541    66
36.2641    73
36.2741    68
36.2841    59
36.2941    59
36.3041    60
36.3141    75
36.3241    65
36.3341    59
36.3441    77
36.3541    74
36.3641    63
36.3741    60
36.3841    68
36.3941    60
36.4041    67
36.4141    55
36.4241    63
36.4341    65
36.4441    65
36.4541    56
36.4641    57
36.4741    75
36.4841    62
36.4941    60
36.5041    71
36.5141    57
36.5241    46
36.5341    57
36.5441    54
36.5541    52
36.5641    67
36.5741    62
36.5841    61
36.5941    62
36.6041    53
36.6141    72
36.6241    64
36.6341    70
36.6441    68
36.6541    62
36.6641    53
36.6741    65
36.6841    55
36.6941    65
36.7041    50
36.7141    67
36.7241    58
36.7341    62
36.7441    55
36.7541    59
36.7641    74
36.7741    50
36.7841    51
36.7941    58
36.8041    61
36.8141    57
36.8241    51
36.8341    49
36.8441    49
36.8541    51
36.8641    62
36.8741    46
36.8841    47
36.8941    56
36.9041    59
36.9141    56
36.9241    48
36.9341    60
36.9441    47
36.9541    56
36.9641    57
36.9741    55
36.9841    44
36.9941    64
37.0041    62
37.0141    49
37.0241    60
37.0341    57
37.0441    51
37.0541    52
37.0641    59
37.0741    50
37.0841    57
37.0941    44
37.1041    48
37.1141    52
37.1241    51
37.1341    48
37.1441    48
37.1541    53
37.1641    50
37.1741    48
37.1841    55
37.1941    48
37.2041    54
37.2141    53
37.2241    54
37.2341    53
37.2441    39
37.2541    51
37.2641    56
37.2741    51
37.2841    43
37.2941    52
37.3041    41
37.3141    53
37.3241    50
37.3341    54
37.3441    54
37.3541    40
37.3641    43
37.3741    53
37.3841    51
37.3941    38
37.4041    41
37.4141    44
37.4241    53
37.4341    55
37.4441    44
37.4541    60
37.4641    46
37.4741    57
37.4841    47
37.4941    49
37.5041    47
37.5141    48
37.5241    57
37.5341    42
37.5441    46
37.5541    55
37.5641    50
37.5741    49
37.5841    46
37.5941    51
37.6041    49
37.6141    54
37.6241    41
37.6341    43
37.6441    54
37.6541    49
37.6641    46
37.6741    36
37.6841    47
37.6941    58
37.7041    52
37.7141    53
37.7241    39
37.7341    51
37.7441    49
37.7541    40
37.7641    45
37.7741    40
37.7841    39
37.7941    39
37.8041    44
37.8141    24
37.8241    48
37.8341    47
37.8441    55
37.8541    38
37.8641    36
37.8741    40
37.8841    46
37.8941    46
37.9041    48
37.9141    40
37.9241    43
37.9341    49
37.9441    45
37.9541    46
37.9641    42
37.9741    50
37.9841    45
37.9941    39
38.0041    37
38.0141    35
38.0241    37
38.0341    52
38.0441    42
38.0541    41
38.0641    35
38.0741    40
38.0841    37
38.0941    49
38.1041    38
38.1141    43
38.1241    49
38.1341    37
38.1441    40
38.1541    30
38.1641    44
38.1741    42
38.1841    45
38.1941    35
38.2041    39
38.2141    35
38.2241    39
38.2341    43
38.2441    30
38.2541    37
38.2641    32
38.2741    41
38.2841    51
38.2941    41
38.3041    46
38.3141    38
38.3241    32
38.3341    40
38.3441    38
38.3541    39
38.3641    40
38.3741    33
38.3841    44
38.3941    46
38.4041    34
38.4141    36
38.4241    46
38.4341    37
38.4441    39
38.4541    37
38.4641    50
38.4741    44
38.4841    29
38.4941    39
38.5041    31
38.5141    36
38.5241    41
38.5341    37
38.5441    41
38.5541    40
38.5641    31
38.5741    30
38.5841    36
38.5941    36
38.6041    28
38.6141    41
38.6241    29
38.6341    31
38.6441    40
38.6541    31
38.6641    34
38.6741    35
38.6841    30
38.6941    31
38.7041    32
38.7141    28
38.7241    31
38.7341    34
38.7441    36
38.7541    25
38.7641    36
38.7741    30
38.7841    24
38.7941    36
38.8041    43
38.8141    21
38.8241    41
38.8341    30
38.8441    38
38.8541    36
38.8641    27
38.8741    35
38.8841    21
38.8941    30
38.9041    33
38.9141    28
38.9241    33
38.9341    32
38.9441    30
38.9541    37
38.9641    32
38.9741    28
38.9841    33
38.9941    33
39.0041    19
39.0141    31
39.0241    40
39.0341    27
39.0441    38
39.0541    31
39.0641    28
39.0741    25
39.0841    32
39.0941    32
39.1041    31
39.1141    24
39.1241    22
39.1341    25
39.1441    28
39.1541    36
39.1641    31
39.1741    27
39.1841    26
39.1941    28
39.2041    34
39.2141    28
39.2241    29
39.2341    40
39.2441    31
39.2541    29
39.2641    31
39.2741    23
39.2841    23
39.2941    28
39.3041    32
39.3141    26
39.3241    23
39.3341    25
39.3441    27
39.3541    22
39.3641    29
39.3741    28
39.3841    24
39.3941    25
39.4041    28
39.4141    23
39.4241    22
39.4341    36
39.4441    32
39.4541    23
39.4641    32
39.4741    17
39.4841    22
39.4941    23
39.5041    37
39.5141    25
39.5241    19
39.5341    25
39.5441    20
39.5541    28
39.5641    26
39.5741    16
39.5841    23
39.5941    26
39.6041    23
39.6141    27
39.6241    21
39.6341    30
39.6441    19
39.6541    29
39.6641    18
39.6741    19
39.6841    18
39.6941    30
39.7041    32
39.7141    23
39.7241    23
39.7341    13
39.7441    21
39.7541    20
39.7641    15
39.7741    25
39.7841    19
39.7941    31
39.8041    17
39.8141    18
39.8241    25
39.8341    25
39.8441    19
39.8541    27
39.8641    24
39.8741    17
39.8841    19
39.8941    22
39.9041    18
39.9141    22
39.9241    26
39.9341    25
39.9441    26
39.9541    25
39.9641    26
39.9741    19
39.9841    19
