Bruker Nano GmbH Berlin, Germany
Esprit 1.9

Date: 5/14/2021 1:33:05 PM
Real time: 20677
Life time: 19446
Pulse density: 85469


Detector type: XFlash 430
Window type: Custom type
Detector thickness: 0.45
Si dead layer:0.029

Calibration, lin.: 10
Calibration, abs.: -955.9
Mn FWHM: 137.05
Fano factor: 0.121
Channels: 4096

Energy Counts
-0.9559     0
-0.9459     0
-0.9359     0
-0.9259     0
-0.9159     0
-0.9059     0
-0.8959     0
-0.8859     0
-0.8759     0
-0.8659     0
-0.8559     0
-0.8459     0
-0.8359     0
-0.8259     0
-0.8159     0
-0.8059     0
-0.7959     0
-0.7859     0
-0.7759     0
-0.7659     0
-0.7559     0
-0.7459     0
-0.7359     0
-0.7259     0
-0.7159     0
-0.7059     0
-0.6959     0
-0.6859     0
-0.6759     0
-0.6659     0
-0.6559     0
-0.6459     0
-0.6359     0
-0.6259     0
-0.6159     0
-0.6059     0
-0.5959     0
-0.5859     0
-0.5759     0
-0.5659     0
-0.5559     0
-0.5459     0
-0.5359     0
-0.5259     0
-0.5159     0
-0.5059     0
-0.4959     0
-0.4859     0
-0.4759     0
-0.4659     0
-0.4559     0
-0.4459     0
-0.4359     0
-0.4259     0
-0.4159     0
-0.4059     0
-0.3959     0
-0.3859     0
-0.3759     0
-0.3659     0
-0.3559     0
-0.3459     0
-0.3359     0
-0.3259     0
-0.3159     0
-0.3059     0
-0.2959     0
-0.2859     0
-0.2759     0
-0.2659     0
-0.2559     0
-0.2459     0
-0.2359     0
-0.2259     0
-0.2159     0
-0.2059     0
-0.1959     0
-0.1859     0
-0.1759     0
-0.1659     0
-0.1559     0
-0.1459     1
-0.1359     0
-0.1259     0
-0.1159     0
-0.1059     8
-0.0959    71
-0.0859   220
-0.0759   720
-0.0659  2288
-0.0559  5611
-0.0459 12477
-0.0359 23467
-0.0259 36785
-0.0159 50334
-0.0059 59667
 0.0041 60120
 0.0141 51635
 0.0241 38009
 0.0341 23927
 0.0441 13257
 0.0541  6137
 0.0641  2497
 0.0741   891
 0.0841   240
 0.0941    76
 0.1041    23
 0.1141     8
 0.1241    10
 0.1341     9
 0.1441     9
 0.1541     6
 0.1641     5
 0.1741     2
 0.1841   178
 0.1941   391
 0.2041   329
 0.2141   329
 0.2241   304
 0.2341   297
 0.2441   318
 0.2541   299
 0.2641   324
 0.2741   337
 0.2841   326
 0.2941   314
 0.3041   333
 0.3141   293
 0.3241   306
 0.3341   308
 0.3441   294
 0.3541   307
 0.3641   267
 0.3741   273
 0.3841   295
 0.3941   304
 0.4041   276
 0.4141   285
 0.4241   298
 0.4341   294
 0.4441   299
 0.4541   255
 0.4641   276
 0.4741   293
 0.4841   288
 0.4941   278
 0.5041   273
 0.5141   280
 0.5241   268
 0.5341   269
 0.5441   272
 0.5541   253
 0.5641   266
 0.5741   262
 0.5841   253
 0.5941   265
 0.6041   260
 0.6141   250
 0.6241   256
 0.6341   265
 0.6441   258
 0.6541   243
 0.6641   233
 0.6741   229
 0.6841   242
 0.6941   254
 0.7041   237
 0.7141   216
 0.7241   229
 0.7341   240
 0.7441   238
 0.7541   235
 0.7641   238
 0.7741   231
 0.7841   235
 0.7941   235
 0.8041   211
 0.8141   222
 0.8241   237
 0.8341   232
 0.8441   235
 0.8541   239
 0.8641   229
 0.8741   215
 0.8841   220
 0.8941   235
 0.9041   220
 0.9141   225
 0.9241   224
 0.9341   232
 0.9441   217
 0.9541   226
 0.9641   220
 0.9741   215
 0.9841   201
 0.9941   197
 1.0041   212
 1.0141   203
 1.0241   212
 1.0341   224
 1.0441   220
 1.0541   217
 1.0641   222
 1.0741   211
 1.0841   213
 1.0941   220
 1.1041   198
 1.1141   196
 1.1241   197
 1.1341   206
 1.1441   203
 1.1541   213
 1.1641   202
 1.1741   190
 1.1841   191
 1.1941   192
 1.2041   206
 1.2141   197
 1.2241   214
 1.2341   191
 1.2441   187
 1.2541   202
 1.2641   196
 1.2741   181
 1.2841   198
 1.2941   176
 1.3041   186
 1.3141   196
 1.3241   165
 1.3341   174
 1.3441   187
 1.3541   190
 1.3641   194
 1.3741   198
 1.3841   193
 1.3941   181
 1.4041   206
 1.4141   188
 1.4241   207
 1.4341   195
 1.4441   194
 1.4541   202
 1.4641   192
 1.4741   174
 1.4841   193
 1.4941   189
 1.5041   189
 1.5141   201
 1.5241   191
 1.5341   195
 1.5441   185
 1.5541   187
 1.5641   191
 1.5741   185
 1.5841   167
 1.5941   185
 1.6041   191
 1.6141   179
 1.6241   190
 1.6341   203
 1.6441   202
 1.6541   222
 1.6641   262
 1.6741   323
 1.6841   398
 1.6941   493
 1.7041   576
 1.7141   674
 1.7241   737
 1.7341   774
 1.7441   753
 1.7541   719
 1.7641   658
 1.7741   558
 1.7841   450
 1.7941   420
 1.8041   340
 1.8141   275
 1.8241   253
 1.8341   218
 1.8441   227
 1.8541   227
 1.8641   206
 1.8741   206
 1.8841   196
 1.8941   193
 1.9041   213
 1.9141   194
 1.9241   200
 1.9341   189
 1.9441   175
 1.9541   179
 1.9641   209
 1.9741   229
 1.9841   215
 1.9941   231
 2.0041   217
 2.0141   201
 2.0241   223
 2.0341   220
 2.0441   218
 2.0541   204
 2.0641   199
 2.0741   189
 2.0841   196
 2.0941   195
 2.1041   168
 2.1141   180
 2.1241   155
 2.1341   183
 2.1441   189
 2.1541   167
 2.1641   165
 2.1741   177
 2.1841   191
 2.1941   178
 2.2041   177
 2.2141   144
 2.2241   160
 2.2341   170
 2.2441   169
 2.2541   163
 2.2641   148
 2.2741   163
 2.2841   170
 2.2941   165
 2.3041   153
 2.3141   145
 2.3241   156
 2.3341   180
 2.3441   154
 2.3541   165
 2.3641   154
 2.3741   174
 2.3841   126
 2.3941   161
 2.4041   150
 2.4141   144
 2.4241   148
 2.4341   153
 2.4441   152
 2.4541   150
 2.4641   150
 2.4741   165
 2.4841   156
 2.4941   167
 2.5041   157
 2.5141   127
 2.5241   136
 2.5341   133
 2.5441   151
 2.5541   153
 2.5641   155
 2.5741   143
 2.5841   141
 2.5941   157
 2.6041   149
 2.6141   127
 2.6241   145
 2.6341   146
 2.6441   140
 2.6541   136
 2.6641   150
 2.6741   124
 2.6841   129
 2.6941   150
 2.7041   120
 2.7141   128
 2.7241   139
 2.7341   130
 2.7441   137
 2.7541   155
 2.7641   146
 2.7741   125
 2.7841   131
 2.7941   162
 2.8041   146
 2.8141   161
 2.8241   152
 2.8341   149
 2.8441   148
 2.8541   148
 2.8641   160
 2.8741   150
 2.8841   133
 2.8941   147
 2.9041   132
 2.9141   118
 2.9241   125
 2.9341   137
 2.9441   150
 2.9541   133
 2.9641   128
 2.9741   119
 2.9841   136
 2.9941   106
 3.0041   134
 3.0141   137
 3.0241   137
 3.0341   129
 3.0441   129
 3.0541   130
 3.0641   129
 3.0741   128
 3.0841   117
 3.0941   123
 3.1041   133
 3.1141   121
 3.1241   103
 3.1341   119
 3.1441   114
 3.1541   128
 3.1641   130
 3.1741   145
 3.1841   117
 3.1941   115
 3.2041   148
 3.2141   159
 3.2241   178
 3.2341   179
 3.2441   168
 3.2541   210
 3.2641   268
 3.2741   324
 3.2841   310
 3.2941   360
 3.3041   369
 3.3141   374
 3.3241   341
 3.3341   314
 3.3441   300
 3.3541   277
 3.3641   219
 3.3741   209
 3.3841   181
 3.3941   168
 3.4041   147
 3.4141   127
 3.4241   108
 3.4341   113
 3.4441   112
 3.4541   109
 3.4641   111
 3.4741   103
 3.4841   106
 3.4941   108
 3.5041   125
 3.5141   107
 3.5241   132
 3.5341   153
 3.5441   150
 3.5541   163
 3.5641   199
 3.5741   219
 3.5841   265
 3.5941   333
 3.6041   388
 3.6141   480
 3.6241   634
 3.6341   751
 3.6441   855
 3.6541  1012
 3.6641  1112
 3.6741  1178
 3.6841  1176
 3.6941  1244
 3.7041  1186
 3.7141  1115
 3.7241  1022
 3.7341   823
 3.7441   679
 3.7541   536
 3.7641   452
 3.7741   358
 3.7841   267
 3.7941   202
 3.8041   158
 3.8141   123
 3.8241   117
 3.8341   115
 3.8441   106
 3.8541    92
 3.8641    95
 3.8741    88
 3.8841    98
 3.8941   109
 3.9041   130
 3.9141   136
 3.9241   117
 3.9341   122
 3.9441   149
 3.9541   160
 3.9641   194
 3.9741   204
 3.9841   206
 3.9941   269
 4.0041   236
 4.0141   268
 4.0241   230
 4.0341   241
 4.0441   240
 4.0541   196
 4.0641   203
 4.0741   170
 4.0841   148
 4.0941   126
 4.1041   110
 4.1141    96
 4.1241    96
 4.1341    88
 4.1441    87
 4.1541    83
 4.1641    82
 4.1741    87
 4.1841    83
 4.1941    85
 4.2041    88
 4.2141    89
 4.2241    73
 4.2341    85
 4.2441    69
 4.2541    66
 4.2641    67
 4.2741    79
 4.2841    64
 4.2941    78
 4.3041    79
 4.3141    78
 4.3241    72
 4.3341    83
 4.3441    85
 4.3541    77
 4.3641    81
 4.3741    81
 4.3841    94
 4.3941    94
 4.4041   103
 4.4141   142
 4.4241   121
 4.4341   154
 4.4441   182
 4.4541   198
 4.4641   187
 4.4741   200
 4.4841   232
 4.4941   234
 4.5041   230
 4.5141   219
 4.5241   211
 4.5341   237
 4.5441   218
 4.5541   168
 4.5641   181
 4.5741   145
 4.5841   125
 4.5941   122
 4.6041   104
 4.6141   117
 4.6241    98
 4.6341   112
 4.6441   115
 4.6541    95
 4.6641    86
 4.6741    62
 4.6841   103
 4.6941    92
 4.7041    92
 4.7141    86
 4.7241   101
 4.7341    85
 4.7441    74
 4.7541    83
 4.7641    92
 4.7741    75
 4.7841    86
 4.7941    90
 4.8041    86
 4.8141    88
 4.8241    87
 4.8341   120
 4.8441   113
 4.8541   114
 4.8641   111
 4.8741    92
 4.8841    97
 4.8941   102
 4.9041   111
 4.9141   121
 4.9241   117
 4.9341   109
 4.9441   106
 4.9541   110
 4.9641    92
 4.9741   108
 4.9841   115
 4.9941   130
 5.0041   112
 5.0141   124
 5.0241   103
 5.0341   109
 5.0441   105
 5.0541    91
 5.0641    90
 5.0741    91
 5.0841    87
 5.0941    88
 5.1041    85
 5.1141    82
 5.1241    95
 5.1341    87
 5.1441    62
 5.1541    92
 5.1641    96
 5.1741    84
 5.1841   104
 5.1941    98
 5.2041    91
 5.2141   100
 5.2241   118
 5.2341    98
 5.2441    91
 5.2541    98
 5.2641    95
 5.2741   108
 5.2841   102
 5.2941   113
 5.3041   130
 5.3141   163
 5.3241   202
 5.3341   206
 5.3441   220
 5.3541   288
 5.3641   295
 5.3741   341
 5.3841   361
 5.3941   388
 5.4041   412
 5.4141   366
 5.4241   392
 5.4341   394
 5.4441   333
 5.4541   313
 5.4641   267
 5.4741   249
 5.4841   241
 5.4941   177
 5.5041   157
 5.5141   142
 5.5241   117
 5.5341   127
 5.5441    89
 5.5541    99
 5.5641   112
 5.5741    98
 5.5841    95
 5.5941   101
 5.6041   100
 5.6141    81
 5.6241    91
 5.6341    82
 5.6441   104
 5.6541    87
 5.6641    92
 5.6741   106
 5.6841   100
 5.6941    96
 5.7041    98
 5.7141   108
 5.7241    93
 5.7341   103
 5.7441   101
 5.7541   126
 5.7641   131
 5.7741   135
 5.7841   167
 5.7941   168
 5.8041   177
 5.8141   198
 5.8241   196
 5.8341   213
 5.8441   251
 5.8541   249
 5.8641   284
 5.8741   308
 5.8841   332
 5.8941   350
 5.9041   332
 5.9141   310
 5.9241   311
 5.9341   316
 5.9441   269
 5.9541   274
 5.9641   241
 5.9741   216
 5.9841   204
 5.9941   201
 6.0041   169
 6.0141   155
 6.0241   131
 6.0341   125
 6.0441   138
 6.0541   126
 6.0641   143
 6.0741   110
 6.0841   143
 6.0941   140
 6.1041   126
 6.1141   108
 6.1241   116
 6.1341   130
 6.1441   130
 6.1541   150
 6.1641   180
 6.1741   172
 6.1841   183
 6.1941   196
 6.2041   205
 6.2141   283
 6.2241   354
 6.2341   470
 6.2441   613
 6.2541   886
 6.2641  1155
 6.2741  1561
 6.2841  2109
 6.2941  2759
 6.3041  3538
 6.3141  4451
 6.3241  5634
 6.3341  6741
 6.3441  7732
 6.3541  8783
 6.3641  9907
 6.3741 10795
 6.3841 11219
 6.3941 11581
 6.4041 11489
 6.4141 11182
 6.4241 10584
 6.4341  9543
 6.4441  8777
 6.4541  7280
 6.4641  6398
 6.4741  5178
 6.4841  4165
 6.4941  3258
 6.5041  2542
 6.5141  1905
 6.5241  1370
 6.5341   970
 6.5441   737
 6.5541   546
 6.5641   379
 6.5741   334
 6.5841   242
 6.5941   199
 6.6041   192
 6.6141   153
 6.6241   148
 6.6341   139
 6.6441   149
 6.6541   173
 6.6641   156
 6.6741   140
 6.6841   130
 6.6941   164
 6.7041   152
 6.7141   154
 6.7241   158
 6.7341   171
 6.7441   164
 6.7541   163
 6.7641   163
 6.7741   164
 6.7841   147
 6.7941   151
 6.8041   170
 6.8141   157
 6.8241   162
 6.8341   180
 6.8441   207
 6.8541   198
 6.8641   204
 6.8741   209
 6.8841   241
 6.8941   300
 6.9041   296
 6.9141   377
 6.9241   430
 6.9341   496
 6.9441   596
 6.9541   703
 6.9641   853
 6.9741  1047
 6.9841  1154
 6.9941  1360
 7.0041  1428
 7.0141  1723
 7.0241  1776
 7.0341  1882
 7.0441  1983
 7.0541  1958
 7.0641  1878
 7.0741  1868
 7.0841  1758
 7.0941  1651
 7.1041  1482
 7.1141  1290
 7.1241  1122
 7.1341   992
 7.1441   794
 7.1541   681
 7.1641   558
 7.1741   475
 7.1841   405
 7.1941   349
 7.2041   318
 7.2141   252
 7.2241   242
 7.2341   228
 7.2441   239
 7.2541   209
 7.2641   213
 7.2741   230
 7.2841   212
 7.2941   216
 7.3041   245
 7.3141   266
 7.3241   280
 7.3341   286
 7.3441   318
 7.3541   361
 7.3641   417
 7.3741   443
 7.3841   492
 7.3941   547
 7.4041   581
 7.4141   660
 7.4241   684
 7.4341   726
 7.4441   747
 7.4541   789
 7.4641   743
 7.4741   760
 7.4841   778
 7.4941   740
 7.5041   690
 7.5141   633
 7.5241   614
 7.5341   500
 7.5441   483
 7.5541   443
 7.5641   381
 7.5741   381
 7.5841   290
 7.5941   287
 7.6041   287
 7.6141   237
 7.6241   225
 7.6341   240
 7.6441   219
 7.6541   236
 7.6641   197
 7.6741   201
 7.6841   252
 7.6941   212
 7.7041   235
 7.7141   236
 7.7241   216
 7.7341   223
 7.7441   235
 7.7541   235
 7.7641   240
 7.7741   224
 7.7841   236
 7.7941   277
 7.8041   251
 7.8141   247
 7.8241   273
 7.8341   266
 7.8441   299
 7.8541   293
 7.8641   312
 7.8741   305
 7.8841   337
 7.8941   306
 7.9041   351
 7.9141   376
 7.9241   391
 7.9341   433
 7.9441   490
 7.9541   457
 7.9641   498
 7.9741   543
 7.9841   571
 7.9941   575
 8.0041   680
 8.0141   679
 8.0241   800
 8.0341   752
 8.0441   823
 8.0541   907
 8.0641   991
 8.0741  1013
 8.0841  1083
 8.0941  1147
 8.1041  1214
 8.1141  1299
 8.1241  1283
 8.1341  1347
 8.1441  1398
 8.1541  1386
 8.1641  1489
 8.1741  1549
 8.1841  1467
 8.1941  1528
 8.2041  1577
 8.2141  1542
 8.2241  1599
 8.2341  1558
 8.2441  1701
 8.2541  1686
 8.2641  1767
 8.2741  1863
 8.2841  1895
 8.2941  2160
 8.3041  2189
 8.3141  2384
 8.3241  2451
 8.3341  2675
 8.3441  2897
 8.3541  3001
 8.3641  3131
 8.3741  3188
 8.3841  3364
 8.3941  3256
 8.4041  3100
 8.4141  3093
 8.4241  2860
 8.4341  2687
 8.4441  2483
 8.4541  2208
 8.4641  1936
 8.4741  1684
 8.4841  1468
 8.4941  1237
 8.5041  1023
 8.5141   899
 8.5241   737
 8.5341   688
 8.5441   567
 8.5541   478
 8.5641   430
 8.5741   472
 8.5841   391
 8.5941   411
 8.6041   367
 8.6141   371
 8.6241   360
 8.6341   352
 8.6441   378
 8.6541   364
 8.6641   349
 8.6741   389
 8.6841   364
 8.6941   386
 8.7041   350
 8.7141   335
 8.7241   329
 8.7341   345
 8.7441   352
 8.7541   352
 8.7641   347
 8.7741   347
 8.7841   335
 8.7941   356
 8.8041   344
 8.8141   346
 8.8241   325
 8.8341   344
 8.8441   350
 8.8541   318
 8.8641   355
 8.8741   368
 8.8841   368
 8.8941   366
 8.9041   356
 8.9141   381
 8.9241   345
 8.9341   384
 8.9441   371
 8.9541   377
 8.9641   363
 8.9741   399
 8.9841   413
 8.9941   399
 9.0041   394
 9.0141   405
 9.0241   447
 9.0341   437
 9.0441   406
 9.0541   436
 9.0641   456
 9.0741   488
 9.0841   485
 9.0941   486
 9.1041   558
 9.1141   546
 9.1241   564
 9.1341   587
 9.1441   588
 9.1541   656
 9.1641   667
 9.1741   718
 9.1841   722
 9.1941   774
 9.2041   840
 9.2141   860
 9.2241   861
 9.2341   932
 9.2441   973
 9.2541  1016
 9.2641  1049
 9.2741  1097
 9.2841  1106
 9.2941  1150
 9.3041  1264
 9.3141  1302
 9.3241  1297
 9.3341  1312
 9.3441  1306
 9.3541  1349
 9.3641  1456
 9.3741  1427
 9.3841  1407
 9.3941  1507
 9.4041  1530
 9.4141  1546
 9.4241  1531
 9.4341  1532
 9.4441  1567
 9.4541  1592
 9.4641  1579
 9.4741  1545
 9.4841  1607
 9.4941  1589
 9.5041  1678
 9.5141  1709
 9.5241  1820
 9.5341  1921
 9.5441  1976
 9.5541  2048
 9.5641  2244
 9.5741  2332
 9.5841  2491
 9.5941  2667
 9.6041  2860
 9.6141  3026
 9.6241  3223
 9.6341  3420
 9.6441  3419
 9.6541  3559
 9.6641  3643
 9.6741  3636
 9.6841  3575
 9.6941  3467
 9.7041  3306
 9.7141  3245
 9.7241  2997
 9.7341  2847
 9.7441  2652
 9.7541  2417
 9.7641  2182
 9.7741  2020
 9.7841  1884
 9.7941  1734
 9.8041  1627
 9.8141  1635
 9.8241  1572
 9.8341  1477
 9.8441  1520
 9.8541  1526
 9.8641  1475
 9.8741  1470
 9.8841  1580
 9.8941  1546
 9.9041  1579
 9.9141  1652
 9.9241  1669
 9.9341  1718
 9.9441  1708
 9.9541  1709
 9.9641  1685
 9.9741  1601
 9.9841  1520
 9.9941  1508
10.0041  1379
10.0141  1289
10.0241  1202
10.0341  1055
10.0441   958
10.0541   822
10.0641   747
10.0741   696
10.0841   616
10.0941   527
10.1041   459
10.1141   455
10.1241   425
10.1341   375
10.1441   348
10.1541   332
10.1641   315
10.1741   292
10.1841   272
10.1941   270
10.2041   247
10.2141   227
10.2241   236
10.2341   221
10.2441   225
10.2541   203
10.2641   210
10.2741   203
10.2841   209
10.2941   187
10.3041   203
10.3141   205
10.3241   196
10.3341   185
10.3441   196
10.3541   189
10.3641   173
10.3741   173
10.3841   162
10.3941   191
10.4041   202
10.4141   199
10.4241   197
10.4341   180
10.4441   179
10.4541   199
10.4641   208
10.4741   203
10.4841   195
10.4941   218
10.5041   212
10.5141   192
10.5241   189
10.5341   203
10.5441   221
10.5541   201
10.5641   209
10.5741   220
10.5841   217
10.5941   224
10.6041   234
10.6141   229
10.6241   224
10.6341   238
10.6441   241
10.6541   255
10.6641   264
10.6741   249
10.6841   230
10.6941   241
10.7041   251
10.7141   240
10.7241   253
10.7341   249
10.7441   266
10.7541   282
10.7641   285
10.7741   283
10.7841   300
10.7941   307
10.8041   292
10.8141   297
10.8241   321
10.8341   294
10.8441   289
10.8541   307
10.8641   332
10.8741   323
10.8841   323
10.8941   337
10.9041   326
10.9141   336
10.9241   334
10.9341   336
10.9441   316
10.9541   329
10.9641   312
10.9741   330
10.9841   329
10.9941   316
11.0041   315
11.0141   299
11.0241   336
11.0341   347
11.0441   320
11.0541   277
11.0641   298
11.0741   276
11.0841   276
11.0941   285
11.1041   272
11.1141   278
11.1241   303
11.1341   301
11.1441   292
11.1541   303
11.1641   334
11.1741   347
11.1841   369
11.1941   357
11.2041   361
11.2141   398
11.2241   413
11.2341   426
11.2441   435
11.2541   427
11.2641   454
11.2741   457
11.2841   478
11.2941   470
11.3041   448
11.3141   447
11.3241   430
11.3341   402
11.3441   388
11.3541   365
11.3641   363
11.3741   356
11.3841   332
11.3941   314
11.4041   279
11.4141   272
11.4241   246
11.4341   245
11.4441   242
11.4541   261
11.4641   258
11.4741   229
11.4841   224
11.4941   242
11.5041   235
11.5141   233
11.5241   235
11.5341   248
11.5441   259
11.5541   243
11.5641   234
11.5741   229
11.5841   242
11.5941   246
11.6041   259
11.6141   258
11.6241   246
11.6341   243
11.6441   262
11.6541   255
11.6641   250
11.6741   230
11.6841   196
11.6941   219
11.7041   225
11.7141   200
11.7241   219
11.7341   212
11.7441   194
11.7541   188
11.7641   179
11.7741   179
11.7841   177
11.7941   191
11.8041   196
11.8141   174
11.8241   182
11.8341   181
11.8441   176
11.8541   176
11.8641   174
11.8741   162
11.8841   160
11.8941   177
11.9041   184
11.9141   186
11.9241   189
11.9341   173
11.9441   177
11.9541   179
11.9641   175
11.9741   200
11.9841   185
11.9941   177
12.0041   181
12.0141   175
12.0241   188
12.0341   194
12.0441   183
12.0541   181
12.0641   176
12.0741   179
12.0841   191
12.0941   191
12.1041   180
12.1141   173
12.1241   164
12.1341   175
12.1441   177
12.1541   164
12.1641   159
12.1741   164
12.1841   159
12.1941   161
12.2041   172
12.2141   154
12.2241   175
12.2341   169
12.2441   167
12.2541   152
12.2641   168
12.2741   174
12.2841   172
12.2941   179
12.3041   176
12.3141   172
12.3241   169
12.3341   177
12.3441   183
12.3541   168
12.3641   173
12.3741   173
12.3841   178
12.3941   175
12.4041   161
12.4141   153
12.4241   179
12.4341   168
12.4441   174
12.4541   197
12.4641   185
12.4741   172
12.4841   174
12.4941   174
12.5041   171
12.5141   181
12.5241   181
12.5341   180
12.5441   171
12.5541   173
12.5641   196
12.5741   182
12.5841   186
12.5941   199
12.6041   183
12.6141   185
12.6241   192
12.6341   193
12.6441   219
12.6541   207
12.6641   200
12.6741   196
12.6841   181
12.6941   174
12.7041   181
12.7141   188
12.7241   197
12.7341   197
12.7441   188
12.7541   191
12.7641   190
12.7741   203
12.7841   211
12.7941   212
12.8041   201
12.8141   193
12.8241   206
12.8341   210
12.8441   218
12.8541   203
12.8641   186
12.8741   203
12.8841   210
12.8941   200
12.9041   190
12.9141   193
12.9241   196
12.9341   197
12.9441   198
12.9541   206
12.9641   205
12.9741   198
12.9841   208
12.9941   211
13.0041   206
13.0141   198
13.0241   201
13.0341   209
13.0441   208
13.0541   205
13.0641   199
13.0741   198
13.0841   216
13.0941   214
13.1041   211
13.1141   201
13.1241   203
13.1341   205
13.1441   216
13.1541   218
13.1641   214
13.1741   215
13.1841   225
13.1941   240
13.2041   237
13.2141   231
13.2241   242
13.2341   267
13.2441   280
13.2541   292
13.2641   298
13.2741   302
13.2841   302
13.2941   307
13.3041   328
13.3141   359
13.3241   360
13.3341   349
13.3441   378
13.3541   380
13.3641   378
13.3741   390
13.3841   381
13.3941   352
13.4041   353
13.4141   359
13.4241   361
13.4341   365
13.4441   343
13.4541   330
13.4641   326
13.4741   319
13.4841   287
13.4941   282
13.5041   291
13.5141   264
13.5241   253
13.5341   264
13.5441   258
13.5541   238
13.5641   235
13.5741   232
13.5841   233
13.5941   230
13.6041   220
13.6141   221
13.6241   228
13.6341   226
13.6441   222
13.6541   220
13.6641   227
13.6741   236
13.6841   225
13.6941   224
13.7041   232
13.7141   236
13.7241   243
13.7341   228
13.7441   227
13.7541   233
13.7641   240
13.7741   235
13.7841   223
13.7941   247
13.8041   256
13.8141   233
13.8241   237
13.8341   239
13.8441   228
13.8541   241
13.8641   236
13.8741   242
13.8841   254
13.8941   253
13.9041   266
13.9141   247
13.9241   250
13.9341   262
13.9441   267
13.9541   290
13.9641   298
13.9741   313
13.9841   334
13.9941   349
14.0041   334
14.0141   340
14.0241   376
14.0341   386
14.0441   413
14.0541   444
14.0641   462
14.0741   470
14.0841   462
14.0941   488
14.1041   517
14.1141   526
14.1241   524
14.1341   542
14.1441   549
14.1541   531
14.1641   540
14.1741   537
14.1841   524
14.1941   517
14.2041   500
14.2141   466
14.2241   450
14.2341   459
14.2441   441
14.2541   419
14.2641   409
14.2741   389
14.2841   371
14.2941   354
14.3041   316
14.3141   291
14.3241   301
14.3341   293
14.3441   266
14.3541   270
14.3641   268
14.3741   267
14.3841   267
14.3941   258
14.4041   278
14.4141   276
14.4241   260
14.4341   277
14.4441   292
14.4541   282
14.4641   283
14.4741   283
14.4841   284
14.4941   290
14.5041   288
14.5141   292
14.5241   286
14.5341   281
14.5441   287
14.5541   288
14.5641   301
14.5741   294
14.5841   271
14.5941   274
14.6041   284
14.6141   278
14.6241   283
14.6341   274
14.6441   287
14.6541   284
14.6641   269
14.6741   279
14.6841   267
14.6941   278
14.7041   291
14.7141   265
14.7241   273
14.7341   294
14.7441   283
14.7541   281
14.7641   281
14.7741   284
14.7841   297
14.7941   275
14.8041   257
14.8141   286
14.8241   311
14.8341   306
14.8441   305
14.8541   299
14.8641   305
14.8741   312
14.8841   325
14.8941   311
14.9041   313
14.9141   339
14.9241   338
14.9341   340
14.9441   326
14.9541   325
14.9641   335
14.9741   316
14.9841   310
14.9941   315
15.0041   304
15.0141   301
15.0241   308
15.0341   305
15.0441   318
15.0541   331
15.0641   322
15.0741   316
15.0841   327
15.0941   335
15.1041   312
15.1141   294
15.1241   309
15.1341   298
15.1441   307
15.1541   310
15.1641   309
15.1741   306
15.1841   306
15.1941   298
15.2041   293
15.2141   302
15.2241   309
15.2341   308
15.2441   293
15.2541   297
15.2641   308
15.2741   301
15.2841   307
15.2941   303
15.3041   292
15.3141   297
15.3241   313
15.3341   306
15.3441   291
15.3541   314
15.3641   290
15.3741   305
15.3841   332
15.3941   317
15.4041   295
15.4141   304
15.4241   301
15.4341   282
15.4441   300
15.4541   300
15.4641   308
15.4741   324
15.4841   327
15.4941   328
15.5041   328
15.5141   329
15.5241   322
15.5341   317
15.5441   323
15.5541   347
15.5641   341
15.5741   349
15.5841   370
15.5941   371
15.6041   375
15.6141   382
15.6241   375
15.6341   405
15.6441   418
15.6541   408
15.6641   430
15.6741   449
15.6841   439
15.6941   434
15.7041   447
15.7141   459
15.7241   476
15.7341   487
15.7441   481
15.7541   475
15.7641   466
15.7741   484
15.7841   516
15.7941   499
15.8041   488
15.8141   500
15.8241   508
15.8341   467
15.8441   477
15.8541   452
15.8641   449
15.8741   448
15.8841   433
15.8941   426
15.9041   412
15.9141   420
15.9241   408
15.9341   397
15.9441   390
15.9541   369
15.9641   373
15.9741   383
15.9841   355
15.9941   366
16.0041   372
16.0141   375
16.0241   369
16.0341   335
16.0441   340
16.0541   345
16.0641   330
16.0741   352
16.0841   370
16.0941   362
16.1041   373
16.1141   374
16.1241   359
16.1341   355
16.1441   349
16.1541   355
16.1641   374
16.1741   366
16.1841   365
16.1941   351
16.2041   354
16.2141   366
16.2241   364
16.2341   373
16.2441   351
16.2541   359
16.2641   366
16.2741   365
16.2841   350
16.2941   355
16.3041   384
16.3141   352
16.3241   348
16.3341   369
16.3441   346
16.3541   349
16.3641   388
16.3741   356
16.3841   339
16.3941   343
16.4041   357
16.4141   367
16.4241   387
16.4341   389
16.4441   373
16.4541   335
16.4641   349
16.4741   361
16.4841   371
16.4941   394
16.5041   403
16.5141   381
16.5241   385
16.5341   382
16.5441   360
16.5541   352
16.5641   370
16.5741   384
16.5841   385
16.5941   371
16.6041   380
16.6141   380
16.6241   385
16.6341   398
16.6441   372
16.6541   402
16.6641   380
16.6741   383
16.6841   400
16.6941   381
16.7041   380
16.7141   402
16.7241   402
16.7341   389
16.7441   392
16.7541   402
16.7641   403
16.7741   390
16.7841   390
16.7941   403
16.8041   410
16.8141   398
16.8241   387
16.8341   398
16.8441   378
16.8541   397
16.8641   409
16.8741   395
16.8841   387
16.8941   383
16.9041   372
16.9141   399
16.9241   406
16.9341   386
16.9441   386
16.9541   403
16.9641   414
16.9741   410
16.9841   384
16.9941   399
17.0041   408
17.0141   418
17.0241   399
17.0341   391
17.0441   394
17.0541   399
17.0641   382
17.0741   389
17.0841   411
17.0941   397
17.1041   422
17.1141   415
17.1241   393
17.1341   408
17.1441   411
17.1541   410
17.1641   400
17.1741   412
17.1841   431
17.1941   431
17.2041   436
17.2141   419
17.2241   397
17.2341   406
17.2441   456
17.2541   417
17.2641   445
17.2741   445
17.2841   440
17.2941   446
17.3041   454
17.3141   426
17.3241   429
17.3341   412
17.3441   418
17.3541   443
17.3641   432
17.3741   415
17.3841   426
17.3941   425
17.4041   416
17.4141   431
17.4241   457
17.4341   464
17.4441   453
17.4541   464
17.4641   439
17.4741   429
17.4841   454
17.4941   454
17.5041   429
17.5141   429
17.5241   448
17.5341   466
17.5441   470
17.5541   468
17.5641   466
17.5741   463
17.5841   460
17.5941   452
17.6041   463
17.6141   465
17.6241   451
17.6341   497
17.6441   486
17.6541   458
17.6641   475
17.6741   464
17.6841   435
17.6941   454
17.7041   471
17.7141   467
17.7241   472
17.7341   457
17.7441   459
17.7541   444
17.7641   452
17.7741   475
17.7841   500
17.7941   451
17.8041   465
17.8141   445
17.8241   459
17.8341   456
17.8441   472
17.8541   446
17.8641   460
17.8741   469
17.8841   430
17.8941   458
17.9041   457
17.9141   473
17.9241   444
17.9341   461
17.9441   481
17.9541   492
17.9641   470
17.9741   448
17.9841   471
17.9941   484
18.0041   461
18.0141   473
18.0241   507
18.0341   490
18.0441   441
18.0541   448
18.0641   487
18.0741   481
18.0841   450
18.0941   455
18.1041   464
18.1141   478
18.1241   467
18.1341   464
18.1441   474
18.1541   449
18.1641   475
18.1741   454
18.1841   470
18.1941   464
18.2041   487
18.2141   478
18.2241   484
18.2341   483
18.2441   488
18.2541   475
18.2641   488
18.2741   486
18.2841   455
18.2941   473
18.3041   460
18.3141   477
18.3241   452
18.3341   455
18.3441   470
18.3541   487
18.3641   490
18.3741   482
18.3841   477
18.3941   471
18.4041   479
18.4141   458
18.4241   467
18.4341   475
18.4441   523
18.4541   513
18.4641   500
18.4741   479
18.4841   497
18.4941   488
18.5041   496
18.5141   489
18.5241   488
18.5341   494
18.5441   489
18.5541   476
18.5641   511
18.5741   489
18.5841   468
18.5941   491
18.6041   495
18.6141   484
18.6241   514
18.6341   497
18.6441   500
18.6541   487
18.6641   505
18.6741   475
18.6841   499
18.6941   489
18.7041   499
18.7141   476
18.7241   470
18.7341   460
18.7441   498
18.7541   526
18.7641   516
18.7741   520
18.7841   508
18.7941   495
18.8041   503
18.8141   515
18.8241   543
18.8341   514
18.8441   493
18.8541   507
18.8641   501
18.8741   473
18.8841   478
18.8941   483
18.9041   486
18.9141   476
18.9241   506
18.9341   483
18.9441   503
18.9541   534
18.9641   521
18.9741   503
18.9841   515
18.9941   494
19.0041   535
19.0141   494
19.0241   508
19.0341   481
19.0441   480
19.0541   489
19.0641   542
19.0741   498
19.0841   533
19.0941   501
19.1041   501
19.1141   556
19.1241   520
19.1341   550
19.1441   569
19.1541   557
19.1641   526
19.1741   523
19.1841   550
19.1941   527
19.2041   506
19.2141   534
19.2241   517
19.2341   512
19.2441   507
19.2541   499
19.2641   494
19.2741   474
19.2841   471
19.2941   518
19.3041   524
19.3141   547
19.3241   517
19.3341   502
19.3441   517
19.3541   501
19.3641   509
19.3741   563
19.3841   498
19.3941   561
19.4041   523
19.4141   540
19.4241   545
19.4341   542
19.4441   570
19.4541   593
19.4641   562
19.4741   563
19.4841   537
19.4941   540
19.5041   530
19.5141   556
19.5241   528
19.5341   556
19.5441   564
19.5541   527
19.5641   551
19.5741   528
19.5841   528
19.5941   528
19.6041   515
19.6141   513
19.6241   512
19.6341   545
19.6441   513
19.6541   553
19.6641   529
19.6741   515
19.6841   554
19.6941   523
19.7041   562
19.7141   509
19.7241   535
19.7341   568
19.7441   574
19.7541   570
19.7641   545
19.7741   540
19.7841   520
19.7941   534
19.8041   537
19.8141   553
19.8241   538
19.8341   559
19.8441   554
19.8541   535
19.8641   545
19.8741   574
19.8841   541
19.8941   527
19.9041   515
19.9141   535
19.9241   539
19.9341   586
19.9441   559
19.9541   507
19.9641   521
19.9741   529
19.9841   499
19.9941   500
20.0041   550
20.0141   546
20.0241   566
20.0341   575
20.0441   549
20.0541   507
20.0641   521
20.0741   552
20.0841   575
20.0941   527
20.1041   559
20.1141   538
20.1241   553
20.1341   555
20.1441   567
20.1541   536
20.1641   581
20.1741   550
20.1841   559
20.1941   549
20.2041   536
20.2141   557
20.2241   536
20.2341   556
20.2441   581
20.2541   572
20.2641   527
20.2741   555
20.2841   565
20.2941   565
20.3041   574
20.3141   569
20.3241   610
20.3341   573
20.3441   529
20.3541   563
20.3641   548
20.3741   531
20.3841   612
20.3941   545
20.4041   602
20.4141   585
20.4241   578
20.4341   555
20.4441   539
20.4541   551
20.4641   585
20.4741   571
20.4841   553
20.4941   576
20.5041   588
20.5141   549
20.5241   533
20.5341   565
20.5441   581
20.5541   563
20.5641   523
20.5741   544
20.5841   569
20.5941   588
20.6041   555
20.6141   583
20.6241   593
20.6341   580
20.6441   585
20.6541   603
20.6641   556
20.6741   593
20.6841   550
20.6941   554
20.7041   560
20.7141   569
20.7241   575
20.7341   576
20.7441   553
20.7541   575
20.7641   594
20.7741   568
20.7841   559
20.7941   578
20.8041   566
20.8141   544
20.8241   609
20.8341   640
20.8441   607
20.8541   587
20.8641   602
20.8741   634
20.8841   649
20.8941   689
20.9041   648
20.9141   694
20.9241   704
20.9341   673
20.9441   706
20.9541   696
20.9641   697
20.9741   722
20.9841   752
20.9941   736
21.0041   768
21.0141   815
21.0241   840
21.0341   841
21.0441   838
21.0541   852
21.0641   854
21.0741   848
21.0841   839
21.0941   870
21.1041   856
21.1141   875
21.1241   889
21.1341   912
21.1441   859
21.1541   922
21.1641   923
21.1741   895
21.1841   872
21.1941   878
21.2041   850
21.2141   834
21.2241   831
21.2341   821
21.2441   767
21.2541   730
21.2641   762
21.2741   742
21.2841   699
21.2941   700
21.3041   700
21.3141   694
21.3241   648
21.3341   644
21.3441   646
21.3541   589
21.3641   606
21.3741   626
21.3841   607
21.3941   586
21.4041   579
21.4141   632
21.4241   593
21.4341   601
21.4441   602
21.4541   597
21.4641   577
21.4741   563
21.4841   609
21.4941   618
21.5041   589
21.5141   573
21.5241   582
21.5341   568
21.5441   586
21.5541   585
21.5641   615
21.5741   592
21.5841   575
21.5941   599
21.6041   597
21.6141   612
21.6241   572
21.6341   601
21.6441   572
21.6541   566
21.6641   572
21.6741   589
21.6841   578
21.6941   603
21.7041   542
21.7141   589
21.7241   595
21.7341   562
21.7441   595
21.7541   531
21.7641   604
21.7741   608
21.7841   600
21.7941   606
21.8041   590
21.8141   601
21.8241   599
21.8341   575
21.8441   561
21.8541   602
21.8641   601
21.8741   617
21.8841   575
21.8941   600
21.9041   601
21.9141   607
21.9241   619
21.9341   567
21.9441   581
21.9541   562
21.9641   541
21.9741   561
21.9841   569
21.9941   611
22.0041   669
22.0141   596
22.0241   544
22.0341   618
22.0441   605
22.0541   525
22.0641   599
22.0741   562
22.0841   561
22.0941   586
22.1041   595
22.1141   598
22.1241   571
22.1341   563
22.1441   600
22.1541   561
22.1641   594
22.1741   590
22.1841   554
22.1941   566
22.2041   575
22.2141   570
22.2241   578
22.2341   625
22.2441   578
22.2541   598
22.2641   584
22.2741   578
22.2841   569
22.2941   542
22.3041   591
22.3141   530
22.3241   592
22.3341   585
22.3441   574
22.3541   593
22.3641   588
22.3741   614
22.3841   553
22.3941   582
22.4041   568
22.4141   549
22.4241   608
22.4341   571
22.4441   556
22.4541   604
22.4641   614
22.4741   615
22.4841   570
22.4941   585
22.5041   521
22.5141   629
22.5241   591
22.5341   568
22.5441   581
22.5541   547
22.5641   525
22.5741   576
22.5841   545
22.5941   592
22.6041   643
22.6141   648
22.6241   597
22.6341   562
22.6441   596
22.6541   547
22.6641   581
22.6741   547
22.6841   593
22.6941   578
22.7041   576
22.7141   570
22.7241   590
22.7341   591
22.7441   576
22.7541   551
22.7641   608
22.7741   596
22.7841   585
22.7941   587
22.8041   589
22.8141   576
22.8241   565
22.8341   533
22.8441   582
22.8541   608
22.8641   528
22.8741   597
22.8841   627
22.8941   560
22.9041   621
22.9141   591
22.9241   574
22.9341   562
22.9441   546
22.9541   598
22.9641   557
22.9741   589
22.9841   641
22.9941   591
23.0041   574
23.0141   546
23.0241   579
23.0341   521
23.0441   567
23.0541   596
23.0641   552
23.0741   650
23.0841   576
23.0941   578
23.1041   566
23.1141   609
23.1241   590
23.1341   592
23.1441   616
23.1541   526
23.1641   618
23.1741   554
23.1841   613
23.1941   594
23.2041   557
23.2141   568
23.2241   592
23.2341   548
23.2441   592
23.2541   561
23.2641   548
23.2741   568
23.2841   584
23.2941   560
23.3041   543
23.3141   570
23.3241   559
23.3341   552
23.3441   571
23.3541   584
23.3641   548
23.3741   591
23.3841   591
23.3941   530
23.4041   567
23.4141   582
23.4241   578
23.4341   572
23.4441   552
23.4541   543
23.4641   599
23.4741   553
23.4841   598
23.4941   586
23.5041   548
23.5141   566
23.5241   550
23.5341   564
23.5441   564
23.5541   564
23.5641   539
23.5741   525
23.5841   539
23.5941   614
23.6041   547
23.6141   522
23.6241   660
23.6341   538
23.6441   587
23.6541   574
23.6641   567
23.6741   612
23.6841   548
23.6941   595
23.7041   594
23.7141   588
23.7241   583
23.7341   598
23.7441   622
23.7541   620
23.7641   581
23.7741   667
23.7841   598
23.7941   608
23.8041   622
23.8141   591
23.8241   655
23.8341   612
23.8441   578
23.8541   609
23.8641   627
23.8741   640
23.8841   602
23.8941   629
23.9041   592
23.9141   567
23.9241   565
23.9341   592
23.9441   597
23.9541   556
23.9641   595
23.9741   555
23.9841   569
23.9941   575
24.0041   569
24.0141   559
24.0241   551
24.0341   572
24.0441   544
24.0541   526
24.0641   529
24.0741   552
24.0841   556
24.0941   543
24.1041   559
24.1141   621
24.1241   564
24.1341   561
24.1441   525
24.1541   541
24.1641   538
24.1741   552
24.1841   525
24.1941   576
24.2041   522
24.2141   572
24.2241   569
24.2341   571
24.2441   573
24.2541   521
24.2641   560
24.2741   566
24.2841   517
24.2941   549
24.3041   547
24.3141   515
24.3241   569
24.3341   579
24.3441   550
24.3541   559
24.3641   577
24.3741   600
24.3841   558
24.3941   543
24.4041   524
24.4141   528
24.4241   540
24.4341   537
24.4441   567
24.4541   534
24.4641   553
24.4741   545
24.4841   527
24.4941   557
24.5041   521
24.5141   556
24.5241   531
24.5341   533
24.5441   545
24.5541   517
24.5641   544
24.5741   558
24.5841   575
24.5941   516
24.6041   550
24.6141   572
24.6241   541
24.6341   507
24.6441   544
24.6541   568
24.6641   543
24.6741   544
24.6841   537
24.6941   463
24.7041   563
24.7141   519
24.7241   553
24.7341   541
24.7441   505
24.7541   562
24.7641   541
24.7741   538
24.7841   520
24.7941   518
24.8041   550
24.8141   531
24.8241   542
24.8341   510
24.8441   526
24.8541   513
24.8641   504
24.8741   537
24.8841   555
24.8941   563
24.9041   534
24.9141   539
24.9241   541
24.9341   542
24.9441   548
24.9541   542
24.9641   535
24.9741   538
24.9841   543
24.9941   490
25.0041   536
25.0141   568
25.0241   516
25.0341   514
25.0441   560
25.0541   545
25.0641   519
25.0741   574
25.0841   503
25.0941   513
25.1041   562
25.1141   565
25.1241   513
25.1341   506
25.1441   554
25.1541   548
25.1641   521
25.1741   550
25.1841   533
25.1941   535
25.2041   529
25.2141   507
25.2241   521
25.2341   554
25.2441   557
25.2541   586
25.2641   517
25.2741   545
25.2841   558
25.2941   532
25.3041   518
25.3141   561
25.3241   508
25.3341   512
25.3441   540
25.3541   535
25.3641   519
25.3741   496
25.3841   496
25.3941   544
25.4041   524
25.4141   522
25.4241   527
25.4341   533
25.4441   520
25.4541   501
25.4641   512
25.4741   530
25.4841   463
25.4941   514
25.5041   502
25.5141   494
25.5241   504
25.5341   489
25.5441   490
25.5541   517
25.5641   512
25.5741   500
25.5841   490
25.5941   488
25.6041   491
25.6141   524
25.6241   472
25.6341   494
25.6441   546
25.6541   473
25.6641   476
25.6741   501
25.6841   510
25.6941   465
25.7041   468
25.7141   492
25.7241   519
25.7341   506
25.7441   500
25.7541   475
25.7641   484
25.7741   537
25.7841   497
25.7941   478
25.8041   463
25.8141   480
25.8241   488
25.8341   490
25.8441   496
25.8541   491
25.8641   470
25.8741   497
25.8841   506
25.8941   519
25.9041   479
25.9141   495
25.9241   513
25.9341   500
25.9441   517
25.9541   516
25.9641   502
25.9741   487
25.9841   482
25.9941   450
26.0041   490
26.0141   498
26.0241   511
26.0341   497
26.0441   478
26.0541   472
26.0641   510
26.0741   464
26.0841   481
26.0941   489
26.1041   484
26.1141   517
26.1241   537
26.1341   501
26.1441   474
26.1541   439
26.1641   488
26.1741   476
26.1841   464
26.1941   503
26.2041   489
26.2141   451
26.2241   445
26.2341   474
26.2441   491
26.2541   469
26.2641   466
26.2741   491
26.2841   483
26.2941   438
26.3041   437
26.3141   477
26.3241   513
26.3341   481
26.3441   483
26.3541   458
26.3641   464
26.3741   467
26.3841   471
26.3941   484
26.4041   509
26.4141   471
26.4241   501
26.4341   489
26.4441   473
26.4541   515
26.4641   472
26.4741   478
26.4841   475
26.4941   504
26.5041   512
26.5141   494
26.5241   497
26.5341   463
26.5441   457
26.5541   448
26.5641   480
26.5741   478
26.5841   465
26.5941   468
26.6041   454
26.6141   482
26.6241   456
26.6341   433
26.6441   430
26.6541   476
26.6641   486
26.6741   478
26.6841   461
26.6941   439
26.7041   472
26.7141   466
26.7241   442
26.7341   470
26.7441   426
26.7541   481
26.7641   449
26.7741   468
26.7841   458
26.7941   440
26.8041   450
26.8141   449
26.8241   516
26.8341   456
26.8441   446
26.8541   452
26.8641   477
26.8741   437
26.8841   457
26.8941   461
26.9041   477
26.9141   467
26.9241   432
26.9341   414
26.9441   439
26.9541   456
26.9641   448
26.9741   418
26.9841   451
26.9941   403
27.0041   457
27.0141   455
27.0241   408
27.0341   433
27.0441   456
27.0541   474
27.0641   460
27.0741   454
27.0841   429
27.0941   465
27.1041   442
27.1141   435
27.1241   424
27.1341   411
27.1441   457
27.1541   450
27.1641   435
27.1741   468
27.1841   414
27.1941   472
27.2041   436
27.2141   458
27.2241   445
27.2341   455
27.2441   414
27.2541   426
27.2641   442
27.2741   425
27.2841   459
27.2941   451
27.3041   449
27.3141   427
27.3241   419
27.3341   428
27.3441   428
27.3541   421
27.3641   434
27.3741   427
27.3841   432
27.3941   411
27.4041   387
27.4141   445
27.4241   440
27.4341   416
27.4441   419
27.4541   450
27.4641   448
27.4741   433
27.4841   414
27.4941   464
27.5041   446
27.5141   434
27.5241   418
27.5341   395
27.5441   463
27.5541   460
27.5641   456
27.5741   406
27.5841   404
27.5941   424
27.6041   458
27.6141   427
27.6241   427
27.6341   433
27.6441   400
27.6541   446
27.6641   438
27.6741   400
27.6841   451
27.6941   415
27.7041   429
27.7141   426
27.7241   405
27.7341   436
27.7441   413
27.7541   405
27.7641   393
27.7741   426
27.7841   373
27.7941   413
27.8041   386
27.8141   429
27.8241   422
27.8341   419
27.8441   446
27.8541   430
27.8641   422
27.8741   417
27.8841   412
27.8941   400
27.9041   395
27.9141   375
27.9241   408
27.9341   414
27.9441   422
27.9541   370
27.9641   388
27.9741   405
27.9841   385
27.9941   427
28.0041   408
28.0141   392
28.0241   396
28.0341   433
28.0441   419
28.0541   388
28.0641   404
28.0741   413
28.0841   416
28.0941   394
28.1041   369
28.1141   394
28.1241   386
28.1341   388
28.1441   395
28.1541   394
28.1641   382
28.1741   384
28.1841   401
28.1941   435
28.2041   391
28.2141   413
28.2241   375
28.2341   409
28.2441   401
28.2541   408
28.2641   382
28.2741   392
28.2841   384
28.2941   387
28.3041   372
28.3141   381
28.3241   396
28.3341   360
28.3441   385
28.3541   406
28.3641   404
28.3741   394
28.3841   410
28.3941   402
28.4041   428
28.4141   391
28.4241   376
28.4341   394
28.4441   382
28.4541   363
28.4641   399
28.4741   377
28.4841   384
28.4941   339
28.5041   370
28.5141   434
28.5241   371
28.5341   370
28.5441   386
28.5541   394
28.5641   377
28.5741   383
28.5841   395
28.5941   348
28.6041   349
28.6141   359
28.6241   377
28.6341   375
28.6441   365
28.6541   349
28.6641   396
28.6741   386
28.6841   359
28.6941   353
28.7041   379
28.7141   363
28.7241   390
28.7341   387
28.7441   389
28.7541   382
28.7641   392
28.7741   385
28.7841   375
28.7941   357
28.8041   392
28.8141   355
28.8241   382
28.8341   401
28.8441   379
28.8541   373
28.8641   361
28.8741   352
28.8841   383
28.8941   391
28.9041   388
28.9141   334
28.9241   346
28.9341   354
28.9441   366
28.9541   366
28.9641   372
28.9741   344
28.9841   391
28.9941   351
29.0041   353
29.0141   336
29.0241   331
29.0341   348
29.0441   338
29.0541   371
29.0641   373
29.0741   358
29.0841   372
29.0941   355
29.1041   328
29.1141   349
29.1241   346
29.1341   378
29.1441   362
29.1541   347
29.1641   331
29.1741   358
29.1841   317
29.1941   360
29.2041   354
29.2141   368
29.2241   364
29.2341   378
29.2441   350
29.2541   379
29.2641   312
29.2741   339
29.2841   310
29.2941   358
29.3041   332
29.3141   354
29.3241   352
29.3341   373
29.3441   361
29.3541   314
29.3641   348
29.3741   347
29.3841   347
29.3941   337
29.4041   321
29.4141   326
29.4241   324
29.4341   348
29.4441   324
29.4541   344
29.4641   335
29.4741   341
29.4841   358
29.4941   327
29.5041   344
29.5141   350
29.5241   331
29.5341   347
29.5441   317
29.5541   318
29.5641   318
29.5741   358
29.5841   323
29.5941   326
29.6041   318
29.6141   322
29.6241   345
29.6341   339
29.6441   317
29.6541   326
29.6641   312
29.6741   342
29.6841   361
29.6941   326
29.7041   326
29.7141   299
29.7241   369
29.7341   295
29.7441   318
29.7541   369
29.7641   319
29.7741   327
29.7841   361
29.7941   354
29.8041   295
29.8141   320
29.8241   318
29.8341   321
29.8441   333
29.8541   313
29.8641   323
29.8741   307
29.8841   302
29.8941   321
29.9041   316
29.9141   302
29.9241   322
29.9341   316
29.9441   283
29.9541   317
29.9641   278
29.9741   300
29.9841   316
29.9941   321
30.0041   312
30.0141   328
30.0241   325
30.0341   324
30.0441   358
30.0541   322
30.0641   303
30.0741   313
30.0841   310
30.0941   326
30.1041   345
30.1141   319
30.1241   344
30.1341   307
30.1441   341
30.1541   325
30.1641   303
30.1741   323
30.1841   321
30.1941   282
30.2041   298
30.2141   292
30.2241   291
30.2341   285
30.2441   302
30.2541   286
30.2641   309
30.2741   306
30.2841   294
30.2941   312
30.3041   290
30.3141   289
30.3241   280
30.3341   298
30.3441   291
30.3541   314
30.3641   302
30.3741   291
30.3841   291
30.3941   280
30.4041   313
30.4141   283
30.4241   297
30.4341   250
30.4441   279
30.4541   299
30.4641   310
30.4741   309
30.4841   294
30.4941   286
30.5041   306
30.5141   310
30.5241   282
30.5341   289
30.5441   325
30.5541   282
30.5641   279
30.5741   321
30.5841   279
30.5941   316
30.6041   304
30.6141   310
30.6241   309
30.6341   322
30.6441   288
30.6541   282
30.6641   273
30.6741   297
30.6841   318
30.6941   280
30.7041   290
30.7141   317
30.7241   283
30.7341   283
30.7441   290
30.7541   273
30.7641   274
30.7741   293
30.7841   256
30.7941   274
30.8041   272
30.8141   272
30.8241   274
30.8341   283
30.8441   246
30.8541   289
30.8641   287
30.8741   271
30.8841   269
30.8941   280
30.9041   306
30.9141   282
30.9241   297
30.9341   288
30.9441   262
30.9541   257
30.9641   269
30.9741   302
30.9841   292
30.9941   266
31.0041   283
31.0141   280
31.0241   316
31.0341   264
31.0441   266
31.0541   287
31.0641   266
31.0741   273
31.0841   271
31.0941   276
31.1041   293
31.1141   279
31.1241   250
31.1341   266
31.1441   278
31.1541   250
31.1641   234
31.1741   257
31.1841   235
31.1941   258
31.2041   298
31.2141   302
31.2241   289
31.2341   263
31.2441   262
31.2541   269
31.2641   264
31.2741   278
31.2841   258
31.2941   264
31.3041   256
31.3141   272
31.3241   254
31.3341   275
31.3441   257
31.3541   272
31.3641   248
31.3741   277
31.3841   235
31.3941   239
31.4041   260
31.4141   265
31.4241   283
31.4341   268
31.4441   277
31.4541   278
31.4641   282
31.4741   261
31.4841   248
31.4941   223
31.5041   249
31.5141   256
31.5241   247
31.5341   255
31.5441   262
31.5541   243
31.5641   258
31.5741   252
31.5841   260
31.5941   255
31.6041   240
31.6141   242
31.6241   249
31.6341   257
31.6441   259
31.6541   258
31.6641   266
31.6741   275
31.6841   254
31.6941   304
31.7041   260
31.7141   256
31.7241   246
31.7341   237
31.7441   265
31.7541   235
31.7641   266
31.7741   253
31.7841   243
31.7941   238
31.8041   244
31.8141   254
31.8241   268
31.8341   260
31.8441   234
31.8541   248
31.8641   250
31.8741   262
31.8841   259
31.8941   229
31.9041   236
31.9141   275
31.9241   242
31.9341   233
31.9441   225
31.9541   244
31.9641   232
31.9741   230
31.9841   256
31.9941   265
32.0041   240
32.0141   258
32.0241   260
32.0341   235
32.0441   246
32.0541   276
32.0641   258
32.0741   252
32.0841   232
32.0941   215
32.1041   275
32.1141   222
32.1241   243
32.1341   240
32.1441   221
32.1541   226
32.1641   236
32.1741   239
32.1841   200
32.1941   255
32.2041   249
32.2141   258
32.2241   225
32.2341   238
32.2441   233
32.2541   248
32.2641   235
32.2741   250
32.2841   240
32.2941   231
32.3041   243
32.3141   235
32.3241   232
32.3341   235
32.3441   218
32.3541   247
32.3641   223
32.3741   240
32.3841   226
32.3941   228
32.4041   200
32.4141   225
32.4241   228
32.4341   211
32.4441   199
32.4541   233
32.4641   217
32.4741   214
32.4841   226
32.4941   236
32.5041   192
32.5141   207
32.5241   207
32.5341   228
32.5441   225
32.5541   218
32.5641   206
32.5741   223
32.5841   226
32.5941   227
32.6041   208
32.6141   217
32.6241   233
32.6341   185
32.6441   232
32.6541   221
32.6641   214
32.6741   243
32.6841   207
32.6941   225
32.7041   203
32.7141   191
32.7241   210
32.7341   205
32.7441   190
32.7541   228
32.7641   212
32.7741   223
32.7841   196
32.7941   203
32.8041   201
32.8141   206
32.8241   218
32.8341   200
32.8441   205
32.8541   200
32.8641   208
32.8741   196
32.8841   228
32.8941   184
32.9041   195
32.9141   192
32.9241   186
32.9341   203
32.9441   213
32.9541   198
32.9641   182
32.9741   208
32.9841   196
32.9941   199
33.0041   193
33.0141   185
33.0241   206
33.0341   197
33.0441   190
33.0541   198
33.0641   192
33.0741   199
33.0841   184
33.0941   192
33.1041   173
33.1141   195
33.1241   177
33.1341   207
33.1441   187
33.1541   190
33.1641   207
33.1741   206
33.1841   214
33.1941   194
33.2041   184
33.2141   202
33.2241   180
33.2341   197
33.2441   175
33.2541   180
33.2641   208
33.2741   187
33.2841   176
33.2941   189
33.3041   196
33.3141   192
33.3241   180
33.3341   167
33.3441   201
33.3541   189
33.3641   191
33.3741   179
33.3841   184
33.3941   177
33.4041   211
33.4141   191
33.4241   169
33.4341   189
33.4441   200
33.4541   189
33.4641   182
33.4741   147
33.4841   165
33.4941   169
33.5041   171
33.5141   174
33.5241   200
33.5341   184
33.5441   151
33.5541   162
33.5641   196
33.5741   177
33.5841   170
33.5941   175
33.6041   197
33.6141   172
33.6241   190
33.6341   180
33.6441   194
33.6541   187
33.6641   189
33.6741   183
33.6841   186
33.6941   177
33.7041   160
33.7141   153
33.7241   175
33.7341   160
33.7441   182
33.7541   191
33.7641   187
33.7741   173
33.7841   177
33.7941   172
33.8041   178
33.8141   160
33.8241   170
33.8341   181
33.8441   170
33.8541   176
33.8641   173
33.8741   181
33.8841   178
33.8941   171
33.9041   161
33.9141   162
33.9241   166
33.9341   165
33.9441   163
33.9541   179
33.9641   172
33.9741   175
33.9841   192
33.9941   180
34.0041   174
34.0141   186
34.0241   162
34.0341   162
34.0441   140
34.0541   175
34.0641   176
34.0741   170
34.0841   150
34.0941   158
34.1041   157
34.1141   163
34.1241   162
34.1341   170
34.1441   194
34.1541   165
34.1641   179
34.1741   164
34.1841   186
34.1941   144
34.2041   156
34.2141   176
34.2241   163
34.2341   143
34.2441   147
34.2541   164
34.2641   152
34.2741   168
34.2841   155
34.2941   154
34.3041   159
34.3141   149
34.3241   171
34.3341   151
34.3441   168
34.3541   145
34.3641   170
34.3741   161
34.3841   151
34.3941   153
34.4041   176
34.4141   149
34.4241   165
34.4341   170
34.4441   159
34.4541   157
34.4641   135
34.4741   159
34.4841   152
34.4941   168
34.5041   157
34.5141   155
34.5241   141
34.5341   147
34.5441   139
34.5541   160
34.5641   155
34.5741   140
34.5841   169
34.5941   149
34.6041   135
34.6141   151
34.6241   153
34.6341   146
34.6441   138
34.6541   148
34.6641   141
34.6741   164
34.6841   153
34.6941   138
34.7041   152
34.7141   148
34.7241   149
34.7341   138
34.7441   146
34.7541   170
34.7641   147
34.7741   145
34.7841   145
34.7941   147
34.8041   155
34.8141   162
34.8241   130
34.8341   138
34.8441   135
34.8541   135
34.8641   133
34.8741   157
34.8841   146
34.8941   137
34.9041   131
34.9141   143
34.9241   147
34.9341   137
34.9441   131
34.9541   148
34.9641   137
34.9741   142
34.9841   135
34.9941   138
35.0041   134
35.0141   139
35.0241   134
35.0341   127
35.0441   135
35.0541   132
35.0641   146
35.0741   143
35.0841   128
35.0941   139
35.1041   141
35.1141   116
35.1241   129
35.1341   138
35.1441   136
35.1541   141
35.1641   134
35.1741   134
35.1841   125
35.1941   141
35.2041   127
35.2141   151
35.2241   142
35.2341   126
35.2441   137
35.2541   129
35.2641   128
35.2741   134
35.2841   118
35.2941   121
35.3041   129
35.3141   118
35.3241   126
35.3341   128
35.3441   132
35.3541   132
35.3641   134
35.3741   128
35.3841   118
35.3941   120
35.4041   112
35.4141   130
35.4241   114
35.4341   130
35.4441   108
35.4541   120
35.4641   148
35.4741   124
35.4841   114
35.4941   125
35.5041   135
35.5141   135
35.5241   119
35.5341   121
35.5441   116
35.5541   122
35.5641   139
35.5741   119
35.5841   120
35.5941   113
35.6041   115
35.6141   106
35.6241   117
35.6341   111
35.6441   112
35.6541   135
35.6641   119
35.6741   104
35.6841   117
35.6941   124
35.7041   125
35.7141   127
35.7241   131
35.7341   112
35.7441   130
35.7541   131
35.7641   123
35.7741   124
35.7841   101
35.7941   118
35.8041   114
35.8141   117
35.8241   110
35.8341   127
35.8441   115
35.8541   120
35.8641   112
35.8741    96
35.8841   116
35.8941   127
35.9041   103
35.9141   131
35.9241   131
35.9341    98
35.9441   100
35.9541   122
35.9641   112
35.9741    97
35.9841   114
35.9941   113
36.0041   110
36.0141   130
36.0241   116
36.0341   110
36.0441   112
36.0541   109
36.0641    92
36.0741   102
36.0841   111
36.0941   113
36.1041   111
36.1141   123
36.1241   119
36.1341   119
36.1441   100
36.1541   108
36.1641    98
36.1741   114
36.1841   103
36.1941   109
36.2041    98
36.2141   113
36.2241    95
36.2341   115
36.2441    96
36.2541   105
36.2641   119
36.2741   101
36.2841   118
36.2941   119
36.3041   120
36.3141   109
36.3241    98
36.3341   108
36.3441   110
36.3541   115
36.3641   108
36.3741   108
36.3841   117
36.3941   117
36.4041    98
36.4141   111
36.4241   113
36.4341    95
36.4441   106
36.4541   106
36.4641   101
36.4741   120
36.4841   103
36.4941    89
36.5041    98
36.5141    98
36.5241   106
36.5341    84
36.5441   111
36.5541    99
36.5641    97
36.5741   120
36.5841    86
36.5941    95
36.6041    96
36.6141   100
36.6241    99
36.6341    91
36.6441    96
36.6541    93
36.6641    89
36.6741    85
36.6841    99
36.6941    96
36.7041   106
36.7141    98
36.7241   109
36.7341    96
36.7441    89
36.7541   100
36.7641    90
36.7741    86
36.7841    89
36.7941    88
36.8041    68
36.8141    96
36.8241   109
36.8341   102
36.8441    83
36.8541    95
36.8641    96
36.8741    75
36.8841    98
36.8941    83
36.9041    83
36.9141    86
36.9241    86
36.9341   106
36.9441    92
36.9541    98
36.9641    85
36.9741   108
36.9841   108
36.9941    79
37.0041    86
37.0141    71
37.0241    69
37.0341    72
37.0441    81
37.0541    79
37.0641    91
37.0741    90
37.0841    92
37.0941    95
37.1041    96
37.1141    78
37.1241    86
37.1341    93
37.1441    83
37.1541    88
37.1641    79
37.1741    89
37.1841    80
37.1941    91
37.2041    89
37.2141    87
37.2241    93
37.2341    85
37.2441    76
37.2541    82
37.2641    98
37.2741    85
37.2841    74
37.2941    65
37.3041    80
37.3141    91
37.3241    88
37.3341    98
37.3441    84
37.3541    73
37.3641    82
37.3741    70
37.3841    81
37.3941    89
37.4041    82
37.4141    77
37.4241    91
37.4341    87
37.4441    85
37.4541    66
37.4641    89
37.4741    80
37.4841    74
37.4941    87
37.5041    67
37.5141    86
37.5241    75
37.5341    89
37.5441    64
37.5541   108
37.5641    75
37.5741    67
37.5841    85
37.5941    77
37.6041    74
37.6141    89
37.6241    65
37.6341    60
37.6441    73
37.6541    65
37.6641    76
37.6741    70
37.6841    73
37.6941    77
37.7041    70
37.7141    74
37.7241    57
37.7341    79
37.7441    83
37.7541    71
37.7641    64
37.7741    87
37.7841    59
37.7941    82
37.8041    75
37.8141    68
37.8241    58
37.8341    67
37.8441    54
37.8541    71
37.8641    88
37.8741    68
37.8841    72
37.8941    56
37.9041    74
37.9141    76
37.9241    73
37.9341    69
37.9441    71
37.9541    55
37.9641    56
37.9741    65
37.9841    72
37.9941    68
38.0041    66
38.0141    66
38.0241    64
38.0341    95
38.0441    67
38.0541    65
38.0641    62
38.0741    73
38.0841    70
38.0941    71
38.1041    72
38.1141    63
38.1241    72
38.1341    70
38.1441    74
38.1541    63
38.1641    61
38.1741    58
38.1841    63
38.1941    74
38.2041    73
38.2141    68
38.2241    60
38.2341    76
38.2441    61
38.2541    69
38.2641    71
38.2741    61
38.2841    77
38.2941    58
38.3041    66
38.3141    63
38.3241    63
38.3341    62
38.3441    66
38.3541    78
38.3641    71
38.3741    67
38.3841    52
38.3941    53
38.4041    62
38.4141    63
38.4241    61
38.4341    53
38.4441    64
38.4541    57
38.4641    63
38.4741    62
38.4841    49
38.4941    66
38.5041    60
38.5141    56
38.5241    64
38.5341    58
38.5441    55
38.5541    60
38.5641    64
38.5741    64
38.5841    65
38.5941    67
38.6041    64
38.6141    64
38.6241    55
38.6341    61
38.6441    57
38.6541    54
38.6641    60
38.6741    54
38.6841    47
38.6941    69
38.7041    60
38.7141    66
38.7241    66
38.7341    67
38.7441    56
38.7541    56
38.7641    56
38.7741    47
38.7841    53
38.7941    37
38.8041    63
38.8141    55
38.8241    59
38.8341    51
38.8441    54
38.8541    47
38.8641    59
38.8741    50
38.8841    60
38.8941    60
38.9041    55
38.9141    65
38.9241    59
38.9341    39
38.9441    47
38.9541    52
38.9641    60
38.9741    68
38.9841    53
38.9941    57
39.0041    51
39.0141    59
39.0241    54
39.0341    46
39.0441    46
39.0541    53
39.0641    47
39.0741    54
39.0841    66
39.0941    52
39.1041    55
39.1141    51
39.1241    52
39.1341    57
39.1441    42
39.1541    60
39.1641    50
39.1741    41
39.1841    39
39.1941    47
39.2041    39
39.2141    56
39.2241    45
39.2341    50
39.2441    42
39.2541    52
39.2641    38
39.2741    46
39.2841    54
39.2941    58
39.3041    42
39.3141    55
39.3241    43
39.3341    44
39.3441    45
39.3541    52
39.3641    37
39.3741    44
39.3841    40
39.3941    41
39.4041    43
39.4141    33
39.4241    50
39.4341    54
39.4441    35
39.4541    47
39.4641    51
39.4741    48
39.4841    55
39.4941    40
39.5041    51
39.5141    50
39.5241    53
39.5341    37
39.5441    38
39.5541    48
39.5641    45
39.5741    46
39.5841    47
39.5941    38
39.6041    35
39.6141    37
39.6241    46
39.6341    34
39.6441    50
39.6541    40
39.6641    45
39.6741    39
39.6841    47
39.6941    54
39.7041    58
39.7141    49
39.7241    36
39.7341    41
39.7441    39
39.7541    35
39.7641    47
39.7741    45
39.7841    35
39.7941    35
39.8041    34
39.8141    39
39.8241    48
39.8341    41
39.8441    43
39.8541    51
39.8641    40
39.8741    51
39.8841    40
39.8941    33
39.9041    45
39.9141    35
39.9241    49
39.9341    27
39.9441    48
39.9541    37
39.9641    47
39.9741    38
39.9841    25
39.9941    31
