Bruker Nano GmbH Berlin, Germany
Esprit 1.9

Date: 5/14/2021 3:58:23 PM
Real time: 18075
Life time: 16980
Pulse density: 89616


Detector type: XFlash 430
Window type: Custom type
Detector thickness: 0.45
Si dead layer:0.029

Calibration, lin.: 10
Calibration, abs.: -955.9
Mn FWHM: 137.05
Fano factor: 0.121
Channels: 4095

Energy Counts
-0.9559     0
-0.9459     0
-0.9359     0
-0.9259     0
-0.9159     0
-0.9059     0
-0.8959     0
-0.8859     0
-0.8759     0
-0.8659     0
-0.8559     0
-0.8459     0
-0.8359     0
-0.8259     0
-0.8159     0
-0.8059     0
-0.7959     0
-0.7859     0
-0.7759     0
-0.7659     0
-0.7559     0
-0.7459     0
-0.7359     0
-0.7259     0
-0.7159     0
-0.7059     0
-0.6959     0
-0.6859     0
-0.6759     0
-0.6659     0
-0.6559     0
-0.6459     0
-0.6359     0
-0.6259     0
-0.6159     0
-0.6059     0
-0.5959     0
-0.5859     0
-0.5759     0
-0.5659     0
-0.5559     0
-0.5459     0
-0.5359     0
-0.5259     0
-0.5159     0
-0.5059     0
-0.4959     0
-0.4859     0
-0.4759     0
-0.4659     0
-0.4559     0
-0.4459     0
-0.4359     0
-0.4259     0
-0.4159     0
-0.4059     0
-0.3959     0
-0.3859     0
-0.3759     0
-0.3659     0
-0.3559     0
-0.3459     0
-0.3359     0
-0.3259     0
-0.3159     0
-0.3059     0
-0.2959     0
-0.2859     0
-0.2759     0
-0.2659     0
-0.2559     0
-0.2459     0
-0.2359     0
-0.2259     0
-0.2159     0
-0.2059     0
-0.1959     0
-0.1859     0
-0.1759     0
-0.1659     0
-0.1559     0
-0.1459     1
-0.1359     0
-0.1259     1
-0.1159     6
-0.1059    10
-0.0959    56
-0.0859   192
-0.0759   597
-0.0659  1969
-0.0559  5039
-0.0459 10889
-0.0359 20211
-0.0259 32122
-0.0159 44890
-0.0059 51892
 0.0041 52520
 0.0141 44912
 0.0241 32982
 0.0341 21035
 0.0441 11323
 0.0541  5295
 0.0641  2186
 0.0741   775
 0.0841   232
 0.0941    66
 0.1041    18
 0.1141    13
 0.1241     7
 0.1341     5
 0.1441     4
 0.1541     6
 0.1641     2
 0.1741     1
 0.1841   144
 0.1941   260
 0.2041   249
 0.2141   247
 0.2241   255
 0.2341   251
 0.2441   262
 0.2541   235
 0.2641   239
 0.2741   241
 0.2841   254
 0.2941   226
 0.3041   243
 0.3141   252
 0.3241   231
 0.3341   209
 0.3441   240
 0.3541   210
 0.3641   224
 0.3741   236
 0.3841   247
 0.3941   224
 0.4041   208
 0.4141   222
 0.4241   226
 0.4341   214
 0.4441   230
 0.4541   207
 0.4641   199
 0.4741   206
 0.4841   211
 0.4941   207
 0.5041   199
 0.5141   200
 0.5241   217
 0.5341   210
 0.5441   206
 0.5541   214
 0.5641   213
 0.5741   211
 0.5841   187
 0.5941   201
 0.6041   208
 0.6141   206
 0.6241   202
 0.6341   195
 0.6441   183
 0.6541   174
 0.6641   168
 0.6741   189
 0.6841   203
 0.6941   191
 0.7041   188
 0.7141   192
 0.7241   201
 0.7341   190
 0.7441   164
 0.7541   152
 0.7641   164
 0.7741   175
 0.7841   180
 0.7941   175
 0.8041   173
 0.8141   171
 0.8241   176
 0.8341   178
 0.8441   180
 0.8541   176
 0.8641   174
 0.8741   173
 0.8841   181
 0.8941   184
 0.9041   178
 0.9141   165
 0.9241   178
 0.9341   160
 0.9441   153
 0.9541   187
 0.9641   179
 0.9741   176
 0.9841   173
 0.9941   151
 1.0041   156
 1.0141   171
 1.0241   170
 1.0341   145
 1.0441   172
 1.0541   162
 1.0641   161
 1.0741   159
 1.0841   179
 1.0941   179
 1.1041   152
 1.1141   140
 1.1241   164
 1.1341   152
 1.1441   149
 1.1541   152
 1.1641   149
 1.1741   165
 1.1841   154
 1.1941   150
 1.2041   163
 1.2141   139
 1.2241   152
 1.2341   141
 1.2441   158
 1.2541   136
 1.2641   158
 1.2741   159
 1.2841   144
 1.2941   151
 1.3041   146
 1.3141   140
 1.3241   158
 1.3341   150
 1.3441   164
 1.3541   150
 1.3641   145
 1.3741   152
 1.3841   125
 1.3941   160
 1.4041   166
 1.4141   142
 1.4241   146
 1.4341   144
 1.4441   145
 1.4541   131
 1.4641   152
 1.4741   140
 1.4841   143
 1.4941   139
 1.5041   138
 1.5141   140
 1.5241   150
 1.5341   160
 1.5441   146
 1.5541   153
 1.5641   149
 1.5741   147
 1.5841   132
 1.5941   134
 1.6041   148
 1.6141   140
 1.6241   132
 1.6341   144
 1.6441   156
 1.6541   187
 1.6641   210
 1.6741   267
 1.6841   321
 1.6941   420
 1.7041   481
 1.7141   546
 1.7241   594
 1.7341   641
 1.7441   637
 1.7541   560
 1.7641   527
 1.7741   473
 1.7841   408
 1.7941   316
 1.8041   281
 1.8141   222
 1.8241   186
 1.8341   156
 1.8441   182
 1.8541   162
 1.8641   169
 1.8741   169
 1.8841   131
 1.8941   138
 1.9041   138
 1.9141   179
 1.9241   159
 1.9341   117
 1.9441   172
 1.9541   178
 1.9641   185
 1.9741   199
 1.9841   165
 1.9941   170
 2.0041   176
 2.0141   181
 2.0241   185
 2.0341   156
 2.0441   161
 2.0541   161
 2.0641   150
 2.0741   143
 2.0841   134
 2.0941   131
 2.1041   140
 2.1141   134
 2.1241   139
 2.1341   130
 2.1441   127
 2.1541   127
 2.1641   140
 2.1741   144
 2.1841   151
 2.1941   142
 2.2041   141
 2.2141   125
 2.2241   126
 2.2341   104
 2.2441   123
 2.2541   130
 2.2641   118
 2.2741   126
 2.2841   132
 2.2941   108
 2.3041   129
 2.3141   134
 2.3241   109
 2.3341   116
 2.3441   111
 2.3541   107
 2.3641    92
 2.3741    98
 2.3841   127
 2.3941   107
 2.4041   122
 2.4141   120
 2.4241   113
 2.4341   114
 2.4441   106
 2.4541   123
 2.4641   100
 2.4741    96
 2.4841    99
 2.4941   104
 2.5041   113
 2.5141   118
 2.5241   128
 2.5341   109
 2.5441   116
 2.5541    97
 2.5641   121
 2.5741   115
 2.5841   119
 2.5941   131
 2.6041   109
 2.6141   107
 2.6241    92
 2.6341   106
 2.6441    97
 2.6541    98
 2.6641   108
 2.6741   102
 2.6841    98
 2.6941    95
 2.7041   113
 2.7141    92
 2.7241    79
 2.7341    94
 2.7441   106
 2.7541    96
 2.7641    98
 2.7741   118
 2.7841   112
 2.7941   104
 2.8041   115
 2.8141    99
 2.8241   112
 2.8341   104
 2.8441   109
 2.8541   106
 2.8641   104
 2.8741   112
 2.8841    91
 2.8941   111
 2.9041   110
 2.9141    99
 2.9241    93
 2.9341    99
 2.9441   105
 2.9541    91
 2.9641   108
 2.9741    93
 2.9841   109
 2.9941   101
 3.0041   100
 3.0141    94
 3.0241   102
 3.0341    87
 3.0441   101
 3.0541    94
 3.0641    90
 3.0741    96
 3.0841    94
 3.0941    95
 3.1041    86
 3.1141    82
 3.1241   101
 3.1341    93
 3.1441    61
 3.1541    90
 3.1641    87
 3.1741    95
 3.1841    89
 3.1941   101
 3.2041   105
 3.2141   106
 3.2241   147
 3.2341   162
 3.2441   209
 3.2541   226
 3.2641   248
 3.2741   296
 3.2841   323
 3.2941   348
 3.3041   381
 3.3141   364
 3.3241   376
 3.3341   373
 3.3441   309
 3.3541   259
 3.3641   248
 3.3741   187
 3.3841   168
 3.3941   150
 3.4041   124
 3.4141   104
 3.4241    99
 3.4341    99
 3.4441    86
 3.4541    95
 3.4641   107
 3.4741   103
 3.4841    92
 3.4941   112
 3.5041   109
 3.5141   113
 3.5241   140
 3.5341   153
 3.5441   204
 3.5541   238
 3.5641   302
 3.5741   373
 3.5841   538
 3.5941   742
 3.6041   956
 3.6141  1264
 3.6241  1653
 3.6341  2051
 3.6441  2553
 3.6541  2927
 3.6641  3364
 3.6741  3702
 3.6841  3956
 3.6941  3855
 3.7041  3746
 3.7141  3467
 3.7241  3020
 3.7341  2624
 3.7441  2116
 3.7541  1572
 3.7641  1219
 3.7741   911
 3.7841   632
 3.7941   429
 3.8041   286
 3.8141   215
 3.8241   170
 3.8341   148
 3.8441   118
 3.8541   110
 3.8641   120
 3.8741   116
 3.8841   115
 3.8941   148
 3.9041   163
 3.9141   219
 3.9241   242
 3.9341   321
 3.9441   374
 3.9541   463
 3.9641   548
 3.9741   648
 3.9841   694
 3.9941   757
 4.0041   792
 4.0141   849
 4.0241   826
 4.0341   734
 4.0441   697
 4.0541   599
 4.0641   538
 4.0741   435
 4.0841   353
 4.0941   237
 4.1041   190
 4.1141   171
 4.1241   122
 4.1341    94
 4.1441    80
 4.1541    88
 4.1641    78
 4.1741    60
 4.1841    57
 4.1941    74
 4.2041    54
 4.2141    66
 4.2241    63
 4.2341    55
 4.2441    66
 4.2541    61
 4.2641    52
 4.2741    55
 4.2841    59
 4.2941    63
 4.3041    77
 4.3141    63
 4.3241    57
 4.3341    60
 4.3441    76
 4.3541    74
 4.3641    76
 4.3741    78
 4.3841    77
 4.3941    98
 4.4041   119
 4.4141   132
 4.4241   177
 4.4341   212
 4.4441   261
 4.4541   299
 4.4641   341
 4.4741   455
 4.4841   431
 4.4941   472
 4.5041   489
 4.5141   441
 4.5241   455
 4.5341   413
 4.5441   348
 4.5541   317
 4.5641   283
 4.5741   237
 4.5841   182
 4.5941   187
 4.6041   121
 4.6141   123
 4.6241    81
 4.6341    86
 4.6441    90
 4.6541    97
 4.6641    80
 4.6741    78
 4.6841    69
 4.6941    60
 4.7041    63
 4.7141    83
 4.7241    69
 4.7341    70
 4.7441    69
 4.7541    68
 4.7641    67
 4.7741    75
 4.7841    75
 4.7941    79
 4.8041    84
 4.8141    80
 4.8241    94
 4.8341    82
 4.8441    92
 4.8541   122
 4.8641   106
 4.8741   122
 4.8841   138
 4.8941   142
 4.9041   135
 4.9141   159
 4.9241   144
 4.9341   175
 4.9441   151
 4.9541   148
 4.9641   151
 4.9741   142
 4.9841   118
 4.9941   125
 5.0041   102
 5.0141    95
 5.0241    96
 5.0341    89
 5.0441    91
 5.0541    75
 5.0641    80
 5.0741    69
 5.0841    79
 5.0941    78
 5.1041    75
 5.1141    66
 5.1241    81
 5.1341    80
 5.1441    73
 5.1541    82
 5.1641    69
 5.1741    73
 5.1841    72
 5.1941    68
 5.2041    73
 5.2141    85
 5.2241    85
 5.2341    77
 5.2441   101
 5.2541    68
 5.2641    80
 5.2741    92
 5.2841    90
 5.2941    88
 5.3041    73
 5.3141    98
 5.3241    92
 5.3341    91
 5.3441    90
 5.3541   101
 5.3641   102
 5.3741   111
 5.3841    98
 5.3941    93
 5.4041   103
 5.4141   111
 5.4241    92
 5.4341    96
 5.4441   105
 5.4541    98
 5.4641    97
 5.4741   104
 5.4841    91
 5.4941    97
 5.5041   105
 5.5141    82
 5.5241    76
 5.5341   105
 5.5441    75
 5.5541    97
 5.5641    82
 5.5741    72
 5.5841    92
 5.5941    66
 5.6041    90
 5.6141    88
 5.6241    98
 5.6341    85
 5.6441    72
 5.6541    81
 5.6641    89
 5.6741    93
 5.6841    97
 5.6941    92
 5.7041    83
 5.7141   110
 5.7241    92
 5.7341    90
 5.7441   117
 5.7541   110
 5.7641   108
 5.7741   142
 5.7841   194
 5.7941   164
 5.8041   235
 5.8141   241
 5.8241   260
 5.8341   291
 5.8441   322
 5.8541   402
 5.8641   380
 5.8741   435
 5.8841   461
 5.8941   459
 5.9041   479
 5.9141   457
 5.9241   420
 5.9341   374
 5.9441   357
 5.9541   312
 5.9641   265
 5.9741   245
 5.9841   207
 5.9941   166
 6.0041   158
 6.0141   140
 6.0241   146
 6.0341    98
 6.0441   116
 6.0541   107
 6.0641   102
 6.0741   120
 6.0841   130
 6.0941   108
 6.1041   124
 6.1141   113
 6.1241   132
 6.1341   139
 6.1441   135
 6.1541   131
 6.1641   148
 6.1741   155
 6.1841   179
 6.1941   195
 6.2041   264
 6.2141   299
 6.2241   423
 6.2341   571
 6.2441   768
 6.2541  1092
 6.2641  1520
 6.2741  2051
 6.2841  2788
 6.2941  3683
 6.3041  4717
 6.3141  5987
 6.3241  7389
 6.3341  8929
 6.3441 10410
 6.3541 11816
 6.3641 13020
 6.3741 14280
 6.3841 14832
 6.3941 15519
 6.4041 15201
 6.4141 14780
 6.4241 13975
 6.4341 12925
 6.4441 11300
 6.4541  9906
 6.4641  8418
 6.4741  7076
 6.4841  5505
 6.4941  4349
 6.5041  3316
 6.5141  2509
 6.5241  1829
 6.5341  1253
 6.5441   957
 6.5541   672
 6.5641   461
 6.5741   365
 6.5841   275
 6.5941   215
 6.6041   202
 6.6141   178
 6.6241   161
 6.6341   159
 6.6441   126
 6.6541   145
 6.6641   148
 6.6741   133
 6.6841   121
 6.6941   133
 6.7041   143
 6.7141   139
 6.7241   168
 6.7341   155
 6.7441   144
 6.7541   124
 6.7641   134
 6.7741   138
 6.7841   162
 6.7941   155
 6.8041   157
 6.8141   160
 6.8241   188
 6.8341   170
 6.8441   178
 6.8541   177
 6.8641   220
 6.8741   263
 6.8841   288
 6.8941   335
 6.9041   340
 6.9141   432
 6.9241   574
 6.9341   648
 6.9441   779
 6.9541   901
 6.9641  1151
 6.9741  1378
 6.9841  1606
 6.9941  1828
 7.0041  2059
 7.0141  2252
 7.0241  2377
 7.0341  2560
 7.0441  2716
 7.0541  2566
 7.0641  2630
 7.0741  2526
 7.0841  2343
 7.0941  2208
 7.1041  1965
 7.1141  1660
 7.1241  1531
 7.1341  1233
 7.1441  1077
 7.1541   875
 7.1641   689
 7.1741   562
 7.1841   418
 7.1941   395
 7.2041   319
 7.2141   266
 7.2241   241
 7.2341   204
 7.2441   193
 7.2541   197
 7.2641   192
 7.2741   191
 7.2841   207
 7.2941   198
 7.3041   181
 7.3141   212
 7.3241   205
 7.3341   219
 7.3441   214
 7.3541   237
 7.3641   232
 7.3741   236
 7.3841   258
 7.3941   260
 7.4041   245
 7.4141   241
 7.4241   209
 7.4341   259
 7.4441   272
 7.4541   258
 7.4641   275
 7.4741   266
 7.4841   238
 7.4941   219
 7.5041   224
 7.5141   205
 7.5241   195
 7.5341   202
 7.5441   216
 7.5541   214
 7.5641   193
 7.5741   187
 7.5841   212
 7.5941   184
 7.6041   176
 7.6141   185
 7.6241   181
 7.6341   170
 7.6441   176
 7.6541   175
 7.6641   171
 7.6741   179
 7.6841   189
 7.6941   204
 7.7041   174
 7.7141   202
 7.7241   181
 7.7341   192
 7.7441   197
 7.7541   222
 7.7641   232
 7.7741   212
 7.7841   227
 7.7941   211
 7.8041   226
 7.8141   244
 7.8241   232
 7.8341   224
 7.8441   243
 7.8541   248
 7.8641   270
 7.8741   266
 7.8841   259
 7.8941   281
 7.9041   302
 7.9141   323
 7.9241   305
 7.9341   337
 7.9441   385
 7.9541   375
 7.9641   395
 7.9741   399
 7.9841   494
 7.9941   500
 8.0041   523
 8.0141   575
 8.0241   598
 8.0341   639
 8.0441   724
 8.0541   745
 8.0641   808
 8.0741   917
 8.0841   923
 8.0941   976
 8.1041  1026
 8.1141  1064
 8.1241  1104
 8.1341  1136
 8.1441  1151
 8.1541  1143
 8.1641  1253
 8.1741  1207
 8.1841  1268
 8.1941  1193
 8.2041  1203
 8.2141  1319
 8.2241  1317
 8.2341  1368
 8.2441  1340
 8.2541  1351
 8.2641  1432
 8.2741  1556
 8.2841  1582
 8.2941  1779
 8.3041  1862
 8.3141  2008
 8.3241  2098
 8.3341  2350
 8.3441  2411
 8.3541  2564
 8.3641  2731
 8.3741  2832
 8.3841  2835
 8.3941  2807
 8.4041  2879
 8.4141  2651
 8.4241  2524
 8.4341  2349
 8.4441  2082
 8.4541  1863
 8.4641  1690
 8.4741  1531
 8.4841  1291
 8.4941  1057
 8.5041   934
 8.5141   796
 8.5241   677
 8.5341   571
 8.5441   456
 8.5541   421
 8.5641   366
 8.5741   367
 8.5841   348
 8.5941   321
 8.6041   325
 8.6141   326
 8.6241   344
 8.6341   333
 8.6441   333
 8.6541   310
 8.6641   344
 8.6741   320
 8.6841   318
 8.6941   336
 8.7041   335
 8.7141   303
 8.7241   341
 8.7341   339
 8.7441   283
 8.7541   271
 8.7641   294
 8.7741   285
 8.7841   279
 8.7941   252
 8.8041   275
 8.8141   248
 8.8241   284
 8.8341   251
 8.8441   254
 8.8541   281
 8.8641   274
 8.8741   251
 8.8841   255
 8.8941   265
 8.9041   294
 8.9141   264
 8.9241   298
 8.9341   314
 8.9441   271
 8.9541   304
 8.9641   330
 8.9741   313
 8.9841   344
 8.9941   318
 9.0041   333
 9.0141   326
 9.0241   313
 9.0341   355
 9.0441   345
 9.0541   355
 9.0641   367
 9.0741   405
 9.0841   392
 9.0941   382
 9.1041   423
 9.1141   445
 9.1241   483
 9.1341   485
 9.1441   476
 9.1541   531
 9.1641   523
 9.1741   508
 9.1841   589
 9.1941   581
 9.2041   640
 9.2141   667
 9.2241   642
 9.2341   727
 9.2441   775
 9.2541   780
 9.2641   830
 9.2741   905
 9.2841   899
 9.2941   926
 9.3041   969
 9.3141  1025
 9.3241  1011
 9.3341  1086
 9.3441  1061
 9.3541  1059
 9.3641  1162
 9.3741  1137
 9.3841  1138
 9.3941  1181
 9.4041  1162
 9.4141  1165
 9.4241  1241
 9.4341  1257
 9.4441  1263
 9.4541  1223
 9.4641  1289
 9.4741  1286
 9.4841  1289
 9.4941  1329
 9.5041  1370
 9.5141  1458
 9.5241  1470
 9.5341  1507
 9.5441  1541
 9.5541  1666
 9.5641  1736
 9.5741  1804
 9.5841  1931
 9.5941  2114
 9.6041  2097
 9.6141  2285
 9.6241  2411
 9.6341  2479
 9.6441  2502
 9.6541  2564
 9.6641  2517
 9.6741  2547
 9.6841  2509
 9.6941  2513
 9.7041  2399
 9.7141  2230
 9.7241  2164
 9.7341  2021
 9.7441  1893
 9.7541  1698
 9.7641  1551
 9.7741  1453
 9.7841  1337
 9.7941  1220
 9.8041  1145
 9.8141  1131
 9.8241  1078
 9.8341  1061
 9.8441  1075
 9.8541  1047
 9.8641  1018
 9.8741  1044
 9.8841  1023
 9.8941  1063
 9.9041  1023
 9.9141  1071
 9.9241  1137
 9.9341  1111
 9.9441  1126
 9.9541  1169
 9.9641  1136
 9.9741  1118
 9.9841  1068
 9.9941   981
10.0041   963
10.0141   873
10.0241   816
10.0341   779
10.0441   689
10.0541   614
10.0641   546
10.0741   473
10.0841   438
10.0941   394
10.1041   357
10.1141   320
10.1241   334
10.1341   283
10.1441   254
10.1541   243
10.1641   244
10.1741   246
10.1841   232
10.1941   212
10.2041   192
10.2141   187
10.2241   191
10.2341   181
10.2441   171
10.2541   173
10.2641   160
10.2741   154
10.2841   169
10.2941   167
10.3041   149
10.3141   167
10.3241   156
10.3341   144
10.3441   151
10.3541   145
10.3641   164
10.3741   141
10.3841   155
10.3941   155
10.4041   142
10.4141   152
10.4241   140
10.4341   157
10.4441   154
10.4541   139
10.4641   146
10.4741   147
10.4841   160
10.4941   154
10.5041   143
10.5141   151
10.5241   155
10.5341   161
10.5441   159
10.5541   176
10.5641   169
10.5741   166
10.5841   171
10.5941   164
10.6041   172
10.6141   168
10.6241   173
10.6341   168
10.6441   175
10.6541   189
10.6641   178
10.6741   183
10.6841   179
10.6941   170
10.7041   181
10.7141   177
10.7241   205
10.7341   189
10.7441   202
10.7541   213
10.7641   218
10.7741   203
10.7841   210
10.7941   234
10.8041   235
10.8141   224
10.8241   239
10.8341   251
10.8441   237
10.8541   258
10.8641   268
10.8741   270
10.8841   277
10.8941   274
10.9041   259
10.9141   282
10.9241   270
10.9341   266
10.9441   250
10.9541   254
10.9641   255
10.9741   265
10.9841   264
10.9941   264
11.0041   261
11.0141   253
11.0241   233
11.0341   243
11.0441   243
11.0541   235
11.0641   234
11.0741   233
11.0841   212
11.0941   227
11.1041   226
11.1141   243
11.1241   265
11.1341   255
11.1441   250
11.1541   254
11.1641   259
11.1741   299
11.1841   309
11.1941   307
11.2041   322
11.2141   342
11.2241   345
11.2341   361
11.2441   374
11.2541   367
11.2641   369
11.2741   378
11.2841   376
11.2941   369
11.3041   342
11.3141   378
11.3241   351
11.3341   344
11.3441   322
11.3541   320
11.3641   308
11.3741   267
11.3841   242
11.3941   245
11.4041   245
11.4141   244
11.4241   217
11.4341   191
11.4441   206
11.4541   205
11.4641   196
11.4741   198
11.4841   191
11.4941   191
11.5041   193
11.5141   183
11.5241   160
11.5341   193
11.5441   213
11.5541   192
11.5641   184
11.5741   200
11.5841   197
11.5941   196
11.6041   191
11.6141   194
11.6241   204
11.6341   205
11.6441   197
11.6541   204
11.6641   210
11.6741   189
11.6841   179
11.6941   179
11.7041   177
11.7141   179
11.7241   187
11.7341   191
11.7441   161
11.7541   147
11.7641   155
11.7741   174
11.7841   176
11.7941   157
11.8041   159
11.8141   164
11.8241   152
11.8341   156
11.8441   163
11.8541   152
11.8641   148
11.8741   143
11.8841   143
11.8941   147
11.9041   151
11.9141   154
11.9241   143
11.9341   137
11.9441   174
11.9541   158
11.9641   149
11.9741   151
11.9841   157
11.9941   154
12.0041   150
12.0141   148
12.0241   152
12.0341   163
12.0441   161
12.0541   155
12.0641   162
12.0741   161
12.0841   152
12.0941   153
12.1041   161
12.1141   145
12.1241   161
12.1341   147
12.1441   152
12.1541   155
12.1641   136
12.1741   139
12.1841   139
12.1941   138
12.2041   142
12.2141   139
12.2241   136
12.2341   135
12.2441   135
12.2541   134
12.2641   143
12.2741   146
12.2841   133
12.2941   139
12.3041   148
12.3141   135
12.3241   144
12.3341   141
12.3441   135
12.3541   158
12.3641   158
12.3741   149
12.3841   153
12.3941   151
12.4041   144
12.4141   142
12.4241   152
12.4341   148
12.4441   152
12.4541   150
12.4641   133
12.4741   132
12.4841   155
12.4941   153
12.5041   149
12.5141   143
12.5241   144
12.5341   157
12.5441   153
12.5541   150
12.5641   172
12.5741   161
12.5841   140
12.5941   149
12.6041   162
12.6141   151
12.6241   163
12.6341   165
12.6441   160
12.6541   158
12.6641   151
12.6741   149
12.6841   152
12.6941   149
12.7041   153
12.7141   156
12.7241   157
12.7341   150
12.7441   151
12.7541   155
12.7641   159
12.7741   161
12.7841   163
12.7941   169
12.8041   168
12.8141   165
12.8241   168
12.8341   167
12.8441   158
12.8541   152
12.8641   155
12.8741   166
12.8841   173
12.8941   167
12.9041   159
12.9141   158
12.9241   156
12.9341   161
12.9441   177
12.9541   171
12.9641   177
12.9741   169
12.9841   160
12.9941   170
13.0041   173
13.0141   168
13.0241   173
13.0341   174
13.0441   173
13.0541   164
13.0641   171
13.0741   177
13.0841   187
13.0941   173
13.1041   176
13.1141   189
13.1241   179
13.1341   172
13.1441   189
13.1541   183
13.1641   199
13.1741   210
13.1841   200
13.1941   195
13.2041   189
13.2141   200
13.2241   204
13.2341   192
13.2441   197
13.2541   207
13.2641   234
13.2741   239
13.2841   219
13.2941   236
13.3041   249
13.3141   245
13.3241   233
13.3341   244
13.3441   256
13.3541   267
13.3641   270
13.3741   283
13.3841   287
13.3941   270
13.4041   270
13.4141   271
13.4241   270
13.4341   246
13.4441   235
13.4541   252
13.4641   250
13.4741   246
13.4841   245
13.4941   230
13.5041   220
13.5141   207
13.5241   198
13.5341   218
13.5441   222
13.5541   214
13.5641   212
13.5741   216
13.5841   213
13.5941   210
13.6041   212
13.6141   211
13.6241   207
13.6341   202
13.6441   209
13.6541   212
13.6641   207
13.6741   209
13.6841   206
13.6941   195
13.7041   213
13.7141   234
13.7241   216
13.7341   206
13.7441   204
13.7541   200
13.7641   211
13.7741   197
13.7841   188
13.7941   200
13.8041   213
13.8141   225
13.8241   204
13.8341   207
13.8441   228
13.8541   205
13.8641   207
13.8741   233
13.8841   227
13.8941   225
13.9041   227
13.9141   215
13.9241   224
13.9341   240
13.9441   239
13.9541   238
13.9641   252
13.9741   254
13.9841   257
13.9941   269
14.0041   279
14.0141   288
14.0241   284
14.0341   301
14.0441   325
14.0541   340
14.0641   364
14.0741   367
14.0841   365
14.0941   372
14.1041   399
14.1141   416
14.1241   403
14.1341   384
14.1441   399
14.1541   420
14.1641   405
14.1741   407
14.1841   389
14.1941   386
14.2041   397
14.2141   370
14.2241   365
14.2341   364
14.2441   331
14.2541   319
14.2641   316
14.2741   295
14.2841   292
14.2941   286
14.3041   270
14.3141   269
14.3241   263
14.3341   269
14.3441   269
14.3541   251
14.3641   246
14.3741   243
14.3841   236
14.3941   229
14.4041   232
14.4141   244
14.4241   252
14.4341   245
14.4441   228
14.4541   230
14.4641   260
14.4741   260
14.4841   255
14.4941   238
14.5041   220
14.5141   237
14.5241   246
14.5341   251
14.5441   260
14.5541   257
14.5641   237
14.5741   238
14.5841   242
14.5941   249
14.6041   260
14.6141   251
14.6241   269
14.6341   270
14.6441   247
14.6541   248
14.6641   248
14.6741   251
14.6841   264
14.6941   269
14.7041   268
14.7141   249
14.7241   239
14.7341   251
14.7441   261
14.7541   278
14.7641   282
14.7741   278
14.7841   275
14.7941   276
14.8041   272
14.8141   280
14.8241   297
14.8341   282
14.8441   287
14.8541   297
14.8641   283
14.8741   304
14.8841   318
14.8941   323
14.9041   323
14.9141   318
14.9241   324
14.9341   318
14.9441   313
14.9541   319
14.9641   311
14.9741   309
14.9841   322
14.9941   312
15.0041   316
15.0141   321
15.0241   298
15.0341   302
15.0441   316
15.0541   315
15.0641   300
15.0741   306
15.0841   300
15.0941   287
15.1041   286
15.1141   293
15.1241   285
15.1341   272
15.1441   271
15.1541   278
15.1641   282
15.1741   280
15.1841   275
15.1941   298
15.2041   297
15.2141   304
15.2241   304
15.2341   282
15.2441   287
15.2541   310
15.2641   299
15.2741   296
15.2841   291
15.2941   295
15.3041   316
15.3141   306
15.3241   308
15.3341   305
15.3441   292
15.3541   319
15.3641   305
15.3741   297
15.3841   297
15.3941   300
15.4041   315
15.4141   328
15.4241   324
15.4341   302
15.4441   318
15.4541   338
15.4641   318
15.4741   315
15.4841   317
15.4941   320
15.5041   316
15.5141   315
15.5241   317
15.5341   325
15.5441   338
15.5541   356
15.5641   383
15.5741   398
15.5841   407
15.5941   413
15.6041   401
15.6141   431
15.6241   434
15.6341   467
15.6441   485
15.6541   493
15.6641   517
15.6741   550
15.6841   540
15.6941   536
15.7041   558
15.7141   567
15.7241   580
15.7341   597
15.7441   599
15.7541   598
15.7641   600
15.7741   614
15.7841   608
15.7941   561
15.8041   564
15.8141   540
15.8241   546
15.8341   548
15.8441   544
15.8541   531
15.8641   503
15.8741   454
15.8841   458
15.8941   450
15.9041   434
15.9141   409
15.9241   397
15.9341   391
15.9441   354
15.9541   358
15.9641   367
15.9741   380
15.9841   365
15.9941   363
16.0041   355
16.0141   356
16.0241   359
16.0341   330
16.0441   336
16.0541   325
16.0641   357
16.0741   358
16.0841   360
16.0941   370
16.1041   357
16.1141   368
16.1241   362
16.1341   347
16.1441   344
16.1541   362
16.1641   369
16.1741   336
16.1841   361
16.1941   357
16.2041   338
16.2141   365
16.2241   370
16.2341   356
16.2441   353
16.2541   355
16.2641   350
16.2741   356
16.2841   392
16.2941   349
16.3041   336
16.3141   359
16.3241   360
16.3341   355
16.3441   345
16.3541   374
16.3641   377
16.3741   381
16.3841   363
16.3941   363
16.4041   359
16.4141   361
16.4241   368
16.4341   386
16.4441   362
16.4541   362
16.4641   380
16.4741   393
16.4841   395
16.4941   363
16.5041   352
16.5141   369
16.5241   387
16.5341   396
16.5441   403
16.5541   360
16.5641   381
16.5741   406
16.5841   405
16.5941   393
16.6041   391
16.6141   399
16.6241   404
16.6341   400
16.6441   385
16.6541   395
16.6641   393
16.6741   375
16.6841   396
16.6941   402
16.7041   383
16.7141   392
16.7241   393
16.7341   387
16.7441   379
16.7541   369
16.7641   398
16.7741   404
16.7841   393
16.7941   422
16.8041   401
16.8141   398
16.8241   414
16.8341   415
16.8441   407
16.8541   397
16.8641   384
16.8741   383
16.8841   394
16.8941   395
16.9041   392
16.9141   386
16.9241   407
16.9341   387
16.9441   384
16.9541   413
16.9641   390
16.9741   385
16.9841   424
16.9941   405
17.0041   397
17.0141   381
17.0241   406
17.0341   405
17.0441   379
17.0541   414
17.0641   410
17.0741   412
17.0841   424
17.0941   410
17.1041   371
17.1141   383
17.1241   411
17.1341   422
17.1441   419
17.1541   422
17.1641   420
17.1741   437
17.1841   416
17.1941   425
17.2041   423
17.2141   423
17.2241   439
17.2341   446
17.2441   425
17.2541   439
17.2641   419
17.2741   417
17.2841   422
17.2941   432
17.3041   423
17.3141   422
17.3241   441
17.3341   435
17.3441   432
17.3541   431
17.3641   427
17.3741   401
17.3841   440
17.3941   447
17.4041   414
17.4141   434
17.4241   452
17.4341   436
17.4441   433
17.4541   415
17.4641   419
17.4741   454
17.4841   457
17.4941   436
17.5041   460
17.5141   456
17.5241   472
17.5341   479
17.5441   458
17.5541   457
17.5641   478
17.5741   479
17.5841   465
17.5941   444
17.6041   447
17.6141   474
17.6241   479
17.6341   491
17.6441   481
17.6541   466
17.6641   465
17.6741   476
17.6841   505
17.6941   483
17.7041   493
17.7141   479
17.7241   496
17.7341   478
17.7441   466
17.7541   451
17.7641   447
17.7741   461
17.7841   468
17.7941   463
17.8041   451
17.8141   446
17.8241   459
17.8341   449
17.8441   462
17.8541   473
17.8641   469
17.8741   455
17.8841   430
17.8941   453
17.9041   439
17.9141   440
17.9241   484
17.9341   456
17.9441   478
17.9541   454
17.9641   464
17.9741   494
17.9841   476
17.9941   473
18.0041   464
18.0141   452
18.0241   450
18.0341   464
18.0441   465
18.0541   460
18.0641   461
18.0741   460
18.0841   450
18.0941   474
18.1041   484
18.1141   448
18.1241   467
18.1341   459
18.1441   462
18.1541   503
18.1641   487
18.1741   487
18.1841   469
18.1941   469
18.2041   491
18.2141   471
18.2241   485
18.2341   462
18.2441   486
18.2541   492
18.2641   476
18.2741   458
18.2841   450
18.2941   454
18.3041   476
18.3141   478
18.3241   476
18.3341   474
18.3441   468
18.3541   507
18.3641   489
18.3741   468
18.3841   476
18.3941   470
18.4041   493
18.4141   489
18.4241   476
18.4341   487
18.4441   468
18.4541   486
18.4641   478
18.4741   455
18.4841   478
18.4941   468
18.5041   485
18.5141   480
18.5241   466
18.5341   467
18.5441   445
18.5541   491
18.5641   513
18.5741   503
18.5841   486
18.5941   487
18.6041   492
18.6141   518
18.6241   496
18.6341   488
18.6441   492
18.6541   488
18.6641   492
18.6741   472
18.6841   511
18.6941   506
18.7041   489
18.7141   478
18.7241   494
18.7341   462
18.7441   466
18.7541   493
18.7641   494
18.7741   498
18.7841   468
18.7941   475
18.8041   466
18.8141   510
18.8241   486
18.8341   472
18.8441   484
18.8541   498
18.8641   499
18.8741   495
18.8841   498
18.8941   485
18.9041   514
18.9141   475
18.9241   492
18.9341   532
18.9441   512
18.9541   475
18.9641   498
18.9741   521
18.9841   514
18.9941   493
19.0041   476
19.0141   504
19.0241   504
19.0341   491
19.0441   510
19.0541   511
19.0641   503
19.0741   526
19.0841   502
19.0941   538
19.1041   497
19.1141   524
19.1241   537
19.1341   508
19.1441   490
19.1541   492
19.1641   515
19.1741   502
19.1841   508
19.1941   481
19.2041   465
19.2141   478
19.2241   528
19.2341   512
19.2441   512
19.2541   522
19.2641   491
19.2741   479
19.2841   500
19.2941   492
19.3041   487
19.3141   501
19.3241   515
19.3341   537
19.3441   498
19.3541   494
19.3641   498
19.3741   474
19.3841   487
19.3941   506
19.4041   511
19.4141   517
19.4241   531
19.4341   528
19.4441   493
19.4541   500
19.4641   536
19.4741   484
19.4841   498
19.4941   529
19.5041   510
19.5141   523
19.5241   491
19.5341   524
19.5441   513
19.5541   499
19.5641   515
19.5741   524
19.5841   507
19.5941   500
19.6041   497
19.6141   491
19.6241   507
19.6341   490
19.6441   497
19.6541   510
19.6641   503
19.6741   489
19.6841   491
19.6941   521
19.7041   541
19.7141   529
19.7241   521
19.7341   521
19.7441   513
19.7541   513
19.7641   523
19.7741   502
19.7841   513
19.7941   476
19.8041   473
19.8141   518
19.8241   497
19.8341   512
19.8441   494
19.8541   525
19.8641   505
19.8741   510
19.8841   520
19.8941   505
19.9041   511
19.9141   522
19.9241   570
19.9341   521
19.9441   530
19.9541   508
19.9641   515
19.9741   518
19.9841   517
19.9941   497
20.0041   530
20.0141   507
20.0241   503
20.0341   504
20.0441   504
20.0541   497
20.0641   501
20.0741   513
20.0841   482
20.0941   466
20.1041   474
20.1141   515
20.1241   491
20.1341   522
20.1441   545
20.1541   523
20.1641   504
20.1741   515
20.1841   500
20.1941   513
20.2041   524
20.2141   518
20.2241   517
20.2341   518
20.2441   515
20.2541   492
20.2641   498
20.2741   516
20.2841   521
20.2941   472
20.3041   501
20.3141   528
20.3241   516
20.3341   513
20.3441   505
20.3541   493
20.3641   521
20.3741   521
20.3841   529
20.3941   551
20.4041   496
20.4141   496
20.4241   531
20.4341   538
20.4441   527
20.4541   548
20.4641   526
20.4741   497
20.4841   518
20.4941   563
20.5041   525
20.5141   524
20.5241   505
20.5341   507
20.5441   513
20.5541   519
20.5641   533
20.5741   521
20.5841   532
20.5941   534
20.6041   508
20.6141   513
20.6241   515
20.6341   516
20.6441   530
20.6541   532
20.6641   489
20.6741   535
20.6841   527
20.6941   472
20.7041   531
20.7141   524
20.7241   539
20.7341   522
20.7441   564
20.7541   517
20.7641   518
20.7741   542
20.7841   510
20.7941   544
20.8041   517
20.8141   521
20.8241   531
20.8341   558
20.8441   557
20.8541   580
20.8641   545
20.8741   567
20.8841   546
20.8941   599
20.9041   592
20.9141   589
20.9241   624
20.9341   587
20.9441   629
20.9541   652
20.9641   613
20.9741   641
20.9841   642
20.9941   662
21.0041   672
21.0141   736
21.0241   706
21.0341   700
21.0441   703
21.0541   721
21.0641   699
21.0741   717
21.0841   769
21.0941   740
21.1041   724
21.1141   669
21.1241   763
21.1341   781
21.1441   744
21.1541   729
21.1641   771
21.1741   753
21.1841   720
21.1941   701
21.2041   698
21.2141   698
21.2241   733
21.2341   687
21.2441   683
21.2541   659
21.2641   645
21.2741   652
21.2841   602
21.2941   615
21.3041   609
21.3141   597
21.3241   582
21.3341   588
21.3441   572
21.3541   545
21.3641   567
21.3741   534
21.3841   568
21.3941   559
21.4041   509
21.4141   560
21.4241   531
21.4341   543
21.4441   540
21.4541   536
21.4641   499
21.4741   515
21.4841   506
21.4941   492
21.5041   504
21.5141   547
21.5241   510
21.5341   540
21.5441   503
21.5541   512
21.5641   481
21.5741   519
21.5841   491
21.5941   507
21.6041   473
21.6141   504
21.6241   535
21.6341   545
21.6441   544
21.6541   506
21.6641   546
21.6741   513
21.6841   522
21.6941   509
21.7041   495
21.7141   550
21.7241   484
21.7341   497
21.7441   500
21.7541   498
21.7641   497
21.7741   519
21.7841   498
21.7941   516
21.8041   537
21.8141   466
21.8241   529
21.8341   518
21.8441   510
21.8541   551
21.8641   558
21.8741   498
21.8841   550
21.8941   550
21.9041   536
21.9141   516
21.9241   512
21.9341   525
21.9441   548
21.9541   502
21.9641   486
21.9741   485
21.9841   515
21.9941   500
22.0041   500
22.0141   512
22.0241   486
22.0341   495
22.0441   523
22.0541   539
22.0641   509
22.0741   498
22.0841   516
22.0941   489
22.1041   481
22.1141   504
22.1241   535
22.1341   512
22.1441   526
22.1541   518
22.1641   516
22.1741   508
22.1841   485
22.1941   464
22.2041   547
22.2141   504
22.2241   521
22.2341   505
22.2441   527
22.2541   484
22.2641   499
22.2741   503
22.2841   501
22.2941   478
22.3041   508
22.3141   527
22.3241   492
22.3341   461
22.3441   497
22.3541   492
22.3641   491
22.3741   534
22.3841   495
22.3941   506
22.4041   512
22.4141   535
22.4241   510
22.4341   519
22.4441   538
22.4541   492
22.4641   477
22.4741   488
22.4841   499
22.4941   535
22.5041   528
22.5141   514
22.5241   490
22.5341   504
22.5441   508
22.5541   478
22.5641   509
22.5741   498
22.5841   485
22.5941   486
22.6041   526
22.6141   479
22.6241   485
22.6341   476
22.6441   521
22.6541   466
22.6641   456
22.6741   479
22.6841   500
22.6941   486
22.7041   501
22.7141   500
22.7241   472
22.7341   503
22.7441   522
22.7541   465
22.7641   447
22.7741   487
22.7841   493
22.7941   486
22.8041   507
22.8141   488
22.8241   503
22.8341   502
22.8441   512
22.8541   491
22.8641   499
22.8741   552
22.8841   495
22.8941   498
22.9041   481
22.9141   496
22.9241   482
22.9341   519
22.9441   536
22.9541   461
22.9641   506
22.9741   488
22.9841   489
22.9941   463
23.0041   520
23.0141   487
23.0241   498
23.0341   509
23.0441   487
23.0541   523
23.0641   492
23.0741   494
23.0841   518
23.0941   501
23.1041   520
23.1141   491
23.1241   478
23.1341   510
23.1441   482
23.1541   490
23.1641   483
23.1741   511
23.1841   446
23.1941   490
23.2041   522
23.2141   521
23.2241   504
23.2341   467
23.2441   467
23.2541   463
23.2641   466
23.2741   477
23.2841   513
23.2941   483
23.3041   487
23.3141   505
23.3241   452
23.3341   469
23.3441   489
23.3541   488
23.3641   439
23.3741   484
23.3841   435
23.3941   480
23.4041   480
23.4141   500
23.4241   457
23.4341   453
23.4441   452
23.4541   427
23.4641   457
23.4741   473
23.4841   468
23.4941   487
23.5041   490
23.5141   468
23.5241   481
23.5341   454
23.5441   503
23.5541   479
23.5641   441
23.5741   482
23.5841   486
23.5941   465
23.6041   455
23.6141   506
23.6241   447
23.6341   475
23.6441   483
23.6541   495
23.6641   491
23.6741   517
23.6841   456
23.6941   496
23.7041   508
23.7141   486
23.7241   489
23.7341   509
23.7441   478
23.7541   529
23.7641   481
23.7741   486
23.7841   519
23.7941   482
23.8041   515
23.8141   478
23.8241   505
23.8341   506
23.8441   438
23.8541   487
23.8641   473
23.8741   444
23.8841   464
23.8941   494
23.9041   493
23.9141   515
23.9241   491
23.9341   442
23.9441   460
23.9541   477
23.9641   473
23.9741   459
23.9841   460
23.9941   494
24.0041   449
24.0141   466
24.0241   448
24.0341   438
24.0441   455
24.0541   491
24.0641   469
24.0741   483
24.0841   467
24.0941   447
24.1041   454
24.1141   439
24.1241   430
24.1341   447
24.1441   433
24.1541   402
24.1641   467
24.1741   457
24.1841   480
24.1941   443
24.2041   456
24.2141   446
24.2241   445
24.2341   448
24.2441   448
24.2541   431
24.2641   483
24.2741   421
24.2841   450
24.2941   448
24.3041   462
24.3141   457
24.3241   436
24.3341   427
24.3441   451
24.3541   443
24.3641   445
24.3741   444
24.3841   451
24.3941   469
24.4041   434
24.4141   460
24.4241   444
24.4341   427
24.4441   436
24.4541   444
24.4641   450
24.4741   451
24.4841   439
24.4941   421
24.5041   433
24.5141   429
24.5241   469
24.5341   415
24.5441   436
24.5541   427
24.5641   423
24.5741   435
24.5841   415
24.5941   425
24.6041   456
24.6141   432
24.6241   464
24.6341   456
24.6441   439
24.6541   482
24.6641   429
24.6741   416
24.6841   436
24.6941   434
24.7041   442
24.7141   409
24.7241   438
24.7341   459
24.7441   447
24.7541   413
24.7641   417
24.7741   401
24.7841   444
24.7941   429
24.8041   471
24.8141   412
24.8241   427
24.8341   445
24.8441   402
24.8541   394
24.8641   391
24.8741   418
24.8841   416
24.8941   469
24.9041   437
24.9141   432
24.9241   438
24.9341   397
24.9441   432
24.9541   418
24.9641   428
24.9741   437
24.9841   392
24.9941   420
25.0041   405
25.0141   446
25.0241   393
25.0341   400
25.0441   414
25.0541   445
25.0641   459
25.0741   440
25.0841   415
25.0941   434
25.1041   434
25.1141   425
25.1241   394
25.1341   439
25.1441   436
25.1541   427
25.1641   425
25.1741   450
25.1841   434
25.1941   428
25.2041   426
25.2141   425
25.2241   442
25.2341   447
25.2441   443
25.2541   421
25.2641   452
25.2741   449
25.2841   406
25.2941   392
25.3041   423
25.3141   414
25.3241   415
25.3341   405
25.3441   434
25.3541   412
25.3641   410
25.3741   409
25.3841   398
25.3941   417
25.4041   436
25.4141   403
25.4241   392
25.4341   405
25.4441   415
25.4541   406
25.4641   404
25.4741   425
25.4841   390
25.4941   388
25.5041   424
25.5141   398
25.5241   434
25.5341   393
25.5441   388
25.5541   365
25.5641   386
25.5741   392
25.5841   373
25.5941   365
25.6041   388
25.6141   408
25.6241   386
25.6341   379
25.6441   368
25.6541   424
25.6641   432
25.6741   377
25.6841   385
25.6941   377
25.7041   402
25.7141   380
25.7241   355
25.7341   397
25.7441   401
25.7541   400
25.7641   437
25.7741   349
25.7841   413
25.7941   397
25.8041   430
25.8141   437
25.8241   387
25.8341   368
25.8441   371
25.8541   354
25.8641   393
25.8741   391
25.8841   413
25.8941   393
25.9041   363
25.9141   363
25.9241   402
25.9341   382
25.9441   388
25.9541   392
25.9641   390
25.9741   375
25.9841   390
25.9941   375
26.0041   363
26.0141   373
26.0241   371
26.0341   369
26.0441   382
26.0541   383
26.0641   364
26.0741   375
26.0841   387
26.0941   367
26.1041   366
26.1141   353
26.1241   374
26.1341   343
26.1441   403
26.1541   362
26.1641   357
26.1741   407
26.1841   372
26.1941   398
26.2041   386
26.2141   378
26.2241   358
26.2341   359
26.2441   406
26.2541   333
26.2641   364
26.2741   332
26.2841   356
26.2941   382
26.3041   378
26.3141   370
26.3241   357
26.3341   351
26.3441   359
26.3541   352
26.3641   366
26.3741   328
26.3841   381
26.3941   362
26.4041   338
26.4141   344
26.4241   357
26.4341   347
26.4441   354
26.4541   373
26.4641   378
26.4741   366
26.4841   339
26.4941   369
26.5041   341
26.5141   361
26.5241   352
26.5341   350
26.5441   367
26.5541   369
26.5641   379
26.5741   375
26.5841   358
26.5941   340
26.6041   370
26.6141   365
26.6241   338
26.6341   363
26.6441   377
26.6541   325
26.6641   357
26.6741   356
26.6841   344
26.6941   368
26.7041   336
26.7141   338
26.7241   345
26.7341   369
26.7441   353
26.7541   360
26.7641   348
26.7741   307
26.7841   322
26.7941   353
26.8041   359
26.8141   346
26.8241   352
26.8341   310
26.8441   315
26.8541   362
26.8641   361
26.8741   353
26.8841   351
26.8941   322
26.9041   309
26.9141   373
26.9241   346
26.9341   348
26.9441   363
26.9541   327
26.9641   330
26.9741   331
26.9841   329
26.9941   325
27.0041   333
27.0141   339
27.0241   379
27.0341   340
27.0441   332
27.0541   339
27.0641   308
27.0741   323
27.0841   296
27.0941   324
27.1041   335
27.1141   354
27.1241   368
27.1341   347
27.1441   305
27.1541   337
27.1641   328
27.1741   340
27.1841   382
27.1941   338
27.2041   320
27.2141   340
27.2241   330
27.2341   331
27.2441   323
27.2541   380
27.2641   383
27.2741   327
27.2841   332
27.2941   336
27.3041   322
27.3141   305
27.3241   332
27.3341   342
27.3441   332
27.3541   324
27.3641   299
27.3741   317
27.3841   318
27.3941   299
27.4041   325
27.4141   315
27.4241   318
27.4341   284
27.4441   327
27.4541   335
27.4641   345
27.4741   295
27.4841   319
27.4941   332
27.5041   292
27.5141   318
27.5241   347
27.5341   336
27.5441   321
27.5541   315
27.5641   316
27.5741   347
27.5841   307
27.5941   340
27.6041   309
27.6141   330
27.6241   295
27.6341   300
27.6441   294
27.6541   360
27.6641   301
27.6741   295
27.6841   309
27.6941   318
27.7041   319
27.7141   297
27.7241   334
27.7341   343
27.7441   340
27.7541   290
27.7641   303
27.7741   298
27.7841   333
27.7941   311
27.8041   305
27.8141   298
27.8241   296
27.8341   316
27.8441   332
27.8541   295
27.8641   296
27.8741   295
27.8841   292
27.8941   300
27.9041   326
27.9141   302
27.9241   307
27.9341   298
27.9441   286
27.9541   300
27.9641   303
27.9741   304
27.9841   291
27.9941   316
28.0041   267
28.0141   286
28.0241   292
28.0341   295
28.0441   284
28.0541   297
28.0641   274
28.0741   275
28.0841   276
28.0941   289
28.1041   288
28.1141   294
28.1241   303
28.1341   271
28.1441   257
28.1541   270
28.1641   344
28.1741   281
28.1841   286
28.1941   321
28.2041   312
28.2141   275
28.2241   274
28.2341   285
28.2441   288
28.2541   310
28.2641   289
28.2741   283
28.2841   280
28.2941   285
28.3041   264
28.3141   272
28.3241   303
28.3341   282
28.3441   265
28.3541   277
28.3641   299
28.3741   285
28.3841   273
28.3941   265
28.4041   287
28.4141   285
28.4241   271
28.4341   302
28.4441   281
28.4541   294
28.4641   293
28.4741   260
28.4841   288
28.4941   276
28.5041   304
28.5141   292
28.5241   255
28.5341   285
28.5441   265
28.5541   280
28.5641   283
28.5741   274
28.5841   293
28.5941   292
28.6041   272
28.6141   296
28.6241   263
28.6341   246
28.6441   270
28.6541   283
28.6641   284
28.6741   272
28.6841   280
28.6941   258
28.7041   275
28.7141   268
28.7241   279
28.7341   262
28.7441   287
28.7541   264
28.7641   290
28.7741   286
28.7841   238
28.7941   252
28.8041   251
28.8141   259
28.8241   256
28.8341   273
28.8441   281
28.8541   277
28.8641   260
28.8741   270
28.8841   278
28.8941   236
28.9041   262
28.9141   253
28.9241   267
28.9341   277
28.9441   244
28.9541   271
28.9641   284
28.9741   251
28.9841   224
28.9941   257
29.0041   256
29.0141   261
29.0241   255
29.0341   255
29.0441   275
29.0541   262
29.0641   290
29.0741   249
29.0841   254
29.0941   252
29.1041   281
29.1141   274
29.1241   225
29.1341   248
29.1441   262
29.1541   249
29.1641   271
29.1741   282
29.1841   262
29.1941   241
29.2041   257
29.2141   246
29.2241   230
29.2341   266
29.2441   251
29.2541   273
29.2641   257
29.2741   267
29.2841   262
29.2941   251
29.3041   266
29.3141   240
29.3241   239
29.3341   250
29.3441   271
29.3541   258
29.3641   251
29.3741   243
29.3841   273
29.3941   261
29.4041   244
29.4141   247
29.4241   257
29.4341   206
29.4441   242
29.4541   247
29.4641   256
29.4741   232
29.4841   238
29.4941   253
29.5041   224
29.5141   261
29.5241   255
29.5341   218
29.5441   250
29.5541   221
29.5641   230
29.5741   241
29.5841   228
29.5941   221
29.6041   233
29.6141   249
29.6241   245
29.6341   232
29.6441   255
29.6541   218
29.6641   239
29.6741   222
29.6841   237
29.6941   251
29.7041   250
29.7141   227
29.7241   203
29.7341   234
29.7441   230
29.7541   217
29.7641   237
29.7741   217
29.7841   220
29.7941   244
29.8041   261
29.8141   229
29.8241   226
29.8341   218
29.8441   236
29.8541   231
29.8641   255
29.8741   250
29.8841   240
29.8941   216
29.9041   221
29.9141   237
29.9241   231
29.9341   222
29.9441   227
29.9541   240
29.9641   230
29.9741   241
29.9841   229
29.9941   215
30.0041   234
30.0141   213
30.0241   217
30.0341   201
30.0441   218
30.0541   221
30.0641   233
30.0741   201
30.0841   237
30.0941   237
30.1041   211
30.1141   239
30.1241   209
30.1341   215
30.1441   232
30.1541   221
30.1641   216
30.1741   223
30.1841   195
30.1941   211
30.2041   221
30.2141   220
30.2241   186
30.2341   223
30.2441   206
30.2541   209
30.2641   234
30.2741   214
30.2841   211
30.2941   200
30.3041   181
30.3141   210
30.3241   223
30.3341   199
30.3441   215
30.3541   217
30.3641   227
30.3741   208
30.3841   218
30.3941   215
30.4041   199
30.4141   208
30.4241   222
30.4341   207
30.4441   187
30.4541   212
30.4641   206
30.4741   209
30.4841   205
30.4941   206
30.5041   210
30.5141   237
30.5241   217
30.5341   220
30.5441   214
30.5541   208
30.5641   218
30.5741   207
30.5841   193
30.5941   199
30.6041   209
30.6141   207
30.6241   222
30.6341   203
30.6441   215
30.6541   190
30.6641   205
30.6741   211
30.6841   196
30.6941   205
30.7041   239
30.7141   201
30.7241   174
30.7341   190
30.7441   221
30.7541   185
30.7641   194
30.7741   193
30.7841   181
30.7941   214
30.8041   195
30.8141   181
30.8241   195
30.8341   186
30.8441   224
30.8541   200
30.8641   210
30.8741   208
30.8841   219
30.8941   187
30.9041   173
30.9141   203
30.9241   191
30.9341   205
30.9441   197
30.9541   203
30.9641   195
30.9741   208
30.9841   207
30.9941   180
31.0041   184
31.0141   195
31.0241   205
31.0341   197
31.0441   197
31.0541   204
31.0641   200
31.0741   191
31.0841   178
31.0941   193
31.1041   182
31.1141   201
31.1241   184
31.1341   187
31.1441   216
31.1541   214
31.1641   207
31.1741   190
31.1841   160
31.1941   184
31.2041   209
31.2141   203
31.2241   186
31.2341   185
31.2441   177
31.2541   199
31.2641   209
31.2741   198
31.2841   174
31.2941   196
31.3041   163
31.3141   167
31.3241   155
31.3341   192
31.3441   185
31.3541   171
31.3641   182
31.3741   188
31.3841   168
31.3941   190
31.4041   179
31.4141   177
31.4241   179
31.4341   174
31.4441   194
31.4541   179
31.4641   140
31.4741   151
31.4841   176
31.4941   168
31.5041   191
31.5141   190
31.5241   175
31.5341   167
31.5441   177
31.5541   182
31.5641   183
31.5741   166
31.5841   180
31.5941   201
31.6041   178
31.6141   177
31.6241   176
31.6341   188
31.6441   183
31.6541   172
31.6641   173
31.6741   164
31.6841   162
31.6941   185
31.7041   188
31.7141   188
31.7241   196
31.7341   166
31.7441   149
31.7541   169
31.7641   162
31.7741   166
31.7841   158
31.7941   192
31.8041   178
31.8141   166
31.8241   163
31.8341   177
31.8441   180
31.8541   152
31.8641   152
31.8741   174
31.8841   179
31.8941   149
31.9041   165
31.9141   170
31.9241   155
31.9341   166
31.9441   170
31.9541   176
31.9641   186
31.9741   148
31.9841   171
31.9941   184
32.0041   158
32.0141   151
32.0241   149
32.0341   171
32.0441   156
32.0541   157
32.0641   171
32.0741   191
32.0841   173
32.0941   167
32.1041   168
32.1141   170
32.1241   161
32.1341   160
32.1441   155
32.1541   168
32.1641   165
32.1741   157
32.1841   161
32.1941   138
32.2041   169
32.2141   178
32.2241   177
32.2341   157
32.2441   137
32.2541   159
32.2641   162
32.2741   140
32.2841   173
32.2941   160
32.3041   141
32.3141   152
32.3241   176
32.3341   163
32.3441   149
32.3541   163
32.3641   175
32.3741   158
32.3841   161
32.3941   150
32.4041   159
32.4141   141
32.4241   149
32.4341   159
32.4441   151
32.4541   140
32.4641   157
32.4741   166
32.4841   146
32.4941   126
32.5041   154
32.5141   169
32.5241   125
32.5341   147
32.5441   144
32.5541   170
32.5641   158
32.5741   150
32.5841   135
32.5941   154
32.6041   149
32.6141   134
32.6241   143
32.6341   163
32.6441   130
32.6541   149
32.6641   133
32.6741   147
32.6841   144
32.6941   137
32.7041   150
32.7141   168
32.7241   149
32.7341   157
32.7441   161
32.7541   147
32.7641   151
32.7741   135
32.7841   146
32.7941   133
32.8041   140
32.8141   127
32.8241   142
32.8341   138
32.8441   127
32.8541   129
32.8641   142
32.8741   137
32.8841   173
32.8941   131
32.9041   132
32.9141   148
32.9241   138
32.9341   126
32.9441   134
32.9541   147
32.9641   128
32.9741   149
32.9841   111
32.9941   114
33.0041   136
33.0141   139
33.0241   137
33.0341   143
33.0441   134
33.0541   147
33.0641   130
33.0741   150
33.0841   134
33.0941   142
33.1041   130
33.1141   129
33.1241   131
33.1341   143
33.1441   160
33.1541   140
33.1641   133
33.1741   117
33.1841   152
33.1941   116
33.2041   118
33.2141   111
33.2241   117
33.2341   139
33.2441   133
33.2541   133
33.2641   118
33.2741   128
33.2841   143
33.2941   144
33.3041   129
33.3141   121
33.3241   121
33.3341   130
33.3441   140
33.3541   124
33.3641   139
33.3741   119
33.3841   118
33.3941   105
33.4041   121
33.4141   133
33.4241   147
33.4341   123
33.4441   148
33.4541   128
33.4641   112
33.4741   144
33.4841   123
33.4941   148
33.5041   120
33.5141   121
33.5241   130
33.5341   140
33.5441   133
33.5541   134
33.5641   123
33.5741   124
33.5841   131
33.5941   132
33.6041   128
33.6141   110
33.6241   129
33.6341   131
33.6441   122
33.6541   113
33.6641   103
33.6741   122
33.6841   122
33.6941   125
33.7041   114
33.7141   114
33.7241   122
33.7341   133
33.7441   118
33.7541   113
33.7641   107
33.7741   110
33.7841   137
33.7941   115
33.8041   125
33.8141   126
33.8241   109
33.8341   115
33.8441   121
33.8541   108
33.8641   101
33.8741    97
33.8841   112
33.8941   108
33.9041   108
33.9141   128
33.9241   107
33.9341   101
33.9441   115
33.9541   116
33.9641   120
33.9741    95
33.9841   118
33.9941   128
34.0041   130
34.0141    96
34.0241   124
34.0341   108
34.0441   106
34.0541   100
34.0641   106
34.0741   104
34.0841   122
34.0941   114
34.1041   132
34.1141   118
34.1241   115
34.1341   111
34.1441   113
34.1541   113
34.1641   120
34.1741   115
34.1841   121
34.1941   117
34.2041   120
34.2141   107
34.2241    91
34.2341    91
34.2441    98
34.2541   111
34.2641    87
34.2741   117
34.2841    95
34.2941    89
34.3041   110
34.3141    79
34.3241   112
34.3341   129
34.3441    99
34.3541    95
34.3641   105
34.3741    95
34.3841   111
34.3941   109
34.4041   117
34.4141    92
34.4241   108
34.4341   103
34.4441   101
34.4541   113
34.4641   133
34.4741   104
34.4841   105
34.4941   103
34.5041   125
34.5141    96
34.5241   104
34.5341    82
34.5441    97
34.5541    97
34.5641    90
34.5741   100
34.5841    89
34.5941   115
34.6041    95
34.6141   119
34.6241   100
34.6341    88
34.6441   104
34.6541   102
34.6641   113
34.6741   101
34.6841    98
34.6941    84
34.7041    94
34.7141    98
34.7241   106
34.7341   121
34.7441   111
34.7541    88
34.7641   100
34.7741    97
34.7841    81
34.7941    97
34.8041   115
34.8141    81
34.8241    91
34.8341   100
34.8441    86
34.8541    93
34.8641    96
34.8741    89
34.8841    99
34.8941    87
34.9041   103
34.9141   109
34.9241   104
34.9341   102
34.9441   104
34.9541   108
34.9641    96
34.9741   113
34.9841    87
34.9941    94
35.0041    98
35.0141    94
35.0241    95
35.0341    88
35.0441    79
35.0541    93
35.0641   104
35.0741    96
35.0841    83
35.0941    89
35.1041    83
35.1141    82
35.1241    79
35.1341    74
35.1441    93
35.1541   120
35.1641    92
35.1741    85
35.1841    83
35.1941   103
35.2041    84
35.2141   101
35.2241    91
35.2341    92
35.2441    86
35.2541    91
35.2641    87
35.2741    98
35.2841    90
35.2941    86
35.3041    88
35.3141    85
35.3241    89
35.3341    85
35.3441    89
35.3541    81
35.3641    94
35.3741    85
35.3841    96
35.3941    77
35.4041    97
35.4141    80
35.4241    94
35.4341    76
35.4441    82
35.4541    84
35.4641    77
35.4741    75
35.4841    81
35.4941    74
35.5041    71
35.5141    83
35.5241    82
35.5341    78
35.5441    78
35.5541    74
35.5641    77
35.5741    84
35.5841    87
35.5941    99
35.6041    73
35.6141    85
35.6241    89
35.6341    83
35.6441    81
35.6541    78
35.6641    89
35.6741    83
35.6841    79
35.6941    96
35.7041   103
35.7141    91
35.7241    78
35.7341    74
35.7441    70
35.7541    79
35.7641    83
35.7741    68
35.7841    72
35.7941    93
35.8041    76
35.8141    95
35.8241    82
35.8341    76
35.8441    79
35.8541    87
35.8641    85
35.8741    77
35.8841    76
35.8941   102
35.9041    76
35.9141    79
35.9241    72
35.9341    77
35.9441    78
35.9541    71
35.9641    76
35.9741    73
35.9841    73
35.9941    54
36.0041    75
36.0141    75
36.0241    66
36.0341    82
36.0441    84
36.0541    82
36.0641    71
36.0741    65
36.0841    71
36.0941    87
36.1041    79
36.1141    72
36.1241    76
36.1341    81
36.1441    74
36.1541    63
36.1641    71
36.1741    70
36.1841    72
36.1941    80
36.2041    76
36.2141    74
36.2241    77
36.2341    91
36.2441    80
36.2541    63
36.2641    53
36.2741    61
36.2841    80
36.2941    70
36.3041    69
36.3141    64
36.3241    73
36.3341    80
36.3441    72
36.3541    62
36.3641    75
36.3741    60
36.3841    55
36.3941    69
36.4041    61
36.4141    65
36.4241    71
36.4341    70
36.4441    60
36.4541    68
36.4641    74
36.4741    65
36.4841    67
36.4941    67
36.5041    74
36.5141    63
36.5241    61
36.5341    62
36.5441    64
36.5541    62
36.5641    59
36.5741    59
36.5841    72
36.5941    77
36.6041    71
36.6141    56
36.6241    73
36.6341    67
36.6441    63
36.6541    59
36.6641    67
36.6741    60
36.6841    57
36.6941    65
36.7041    71
36.7141    54
36.7241    68
36.7341    70
36.7441    61
36.7541    59
36.7641    59
36.7741    63
36.7841    52
36.7941    56
36.8041    62
36.8141    55
36.8241    50
36.8341    60
36.8441    84
36.8541    68
36.8641    59
36.8741    64
36.8841    59
36.8941    56
36.9041    61
36.9141    63
36.9241    63
36.9341    46
36.9441    59
36.9541    54
36.9641    57
36.9741    57
36.9841    64
36.9941    71
37.0041    58
37.0141    60
37.0241    68
37.0341    58
37.0441    59
37.0541    56
37.0641    51
37.0741    60
37.0841    63
37.0941    56
37.1041    51
37.1141    61
37.1241    59
37.1341    64
37.1441    56
37.1541    70
37.1641    52
37.1741    58
37.1841    60
37.1941    63
37.2041    68
37.2141    53
37.2241    63
37.2341    49
37.2441    58
37.2541    60
37.2641    54
37.2741    69
37.2841    56
37.2941    61
37.3041    60
37.3141    63
37.3241    61
37.3341    68
37.3441    55
37.3541    41
37.3641    56
37.3741    46
37.3841    50
37.3941    54
37.4041    51
37.4141    56
37.4241    47
37.4341    40
37.4441    46
37.4541    71
37.4641    49
37.4741    52
37.4841    54
37.4941    51
37.5041    61
37.5141    58
37.5241    50
37.5341    53
37.5441    34
37.5541    53
37.5641    50
37.5741    51
37.5841    53
37.5941    48
37.6041    64
37.6141    52
37.6241    46
37.6341    44
37.6441    64
37.6541    60
37.6641    49
37.6741    43
37.6841    45
37.6941    48
37.7041    55
37.7141    54
37.7241    57
37.7341    55
37.7441    45
37.7541    44
37.7641    41
37.7741    55
37.7841    47
37.7941    47
37.8041    53
37.8141    60
37.8241    39
37.8341    36
37.8441    57
37.8541    46
37.8641    51
37.8741    35
37.8841    44
37.8941    46
37.9041    45
37.9141    42
37.9241    37
37.9341    57
37.9441    34
37.9541    38
37.9641    41
37.9741    55
37.9841    52
37.9941    38
38.0041    36
38.0141    38
38.0241    48
38.0341    37
38.0441    65
38.0541    44
38.0641    42
38.0741    37
38.0841    44
38.0941    55
38.1041    53
38.1141    40
38.1241    42
38.1341    44
38.1441    50
38.1541    43
38.1641    33
38.1741    42
38.1841    43
38.1941    44
38.2041    37
38.2141    47
38.2241    37
38.2341    53
38.2441    37
38.2541    37
38.2641    44
38.2741    44
38.2841    44
38.2941    38
38.3041    50
38.3141    41
38.3241    33
38.3341    41
38.3441    29
38.3541    28
38.3641    47
38.3741    45
38.3841    46
38.3941    34
38.4041    35
38.4141    42
38.4241    44
38.4341    43
38.4441    38
38.4541    37
38.4641    38
38.4741    31
38.4841    35
38.4941    38
38.5041    45
38.5141    36
38.5241    45
38.5341    38
38.5441    40
38.5541    37
38.5641    47
38.5741    38
38.5841    44
38.5941    41
38.6041    33
38.6141    38
38.6241    48
38.6341    37
38.6441    32
38.6541    36
38.6641    40
38.6741    49
38.6841    29
38.6941    39
38.7041    28
38.7141    44
38.7241    41
38.7341    36
38.7441    31
38.7541    24
38.7641    44
38.7741    31
38.7841    37
38.7941    27
38.8041    36
38.8141    30
38.8241    36
38.8341    46
38.8441    29
38.8541    37
38.8641    36
38.8741    40
38.8841    34
38.8941    36
38.9041    36
38.9141    34
38.9241    28
38.9341    30
38.9441    31
38.9541    44
38.9641    19
38.9741    55
38.9841    35
38.9941    40
39.0041    28
39.0141    43
39.0241    33
39.0341    38
39.0441    34
39.0541    36
39.0641    36
39.0741    32
39.0841    37
39.0941    32
39.1041    31
39.1141    33
39.1241    36
39.1341    28
39.1441    33
39.1541    29
39.1641    29
39.1741    27
39.1841    34
39.1941    31
39.2041    34
39.2141    33
39.2241    30
39.2341    30
39.2441    27
39.2541    37
39.2641    36
39.2741    34
39.2841    27
39.2941    33
39.3041    27
39.3141    29
39.3241    31
39.3341    27
39.3441    28
39.3541    31
39.3641    33
39.3741    30
39.3841    31
39.3941    23
39.4041    20
39.4141    33
39.4241    30
39.4341    30
39.4441    28
39.4541    31
39.4641    36
39.4741    34
39.4841    32
39.4941    33
39.5041    37
39.5141    22
39.5241    25
39.5341    31
39.5441    30
39.5541    26
39.5641    27
39.5741    32
39.5841    22
39.5941    27
39.6041    26
39.6141    27
39.6241    26
39.6341    25
39.6441    23
39.6541    27
39.6641    28
39.6741    31
39.6841    31
39.6941    26
39.7041    27
39.7141    33
39.7241    36
39.7341    24
39.7441    24
39.7541    25
39.7641    24
39.7741    28
39.7841    28
39.7941    27
39.8041    25
39.8141    31
39.8241    22
39.8341    25
39.8441    21
39.8541    24
39.8641    24
39.8741    23
39.8841    27
39.8941    21
39.9041    29
39.9141    23
39.9241    25
39.9341    20
39.9441    16
39.9541    24
39.9641    19
39.9741    23
39.9841    17
