Bruker Nano GmbH Berlin, Germany
Esprit 1.9

Date: 4/21/2021 2:26:39 PM
Real time: 18678
Life time: 17348
Pulse density: 106644


Detector type: XFlash 430
Window type: Custom type
Detector thickness: 0.45
Si dead layer:0.029

Calibration, lin.: 10
Calibration, abs.: -955.9
Mn FWHM: 137.05
Fano factor: 0.121
Channels: 4095

Energy Counts
-0.9559     0
-0.9459     0
-0.9359     0
-0.9259     0
-0.9159     0
-0.9059     0
-0.8959     0
-0.8859     0
-0.8759     0
-0.8659     0
-0.8559     0
-0.8459     0
-0.8359     0
-0.8259     0
-0.8159     0
-0.8059     0
-0.7959     0
-0.7859     0
-0.7759     0
-0.7659     0
-0.7559     0
-0.7459     0
-0.7359     0
-0.7259     0
-0.7159     0
-0.7059     0
-0.6959     0
-0.6859     0
-0.6759     0
-0.6659     0
-0.6559     0
-0.6459     0
-0.6359     0
-0.6259     0
-0.6159     0
-0.6059     0
-0.5959     0
-0.5859     0
-0.5759     0
-0.5659     0
-0.5559     0
-0.5459     0
-0.5359     0
-0.5259     0
-0.5159     0
-0.5059     0
-0.4959     0
-0.4859     0
-0.4759     0
-0.4659     0
-0.4559     0
-0.4459     0
-0.4359     0
-0.4259     0
-0.4159     0
-0.4059     0
-0.3959     0
-0.3859     0
-0.3759     0
-0.3659     0
-0.3559     0
-0.3459     0
-0.3359     0
-0.3259     0
-0.3159     0
-0.3059     0
-0.2959     0
-0.2859     0
-0.2759     0
-0.2659     0
-0.2559     0
-0.2459     0
-0.2359     0
-0.2259     0
-0.2159     0
-0.2059     0
-0.1959     0
-0.1859     0
-0.1759     0
-0.1659     0
-0.1559     0
-0.1459     1
-0.1359     0
-0.1259     0
-0.1159     7
-0.1059    12
-0.0959    46
-0.0859   210
-0.0759   677
-0.0659  1991
-0.0559  5060
-0.0459 10948
-0.0359 20887
-0.0259 32798
-0.0159 45344
-0.0059 52980
 0.0041 53269
 0.0141 46237
 0.0241 34108
 0.0341 21496
 0.0441 11671
 0.0541  5480
 0.0641  2276
 0.0741   718
 0.0841   219
 0.0941    83
 0.1041    21
 0.1141     6
 0.1241     6
 0.1341     7
 0.1441     4
 0.1541     5
 0.1641     1
 0.1741    20
 0.1841   166
 0.1941   304
 0.2041   292
 0.2141   264
 0.2241   271
 0.2341   265
 0.2441   287
 0.2541   276
 0.2641   267
 0.2741   257
 0.2841   272
 0.2941   266
 0.3041   271
 0.3141   255
 0.3241   267
 0.3341   272
 0.3441   255
 0.3541   271
 0.3641   264
 0.3741   257
 0.3841   255
 0.3941   232
 0.4041   250
 0.4141   238
 0.4241   231
 0.4341   235
 0.4441   217
 0.4541   235
 0.4641   243
 0.4741   223
 0.4841   241
 0.4941   225
 0.5041   224
 0.5141   242
 0.5241   241
 0.5341   246
 0.5441   223
 0.5541   222
 0.5641   210
 0.5741   214
 0.5841   212
 0.5941   211
 0.6041   206
 0.6141   228
 0.6241   228
 0.6341   229
 0.6441   211
 0.6541   222
 0.6641   213
 0.6741   202
 0.6841   205
 0.6941   208
 0.7041   224
 0.7141   224
 0.7241   204
 0.7341   200
 0.7441   213
 0.7541   205
 0.7641   201
 0.7741   222
 0.7841   222
 0.7941   208
 0.8041   200
 0.8141   194
 0.8241   206
 0.8341   191
 0.8441   179
 0.8541   199
 0.8641   197
 0.8741   183
 0.8841   185
 0.8941   193
 0.9041   185
 0.9141   184
 0.9241   186
 0.9341   184
 0.9441   192
 0.9541   200
 0.9641   199
 0.9741   194
 0.9841   175
 0.9941   183
 1.0041   163
 1.0141   175
 1.0241   167
 1.0341   176
 1.0441   173
 1.0541   195
 1.0641   208
 1.0741   172
 1.0841   188
 1.0941   178
 1.1041   169
 1.1141   184
 1.1241   187
 1.1341   185
 1.1441   160
 1.1541   153
 1.1641   178
 1.1741   156
 1.1841   166
 1.1941   187
 1.2041   156
 1.2141   167
 1.2241   178
 1.2341   162
 1.2441   155
 1.2541   155
 1.2641   160
 1.2741   172
 1.2841   165
 1.2941   183
 1.3041   167
 1.3141   160
 1.3241   155
 1.3341   140
 1.3441   161
 1.3541   133
 1.3641   156
 1.3741   164
 1.3841   170
 1.3941   169
 1.4041   174
 1.4141   142
 1.4241   176
 1.4341   180
 1.4441   167
 1.4541   157
 1.4641   173
 1.4741   153
 1.4841   167
 1.4941   186
 1.5041   156
 1.5141   147
 1.5241   142
 1.5341   153
 1.5441   157
 1.5541   135
 1.5641   148
 1.5741   149
 1.5841   155
 1.5941   145
 1.6041   145
 1.6141   148
 1.6241   147
 1.6341   160
 1.6441   180
 1.6541   219
 1.6641   226
 1.6741   283
 1.6841   359
 1.6941   439
 1.7041   490
 1.7141   576
 1.7241   658
 1.7341   668
 1.7441   658
 1.7541   620
 1.7641   574
 1.7741   472
 1.7841   424
 1.7941   334
 1.8041   290
 1.8141   240
 1.8241   214
 1.8341   195
 1.8441   173
 1.8541   164
 1.8641   173
 1.8741   178
 1.8841   151
 1.8941   169
 1.9041   173
 1.9141   152
 1.9241   180
 1.9341   152
 1.9441   161
 1.9541   176
 1.9641   167
 1.9741   196
 1.9841   167
 1.9941   174
 2.0041   182
 2.0141   197
 2.0241   178
 2.0341   183
 2.0441   170
 2.0541   171
 2.0641   162
 2.0741   150
 2.0841   137
 2.0941   132
 2.1041   137
 2.1141   147
 2.1241   136
 2.1341   122
 2.1441   145
 2.1541   150
 2.1641   127
 2.1741   132
 2.1841   132
 2.1941   140
 2.2041   155
 2.2141   136
 2.2241   150
 2.2341   141
 2.2441   150
 2.2541   125
 2.2641   105
 2.2741   113
 2.2841   139
 2.2941   129
 2.3041   147
 2.3141   152
 2.3241   141
 2.3341   131
 2.3441   135
 2.3541   127
 2.3641   129
 2.3741   148
 2.3841   131
 2.3941   123
 2.4041   127
 2.4141   133
 2.4241   130
 2.4341   106
 2.4441   129
 2.4541   119
 2.4641   124
 2.4741   124
 2.4841   132
 2.4941   106
 2.5041   142
 2.5141   130
 2.5241   123
 2.5341    91
 2.5441   123
 2.5541   140
 2.5641   113
 2.5741   119
 2.5841   124
 2.5941   122
 2.6041   121
 2.6141   134
 2.6241   120
 2.6341   141
 2.6441   128
 2.6541   117
 2.6641   125
 2.6741   113
 2.6841   107
 2.6941   121
 2.7041   110
 2.7141   117
 2.7241   111
 2.7341   104
 2.7441   105
 2.7541   120
 2.7641   124
 2.7741   125
 2.7841   131
 2.7941   118
 2.8041   129
 2.8141   124
 2.8241   130
 2.8341   113
 2.8441   124
 2.8541   115
 2.8641   124
 2.8741    98
 2.8841   118
 2.8941   126
 2.9041    97
 2.9141   107
 2.9241   114
 2.9341   115
 2.9441   112
 2.9541    97
 2.9641   111
 2.9741   101
 2.9841    99
 2.9941    97
 3.0041   118
 3.0141   121
 3.0241    99
 3.0341   104
 3.0441    78
 3.0541    96
 3.0641   114
 3.0741    93
 3.0841    98
 3.0941   104
 3.1041   110
 3.1141    82
 3.1241    93
 3.1341    92
 3.1441    88
 3.1541    98
 3.1641    86
 3.1741   103
 3.1841    92
 3.1941    81
 3.2041   129
 3.2141    91
 3.2241   113
 3.2341   116
 3.2441   164
 3.2541   158
 3.2641   203
 3.2741   216
 3.2841   208
 3.2941   217
 3.3041   252
 3.3141   245
 3.3241   258
 3.3341   258
 3.3441   200
 3.3541   187
 3.3641   185
 3.3741   136
 3.3841   122
 3.3941   130
 3.4041   128
 3.4141   104
 3.4241   101
 3.4341   105
 3.4441   103
 3.4541    86
 3.4641    83
 3.4741    98
 3.4841    87
 3.4941    90
 3.5041   108
 3.5141    90
 3.5241   101
 3.5341   108
 3.5441   116
 3.5541   123
 3.5641   162
 3.5741   197
 3.5841   227
 3.5941   270
 3.6041   355
 3.6141   401
 3.6241   534
 3.6341   696
 3.6441   852
 3.6541   944
 3.6641  1034
 3.6741  1090
 3.6841  1131
 3.6941  1218
 3.7041  1143
 3.7141  1074
 3.7241   944
 3.7341   784
 3.7441   660
 3.7541   532
 3.7641   405
 3.7741   330
 3.7841   220
 3.7941   173
 3.8041   162
 3.8141   100
 3.8241    93
 3.8341    93
 3.8441    89
 3.8541    85
 3.8641    93
 3.8741    89
 3.8841    93
 3.8941    96
 3.9041    99
 3.9141   103
 3.9241   102
 3.9341   130
 3.9441   155
 3.9541   169
 3.9641   165
 3.9741   184
 3.9841   215
 3.9941   247
 4.0041   266
 4.0141   237
 4.0241   241
 4.0341   228
 4.0441   205
 4.0541   183
 4.0641   175
 4.0741   156
 4.0841   131
 4.0941   111
 4.1041   105
 4.1141    98
 4.1241    92
 4.1341    81
 4.1441    79
 4.1541    83
 4.1641    69
 4.1741    78
 4.1841    74
 4.1941    63
 4.2041    65
 4.2141    64
 4.2241    75
 4.2341    65
 4.2441    60
 4.2541    60
 4.2641    77
 4.2741    69
 4.2841    78
 4.2941    75
 4.3041    72
 4.3141    67
 4.3241    62
 4.3341    72
 4.3441    75
 4.3541    79
 4.3641    68
 4.3741    95
 4.3841    95
 4.3941   129
 4.4041   143
 4.4141   166
 4.4241   195
 4.4341   242
 4.4441   291
 4.4541   332
 4.4641   408
 4.4741   425
 4.4841   483
 4.4941   479
 4.5041   544
 4.5141   513
 4.5241   496
 4.5341   476
 4.5441   407
 4.5541   395
 4.5641   320
 4.5741   270
 4.5841   209
 4.5941   191
 4.6041   150
 4.6141   159
 4.6241   126
 4.6341   109
 4.6441    96
 4.6541   107
 4.6641   108
 4.6741    92
 4.6841    99
 4.6941    79
 4.7041    89
 4.7141    83
 4.7241    74
 4.7341    74
 4.7441    71
 4.7541    63
 4.7641    90
 4.7741    75
 4.7841    86
 4.7941    90
 4.8041    90
 4.8141    94
 4.8241   108
 4.8341   123
 4.8441   122
 4.8541   108
 4.8641   139
 4.8741   145
 4.8841   154
 4.8941   165
 4.9041   171
 4.9141   176
 4.9241   190
 4.9341   185
 4.9441   191
 4.9541   161
 4.9641   212
 4.9741   147
 4.9841   138
 4.9941   135
 5.0041   111
 5.0141   109
 5.0241   109
 5.0341    93
 5.0441    81
 5.0541    94
 5.0641    90
 5.0741    91
 5.0841    97
 5.0941    70
 5.1041    91
 5.1141    84
 5.1241    81
 5.1341    76
 5.1441    91
 5.1541    69
 5.1641    84
 5.1741    75
 5.1841    79
 5.1941    85
 5.2041   108
 5.2141    79
 5.2241    78
 5.2341    82
 5.2441    83
 5.2541    96
 5.2641    93
 5.2741    92
 5.2841    99
 5.2941   105
 5.3041   103
 5.3141   119
 5.3241   117
 5.3341   148
 5.3441   168
 5.3541   204
 5.3641   240
 5.3741   229
 5.3841   228
 5.3941   247
 5.4041   242
 5.4141   272
 5.4241   238
 5.4341   239
 5.4441   256
 5.4541   212
 5.4641   178
 5.4741   178
 5.4841   158
 5.4941   152
 5.5041   139
 5.5141   133
 5.5241   126
 5.5341   117
 5.5441   103
 5.5541   116
 5.5641    92
 5.5741   112
 5.5841   112
 5.5941    92
 5.6041   108
 5.6141    96
 5.6241    90
 5.6341    88
 5.6441    94
 5.6541   105
 5.6641   100
 5.6741   106
 5.6841    86
 5.6941   101
 5.7041   100
 5.7141    75
 5.7241   101
 5.7341   117
 5.7441   147
 5.7541   161
 5.7641   191
 5.7741   215
 5.7841   271
 5.7941   322
 5.8041   380
 5.8141   488
 5.8241   516
 5.8341   661
 5.8441   762
 5.8541   889
 5.8641   934
 5.8741  1067
 5.8841  1050
 5.8941  1087
 5.9041  1089
 5.9141  1040
 5.9241   940
 5.9341   879
 5.9441   783
 5.9541   733
 5.9641   623
 5.9741   506
 5.9841   431
 5.9941   336
 6.0041   277
 6.0141   244
 6.0241   200
 6.0341   171
 6.0441   146
 6.0541   137
 6.0641   128
 6.0741   152
 6.0841   139
 6.0941   149
 6.1041   137
 6.1141   149
 6.1241   163
 6.1341   173
 6.1441   165
 6.1541   156
 6.1641   188
 6.1741   207
 6.1841   252
 6.1941   283
 6.2041   363
 6.2141   461
 6.2241   698
 6.2341   851
 6.2441  1200
 6.2541  1652
 6.2641  2362
 6.2741  3366
 6.2841  4371
 6.2941  5892
 6.3041  7640
 6.3141  9511
 6.3241 11825
 6.3341 14407
 6.3441 16773
 6.3541 19104
 6.3641 21362
 6.3741 23262
 6.3841 24315
 6.3941 25169
 6.4041 25306
 6.4141 24601
 6.4241 23163
 6.4341 21134
 6.4441 19220
 6.4541 16367
 6.4641 14170
 6.4741 11633
 6.4841  9315
 6.4941  7325
 6.5041  5641
 6.5141  4147
 6.5241  2994
 6.5341  2125
 6.5441  1538
 6.5541  1105
 6.5641   756
 6.5741   569
 6.5841   400
 6.5941   314
 6.6041   244
 6.6141   260
 6.6241   194
 6.6341   201
 6.6441   156
 6.6541   184
 6.6641   152
 6.6741   161
 6.6841   170
 6.6941   144
 6.7041   173
 6.7141   180
 6.7241   153
 6.7341   174
 6.7441   170
 6.7541   163
 6.7641   183
 6.7741   173
 6.7841   183
 6.7941   188
 6.8041   206
 6.8141   226
 6.8241   211
 6.8341   219
 6.8441   238
 6.8541   272
 6.8641   290
 6.8741   374
 6.8841   400
 6.8941   484
 6.9041   525
 6.9141   675
 6.9241   812
 6.9341  1055
 6.9441  1275
 6.9541  1512
 6.9641  1886
 6.9741  2098
 6.9841  2485
 6.9941  2940
 7.0041  3306
 7.0141  3575
 7.0241  3921
 7.0341  4084
 7.0441  4212
 7.0541  4312
 7.0641  4303
 7.0741  4186
 7.0841  3834
 7.0941  3594
 7.1041  3249
 7.1141  2890
 7.1241  2475
 7.1341  2130
 7.1441  1702
 7.1541  1411
 7.1641  1127
 7.1741   884
 7.1841   686
 7.1941   534
 7.2041   450
 7.2141   374
 7.2241   322
 7.2341   253
 7.2441   214
 7.2541   231
 7.2641   214
 7.2741   210
 7.2841   207
 7.2941   202
 7.3041   226
 7.3141   220
 7.3241   244
 7.3341   272
 7.3441   302
 7.3541   288
 7.3641   294
 7.3741   328
 7.3841   384
 7.3941   368
 7.4041   417
 7.4141   436
 7.4241   427
 7.4341   506
 7.4441   490
 7.4541   528
 7.4641   525
 7.4741   544
 7.4841   490
 7.4941   471
 7.5041   445
 7.5141   423
 7.5241   431
 7.5341   350
 7.5441   331
 7.5541   306
 7.5641   266
 7.5741   279
 7.5841   226
 7.5941   239
 7.6041   202
 7.6141   203
 7.6241   211
 7.6341   229
 7.6441   186
 7.6541   192
 7.6641   218
 7.6741   196
 7.6841   206
 7.6941   191
 7.7041   224
 7.7141   207
 7.7241   208
 7.7341   226
 7.7441   212
 7.7541   232
 7.7641   234
 7.7741   245
 7.7841   235
 7.7941   235
 7.8041   249
 7.8141   253
 7.8241   272
 7.8341   266
 7.8441   257
 7.8541   289
 7.8641   295
 7.8741   308
 7.8841   305
 7.8941   331
 7.9041   323
 7.9141   345
 7.9241   370
 7.9341   399
 7.9441   396
 7.9541   439
 7.9641   460
 7.9741   488
 7.9841   512
 7.9941   571
 8.0041   630
 8.0141   653
 8.0241   661
 8.0341   728
 8.0441   795
 8.0541   878
 8.0641   897
 8.0741   915
 8.0841  1008
 8.0941  1144
 8.1041  1109
 8.1141  1145
 8.1241  1142
 8.1341  1204
 8.1441  1314
 8.1541  1369
 8.1641  1352
 8.1741  1410
 8.1841  1400
 8.1941  1461
 8.2041  1457
 8.2141  1488
 8.2241  1463
 8.2341  1509
 8.2441  1528
 8.2541  1607
 8.2641  1598
 8.2741  1748
 8.2841  1786
 8.2941  2007
 8.3041  2045
 8.3141  2210
 8.3241  2409
 8.3341  2589
 8.3441  2748
 8.3541  2980
 8.3641  2955
 8.3741  3032
 8.3841  3106
 8.3941  3140
 8.4041  3018
 8.4141  2889
 8.4241  2718
 8.4341  2660
 8.4441  2320
 8.4541  2083
 8.4641  1894
 8.4741  1692
 8.4841  1409
 8.4941  1210
 8.5041  1007
 8.5141   909
 8.5241   788
 8.5341   654
 8.5441   621
 8.5541   556
 8.5641   491
 8.5741   495
 8.5841   492
 8.5941   509
 8.6041   507
 8.6141   507
 8.6241   458
 8.6341   510
 8.6441   475
 8.6541   487
 8.6641   486
 8.6741   500
 8.6841   458
 8.6941   426
 8.7041   402
 8.7141   403
 8.7241   379
 8.7341   335
 8.7441   384
 8.7541   358
 8.7641   338
 8.7741   368
 8.7841   333
 8.7941   321
 8.8041   298
 8.8141   321
 8.8241   297
 8.8341   341
 8.8441   324
 8.8541   288
 8.8641   303
 8.8741   284
 8.8841   307
 8.8941   323
 8.9041   312
 8.9141   303
 8.9241   318
 8.9341   313
 8.9441   337
 8.9541   343
 8.9641   342
 8.9741   329
 8.9841   347
 8.9941   353
 9.0041   360
 9.0141   366
 9.0241   393
 9.0341   365
 9.0441   395
 9.0541   382
 9.0641   424
 9.0741   408
 9.0841   411
 9.0941   469
 9.1041   489
 9.1141   481
 9.1241   462
 9.1341   516
 9.1441   522
 9.1541   569
 9.1641   595
 9.1741   630
 9.1841   667
 9.1941   690
 9.2041   715
 9.2141   784
 9.2241   778
 9.2341   798
 9.2441   848
 9.2541   901
 9.2641   906
 9.2741  1020
 9.2841  1057
 9.2941  1055
 9.3041  1123
 9.3141  1092
 9.3241  1167
 9.3341  1225
 9.3441  1267
 9.3541  1260
 9.3641  1328
 9.3741  1332
 9.3841  1358
 9.3941  1373
 9.4041  1413
 9.4141  1477
 9.4241  1407
 9.4341  1434
 9.4441  1491
 9.4541  1429
 9.4641  1562
 9.4741  1546
 9.4841  1604
 9.4941  1566
 9.5041  1604
 9.5141  1678
 9.5241  1697
 9.5341  1763
 9.5441  1862
 9.5541  1938
 9.5641  1954
 9.5741  2121
 9.5841  2251
 9.5941  2370
 9.6041  2536
 9.6141  2630
 9.6241  2675
 9.6341  2844
 9.6441  2934
 9.6541  2954
 9.6641  2970
 9.6741  2905
 9.6841  2899
 9.6941  2741
 9.7041  2642
 9.7141  2588
 9.7241  2411
 9.7341  2273
 9.7441  2140
 9.7541  1925
 9.7641  1882
 9.7741  1721
 9.7841  1537
 9.7941  1437
 9.8041  1364
 9.8141  1321
 9.8241  1207
 9.8341  1191
 9.8441  1200
 9.8541  1173
 9.8641  1195
 9.8741  1189
 9.8841  1189
 9.8941  1253
 9.9041  1263
 9.9141  1274
 9.9241  1304
 9.9341  1348
 9.9441  1345
 9.9541  1348
 9.9641  1326
 9.9741  1296
 9.9841  1250
 9.9941  1169
10.0041  1064
10.0141  1046
10.0241   997
10.0341   931
10.0441   794
10.0541   670
10.0641   661
10.0741   587
10.0841   523
10.0941   471
10.1041   413
10.1141   392
10.1241   367
10.1341   325
10.1441   299
10.1541   288
10.1641   275
10.1741   271
10.1841   250
10.1941   238
10.2041   238
10.2141   225
10.2241   225
10.2341   207
10.2441   215
10.2541   206
10.2641   205
10.2741   202
10.2841   180
10.2941   180
10.3041   201
10.3141   193
10.3241   185
10.3341   160
10.3441   175
10.3541   162
10.3641   193
10.3741   189
10.3841   170
10.3941   185
10.4041   196
10.4141   193
10.4241   191
10.4341   188
10.4441   199
10.4541   193
10.4641   203
10.4741   206
10.4841   200
10.4941   215
10.5041   219
10.5141   240
10.5241   249
10.5341   240
10.5441   241
10.5541   239
10.5641   227
10.5741   251
10.5841   243
10.5941   231
10.6041   222
10.6141   243
10.6241   228
10.6341   238
10.6441   236
10.6541   210
10.6641   202
10.6741   241
10.6841   235
10.6941   221
10.7041   243
10.7141   242
10.7241   242
10.7341   239
10.7441   243
10.7541   243
10.7641   261
10.7741   270
10.7841   251
10.7941   252
10.8041   258
10.8141   289
10.8241   296
10.8341   278
10.8441   293
10.8541   289
10.8641   303
10.8741   332
10.8841   308
10.8941   319
10.9041   324
10.9141   311
10.9241   325
10.9341   337
10.9441   309
10.9541   299
10.9641   328
10.9741   310
10.9841   300
10.9941   307
11.0041   307
11.0141   290
11.0241   301
11.0341   266
11.0441   254
11.0541   270
11.0641   292
11.0741   272
11.0841   249
11.0941   272
11.1041   280
11.1141   254
11.1241   278
11.1341   321
11.1441   325
11.1541   302
11.1641   318
11.1741   325
11.1841   338
11.1941   364
11.2041   358
11.2141   335
11.2241   365
11.2341   395
11.2441   371
11.2541   396
11.2641   436
11.2741   436
11.2841   415
11.2941   404
11.3041   413
11.3141   409
11.3241   396
11.3341   372
11.3441   380
11.3541   352
11.3641   330
11.3741   310
11.3841   286
11.3941   293
11.4041   286
11.4141   267
11.4241   256
11.4341   234
11.4441   231
11.4541   212
11.4641   220
11.4741   207
11.4841   215
11.4941   234
11.5041   224
11.5141   210
11.5241   214
11.5341   234
11.5441   244
11.5541   231
11.5641   234
11.5741   219
11.5841   218
11.5941   225
11.6041   242
11.6141   231
11.6241   225
11.6341   234
11.6441   244
11.6541   241
11.6641   219
11.6741   221
11.6841   210
11.6941   201
11.7041   191
11.7141   217
11.7241   222
11.7341   209
11.7441   218
11.7541   196
11.7641   182
11.7741   161
11.7841   164
11.7941   207
11.8041   208
11.8141   182
11.8241   173
11.8341   183
11.8441   174
11.8541   182
11.8641   183
11.8741   190
11.8841   175
11.8941   172
11.9041   172
11.9141   173
11.9241   181
11.9341   180
11.9441   182
11.9541   182
11.9641   193
11.9741   180
11.9841   182
11.9941   197
12.0041   204
12.0141   186
12.0241   169
12.0341   170
12.0441   184
12.0541   192
12.0641   202
12.0741   202
12.0841   189
12.0941   179
12.1041   184
12.1141   170
12.1241   167
12.1341   178
12.1441   166
12.1541   156
12.1641   173
12.1741   174
12.1841   165
12.1941   179
12.2041   186
12.2141   173
12.2241   170
12.2341   168
12.2441   170
12.2541   171
12.2641   176
12.2741   173
12.2841   172
12.2941   185
12.3041   188
12.3141   196
12.3241   170
12.3341   163
12.3441   167
12.3541   168
12.3641   168
12.3741   170
12.3841   170
12.3941   175
12.4041   172
12.4141   174
12.4241   182
12.4341   172
12.4441   159
12.4541   167
12.4641   172
12.4741   185
12.4841   189
12.4941   189
12.5041   189
12.5141   184
12.5241   171
12.5341   194
12.5441   221
12.5541   216
12.5641   209
12.5741   205
12.5841   204
12.5941   217
12.6041   238
12.6141   224
12.6241   228
12.6341   220
12.6441   219
12.6541   226
12.6641   217
12.6741   206
12.6841   205
12.6941   211
12.7041   216
12.7141   223
12.7241   224
12.7341   215
12.7441   209
12.7541   205
12.7641   203
12.7741   206
12.7841   202
12.7941   201
12.8041   208
12.8141   212
12.8241   208
12.8341   201
12.8441   199
12.8541   195
12.8641   187
12.8741   185
12.8841   190
12.8941   199
12.9041   204
12.9141   203
12.9241   200
12.9341   196
12.9441   192
12.9541   189
12.9641   189
12.9741   192
12.9841   198
12.9941   211
13.0041   208
13.0141   201
13.0241   201
13.0341   205
13.0441   216
13.0541   234
13.0641   227
13.0741   215
13.0841   213
13.0941   204
13.1041   210
13.1141   206
13.1241   211
13.1341   214
13.1441   206
13.1541   213
13.1641   217
13.1741   215
13.1841   219
13.1941   239
13.2041   255
13.2141   250
13.2241   252
13.2341   273
13.2441   268
13.2541   269
13.2641   298
13.2741   283
13.2841   311
13.2941   338
13.3041   332
13.3141   356
13.3241   358
13.3341   346
13.3441   350
13.3541   349
13.3641   348
13.3741   361
13.3841   367
13.3941   370
13.4041   381
13.4141   387
13.4241   384
13.4341   377
13.4441   361
13.4541   341
13.4641   329
13.4741   323
13.4841   310
13.4941   296
13.5041   291
13.5141   287
13.5241   278
13.5341   272
13.5441   267
13.5541   260
13.5641   256
13.5741   258
13.5841   261
13.5941   261
13.6041   263
13.6141   260
13.6241   245
13.6341   227
13.6441   255
13.6541   273
13.6641   255
13.6741   255
13.6841   248
13.6941   233
13.7041   239
13.7141   250
13.7241   254
13.7341   248
13.7441   239
13.7541   245
13.7641   254
13.7741   251
13.7841   252
13.7941   250
13.8041   250
13.8141   269
13.8241   291
13.8341   280
13.8441   256
13.8541   248
13.8641   245
13.8741   259
13.8841   263
13.8941   260
13.9041   278
13.9141   293
13.9241   298
13.9341   294
13.9441   289
13.9541   288
13.9641   300
13.9741   324
13.9841   333
13.9941   327
14.0041   337
14.0141   369
14.0241   392
14.0341   395
14.0441   403
14.0541   421
14.0641   435
14.0741   444
14.0841   446
14.0941   446
14.1041   454
14.1141   474
14.1241   488
14.1341   493
14.1441   498
14.1541   498
14.1641   501
14.1741   508
14.1841   505
14.1941   506
14.2041   474
14.2141   437
14.2241   444
14.2341   442
14.2441   434
14.2541   409
14.2641   368
14.2741   354
14.2841   366
14.2941   358
14.3041   327
14.3141   325
14.3241   333
14.3341   325
14.3441   319
14.3541   306
14.3641   301
14.3741   314
14.3841   333
14.3941   314
14.4041   302
14.4141   320
14.4241   323
14.4341   316
14.4441   296
14.4541   295
14.4641   311
14.4741   314
14.4841   307
14.4941   304
14.5041   305
14.5141   322
14.5241   349
14.5341   352
14.5441   328
14.5541   302
14.5641   325
14.5741   327
14.5841   316
14.5941   310
14.6041   294
14.6141   306
14.6241   316
14.6341   310
14.6441   307
14.6541   315
14.6641   326
14.6741   329
14.6841   336
14.6941   342
14.7041   327
14.7141   329
14.7241   349
14.7341   346
14.7441   358
14.7541   355
14.7641   332
14.7741   334
14.7841   357
14.7941   375
14.8041   353
14.8141   352
14.8241   366
14.8341   379
14.8441   387
14.8541   384
14.8641   391
14.8741   381
14.8841   381
14.8941   399
14.9041   395
14.9141   383
14.9241   386
14.9341   395
14.9441   416
14.9541   422
14.9641   408
14.9741   394
14.9841   399
14.9941   400
15.0041   384
15.0141   371
15.0241   389
15.0341   404
15.0441   379
15.0541   386
15.0641   380
15.0741   375
15.0841   411
15.0941   415
15.1041   393
15.1141   383
15.1241   379
15.1341   364
15.1441   362
15.1541   372
15.1641   367
15.1741   365
15.1841   353
15.1941   365
15.2041   391
15.2141   378
15.2241   368
15.2341   375
15.2441   389
15.2541   376
15.2641   367
15.2741   351
15.2841   360
15.2941   362
15.3041   363
15.3141   356
15.3241   370
15.3341   359
15.3441   336
15.3541   347
15.3641   348
15.3741   363
15.3841   366
15.3941   394
15.4041   388
15.4141   383
15.4241   390
15.4341   397
15.4441   400
15.4541   402
15.4641   395
15.4741   398
15.4841   403
15.4941   404
15.5041   403
15.5141   406
15.5241   416
15.5341   406
15.5441   446
15.5541   465
15.5641   450
15.5741   453
15.5841   471
15.5941   467
15.6041   500
15.6141   535
15.6241   572
15.6341   600
15.6441   634
15.6541   673
15.6641   703
15.6741   695
15.6841   737
15.6941   724
15.7041   753
15.7141   762
15.7241   779
15.7341   791
15.7441   831
15.7541   829
15.7641   786
15.7741   801
15.7841   782
15.7941   767
15.8041   772
15.8141   758
15.8241   746
15.8341   710
15.8441   693
15.8541   674
15.8641   661
15.8741   629
15.8841   583
15.8941   559
15.9041   531
15.9141   552
15.9241   530
15.9341   504
15.9441   487
15.9541   463
15.9641   467
15.9741   444
15.9841   427
15.9941   458
16.0041   482
16.0141   451
16.0241   409
16.0341   447
16.0441   442
16.0541   411
16.0641   411
16.0741   448
16.0841   463
16.0941   459
16.1041   437
16.1141   433
16.1241   440
16.1341   444
16.1441   438
16.1541   432
16.1641   417
16.1741   420
16.1841   439
16.1941   408
16.2041   401
16.2141   399
16.2241   426
16.2341   471
16.2441   453
16.2541   455
16.2641   443
16.2741   459
16.2841   446
16.2941   448
16.3041   439
16.3141   425
16.3241   434
16.3341   444
16.3441   421
16.3541   451
16.3641   443
16.3741   462
16.3841   460
16.3941   462
16.4041   450
16.4141   468
16.4241   480
16.4341   457
16.4441   478
16.4541   463
16.4641   462
16.4741   454
16.4841   477
16.4941   482
16.5041   472
16.5141   472
16.5241   480
16.5341   496
16.5441   509
16.5541   489
16.5641   485
16.5741   492
16.5841   467
16.5941   472
16.6041   492
16.6141   461
16.6241   480
16.6341   496
16.6441   492
16.6541   508
16.6641   509
16.6741   496
16.6841   521
16.6941   484
16.7041   452
16.7141   476
16.7241   501
16.7341   478
16.7441   473
16.7541   492
16.7641   486
16.7741   493
16.7841   495
16.7941   511
16.8041   499
16.8141   484
16.8241   498
16.8341   508
16.8441   508
16.8541   491
16.8641   500
16.8741   498
16.8841   477
16.8941   510
16.9041   494
16.9141   512
16.9241   498
16.9341   517
16.9441   523
16.9541   516
16.9641   494
16.9741   474
16.9841   498
16.9941   509
17.0041   481
17.0141   516
17.0241   543
17.0341   526
17.0441   499
17.0541   494
17.0641   508
17.0741   507
17.0841   498
17.0941   483
17.1041   483
17.1141   529
17.1241   510
17.1341   481
17.1441   514
17.1541   478
17.1641   513
17.1741   509
17.1841   499
17.1941   515
17.2041   515
17.2141   511
17.2241   532
17.2341   521
17.2441   535
17.2541   536
17.2641   506
17.2741   515
17.2841   529
17.2941   517
17.3041   527
17.3141   530
17.3241   540
17.3341   551
17.3441   543
17.3541   542
17.3641   519
17.3741   511
17.3841   502
17.3941   491
17.4041   522
17.4141   560
17.4241   536
17.4341   543
17.4441   533
17.4541   544
17.4641   569
17.4741   562
17.4841   560
17.4941   570
17.5041   553
17.5141   562
17.5241   579
17.5341   555
17.5441   556
17.5541   563
17.5641   574
17.5741   571
17.5841   586
17.5941   578
17.6041   572
17.6141   558
17.6241   576
17.6341   599
17.6441   598
17.6541   606
17.6641   621
17.6741   589
17.6841   604
17.6941   612
17.7041   580
17.7141   599
17.7241   609
17.7341   587
17.7441   580
17.7541   628
17.7641   588
17.7741   616
17.7841   589
17.7941   570
17.8041   576
17.8141   578
17.8241   571
17.8341   552
17.8441   586
17.8541   543
17.8641   561
17.8741   562
17.8841   559
17.8941   558
17.9041   558
17.9141   562
17.9241   554
17.9341   565
17.9441   615
17.9541   555
17.9641   528
17.9741   590
17.9841   536
17.9941   541
18.0041   583
18.0141   570
18.0241   565
18.0341   562
18.0441   561
18.0541   574
18.0641   532
18.0741   547
18.0841   557
18.0941   543
18.1041   572
18.1141   553
18.1241   553
18.1341   554
18.1441   565
18.1541   550
18.1641   582
18.1741   573
18.1841   572
18.1941   554
18.2041   541
18.2141   572
18.2241   594
18.2341   568
18.2441   544
18.2541   586
18.2641   578
18.2741   536
18.2841   529
18.2941   558
18.3041   590
18.3141   595
18.3241   555
18.3341   557
18.3441   569
18.3541   567
18.3641   582
18.3741   601
18.3841   590
18.3941   592
18.4041   587
18.4141   568
18.4241   565
18.4341   559
18.4441   606
18.4541   545
18.4641   561
18.4741   598
18.4841   564
18.4941   574
18.5041   597
18.5141   589
18.5241   567
18.5341   552
18.5441   564
18.5541   564
18.5641   594
18.5741   594
18.5841   599
18.5941   607
18.6041   584
18.6141   595
18.6241   573
18.6341   588
18.6441   622
18.6541   604
18.6641   563
18.6741   581
18.6841   600
18.6941   588
18.7041   587
18.7141   602
18.7241   601
18.7341   615
18.7441   570
18.7541   576
18.7641   597
18.7741   583
18.7841   597
18.7941   602
18.8041   571
18.8141   574
18.8241   579
18.8341   590
18.8441   621
18.8541   615
18.8641   585
18.8741   590
18.8841   590
18.8941   579
18.9041   613
18.9141   600
18.9241   604
18.9341   600
18.9441   552
18.9541   579
18.9641   550
18.9741   610
18.9841   589
18.9941   570
19.0041   576
19.0141   605
19.0241   565
19.0341   611
19.0441   592
19.0541   581
19.0641   570
19.0741   590
19.0841   592
19.0941   586
19.1041   573
19.1141   577
19.1241   589
19.1341   610
19.1441   567
19.1541   650
19.1641   608
19.1741   577
19.1841   590
19.1941   586
19.2041   598
19.2141   625
19.2241   587
19.2341   607
19.2441   612
19.2541   617
19.2641   580
19.2741   585
19.2841   582
19.2941   592
19.3041   578
19.3141   600
19.3241   597
19.3341   607
19.3441   609
19.3541   628
19.3641   603
19.3741   597
19.3841   599
19.3941   621
19.4041   597
19.4141   619
19.4241   585
19.4341   632
19.4441   567
19.4541   610
19.4641   581
19.4741   598
19.4841   603
19.4941   609
19.5041   587
19.5141   586
19.5241   595
19.5341   617
19.5441   598
19.5541   600
19.5641   616
19.5741   591
19.5841   598
19.5941   592
19.6041   625
19.6141   623
19.6241   620
19.6341   620
19.6441   588
19.6541   621
19.6641   591
19.6741   561
19.6841   567
19.6941   594
19.7041   631
19.7141   599
19.7241   599
19.7341   625
19.7441   601
19.7541   596
19.7641   562
19.7741   604
19.7841   606
19.7941   595
19.8041   592
19.8141   613
19.8241   615
19.8341   579
19.8441   592
19.8541   596
19.8641   602
19.8741   618
19.8841   609
19.8941   635
19.9041   604
19.9141   636
19.9241   629
19.9341   664
19.9441   612
19.9541   601
19.9641   592
19.9741   606
19.9841   623
19.9941   602
20.0041   608
20.0141   583
20.0241   615
20.0341   621
20.0441   594
20.0541   596
20.0641   606
20.0741   628
20.0841   623
20.0941   637
20.1041   587
20.1141   572
20.1241   614
20.1341   590
20.1441   579
20.1541   593
20.1641   619
20.1741   586
20.1841   610
20.1941   614
20.2041   617
20.2141   618
20.2241   599
20.2341   589
20.2441   619
20.2541   600
20.2641   630
20.2741   650
20.2841   651
20.2941   617
20.3041   603
20.3141   627
20.3241   662
20.3341   563
20.3441   627
20.3541   602
20.3641   624
20.3741   590
20.3841   609
20.3941   625
20.4041   636
20.4141   592
20.4241   642
20.4341   583
20.4441   636
20.4541   592
20.4641   596
20.4741   574
20.4841   583
20.4941   552
20.5041   592
20.5141   600
20.5241   603
20.5341   602
20.5441   592
20.5541   621
20.5641   590
20.5741   583
20.5841   595
20.5941   606
20.6041   637
20.6141   604
20.6241   595
20.6341   612
20.6441   614
20.6541   593
20.6641   639
20.6741   604
20.6841   585
20.6941   594
20.7041   593
20.7141   590
20.7241   615
20.7341   582
20.7441   595
20.7541   596
20.7641   622
20.7741   637
20.7841   628
20.7941   624
20.8041   604
20.8141   613
20.8241   591
20.8341   615
20.8441   686
20.8541   664
20.8641   654
20.8741   618
20.8841   606
20.8941   625
20.9041   678
20.9141   713
20.9241   723
20.9341   724
20.9441   736
20.9541   738
20.9641   710
20.9741   712
20.9841   722
20.9941   801
21.0041   804
21.0141   769
21.0241   785
21.0341   765
21.0441   750
21.0541   742
21.0641   787
21.0741   853
21.0841   849
21.0941   823
21.1041   836
21.1141   829
21.1241   812
21.1341   817
21.1441   841
21.1541   807
21.1641   824
21.1741   841
21.1841   840
21.1941   815
21.2041   749
21.2141   799
21.2241   760
21.2341   804
21.2441   739
21.2541   763
21.2641   705
21.2741   728
21.2841   742
21.2941   699
21.3041   714
21.3141   678
21.3241   656
21.3341   641
21.3441   607
21.3541   603
21.3641   625
21.3741   639
21.3841   626
21.3941   630
21.4041   661
21.4141   604
21.4241   625
21.4341   607
21.4441   609
21.4541   587
21.4641   596
21.4741   603
21.4841   594
21.4941   570
21.5041   587
21.5141   631
21.5241   591
21.5341   543
21.5441   616
21.5541   601
21.5641   593
21.5741   606
21.5841   593
21.5941   577
21.6041   553
21.6141   616
21.6241   592
21.6341   639
21.6441   565
21.6541   600
21.6641   588
21.6741   588
21.6841   626
21.6941   607
21.7041   600
21.7141   576
21.7241   583
21.7341   609
21.7441   635
21.7541   551
21.7641   586
21.7741   567
21.7841   632
21.7941   609
21.8041   630
21.8141   583
21.8241   562
21.8341   606
21.8441   535
21.8541   545
21.8641   557
21.8741   598
21.8841   532
21.8941   571
21.9041   624
21.9141   616
21.9241   560
21.9341   554
21.9441   562
21.9541   597
21.9641   595
21.9741   565
21.9841   538
21.9941   573
22.0041   546
22.0141   576
22.0241   579
22.0341   596
22.0441   626
22.0541   563
22.0641   558
22.0741   569
22.0841   595
22.0941   586
22.1041   588
22.1141   599
22.1241   588
22.1341   623
22.1441   573
22.1541   584
22.1641   573
22.1741   595
22.1841   603
22.1941   569
22.2041   602
22.2141   590
22.2241   556
22.2341   515
22.2441   566
22.2541   564
22.2641   589
22.2741   554
22.2841   575
22.2941   619
22.3041   580
22.3141   592
22.3241   575
22.3341   589
22.3441   592
22.3541   535
22.3641   623
22.3741   539
22.3841   628
22.3941   574
22.4041   599
22.4141   586
22.4241   560
22.4341   567
22.4441   549
22.4541   583
22.4641   567
22.4741   600
22.4841   591
22.4941   572
22.5041   557
22.5141   567
22.5241   569
22.5341   557
22.5441   548
22.5541   558
22.5641   589
22.5741   544
22.5841   590
22.5941   573
22.6041   548
22.6141   559
22.6241   555
22.6341   569
22.6441   591
22.6541   551
22.6641   573
22.6741   539
22.6841   562
22.6941   553
22.7041   557
22.7141   546
22.7241   579
22.7341   553
22.7441   569
22.7541   564
22.7641   545
22.7741   604
22.7841   568
22.7941   590
22.8041   557
22.8141   567
22.8241   554
22.8341   537
22.8441   562
22.8541   589
22.8641   572
22.8741   533
22.8841   563
22.8941   540
22.9041   534
22.9141   550
22.9241   550
22.9341   547
22.9441   518
22.9541   554
22.9641   548
22.9741   552
22.9841   572
22.9941   545
23.0041   538
23.0141   525
23.0241   537
23.0341   556
23.0441   565
23.0541   531
23.0641   522
23.0741   563
23.0841   550
23.0941   564
23.1041   561
23.1141   524
23.1241   534
23.1341   562
23.1441   550
23.1541   495
23.1641   542
23.1741   534
23.1841   542
23.1941   571
23.2041   566
23.2141   519
23.2241   549
23.2341   520
23.2441   568
23.2541   545
23.2641   532
23.2741   558
23.2841   571
23.2941   526
23.3041   515
23.3141   526
23.3241   548
23.3341   551
23.3441   531
23.3541   506
23.3641   553
23.3741   555
23.3841   533
23.3941   520
23.4041   575
23.4141   507
23.4241   554
23.4341   580
23.4441   526
23.4541   492
23.4641   544
23.4741   557
23.4841   527
23.4941   525
23.5041   510
23.5141   530
23.5241   510
23.5341   540
23.5441   493
23.5541   545
23.5641   526
23.5741   539
23.5841   488
23.5941   561
23.6041   501
23.6141   538
23.6241   548
23.6341   521
23.6441   536
23.6541   554
23.6641   565
23.6741   550
23.6841   548
23.6941   575
23.7041   557
23.7141   571
23.7241   547
23.7341   555
23.7441   564
23.7541   563
23.7641   533
23.7741   546
23.7841   524
23.7941   604
23.8041   544
23.8141   574
23.8241   545
23.8341   550
23.8441   531
23.8541   550
23.8641   523
23.8741   526
23.8841   510
23.8941   562
23.9041   527
23.9141   555
23.9241   534
23.9341   520
23.9441   513
23.9541   530
23.9641   496
23.9741   544
23.9841   531
23.9941   544
24.0041   524
24.0141   524
24.0241   502
24.0341   486
24.0441   553
24.0541   539
24.0641   517
24.0741   503
24.0841   514
24.0941   489
24.1041   469
24.1141   502
24.1241   482
24.1341   504
24.1441   495
24.1541   527
24.1641   528
24.1741   529
24.1841   524
24.1941   529
24.2041   510
24.2141   518
24.2241   490
24.2341   489
24.2441   475
24.2541   451
24.2641   514
24.2741   460
24.2841   487
24.2941   518
24.3041   533
24.3141   480
24.3241   518
24.3341   483
24.3441   525
24.3541   511
24.3641   495
24.3741   513
24.3841   487
24.3941   490
24.4041   491
24.4141   509
24.4241   475
24.4341   506
24.4441   499
24.4541   495
24.4641   496
24.4741   513
24.4841   495
24.4941   525
24.5041   506
24.5141   457
24.5241   485
24.5341   503
24.5441   491
24.5541   474
24.5641   498
24.5741   450
24.5841   479
24.5941   462
24.6041   522
24.6141   481
24.6241   492
24.6341   470
24.6441   463
24.6541   500
24.6641   478
24.6741   490
24.6841   484
24.6941   472
24.7041   479
24.7141   481
24.7241   513
24.7341   478
24.7441   477
24.7541   545
24.7641   484
24.7741   500
24.7841   468
24.7941   486
24.8041   480
24.8141   443
24.8241   482
24.8341   483
24.8441   506
24.8541   456
24.8641   455
24.8741   451
24.8841   476
24.8941   461
24.9041   514
24.9141   503
24.9241   493
24.9341   490
24.9441   454
24.9541   455
24.9641   463
24.9741   445
24.9841   453
24.9941   459
25.0041   459
25.0141   501
25.0241   495
25.0341   499
25.0441   488
25.0541   494
25.0641   471
25.0741   451
25.0841   459
25.0941   467
25.1041   457
25.1141   455
25.1241   420
25.1341   466
25.1441   472
25.1541   492
25.1641   501
25.1741   476
25.1841   487
25.1941   474
25.2041   465
25.2141   510
25.2241   504
25.2341   474
25.2441   474
25.2541   450
25.2641   456
25.2741   471
25.2841   496
25.2941   472
25.3041   488
25.3141   460
25.3241   459
25.3341   448
25.3441   446
25.3541   436
25.3641   472
25.3741   450
25.3841   472
25.3941   445
25.4041   458
25.4141   442
25.4241   452
25.4341   474
25.4441   450
25.4541   451
25.4641   446
25.4741   407
25.4841   431
25.4941   459
25.5041   474
25.5141   439
25.5241   463
25.5341   422
25.5441   413
25.5541   456
25.5641   440
25.5741   440
25.5841   415
25.5941   427
25.6041   432
25.6141   436
25.6241   391
25.6341   448
25.6441   402
25.6541   423
25.6641   454
25.6741   449
25.6841   434
25.6941   409
25.7041   441
25.7141   454
25.7241   415
25.7341   416
25.7441   416
25.7541   395
25.7641   416
25.7741   401
25.7841   456
25.7941   463
25.8041   488
25.8141   421
25.8241   424
25.8341   430
25.8441   442
25.8541   412
25.8641   410
25.8741   432
25.8841   418
25.8941   410
25.9041   442
25.9141   396
25.9241   413
25.9341   439
25.9441   415
25.9541   401
25.9641   429
25.9741   419
25.9841   444
25.9941   441
26.0041   410
26.0141   427
26.0241   433
26.0341   438
26.0441   380
26.0541   408
26.0641   412
26.0741   375
26.0841   409
26.0941   436
26.1041   423
26.1141   400
26.1241   418
26.1341   403
26.1441   406
26.1541   425
26.1641   417
26.1741   411
26.1841   449
26.1941   380
26.2041   414
26.2141   417
26.2241   405
26.2341   397
26.2441   387
26.2541   431
26.2641   391
26.2741   391
26.2841   383
26.2941   406
26.3041   389
26.3141   386
26.3241   393
26.3341   407
26.3441   394
26.3541   400
26.3641   423
26.3741   388
26.3841   372
26.3941   404
26.4041   428
26.4141   378
26.4241   388
26.4341   392
26.4441   408
26.4541   408
26.4641   395
26.4741   425
26.4841   391
26.4941   381
26.5041   381
26.5141   396
26.5241   393
26.5341   394
26.5441   363
26.5541   396
26.5641   390
26.5741   388
26.5841   356
26.5941   412
26.6041   393
26.6141   408
26.6241   414
26.6341   387
26.6441   354
26.6541   389
26.6641   378
26.6741   377
26.6841   370
26.6941   374
26.7041   384
26.7141   383
26.7241   376
26.7341   384
26.7441   410
26.7541   363
26.7641   367
26.7741   387
26.7841   364
26.7941   346
26.8041   389
26.8141   367
26.8241   390
26.8341   392
26.8441   382
26.8541   372
26.8641   402
26.8741   357
26.8841   364
26.8941   381
26.9041   383
26.9141   366
26.9241   363
26.9341   353
26.9441   362
26.9541   383
26.9641   380
26.9741   360
26.9841   362
26.9941   347
27.0041   346
27.0141   381
27.0241   379
27.0341   375
27.0441   377
27.0541   403
27.0641   392
27.0741   378
27.0841   364
27.0941   376
27.1041   342
27.1141   373
27.1241   369
27.1341   341
27.1441   375
27.1541   359
27.1641   360
27.1741   370
27.1841   369
27.1941   356
27.2041   339
27.2141   349
27.2241   354
27.2341   359
27.2441   326
27.2541   368
27.2641   352
27.2741   361
27.2841   347
27.2941   367
27.3041   352
27.3141   382
27.3241   354
27.3341   342
27.3441   372
27.3541   363
27.3641   353
27.3741   357
27.3841   387
27.3941   336
27.4041   359
27.4141   373
27.4241   390
27.4341   358
27.4441   357
27.4541   375
27.4641   335
27.4741   373
27.4841   360
27.4941   371
27.5041   337
27.5141   370
27.5241   335
27.5341   350
27.5441   369
27.5541   348
27.5641   339
27.5741   350
27.5841   330
27.5941   349
27.6041   337
27.6141   340
27.6241   338
27.6341   326
27.6441   356
27.6541   339
27.6641   343
27.6741   343
27.6841   328
27.6941   340
27.7041   321
27.7141   376
27.7241   324
27.7341   321
27.7441   321
27.7541   310
27.7641   308
27.7741   348
27.7841   340
27.7941   352
27.8041   334
27.8141   339
27.8241   326
27.8341   340
27.8441   352
27.8541   329
27.8641   302
27.8741   341
27.8841   325
27.8941   307
27.9041   336
27.9141   336
27.9241   339
27.9341   314
27.9441   299
27.9541   326
27.9641   316
27.9741   320
27.9841   321
27.9941   364
28.0041   308
28.0141   333
28.0241   315
28.0341   330
28.0441   326
28.0541   345
28.0641   354
28.0741   311
28.0841   344
28.0941   312
28.1041   327
28.1141   331
28.1241   310
28.1341   321
28.1441   320
28.1541   288
28.1641   309
28.1741   321
28.1841   327
28.1941   310
28.2041   279
28.2141   306
28.2241   323
28.2341   319
28.2441   316
28.2541   343
28.2641   336
28.2741   316
28.2841   331
28.2941   326
28.3041   311
28.3141   339
28.3241   333
28.3341   316
28.3441   298
28.3541   295
28.3641   317
28.3741   327
28.3841   304
28.3941   320
28.4041   315
28.4141   330
28.4241   304
28.4341   306
28.4441   295
28.4541   332
28.4641   319
28.4741   328
28.4841   302
28.4941   266
28.5041   324
28.5141   322
28.5241   305
28.5341   312
28.5441   282
28.5541   292
28.5641   314
28.5741   289
28.5841   291
28.5941   323
28.6041   320
28.6141   295
28.6241   311
28.6341   280
28.6441   331
28.6541   311
28.6641   312
28.6741   299
28.6841   303
28.6941   322
28.7041   307
28.7141   287
28.7241   284
28.7341   261
28.7441   282
28.7541   279
28.7641   295
28.7741   275
28.7841   279
28.7941   289
28.8041   277
28.8141   318
28.8241   301
28.8341   301
28.8441   278
28.8541   293
28.8641   258
28.8741   315
28.8841   308
28.8941   260
28.9041   302
28.9141   282
28.9241   298
28.9341   304
28.9441   301
28.9541   317
28.9641   304
28.9741   281
28.9841   256
28.9941   280
29.0041   312
29.0141   272
29.0241   282
29.0341   273
29.0441   240
29.0541   279
29.0641   270
29.0741   289
29.0841   279
29.0941   278
29.1041   271
29.1141   286
29.1241   263
29.1341   272
29.1441   257
29.1541   278
29.1641   274
29.1741   255
29.1841   268
29.1941   266
29.2041   243
29.2141   270
29.2241   272
29.2341   281
29.2441   270
29.2541   265
29.2641   262
29.2741   266
29.2841   281
29.2941   282
29.3041   274
29.3141   288
29.3241   275
29.3341   261
29.3441   271
29.3541   294
29.3641   264
29.3741   260
29.3841   252
29.3941   248
29.4041   256
29.4141   263
29.4241   292
29.4341   264
29.4441   254
29.4541   253
29.4641   284
29.4741   256
29.4841   285
29.4941   278
29.5041   285
29.5141   288
29.5241   256
29.5341   249
29.5441   286
29.5541   252
29.5641   293
29.5741   266
29.5841   264
29.5941   250
29.6041   253
29.6141   240
29.6241   243
29.6341   258
29.6441   253
29.6541   253
29.6641   230
29.6741   262
29.6841   258
29.6941   268
29.7041   249
29.7141   251
29.7241   261
29.7341   244
29.7441   253
29.7541   255
29.7641   257
29.7741   235
29.7841   252
29.7941   253
29.8041   254
29.8141   238
29.8241   271
29.8341   258
29.8441   255
29.8541   233
29.8641   265
29.8741   256
29.8841   230
29.8941   244
29.9041   240
29.9141   230
29.9241   245
29.9341   235
29.9441   241
29.9541   262
29.9641   251
29.9741   239
29.9841   230
29.9941   218
30.0041   243
30.0141   225
30.0241   253
30.0341   251
30.0441   253
30.0541   237
30.0641   253
30.0741   244
30.0841   240
30.0941   240
30.1041   226
30.1141   251
30.1241   234
30.1341   227
30.1441   226
30.1541   225
30.1641   206
30.1741   244
30.1841   234
30.1941   228
30.2041   226
30.2141   224
30.2241   230
30.2341   219
30.2441   219
30.2541   231
30.2641   239
30.2741   221
30.2841   222
30.2941   224
30.3041   243
30.3141   233
30.3241   228
30.3341   234
30.3441   215
30.3541   214
30.3641   220
30.3741   233
30.3841   240
30.3941   257
30.4041   220
30.4141   218
30.4241   223
30.4341   233
30.4441   233
30.4541   220
30.4641   222
30.4741   207
30.4841   218
30.4941   208
30.5041   219
30.5141   207
30.5241   212
30.5341   227
30.5441   241
30.5541   230
30.5641   220
30.5741   232
30.5841   214
30.5941   228
30.6041   218
30.6141   203
30.6241   220
30.6341   242
30.6441   217
30.6541   236
30.6641   222
30.6741   228
30.6841   199
30.6941   219
30.7041   207
30.7141   216
30.7241   210
30.7341   225
30.7441   207
30.7541   192
30.7641   226
30.7741   218
30.7841   205
30.7941   217
30.8041   204
30.8141   222
30.8241   236
30.8341   220
30.8441   203
30.8541   224
30.8641   210
30.8741   196
30.8841   193
30.8941   217
30.9041   182
30.9141   221
30.9241   189
30.9341   205
30.9441   209
30.9541   193
30.9641   218
30.9741   218
30.9841   217
30.9941   202
31.0041   209
31.0141   216
31.0241   228
31.0341   202
31.0441   223
31.0541   204
31.0641   221
31.0741   194
31.0841   208
31.0941   188
31.1041   206
31.1141   191
31.1241   227
31.1341   217
31.1441   198
31.1541   197
31.1641   198
31.1741   217
31.1841   222
31.1941   202
31.2041   210
31.2141   207
31.2241   198
31.2341   213
31.2441   187
31.2541   185
31.2641   219
31.2741   212
31.2841   219
31.2941   219
31.3041   178
31.3141   188
31.3241   207
31.3341   187
31.3441   187
31.3541   194
31.3641   190
31.3741   185
31.3841   187
31.3941   209
31.4041   185
31.4141   186
31.4241   207
31.4341   216
31.4441   179
31.4541   167
31.4641   166
31.4741   191
31.4841   191
31.4941   188
31.5041   180
31.5141   175
31.5241   208
31.5341   197
31.5441   226
31.5541   191
31.5641   192
31.5741   173
31.5841   187
31.5941   214
31.6041   192
31.6141   206
31.6241   183
31.6341   206
31.6441   172
31.6541   175
31.6641   210
31.6741   186
31.6841   186
31.6941   176
31.7041   194
31.7141   188
31.7241   213
31.7341   180
31.7441   180
31.7541   196
31.7641   167
31.7741   183
31.7841   187
31.7941   189
31.8041   169
31.8141   189
31.8241   176
31.8341   185
31.8441   170
31.8541   184
31.8641   165
31.8741   189
31.8841   197
31.8941   193
31.9041   191
31.9141   188
31.9241   173
31.9341   151
31.9441   166
31.9541   184
31.9641   180
31.9741   159
31.9841   197
31.9941   172
32.0041   165
32.0141   192
32.0241   175
32.0341   177
32.0441   173
32.0541   177
32.0641   163
32.0741   179
32.0841   175
32.0941   175
32.1041   164
32.1141   183
32.1241   170
32.1341   181
32.1441   182
32.1541   167
32.1641   169
32.1741   175
32.1841   169
32.1941   163
32.2041   182
32.2141   188
32.2241   198
32.2341   179
32.2441   166
32.2541   201
32.2641   185
32.2741   177
32.2841   169
32.2941   191
32.3041   163
32.3141   163
32.3241   142
32.3341   170
32.3441   162
32.3541   161
32.3641   169
32.3741   148
32.3841   156
32.3941   176
32.4041   183
32.4141   158
32.4241   147
32.4341   176
32.4441   189
32.4541   161
32.4641   163
32.4741   169
32.4841   144
32.4941   168
32.5041   183
32.5141   174
32.5241   151
32.5341   166
32.5441   185
32.5541   173
32.5641   164
32.5741   159
32.5841   143
32.5941   154
32.6041   157
32.6141   150
32.6241   161
32.6341   185
32.6441   159
32.6541   169
32.6641   139
32.6741   160
32.6841   138
32.6941   147
32.7041   127
32.7141   146
32.7241   146
32.7341   151
32.7441   160
32.7541   171
32.7641   147
32.7741   151
32.7841   154
32.7941   140
32.8041   146
32.8141   175
32.8241   161
32.8341   145
32.8441   160
32.8541   157
32.8641   137
32.8741   168
32.8841   157
32.8941   140
32.9041   142
32.9141   135
32.9241   154
32.9341   144
32.9441   134
32.9541   140
32.9641   152
32.9741   153
32.9841   163
32.9941   145
33.0041   158
33.0141   143
33.0241   141
33.0341   127
33.0441   131
33.0541   135
33.0641   153
33.0741   146
33.0841   147
33.0941   156
33.1041   155
33.1141   147
33.1241   142
33.1341   156
33.1441   149
33.1541   150
33.1641   130
33.1741   141
33.1841   131
33.1941   124
33.2041   135
33.2141   134
33.2241   153
33.2341   163
33.2441   130
33.2541   140
33.2641   132
33.2741   146
33.2841   139
33.2941   124
33.3041   156
33.3141   150
33.3241   134
33.3341   145
33.3441   138
33.3541   137
33.3641   143
33.3741   163
33.3841   130
33.3941   115
33.4041   132
33.4141   141
33.4241   150
33.4341   158
33.4441   126
33.4541   132
33.4641   157
33.4741   143
33.4841   151
33.4941   148
33.5041   136
33.5141   107
33.5241   121
33.5341   136
33.5441   130
33.5541   143
33.5641   154
33.5741   134
33.5841   147
33.5941   120
33.6041   138
33.6141   114
33.6241   144
33.6341   125
33.6441   112
33.6541   124
33.6641   129
33.6741   136
33.6841   140
33.6941   118
33.7041   124
33.7141    93
33.7241   124
33.7341   135
33.7441   122
33.7541   143
33.7641   114
33.7741   117
33.7841   123
33.7941   123
33.8041   137
33.8141   115
33.8241   132
33.8341   136
33.8441   121
33.8541   125
33.8641   125
33.8741   129
33.8841   138
33.8941   131
33.9041   134
33.9141   126
33.9241   115
33.9341   113
33.9441   124
33.9541   122
33.9641   115
33.9741   117
33.9841   117
33.9941   118
34.0041   108
34.0141   124
34.0241   139
34.0341   131
34.0441   131
34.0541   111
34.0641   115
34.0741   112
34.0841   128
34.0941   128
34.1041   127
34.1141   100
34.1241   121
34.1341   113
34.1441    92
34.1541   114
34.1641   113
34.1741   110
34.1841   121
34.1941   122
34.2041   139
34.2141   107
34.2241   101
34.2341   113
34.2441   118
34.2541   113
34.2641   121
34.2741   109
34.2841   105
34.2941   116
34.3041   102
34.3141   122
34.3241   103
34.3341    96
34.3441   124
34.3541   119
34.3641   118
34.3741   118
34.3841   115
34.3941   109
34.4041   116
34.4141   119
34.4241    99
34.4341   117
34.4441   127
34.4541   104
34.4641   132
34.4741   113
34.4841    92
34.4941   114
34.5041   125
34.5141   120
34.5241   100
34.5341    99
34.5441   110
34.5541   133
34.5641   105
34.5741   121
34.5841   111
34.5941   103
34.6041   112
34.6141   119
34.6241   106
34.6341   113
34.6441   107
34.6541   100
34.6641   103
34.6741   100
34.6841   118
34.6941   113
34.7041    91
34.7141    99
34.7241    98
34.7341   101
34.7441   106
34.7541    71
34.7641   116
34.7741    97
34.7841   108
34.7941   108
34.8041   113
34.8141    95
34.8241    93
34.8341   103
34.8441   107
34.8541    91
34.8641   102
34.8741   111
34.8841   112
34.8941   104
34.9041    93
34.9141   107
34.9241    96
34.9341   100
34.9441    98
34.9541   112
34.9641   107
34.9741    93
34.9841    80
34.9941    83
35.0041    81
35.0141    90
35.0241   103
35.0341   101
35.0441    95
35.0541    93
35.0641   101
35.0741   104
35.0841    96
35.0941    91
35.1041    85
35.1141   100
35.1241    95
35.1341    85
35.1441    77
35.1541   106
35.1641    87
35.1741    74
35.1841    97
35.1941   102
35.2041   100
35.2141   105
35.2241    95
35.2341    82
35.2441    94
35.2541   105
35.2641    81
35.2741   112
35.2841    92
35.2941    87
35.3041    99
35.3141   100
35.3241   105
35.3341   108
35.3441    92
35.3541    75
35.3641   101
35.3741    97
35.3841    82
35.3941    87
35.4041    84
35.4141    73
35.4241    76
35.4341    88
35.4441    95
35.4541    92
35.4641    86
35.4741   104
35.4841   104
35.4941   103
35.5041    84
35.5141    94
35.5241    89
35.5341    88
35.5441    95
35.5541    94
35.5641    87
35.5741    77
35.5841    89
35.5941    99
35.6041    76
35.6141    80
35.6241    88
35.6341    94
35.6441    70
35.6541    78
35.6641    74
35.6741    96
35.6841    91
35.6941    72
35.7041    99
35.7141    73
35.7241    82
35.7341    84
35.7441    95
35.7541    80
35.7641    85
35.7741    72
35.7841    83
35.7941    86
35.8041    69
35.8141    99
35.8241    80
35.8341    73
35.8441    68
35.8541    81
35.8641    85
35.8741    85
35.8841    82
35.8941    66
35.9041    78
35.9141    85
35.9241    90
35.9341    75
35.9441    77
35.9541    89
35.9641    79
35.9741    69
35.9841    74
35.9941    96
36.0041    83
36.0141    78
36.0241    74
36.0341    69
36.0441    70
36.0541    75
36.0641    80
36.0741    76
36.0841    80
36.0941    78
36.1041    82
36.1141    78
36.1241    80
36.1341    70
36.1441    76
36.1541    57
36.1641    68
36.1741    83
36.1841    77
36.1941    82
36.2041    76
36.2141    79
36.2241    87
36.2341    72
36.2441    72
36.2541    77
36.2641    73
36.2741    70
36.2841    83
36.2941    80
36.3041    76
36.3141    73
36.3241    85
36.3341    75
36.3441    83
36.3541    77
36.3641    83
36.3741    82
36.3841    81
36.3941    84
36.4041    75
36.4141    74
36.4241    82
36.4341    83
36.4441    82
36.4541    65
36.4641    79
36.4741    68
36.4841    64
36.4941    72
36.5041    75
36.5141    71
36.5241    59
36.5341    77
36.5441    67
36.5541    80
36.5641    77
36.5741    56
36.5841    71
36.5941    80
36.6041    47
36.6141    65
36.6241    72
36.6341    70
36.6441    71
36.6541    81
36.6641    76
36.6741    69
36.6841    73
36.6941    65
36.7041    71
36.7141    68
36.7241    71
36.7341    59
36.7441    66
36.7541    64
36.7641    61
36.7741    68
36.7841    48
36.7941    64
36.8041    76
36.8141    59
36.8241    74
36.8341    64
36.8441    69
36.8541    66
36.8641    80
36.8741    69
36.8841    52
36.8941    70
36.9041    69
36.9141    61
36.9241    71
36.9341    72
36.9441    55
36.9541    60
36.9641    55
36.9741    69
36.9841    64
36.9941    62
37.0041    52
37.0141    57
37.0241    64
37.0341    64
37.0441    75
37.0541    60
37.0641    74
37.0741    61
37.0841    67
37.0941    72
37.1041    61
37.1141    59
37.1241    59
37.1341    68
37.1441    56
37.1541    47
37.1641    49
37.1741    55
37.1841    63
37.1941    54
37.2041    65
37.2141    66
37.2241    68
37.2341    50
37.2441    64
37.2541    58
37.2641    56
37.2741    66
37.2841    51
37.2941    51
37.3041    64
37.3141    57
37.3241    56
37.3341    49
37.3441    54
37.3541    66
37.3641    57
37.3741    51
37.3841    68
37.3941    57
37.4041    71
37.4141    65
37.4241    61
37.4341    56
37.4441    57
37.4541    60
37.4641    49
37.4741    44
37.4841    43
37.4941    60
37.5041    52
37.5141    48
37.5241    55
37.5341    60
37.5441    56
37.5541    43
37.5641    56
37.5741    49
37.5841    55
37.5941    40
37.6041    56
37.6141    51
37.6241    45
37.6341    45
37.6441    45
37.6541    44
37.6641    48
37.6741    44
37.6841    47
37.6941    37
37.7041    51
37.7141    50
37.7241    58
37.7341    58
37.7441    53
37.7541    53
37.7641    55
37.7741    61
37.7841    57
37.7941    59
37.8041    60
37.8141    47
37.8241    59
37.8341    53
37.8441    44
37.8541    38
37.8641    45
37.8741    39
37.8841    41
37.8941    36
37.9041    41
37.9141    51
37.9241    55
37.9341    45
37.9441    54
37.9541    47
37.9641    56
37.9741    39
37.9841    51
37.9941    52
38.0041    40
38.0141    42
38.0241    51
38.0341    45
38.0441    50
38.0541    53
38.0641    53
38.0741    45
38.0841    47
38.0941    51
38.1041    43
38.1141    55
38.1241    46
38.1341    51
38.1441    45
38.1541    47
38.1641    46
38.1741    46
38.1841    54
38.1941    48
38.2041    39
38.2141    61
38.2241    47
38.2341    59
38.2441    55
38.2541    48
38.2641    33
38.2741    38
38.2841    42
38.2941    49
38.3041    48
38.3141    42
38.3241    46
38.3341    57
38.3441    47
38.3541    44
38.3641    45
38.3741    40
38.3841    42
38.3941    30
38.4041    47
38.4141    39
38.4241    42
38.4341    39
38.4441    56
38.4541    39
38.4641    40
38.4741    51
38.4841    51
38.4941    50
38.5041    36
38.5141    38
38.5241    34
38.5341    37
38.5441    41
38.5541    37
38.5641    48
38.5741    39
38.5841    35
38.5941    36
38.6041    31
38.6141    45
38.6241    37
38.6341    47
38.6441    44
38.6541    39
38.6641    43
38.6741    40
38.6841    45
38.6941    35
38.7041    35
38.7141    39
38.7241    22
38.7341    28
38.7441    38
38.7541    50
38.7641    33
38.7741    33
38.7841    35
38.7941    31
38.8041    34
38.8141    28
38.8241    37
38.8341    35
38.8441    38
38.8541    37
38.8641    36
38.8741    32
38.8841    36
38.8941    45
38.9041    36
38.9141    42
38.9241    40
38.9341    36
38.9441    40
38.9541    41
38.9641    36
38.9741    47
38.9841    37
38.9941    36
39.0041    31
39.0141    37
39.0241    29
39.0341    30
39.0441    33
39.0541    40
39.0641    35
39.0741    40
39.0841    35
39.0941    37
39.1041    36
39.1141    34
39.1241    32
39.1341    33
39.1441    38
39.1541    35
39.1641    36
39.1741    29
39.1841    32
39.1941    38
39.2041    39
39.2141    40
39.2241    38
39.2341    30
39.2441    33
39.2541    37
39.2641    22
39.2741    48
39.2841    21
39.2941    20
39.3041    31
39.3141    37
39.3241    27
39.3341    33
39.3441    31
39.3541    45
39.3641    25
39.3741    26
39.3841    33
39.3941    34
39.4041    26
39.4141    23
39.4241    29
39.4341    28
39.4441    21
39.4541    27
39.4641    21
39.4741    31
39.4841    33
39.4941    29
39.5041    21
39.5141    38
39.5241    27
39.5341    37
39.5441    26
39.5541    33
39.5641    30
39.5741    35
39.5841    35
39.5941    33
39.6041    25
39.6141    32
39.6241    38
39.6341    41
39.6441    33
39.6541    32
39.6641    30
39.6741    20
39.6841    31
39.6941    30
39.7041    35
39.7141    28
39.7241    34
39.7341    26
39.7441    30
39.7541    32
39.7641    18
39.7741    30
39.7841    33
39.7941    25
39.8041    22
39.8141    21
39.8241    28
39.8341    33
39.8441    35
39.8541    23
39.8641    25
39.8741    33
39.8841    30
39.8941    27
39.9041    29
39.9141    26
39.9241    21
39.9341    25
39.9441    24
39.9541    24
39.9641    25
39.9741    27
39.9841    29
