Bruker Nano GmbH Berlin, Germany
Esprit 1.9

Date: 4/1/2021 4:12:56 PM
Real time: 20887
Life time: 19417
Pulse density: 101609


Detector type: XFlash 430
Window type: Custom type
Detector thickness: 0.45
Si dead layer:0.029

Calibration, lin.: 10
Calibration, abs.: -955.9
Mn FWHM: 137.05
Fano factor: 0.121
Channels: 4095

Energy Counts
-0.9559     0
-0.9459     0
-0.9359     0
-0.9259     0
-0.9159     0
-0.9059     0
-0.8959     0
-0.8859     0
-0.8759     0
-0.8659     0
-0.8559     0
-0.8459     0
-0.8359     0
-0.8259     0
-0.8159     0
-0.8059     0
-0.7959     0
-0.7859     0
-0.7759     0
-0.7659     0
-0.7559     0
-0.7459     0
-0.7359     0
-0.7259     0
-0.7159     0
-0.7059     0
-0.6959     0
-0.6859     0
-0.6759     0
-0.6659     0
-0.6559     0
-0.6459     0
-0.6359     0
-0.6259     0
-0.6159     0
-0.6059     0
-0.5959     0
-0.5859     0
-0.5759     0
-0.5659     0
-0.5559     0
-0.5459     0
-0.5359     0
-0.5259     0
-0.5159     0
-0.5059     0
-0.4959     0
-0.4859     0
-0.4759     0
-0.4659     0
-0.4559     0
-0.4459     0
-0.4359     0
-0.4259     0
-0.4159     0
-0.4059     0
-0.3959     0
-0.3859     0
-0.3759     0
-0.3659     0
-0.3559     0
-0.3459     0
-0.3359     0
-0.3259     0
-0.3159     0
-0.3059     0
-0.2959     0
-0.2859     0
-0.2759     0
-0.2659     0
-0.2559     0
-0.2459     0
-0.2359     0
-0.2259     0
-0.2159     0
-0.2059     0
-0.1959     0
-0.1859     0
-0.1759     0
-0.1659     0
-0.1559     0
-0.1459     0
-0.1359     0
-0.1259     0
-0.1159     3
-0.1059     9
-0.0959    64
-0.0859   212
-0.0759   768
-0.0659  2251
-0.0559  5741
-0.0459 12436
-0.0359 22888
-0.0259 36908
-0.0159 50753
-0.0059 59610
 0.0041 59723
 0.0141 51677
 0.0241 38117
 0.0341 23915
 0.0441 13106
 0.0541  5978
 0.0641  2485
 0.0741   851
 0.0841   270
 0.0941    81
 0.1041    19
 0.1141    15
 0.1241     8
 0.1341     5
 0.1441     1
 0.1541     0
 0.1641     3
 0.1741    29
 0.1841   208
 0.1941   378
 0.2041   337
 0.2141   353
 0.2241   335
 0.2341   334
 0.2441   339
 0.2541   356
 0.2641   357
 0.2741   369
 0.2841   328
 0.2941   316
 0.3041   357
 0.3141   341
 0.3241   337
 0.3341   330
 0.3441   319
 0.3541   336
 0.3641   323
 0.3741   335
 0.3841   315
 0.3941   291
 0.4041   308
 0.4141   320
 0.4241   310
 0.4341   315
 0.4441   330
 0.4541   292
 0.4641   276
 0.4741   296
 0.4841   300
 0.4941   314
 0.5041   302
 0.5141   296
 0.5241   296
 0.5341   290
 0.5441   301
 0.5541   302
 0.5641   298
 0.5741   288
 0.5841   293
 0.5941   278
 0.6041   269
 0.6141   267
 0.6241   276
 0.6341   286
 0.6441   281
 0.6541   257
 0.6641   266
 0.6741   274
 0.6841   251
 0.6941   266
 0.7041   270
 0.7141   249
 0.7241   258
 0.7341   256
 0.7441   237
 0.7541   240
 0.7641   251
 0.7741   236
 0.7841   255
 0.7941   247
 0.8041   236
 0.8141   250
 0.8241   250
 0.8341   243
 0.8441   251
 0.8541   248
 0.8641   231
 0.8741   225
 0.8841   227
 0.8941   233
 0.9041   240
 0.9141   237
 0.9241   238
 0.9341   254
 0.9441   237
 0.9541   247
 0.9641   265
 0.9741   234
 0.9841   233
 0.9941   217
 1.0041   219
 1.0141   242
 1.0241   230
 1.0341   227
 1.0441   234
 1.0541   227
 1.0641   232
 1.0741   217
 1.0841   215
 1.0941   229
 1.1041   232
 1.1141   214
 1.1241   235
 1.1341   208
 1.1441   198
 1.1541   200
 1.1641   190
 1.1741   216
 1.1841   227
 1.1941   254
 1.2041   218
 1.2141   209
 1.2241   234
 1.2341   219
 1.2441   214
 1.2541   189
 1.2641   219
 1.2741   195
 1.2841   202
 1.2941   209
 1.3041   208
 1.3141   208
 1.3241   193
 1.3341   181
 1.3441   208
 1.3541   206
 1.3641   207
 1.3741   205
 1.3841   198
 1.3941   203
 1.4041   200
 1.4141   203
 1.4241   187
 1.4341   212
 1.4441   198
 1.4541   214
 1.4641   229
 1.4741   228
 1.4841   216
 1.4941   217
 1.5041   211
 1.5141   207
 1.5241   208
 1.5341   207
 1.5441   196
 1.5541   197
 1.5641   176
 1.5741   188
 1.5841   177
 1.5941   160
 1.6041   183
 1.6141   191
 1.6241   197
 1.6341   195
 1.6441   217
 1.6541   236
 1.6641   288
 1.6741   344
 1.6841   394
 1.6941   475
 1.7041   598
 1.7141   696
 1.7241   754
 1.7341   777
 1.7441   776
 1.7541   770
 1.7641   639
 1.7741   567
 1.7841   483
 1.7941   390
 1.8041   336
 1.8141   301
 1.8241   280
 1.8341   268
 1.8441   223
 1.8541   224
 1.8641   198
 1.8741   245
 1.8841   233
 1.8941   217
 1.9041   186
 1.9141   188
 1.9241   191
 1.9341   214
 1.9441   211
 1.9541   213
 1.9641   224
 1.9741   223
 1.9841   233
 1.9941   223
 2.0041   216
 2.0141   253
 2.0241   254
 2.0341   246
 2.0441   237
 2.0541   201
 2.0641   217
 2.0741   203
 2.0841   188
 2.0941   194
 2.1041   180
 2.1141   171
 2.1241   179
 2.1341   188
 2.1441   166
 2.1541   159
 2.1641   184
 2.1741   159
 2.1841   182
 2.1941   185
 2.2041   192
 2.2141   183
 2.2241   188
 2.2341   190
 2.2441   171
 2.2541   188
 2.2641   179
 2.2741   151
 2.2841   161
 2.2941   176
 2.3041   154
 2.3141   162
 2.3241   143
 2.3341   154
 2.3441   165
 2.3541   164
 2.3641   161
 2.3741   165
 2.3841   150
 2.3941   168
 2.4041   154
 2.4141   158
 2.4241   179
 2.4341   154
 2.4441   166
 2.4541   150
 2.4641   153
 2.4741   161
 2.4841   155
 2.4941   175
 2.5041   153
 2.5141   166
 2.5241   135
 2.5341   137
 2.5441   174
 2.5541   156
 2.5641   139
 2.5741   186
 2.5841   155
 2.5941   139
 2.6041   171
 2.6141   160
 2.6241   129
 2.6341   181
 2.6441   148
 2.6541   155
 2.6641   148
 2.6741   150
 2.6841   166
 2.6941   146
 2.7041   138
 2.7141   148
 2.7241   158
 2.7341   155
 2.7441   141
 2.7541   162
 2.7641   135
 2.7741   168
 2.7841   162
 2.7941   154
 2.8041   144
 2.8141   178
 2.8241   152
 2.8341   174
 2.8441   159
 2.8541   162
 2.8641   178
 2.8741   145
 2.8841   167
 2.8941   149
 2.9041   148
 2.9141   152
 2.9241   140
 2.9341   140
 2.9441   145
 2.9541   154
 2.9641   138
 2.9741   151
 2.9841   138
 2.9941   159
 3.0041   153
 3.0141   142
 3.0241   137
 3.0341   139
 3.0441   152
 3.0541   124
 3.0641   120
 3.0741   118
 3.0841   140
 3.0941   137
 3.1041   146
 3.1141   138
 3.1241   112
 3.1341   120
 3.1441   124
 3.1541   116
 3.1641   133
 3.1741   137
 3.1841   122
 3.1941   131
 3.2041   141
 3.2141   148
 3.2241   179
 3.2341   201
 3.2441   225
 3.2541   234
 3.2641   263
 3.2741   340
 3.2841   326
 3.2941   357
 3.3041   375
 3.3141   398
 3.3241   409
 3.3341   403
 3.3441   326
 3.3541   289
 3.3641   321
 3.3741   213
 3.3841   212
 3.3941   167
 3.4041   160
 3.4141   135
 3.4241   120
 3.4341   139
 3.4441   107
 3.4541   125
 3.4641   119
 3.4741   116
 3.4841   115
 3.4941   115
 3.5041   127
 3.5141   151
 3.5241   123
 3.5341   146
 3.5441   155
 3.5541   192
 3.5641   202
 3.5741   227
 3.5841   270
 3.5941   321
 3.6041   364
 3.6141   442
 3.6241   532
 3.6341   611
 3.6441   756
 3.6541   843
 3.6641   937
 3.6741  1039
 3.6841  1034
 3.6941   999
 3.7041   966
 3.7141   933
 3.7241   859
 3.7341   739
 3.7441   605
 3.7541   460
 3.7641   408
 3.7741   329
 3.7841   258
 3.7941   193
 3.8041   145
 3.8141   124
 3.8241   120
 3.8341   118
 3.8441   102
 3.8541   110
 3.8641    89
 3.8741    91
 3.8841   102
 3.8941   107
 3.9041   125
 3.9141   109
 3.9241   116
 3.9341   142
 3.9441   131
 3.9541   169
 3.9641   174
 3.9741   181
 3.9841   195
 3.9941   212
 4.0041   211
 4.0141   205
 4.0241   220
 4.0341   207
 4.0441   206
 4.0541   201
 4.0641   157
 4.0741   154
 4.0841   142
 4.0941   118
 4.1041   103
 4.1141   115
 4.1241   110
 4.1341    95
 4.1441   103
 4.1541    93
 4.1641   108
 4.1741    90
 4.1841    90
 4.1941    88
 4.2041    76
 4.2141    88
 4.2241    88
 4.2341    75
 4.2441    76
 4.2541    74
 4.2641    64
 4.2741    86
 4.2841    74
 4.2941    75
 4.3041    76
 4.3141    92
 4.3241    92
 4.3341    87
 4.3441   100
 4.3541   122
 4.3641   114
 4.3741   105
 4.3841   121
 4.3941   144
 4.4041   176
 4.4141   243
 4.4241   253
 4.4341   278
 4.4441   329
 4.4541   403
 4.4641   473
 4.4741   530
 4.4841   534
 4.4941   600
 4.5041   606
 4.5141   548
 4.5241   555
 4.5341   537
 4.5441   456
 4.5541   416
 4.5641   338
 4.5741   324
 4.5841   248
 4.5941   219
 4.6041   172
 4.6141   139
 4.6241   124
 4.6341   134
 4.6441   122
 4.6541   120
 4.6641    95
 4.6741    96
 4.6841    97
 4.6941   110
 4.7041    96
 4.7141    95
 4.7241   104
 4.7341    98
 4.7441   116
 4.7541   121
 4.7641   119
 4.7741   101
 4.7841   115
 4.7941   120
 4.8041   148
 4.8141   139
 4.8241   154
 4.8341   158
 4.8441   133
 4.8541   150
 4.8641   175
 4.8741   161
 4.8841   199
 4.8941   207
 4.9041   198
 4.9141   200
 4.9241   208
 4.9341   200
 4.9441   211
 4.9541   190
 4.9641   185
 4.9741   174
 4.9841   142
 4.9941   156
 5.0041   149
 5.0141   133
 5.0241   126
 5.0341   103
 5.0441   110
 5.0541   115
 5.0641   104
 5.0741   115
 5.0841   103
 5.0941   104
 5.1041   100
 5.1141    99
 5.1241   115
 5.1341   115
 5.1441   106
 5.1541   106
 5.1641    99
 5.1741    93
 5.1841   112
 5.1941   104
 5.2041   116
 5.2141   111
 5.2241   117
 5.2341   107
 5.2441   124
 5.2541   115
 5.2641    96
 5.2741   112
 5.2841    98
 5.2941   109
 5.3041   123
 5.3141   121
 5.3241   136
 5.3341   166
 5.3441   148
 5.3541   180
 5.3641   214
 5.3741   182
 5.3841   221
 5.3941   236
 5.4041   221
 5.4141   213
 5.4241   196
 5.4341   224
 5.4441   203
 5.4541   202
 5.4641   172
 5.4741   183
 5.4841   156
 5.4941   153
 5.5041   115
 5.5141   132
 5.5241    94
 5.5341   112
 5.5441   123
 5.5541    99
 5.5641   122
 5.5741   116
 5.5841   107
 5.5941   106
 5.6041   101
 5.6141   107
 5.6241   111
 5.6341   106
 5.6441   101
 5.6541   107
 5.6641   111
 5.6741   103
 5.6841   118
 5.6941   103
 5.7041   103
 5.7141   100
 5.7241   110
 5.7341   106
 5.7441   126
 5.7541   123
 5.7641   131
 5.7741   151
 5.7841   168
 5.7941   186
 5.8041   220
 5.8141   237
 5.8241   259
 5.8341   286
 5.8441   319
 5.8541   347
 5.8641   381
 5.8741   431
 5.8841   398
 5.8941   424
 5.9041   422
 5.9141   412
 5.9241   403
 5.9341   373
 5.9441   332
 5.9541   310
 5.9641   267
 5.9741   250
 5.9841   213
 5.9941   193
 6.0041   188
 6.0141   184
 6.0241   156
 6.0341   136
 6.0441   149
 6.0541   148
 6.0641   144
 6.0741   178
 6.0841   132
 6.0941   151
 6.1041   145
 6.1141   169
 6.1241   163
 6.1341   198
 6.1441   189
 6.1541   195
 6.1641   201
 6.1741   221
 6.1841   243
 6.1941   334
 6.2041   362
 6.2141   509
 6.2241   672
 6.2341   880
 6.2441  1324
 6.2541  1722
 6.2641  2520
 6.2741  3380
 6.2841  4548
 6.2941  6038
 6.3041  7669
 6.3141  9789
 6.3241 11991
 6.3341 14447
 6.3441 16799
 6.3541 19339
 6.3641 21682
 6.3741 23309
 6.3841 24388
 6.3941 24997
 6.4041 24672
 6.4141 23967
 6.4241 22760
 6.4341 20730
 6.4441 18344
 6.4541 15837
 6.4641 13639
 6.4741 11293
 6.4841  8887
 6.4941  6918
 6.5041  5265
 6.5141  3977
 6.5241  2945
 6.5341  1954
 6.5441  1460
 6.5541   999
 6.5641   687
 6.5741   503
 6.5841   383
 6.5941   290
 6.6041   277
 6.6141   217
 6.6241   194
 6.6341   156
 6.6441   194
 6.6541   186
 6.6641   191
 6.6741   145
 6.6841   164
 6.6941   155
 6.7041   198
 6.7141   173
 6.7241   194
 6.7341   170
 6.7441   177
 6.7541   182
 6.7641   170
 6.7741   203
 6.7841   202
 6.7941   213
 6.8041   209
 6.8141   225
 6.8241   212
 6.8341   220
 6.8441   241
 6.8541   288
 6.8641   329
 6.8741   351
 6.8841   402
 6.8941   486
 6.9041   563
 6.9141   607
 6.9241   796
 6.9341   969
 6.9441  1115
 6.9541  1418
 6.9641  1738
 6.9741  1998
 6.9841  2409
 6.9941  2721
 7.0041  3116
 7.0141  3420
 7.0241  3639
 7.0341  4056
 7.0441  4146
 7.0541  3990
 7.0641  4020
 7.0741  3922
 7.0841  3792
 7.0941  3426
 7.1041  3041
 7.1141  2746
 7.1241  2284
 7.1341  1856
 7.1441  1612
 7.1541  1285
 7.1641   998
 7.1741   796
 7.1841   696
 7.1941   524
 7.2041   421
 7.2141   332
 7.2241   311
 7.2341   277
 7.2441   236
 7.2541   231
 7.2641   207
 7.2741   226
 7.2841   229
 7.2941   224
 7.3041   208
 7.3141   249
 7.3241   238
 7.3341   275
 7.3441   268
 7.3541   282
 7.3641   290
 7.3741   357
 7.3841   326
 7.3941   326
 7.4041   352
 7.4141   381
 7.4241   377
 7.4341   365
 7.4441   419
 7.4541   399
 7.4641   387
 7.4741   368
 7.4841   369
 7.4941   358
 7.5041   338
 7.5141   328
 7.5241   299
 7.5341   329
 7.5441   271
 7.5541   259
 7.5641   246
 7.5741   222
 7.5841   212
 7.5941   221
 7.6041   195
 7.6141   203
 7.6241   187
 7.6341   183
 7.6441   203
 7.6541   195
 7.6641   209
 7.6741   209
 7.6841   207
 7.6941   220
 7.7041   206
 7.7141   215
 7.7241   238
 7.7341   218
 7.7441   230
 7.7541   214
 7.7641   233
 7.7741   251
 7.7841   249
 7.7941   271
 7.8041   254
 7.8141   253
 7.8241   255
 7.8341   275
 7.8441   280
 7.8541   270
 7.8641   299
 7.8741   337
 7.8841   309
 7.8941   356
 7.9041   370
 7.9141   362
 7.9241   368
 7.9341   411
 7.9441   428
 7.9541   478
 7.9641   434
 7.9741   500
 7.9841   531
 7.9941   566
 8.0041   594
 8.0141   637
 8.0241   666
 8.0341   711
 8.0441   783
 8.0541   847
 8.0641   938
 8.0741   973
 8.0841   995
 8.0941  1085
 8.1041  1127
 8.1141  1172
 8.1241  1291
 8.1341  1318
 8.1441  1331
 8.1541  1362
 8.1641  1396
 8.1741  1459
 8.1841  1492
 8.1941  1471
 8.2041  1464
 8.2141  1528
 8.2241  1521
 8.2341  1523
 8.2441  1614
 8.2541  1686
 8.2641  1754
 8.2741  1885
 8.2841  1988
 8.2941  2103
 8.3041  2316
 8.3141  2451
 8.3241  2643
 8.3341  2873
 8.3441  3079
 8.3541  3177
 8.3641  3296
 8.3741  3379
 8.3841  3365
 8.3941  3384
 8.4041  3266
 8.4141  3092
 8.4241  2936
 8.4341  2679
 8.4441  2496
 8.4541  2237
 8.4641  1972
 8.4741  1723
 8.4841  1461
 8.4941  1216
 8.5041  1059
 8.5141   910
 8.5241   765
 8.5341   719
 8.5441   599
 8.5541   508
 8.5641   493
 8.5741   457
 8.5841   482
 8.5941   462
 8.6041   407
 8.6141   395
 8.6241   465
 8.6341   475
 8.6441   426
 8.6541   429
 8.6641   445
 8.6741   448
 8.6841   440
 8.6941   440
 8.7041   431
 8.7141   429
 8.7241   407
 8.7341   382
 8.7441   379
 8.7541   379
 8.7641   329
 8.7741   366
 8.7841   351
 8.7941   347
 8.8041   353
 8.8141   342
 8.8241   321
 8.8341   338
 8.8441   363
 8.8541   341
 8.8641   358
 8.8741   362
 8.8841   303
 8.8941   331
 8.9041   331
 8.9141   357
 8.9241   346
 8.9341   362
 8.9441   354
 8.9541   367
 8.9641   371
 8.9741   356
 8.9841   344
 8.9941   397
 9.0041   389
 9.0141   381
 9.0241   382
 9.0341   399
 9.0441   417
 9.0541   443
 9.0641   464
 9.0741   454
 9.0841   461
 9.0941   477
 9.1041   469
 9.1141   511
 9.1241   480
 9.1341   523
 9.1441   539
 9.1541   598
 9.1641   646
 9.1741   662
 9.1841   675
 9.1941   701
 9.2041   760
 9.2141   770
 9.2241   821
 9.2341   889
 9.2441   906
 9.2541   934
 9.2641  1018
 9.2741  1032
 9.2841  1077
 9.2941  1118
 9.3041  1118
 9.3141  1121
 9.3241  1241
 9.3341  1266
 9.3441  1296
 9.3541  1297
 9.3641  1311
 9.3741  1331
 9.3841  1439
 9.3941  1308
 9.4041  1386
 9.4141  1424
 9.4241  1470
 9.4341  1467
 9.4441  1463
 9.4541  1478
 9.4641  1506
 9.4741  1492
 9.4841  1610
 9.4941  1604
 9.5041  1659
 9.5141  1718
 9.5241  1763
 9.5341  1849
 9.5441  1916
 9.5541  1954
 9.5641  2099
 9.5741  2150
 9.5841  2230
 9.5941  2401
 9.6041  2587
 9.6141  2771
 9.6241  2873
 9.6341  3009
 9.6441  3017
 9.6541  3008
 9.6641  3130
 9.6741  3080
 9.6841  3051
 9.6941  2927
 9.7041  2863
 9.7141  2723
 9.7241  2551
 9.7341  2410
 9.7441  2305
 9.7541  2105
 9.7641  1954
 9.7741  1788
 9.7841  1643
 9.7941  1567
 9.8041  1463
 9.8141  1423
 9.8241  1342
 9.8341  1222
 9.8441  1209
 9.8541  1225
 9.8641  1245
 9.8741  1257
 9.8841  1233
 9.8941  1280
 9.9041  1287
 9.9141  1342
 9.9241  1375
 9.9341  1343
 9.9441  1382
 9.9541  1313
 9.9641  1366
 9.9741  1332
 9.9841  1319
 9.9941  1215
10.0041  1154
10.0141  1020
10.0241   963
10.0341   939
10.0441   816
10.0541   701
10.0641   648
10.0741   593
10.0841   514
10.0941   459
10.1041   392
10.1141   387
10.1241   366
10.1341   319
10.1441   304
10.1541   312
10.1641   285
10.1741   286
10.1841   271
10.1941   245
10.2041   255
10.2141   245
10.2241   224
10.2341   216
10.2441   231
10.2541   216
10.2641   207
10.2741   192
10.2841   204
10.2941   192
10.3041   196
10.3141   180
10.3241   182
10.3341   167
10.3441   173
10.3541   179
10.3641   193
10.3741   182
10.3841   183
10.3941   160
10.4041   174
10.4141   168
10.4241   191
10.4341   184
10.4441   177
10.4541   186
10.4641   187
10.4741   187
10.4841   203
10.4941   210
10.5041   194
10.5141   199
10.5241   208
10.5341   203
10.5441   214
10.5541   197
10.5641   187
10.5741   176
10.5841   220
10.5941   225
10.6041   221
10.6141   211
10.6241   210
10.6341   219
10.6441   189
10.6541   194
10.6641   210
10.6741   224
10.6841   214
10.6941   230
10.7041   215
10.7141   221
10.7241   217
10.7341   235
10.7441   251
10.7541   256
10.7641   264
10.7741   262
10.7841   268
10.7941   257
10.8041   270
10.8141   293
10.8241   284
10.8341   292
10.8441   279
10.8541   293
10.8641   304
10.8741   323
10.8841   328
10.8941   311
10.9041   319
10.9141   325
10.9241   330
10.9341   310
10.9441   305
10.9541   308
10.9641   313
10.9741   317
10.9841   308
10.9941   304
11.0041   291
11.0141   294
11.0241   281
11.0341   287
11.0441   300
11.0541   286
11.0641   267
11.0741   278
11.0841   249
11.0941   272
11.1041   291
11.1141   292
11.1241   296
11.1341   291
11.1441   296
11.1541   289
11.1641   322
11.1741   351
11.1841   356
11.1941   367
11.2041   374
11.2141   375
11.2241   421
11.2341   409
11.2441   411
11.2541   447
11.2641   442
11.2741   482
11.2841   470
11.2941   447
11.3041   445
11.3141   436
11.3241   403
11.3341   398
11.3441   373
11.3541   368
11.3641   360
11.3741   321
11.3841   336
11.3941   306
11.4041   270
11.4141   239
11.4241   254
11.4341   254
11.4441   254
11.4541   240
11.4641   214
11.4741   209
11.4841   215
11.4941   228
11.5041   225
11.5141   224
11.5241   239
11.5341   223
11.5441   221
11.5541   228
11.5641   215
11.5741   194
11.5841   220
11.5941   228
11.6041   225
11.6141   237
11.6241   246
11.6341   226
11.6441   234
11.6541   241
11.6641   228
11.6741   225
11.6841   216
11.6941   221
11.7041   205
11.7141   196
11.7241   193
11.7341   183
11.7441   179
11.7541   177
11.7641   195
11.7741   195
11.7841   196
11.7941   193
11.8041   179
11.8141   164
11.8241   173
11.8341   178
11.8441   175
11.8541   162
11.8641   164
11.8741   179
11.8841   191
11.8941   191
11.9041   186
11.9141   172
11.9241   184
11.9341   173
11.9441   169
11.9541   180
11.9641   173
11.9741   167
11.9841   173
11.9941   157
12.0041   147
12.0141   159
12.0241   172
12.0341   188
12.0441   203
12.0541   190
12.0641   184
12.0741   190
12.0841   177
12.0941   175
12.1041   169
12.1141   163
12.1241   156
12.1341   180
12.1441   176
12.1541   172
12.1641   164
12.1741   149
12.1841   162
12.1941   167
12.2041   176
12.2141   172
12.2241   158
12.2341   149
12.2441   162
12.2541   179
12.2641   170
12.2741   167
12.2841   173
12.2941   175
12.3041   158
12.3141   153
12.3241   168
12.3341   164
12.3441   151
12.3541   163
12.3641   162
12.3741   161
12.3841   162
12.3941   152
12.4041   151
12.4141   165
12.4241   176
12.4341   162
12.4441   184
12.4541   173
12.4641   136
12.4741   150
12.4841   184
12.4941   181
12.5041   186
12.5141   180
12.5241   169
12.5341   146
12.5441   143
12.5541   162
12.5641   179
12.5741   178
12.5841   168
12.5941   168
12.6041   153
12.6141   181
12.6241   195
12.6341   183
12.6441   178
12.6541   163
12.6641   146
12.6741   153
12.6841   174
12.6941   176
12.7041   175
12.7141   174
12.7241   184
12.7341   193
12.7441   190
12.7541   183
12.7641   183
12.7741   187
12.7841   188
12.7941   187
12.8041   189
12.8141   191
12.8241   191
12.8341   191
12.8441   195
12.8541   205
12.8641   209
12.8741   196
12.8841   186
12.8941   192
12.9041   193
12.9141   184
12.9241   186
12.9341   193
12.9441   196
12.9541   192
12.9641   189
12.9741   186
12.9841   185
12.9941   196
13.0041   200
13.0141   191
13.0241   196
13.0341   194
13.0441   194
13.0541   203
13.0641   191
13.0741   183
13.0841   182
13.0941   186
13.1041   204
13.1141   202
13.1241   201
13.1341   198
13.1441   193
13.1541   200
13.1641   199
13.1741   207
13.1841   230
13.1941   232
13.2041   215
13.2141   220
13.2241   237
13.2341   256
13.2441   255
13.2541   243
13.2641   265
13.2741   284
13.2841   278
13.2941   269
13.3041   272
13.3141   281
13.3241   280
13.3341   291
13.3441   305
13.3541   326
13.3641   307
13.3741   298
13.3841   320
13.3941   322
13.4041   320
13.4141   320
13.4241   284
13.4341   270
13.4441   314
13.4541   313
13.4641   304
13.4741   296
13.4841   274
13.4941   271
13.5041   267
13.5141   249
13.5241   239
13.5341   257
13.5441   260
13.5541   237
13.5641   236
13.5741   246
13.5841   221
13.5941   200
13.6041   208
13.6141   229
13.6241   242
13.6341   240
13.6441   236
13.6541   247
13.6641   247
13.6741   210
13.6841   211
13.6941   227
13.7041   245
13.7141   257
13.7241   248
13.7341   244
13.7441   258
13.7541   252
13.7641   224
13.7741   227
13.7841   253
13.7941   259
13.8041   244
13.8141   249
13.8241   258
13.8341   263
13.8441   254
13.8541   247
13.8641   253
13.8741   252
13.8841   260
13.8941   260
13.9041   260
13.9141   255
13.9241   242
13.9341   251
13.9441   253
13.9541   239
13.9641   265
13.9741   286
13.9841   280
13.9941   293
14.0041   292
14.0141   287
14.0241   295
14.0341   296
14.0441   303
14.0541   315
14.0641   334
14.0741   332
14.0841   323
14.0941   347
14.1041   370
14.1141   378
14.1241   372
14.1341   354
14.1441   352
14.1541   353
14.1641   357
14.1741   359
14.1841   340
14.1941   346
14.2041   337
14.2141   325
14.2241   337
14.2341   338
14.2441   335
14.2541   322
14.2641   311
14.2741   305
14.2841   299
14.2941   298
14.3041   308
14.3141   295
14.3241   287
14.3341   287
14.3441   274
14.3541   272
14.3641   278
14.3741   286
14.3841   278
14.3941   280
14.4041   285
14.4141   292
14.4241   304
14.4341   288
14.4441   277
14.4541   290
14.4641   281
14.4741   282
14.4841   289
14.4941   274
14.5041   268
14.5141   281
14.5241   273
14.5341   264
14.5441   277
14.5541   268
14.5641   258
14.5741   270
14.5841   278
14.5941   282
14.6041   285
14.6141   268
14.6241   290
14.6341   294
14.6441   264
14.6541   281
14.6641   301
14.6741   304
14.6841   311
14.6941   287
14.7041   271
14.7141   288
14.7241   295
14.7341   308
14.7441   307
14.7541   293
14.7641   299
14.7741   316
14.7841   311
14.7941   300
14.8041   313
14.8141   312
14.8241   311
14.8341   329
14.8441   337
14.8541   317
14.8641   328
14.8741   324
14.8841   318
14.8941   349
14.9041   343
14.9141   337
14.9241   352
14.9341   361
14.9441   350
14.9541   351
14.9641   343
14.9741   350
14.9841   354
14.9941   331
15.0041   330
15.0141   304
15.0241   323
15.0341   339
15.0441   327
15.0541   318
15.0641   333
15.0741   353
15.0841   353
15.0941   334
15.1041   324
15.1141   324
15.1241   320
15.1341   328
15.1441   313
15.1541   313
15.1641   329
15.1741   308
15.1841   299
15.1941   302
15.2041   317
15.2141   323
15.2241   317
15.2341   302
15.2441   306
15.2541   310
15.2641   328
15.2741   353
15.2841   318
15.2941   291
15.3041   314
15.3141   321
15.3241   309
15.3341   331
15.3441   339
15.3541   331
15.3641   331
15.3741   317
15.3841   323
15.3941   327
15.4041   331
15.4141   343
15.4241   338
15.4341   332
15.4441   347
15.4541   347
15.4641   336
15.4741   334
15.4841   334
15.4941   356
15.5041   392
15.5141   388
15.5241   395
15.5341   397
15.5441   407
15.5541   424
15.5641   433
15.5741   447
15.5841   472
15.5941   483
15.6041   507
15.6141   545
15.6241   574
15.6341   568
15.6441   578
15.6541   631
15.6641   666
15.6741   711
15.6841   764
15.6941   802
15.7041   765
15.7141   777
15.7241   779
15.7341   790
15.7441   810
15.7541   830
15.7641   824
15.7741   813
15.7841   789
15.7941   763
15.8041   764
15.8141   743
15.8241   675
15.8341   672
15.8441   644
15.8541   609
15.8641   575
15.8741   571
15.8841   541
15.8941   536
15.9041   499
15.9141   472
15.9241   471
15.9341   455
15.9441   428
15.9541   420
15.9641   415
15.9741   414
15.9841   391
15.9941   392
16.0041   389
16.0141   365
16.0241   367
16.0341   380
16.0441   380
16.0541   369
16.0641   366
16.0741   367
16.0841   363
16.0941   392
16.1041   392
16.1141   369
16.1241   365
16.1341   394
16.1441   418
16.1541   403
16.1641   378
16.1741   371
16.1841   387
16.1941   397
16.2041   384
16.2141   383
16.2241   396
16.2341   395
16.2441   397
16.2541   408
16.2641   394
16.2741   384
16.2841   385
16.2941   370
16.3041   384
16.3141   379
16.3241   399
16.3341   406
16.3441   373
16.3541   395
16.3641   419
16.3741   431
16.3841   415
16.3941   401
16.4041   426
16.4141   399
16.4241   395
16.4341   426
16.4441   423
16.4541   395
16.4641   417
16.4741   435
16.4841   435
16.4941   408
16.5041   419
16.5141   401
16.5241   431
16.5341   447
16.5441   421
16.5541   409
16.5641   411
16.5741   411
16.5841   418
16.5941   423
16.6041   424
16.6141   440
16.6241   431
16.6341   435
16.6441   454
16.6541   450
16.6641   451
16.6741   451
16.6841   455
16.6941   461
16.7041   435
16.7141   425
16.7241   454
16.7341   465
16.7441   441
16.7541   427
16.7641   406
16.7741   430
16.7841   438
16.7941   467
16.8041   446
16.8141   429
16.8241   427
16.8341   404
16.8441   406
16.8541   410
16.8641   432
16.8741   435
16.8841   451
16.8941   460
16.9041   453
16.9141   442
16.9241   453
16.9341   457
16.9441   431
16.9541   442
16.9641   461
16.9741   455
16.9841   456
16.9941   433
17.0041   456
17.0141   476
17.0241   476
17.0341   455
17.0441   450
17.0541   436
17.0641   438
17.0741   422
17.0841   426
17.0941   437
17.1041   458
17.1141   457
17.1241   465
17.1341   454
17.1441   453
17.1541   456
17.1641   432
17.1741   430
17.1841   440
17.1941   432
17.2041   418
17.2141   447
17.2241   460
17.2341   449
17.2441   468
17.2541   463
17.2641   480
17.2741   478
17.2841   474
17.2941   457
17.3041   460
17.3141   475
17.3241   478
17.3341   458
17.3441   489
17.3541   461
17.3641   478
17.3741   494
17.3841   493
17.3941   497
17.4041   512
17.4141   490
17.4241   478
17.4341   507
17.4441   489
17.4541   492
17.4641   502
17.4741   522
17.4841   525
17.4941   502
17.5041   500
17.5141   503
17.5241   518
17.5341   530
17.5441   496
17.5541   509
17.5641   516
17.5741   538
17.5841   566
17.5941   556
17.6041   587
17.6141   583
17.6241   579
17.6341   543
17.6441   572
17.6541   558
17.6641   583
17.6741   572
17.6841   584
17.6941   571
17.7041   565
17.7141   574
17.7241   598
17.7341   546
17.7441   530
17.7541   592
17.7641   561
17.7741   529
17.7841   514
17.7941   519
17.8041   521
17.8141   509
17.8241   501
17.8341   508
17.8441   495
17.8541   481
17.8641   498
17.8741   505
17.8841   523
17.8941   542
17.9041   554
17.9141   558
17.9241   531
17.9341   560
17.9441   520
17.9541   542
17.9641   539
17.9741   520
17.9841   522
17.9941   537
18.0041   527
18.0141   536
18.0241   493
18.0341   515
18.0441   535
18.0541   535
18.0641   525
18.0741   534
18.0841   526
18.0941   543
18.1041   523
18.1141   511
18.1241   513
18.1341   515
18.1441   561
18.1541   543
18.1641   556
18.1741   543
18.1841   540
18.1941   556
18.2041   548
18.2141   532
18.2241   550
18.2341   549
18.2441   541
18.2541   514
18.2641   522
18.2741   551
18.2841   533
18.2941   546
18.3041   560
18.3141   534
18.3241   559
18.3341   555
18.3441   542
18.3541   553
18.3641   563
18.3741   553
18.3841   533
18.3941   545
18.4041   535
18.4141   569
18.4241   584
18.4341   581
18.4441   578
18.4541   531
18.4641   540
18.4741   545
18.4841   535
18.4941   577
18.5041   554
18.5141   534
18.5241   555
18.5341   550
18.5441   535
18.5541   576
18.5641   568
18.5741   600
18.5841   539
18.5941   538
18.6041   529
18.6141   544
18.6241   556
18.6341   593
18.6441   574
18.6541   551
18.6641   566
18.6741   547
18.6841   563
18.6941   562
18.7041   533
18.7141   532
18.7241   574
18.7341   563
18.7441   552
18.7541   590
18.7641   606
18.7741   557
18.7841   565
18.7941   563
18.8041   569
18.8141   560
18.8241   594
18.8341   591
18.8441   554
18.8541   539
18.8641   550
18.8741   582
18.8841   582
18.8941   569
18.9041   592
18.9141   567
18.9241   571
18.9341   550
18.9441   555
18.9541   576
18.9641   573
18.9741   602
18.9841   608
18.9941   614
19.0041   571
19.0141   601
19.0241   554
19.0341   561
19.0441   557
19.0541   545
19.0641   575
19.0741   556
19.0841   559
19.0941   578
19.1041   584
19.1141   598
19.1241   602
19.1341   567
19.1441   578
19.1541   583
19.1641   593
19.1741   577
19.1841   569
19.1941   610
19.2041   552
19.2141   551
19.2241   584
19.2341   599
19.2441   585
19.2541   591
19.2641   573
19.2741   541
19.2841   578
19.2941   569
19.3041   562
19.3141   570
19.3241   624
19.3341   583
19.3441   640
19.3541   612
19.3641   582
19.3741   577
19.3841   603
19.3941   596
19.4041   558
19.4141   579
19.4241   596
19.4341   588
19.4441   604
19.4541   638
19.4641   630
19.4741   610
19.4841   617
19.4941   601
19.5041   622
19.5141   625
19.5241   626
19.5341   632
19.5441   646
19.5541   604
19.5641   559
19.5741   609
19.5841   585
19.5941   633
19.6041   592
19.6141   613
19.6241   610
19.6341   657
19.6441   611
19.6541   648
19.6641   622
19.6741   607
19.6841   626
19.6941   610
19.7041   642
19.7141   626
19.7241   604
19.7341   598
19.7441   600
19.7541   679
19.7641   645
19.7741   651
19.7841   621
19.7941   608
19.8041   664
19.8141   603
19.8241   635
19.8341   607
19.8441   601
19.8541   603
19.8641   589
19.8741   615
19.8841   616
19.8941   626
19.9041   629
19.9141   630
19.9241   626
19.9341   632
19.9441   634
19.9541   617
19.9641   620
19.9741   649
19.9841   607
19.9941   629
20.0041   620
20.0141   619
20.0241   647
20.0341   623
20.0441   625
20.0541   620
20.0641   610
20.0741   622
20.0841   638
20.0941   656
20.1041   621
20.1141   630
20.1241   629
20.1341   636
20.1441   653
20.1541   604
20.1641   657
20.1741   607
20.1841   614
20.1941   639
20.2041   633
20.2141   636
20.2241   650
20.2341   621
20.2441   617
20.2541   630
20.2641   600
20.2741   620
20.2841   580
20.2941   613
20.3041   623
20.3141   586
20.3241   671
20.3341   626
20.3441   624
20.3541   602
20.3641   598
20.3741   607
20.3841   613
20.3941   627
20.4041   634
20.4141   655
20.4241   626
20.4341   632
20.4441   619
20.4541   608
20.4641   605
20.4741   639
20.4841   620
20.4941   624
20.5041   646
20.5141   644
20.5241   617
20.5341   619
20.5441   616
20.5541   610
20.5641   622
20.5741   652
20.5841   626
20.5941   636
20.6041   641
20.6141   596
20.6241   630
20.6341   567
20.6441   629
20.6541   657
20.6641   634
20.6741   655
20.6841   645
20.6941   650
20.7041   653
20.7141   629
20.7241   596
20.7341   647
20.7441   654
20.7541   666
20.7641   671
20.7741   681
20.7841   640
20.7941   665
20.8041   630
20.8141   681
20.8241   634
20.8341   652
20.8441   694
20.8541   710
20.8641   704
20.8741   726
20.8841   717
20.8941   720
20.9041   739
20.9141   743
20.9241   738
20.9341   774
20.9441   762
20.9541   800
20.9641   786
20.9741   807
20.9841   845
20.9941   862
21.0041   892
21.0141   924
21.0241   894
21.0341   925
21.0441   950
21.0541   936
21.0641   928
21.0741   955
21.0841   940
21.0941   943
21.1041   977
21.1141   972
21.1241   969
21.1341   987
21.1441  1005
21.1541  1010
21.1641   996
21.1741  1019
21.1841   942
21.1941   940
21.2041   892
21.2141   926
21.2241   881
21.2341   941
21.2441   863
21.2541   870
21.2641   835
21.2741   848
21.2841   857
21.2941   804
21.3041   783
21.3141   755
21.3241   752
21.3341   725
21.3441   710
21.3541   710
21.3641   658
21.3741   755
21.3841   711
21.3941   695
21.4041   677
21.4141   697
21.4241   710
21.4341   655
21.4441   644
21.4541   631
21.4641   622
21.4741   627
21.4841   620
21.4941   643
21.5041   657
21.5141   639
21.5241   642
21.5341   637
21.5441   617
21.5541   643
21.5641   587
21.5741   616
21.5841   662
21.5941   699
21.6041   651
21.6141   668
21.6241   628
21.6341   642
21.6441   640
21.6541   631
21.6641   649
21.6741   663
21.6841   665
21.6941   649
21.7041   652
21.7141   603
21.7241   625
21.7341   682
21.7441   657
21.7541   616
21.7641   675
21.7741   684
21.7841   649
21.7941   644
21.8041   650
21.8141   622
21.8241   658
21.8341   627
21.8441   625
21.8541   676
21.8641   660
21.8741   661
21.8841   702
21.8941   616
21.9041   695
21.9141   643
21.9241   620
21.9341   654
21.9441   657
21.9541   654
21.9641   656
21.9741   626
21.9841   683
21.9941   629
22.0041   661
22.0141   702
22.0241   682
22.0341   651
22.0441   694
22.0541   682
22.0641   648
22.0741   661
22.0841   666
22.0941   627
22.1041   679
22.1141   705
22.1241   646
22.1341   656
22.1441   665
22.1541   632
22.1641   657
22.1741   639
22.1841   638
22.1941   685
22.2041   629
22.2141   705
22.2241   646
22.2341   647
22.2441   672
22.2541   648
22.2641   642
22.2741   641
22.2841   676
22.2941   616
22.3041   619
22.3141   650
22.3241   625
22.3341   641
22.3441   628
22.3541   674
22.3641   622
22.3741   662
22.3841   671
22.3941   649
22.4041   631
22.4141   618
22.4241   665
22.4341   617
22.4441   672
22.4541   619
22.4641   655
22.4741   663
22.4841   696
22.4941   669
22.5041   621
22.5141   595
22.5241   637
22.5341   676
22.5441   677
22.5541   671
22.5641   634
22.5741   635
22.5841   660
22.5941   633
22.6041   660
22.6141   643
22.6241   640
22.6341   691
22.6441   645
22.6541   636
22.6641   651
22.6741   633
22.6841   678
22.6941   652
22.7041   638
22.7141   611
22.7241   675
22.7341   656
22.7441   641
22.7541   600
22.7641   630
22.7741   670
22.7841   644
22.7941   622
22.8041   641
22.8141   620
22.8241   669
22.8341   628
22.8441   657
22.8541   627
22.8641   604
22.8741   682
22.8841   668
22.8941   624
22.9041   650
22.9141   696
22.9241   655
22.9341   623
22.9441   654
22.9541   618
22.9641   639
22.9741   655
22.9841   662
22.9941   629
23.0041   630
23.0141   613
23.0241   634
23.0341   596
23.0441   667
23.0541   645
23.0641   610
23.0741   658
23.0841   690
23.0941   672
23.1041   594
23.1141   635
23.1241   623
23.1341   658
23.1441   568
23.1541   653
23.1641   654
23.1741   621
23.1841   570
23.1941   617
23.2041   614
23.2141   567
23.2241   658
23.2341   637
23.2441   666
23.2541   648
23.2641   621
23.2741   640
23.2841   713
23.2941   636
23.3041   613
23.3141   626
23.3241   611
23.3341   619
23.3441   611
23.3541   645
23.3641   573
23.3741   617
23.3841   657
23.3941   621
23.4041   673
23.4141   636
23.4241   667
23.4341   630
23.4441   611
23.4541   568
23.4641   622
23.4741   606
23.4841   625
23.4941   653
23.5041   649
23.5141   639
23.5241   642
23.5341   617
23.5441   633
23.5541   598
23.5641   617
23.5741   624
23.5841   656
23.5941   682
23.6041   619
23.6141   646
23.6241   645
23.6341   653
23.6441   633
23.6541   665
23.6641   652
23.6741   692
23.6841   632
23.6941   602
23.7041   638
23.7141   649
23.7241   681
23.7341   653
23.7441   648
23.7541   645
23.7641   659
23.7741   671
23.7841   643
23.7941   631
23.8041   655
23.8141   668
23.8241   729
23.8341   628
23.8441   693
23.8541   694
23.8641   668
23.8741   671
23.8841   612
23.8941   675
23.9041   675
23.9141   669
23.9241   665
23.9341   676
23.9441   615
23.9541   648
23.9641   616
23.9741   629
23.9841   610
23.9941   604
24.0041   638
24.0141   625
24.0241   640
24.0341   603
24.0441   642
24.0541   651
24.0641   622
24.0741   625
24.0841   622
24.0941   640
24.1041   612
24.1141   585
24.1241   629
24.1341   587
24.1441   604
24.1541   601
24.1641   604
24.1741   597
24.1841   595
24.1941   611
24.2041   652
24.2141   588
24.2241   568
24.2341   604
24.2441   639
24.2541   626
24.2641   570
24.2741   628
24.2841   616
24.2941   589
24.3041   608
24.3141   583
24.3241   609
24.3341   606
24.3441   610
24.3541   604
24.3641   584
24.3741   606
24.3841   571
24.3941   566
24.4041   606
24.4141   606
24.4241   614
24.4341   658
24.4441   614
24.4541   615
24.4641   608
24.4741   630
24.4841   587
24.4941   603
24.5041   601
24.5141   607
24.5241   617
24.5341   587
24.5441   580
24.5541   592
24.5641   637
24.5741   606
24.5841   653
24.5941   615
24.6041   660
24.6141   584
24.6241   603
24.6341   567
24.6441   532
24.6541   596
24.6641   552
24.6741   632
24.6841   571
24.6941   542
24.7041   556
24.7141   592
24.7241   603
24.7341   604
24.7441   595
24.7541   541
24.7641   588
24.7741   572
24.7841   589
24.7941   583
24.8041   627
24.8141   582
24.8241   572
24.8341   534
24.8441   555
24.8541   594
24.8641   600
24.8741   597
24.8841   611
24.8941   575
24.9041   550
24.9141   563
24.9241   562
24.9341   608
24.9441   567
24.9541   613
24.9641   591
24.9741   573
24.9841   562
24.9941   545
25.0041   579
25.0141   635
25.0241   554
25.0341   558
25.0441   586
25.0541   588
25.0641   579
25.0741   578
25.0841   621
25.0941   562
25.1041   594
25.1141   536
25.1241   572
25.1341   575
25.1441   604
25.1541   527
25.1641   544
25.1741   591
25.1841   557
25.1941   582
25.2041   601
25.2141   598
25.2241   574
25.2341   591
25.2441   575
25.2541   605
25.2641   568
25.2741   564
25.2841   564
25.2941   586
25.3041   596
25.3141   571
25.3241   608
25.3341   571
25.3441   574
25.3541   550
25.3641   529
25.3741   567
25.3841   566
25.3941   566
25.4041   597
25.4141   564
25.4241   583
25.4341   554
25.4441   556
25.4541   563
25.4641   534
25.4741   571
25.4841   578
25.4941   518
25.5041   544
25.5141   590
25.5241   599
25.5341   543
25.5441   552
25.5541   514
25.5641   519
25.5741   517
25.5841   562
25.5941   569
25.6041   540
25.6141   551
25.6241   552
25.6341   556
25.6441   564
25.6541   555
25.6641   535
25.6741   521
25.6841   551
25.6941   526
25.7041   516
25.7141   523
25.7241   537
25.7341   510
25.7441   512
25.7541   511
25.7641   539
25.7741   537
25.7841   533
25.7941   527
25.8041   541
25.8141   526
25.8241   550
25.8341   547
25.8441   550
25.8541   554
25.8641   542
25.8741   528
25.8841   506
25.8941   520
25.9041   532
25.9141   524
25.9241   526
25.9341   526
25.9441   541
25.9541   494
25.9641   510
25.9741   555
25.9841   537
25.9941   572
26.0041   523
26.0141   525
26.0241   538
26.0341   507
26.0441   520
26.0541   534
26.0641   566
26.0741   513
26.0841   516
26.0941   509
26.1041   518
26.1141   500
26.1241   486
26.1341   565
26.1441   538
26.1541   532
26.1641   512
26.1741   530
26.1841   519
26.1941   520
26.2041   523
26.2141   564
26.2241   512
26.2341   520
26.2441   514
26.2541   512
26.2641   497
26.2741   555
26.2841   478
26.2941   546
26.3041   528
26.3141   502
26.3241   529
26.3341   551
26.3441   536
26.3541   524
26.3641   552
26.3741   536
26.3841   499
26.3941   521
26.4041   497
26.4141   506
26.4241   508
26.4341   488
26.4441   507
26.4541   493
26.4641   507
26.4741   498
26.4841   471
26.4941   506
26.5041   513
26.5141   515
26.5241   464
26.5341   509
26.5441   473
26.5541   478
26.5641   515
26.5741   510
26.5841   481
26.5941   513
26.6041   481
26.6141   502
26.6241   519
26.6341   492
26.6441   529
26.6541   493
26.6641   479
26.6741   507
26.6841   480
26.6941   500
26.7041   495
26.7141   492
26.7241   486
26.7341   486
26.7441   477
26.7541   460
26.7641   451
26.7741   473
26.7841   498
26.7941   490
26.8041   525
26.8141   472
26.8241   502
26.8341   478
26.8441   485
26.8541   471
26.8641   521
26.8741   477
26.8841   474
26.8941   457
26.9041   473
26.9141   503
26.9241   522
26.9341   452
26.9441   486
26.9541   478
26.9641   463
26.9741   480
26.9841   479
26.9941   494
27.0041   472
27.0141   482
27.0241   473
27.0341   460
27.0441   487
27.0541   482
27.0641   494
27.0741   472
27.0841   457
27.0941   477
27.1041   464
27.1141   450
27.1241   440
27.1341   453
27.1441   436
27.1541   483
27.1641   470
27.1741   485
27.1841   484
27.1941   485
27.2041   499
27.2141   478
27.2241   463
27.2341   462
27.2441   440
27.2541   510
27.2641   482
27.2741   469
27.2841   488
27.2941   481
27.3041   480
27.3141   457
27.3241   465
27.3341   470
27.3441   475
27.3541   483
27.3641   472
27.3741   450
27.3841   456
27.3941   424
27.4041   441
27.4141   471
27.4241   471
27.4341   466
27.4441   493
27.4541   491
27.4641   455
27.4741   433
27.4841   475
27.4941   474
27.5041   450
27.5141   465
27.5241   454
27.5341   442
27.5441   420
27.5541   425
27.5641   433
27.5741   456
27.5841   472
27.5941   463
27.6041   435
27.6141   438
27.6241   426
27.6341   462
27.6441   448
27.6541   455
27.6641   455
27.6741   449
27.6841   432
27.6941   474
27.7041   461
27.7141   453
27.7241   455
27.7341   433
27.7441   433
27.7541   407
27.7641   460
27.7741   452
27.7841   451
27.7941   451
27.8041   433
27.8141   468
27.8241   430
27.8341   421
27.8441   429
27.8541   441
27.8641   428
27.8741   443
27.8841   399
27.8941   443
27.9041   461
27.9141   449
27.9241   438
27.9341   436
27.9441   439
27.9541   441
27.9641   442
27.9741   401
27.9841   437
27.9941   400
28.0041   416
28.0141   461
28.0241   425
28.0341   439
28.0441   439
28.0541   449
28.0641   448
28.0741   417
28.0841   408
28.0941   448
28.1041   450
28.1141   430
28.1241   394
28.1341   417
28.1441   424
28.1541   438
28.1641   404
28.1741   411
28.1841   413
28.1941   421
28.2041   399
28.2141   403
28.2241   426
28.2341   444
28.2441   429
28.2541   389
28.2641   396
28.2741   428
28.2841   448
28.2941   418
28.3041   421
28.3141   424
28.3241   420
28.3341   375
28.3441   434
28.3541   410
28.3641   402
28.3741   404
28.3841   423
28.3941   447
28.4041   426
28.4141   425
28.4241   423
28.4341   418
28.4441   402
28.4541   409
28.4641   388
28.4741   397
28.4841   416
28.4941   440
28.5041   406
28.5141   417
28.5241   377
28.5341   396
28.5441   422
28.5541   400
28.5641   404
28.5741   418
28.5841   409
28.5941   409
28.6041   404
28.6141   394
28.6241   395
28.6341   375
28.6441   374
28.6541   398
28.6641   417
28.6741   403
28.6841   381
28.6941   390
28.7041   403
28.7141   420
28.7241   371
28.7341   354
28.7441   380
28.7541   423
28.7641   405
28.7741   389
28.7841   404
28.7941   397
28.8041   394
28.8141   396
28.8241   368
28.8341   384
28.8441   399
28.8541   391
28.8641   373
28.8741   372
28.8841   414
28.8941   374
28.9041   411
28.9141   390
28.9241   375
28.9341   422
28.9441   349
28.9541   398
28.9641   377
28.9741   351
28.9841   349
28.9941   365
29.0041   392
29.0141   358
29.0241   376
29.0341   382
29.0441   355
29.0541   371
29.0641   384
29.0741   385
29.0841   374
29.0941   371
29.1041   433
29.1141   359
29.1241   368
29.1341   373
29.1441   375
29.1541   374
29.1641   366
29.1741   401
29.1841   363
29.1941   343
29.2041   368
29.2141   359
29.2241   376
29.2341   386
29.2441   369
29.2541   370
29.2641   384
29.2741   369
29.2841   366
29.2941   387
29.3041   346
29.3141   377
29.3241   372
29.3341   361
29.3441   365
29.3541   335
29.3641   342
29.3741   386
29.3841   402
29.3941   344
29.4041   322
29.4141   312
29.4241   381
29.4341   362
29.4441   349
29.4541   339
29.4641   343
29.4741   341
29.4841   342
29.4941   369
29.5041   365
29.5141   353
29.5241   345
29.5341   343
29.5441   373
29.5541   359
29.5641   352
29.5741   370
29.5841   363
29.5941   320
29.6041   364
29.6141   344
29.6241   351
29.6341   335
29.6441   354
29.6541   354
29.6641   376
29.6741   345
29.6841   382
29.6941   361
29.7041   374
29.7141   343
29.7241   315
29.7341   353
29.7441   342
29.7541   354
29.7641   342
29.7741   347
29.7841   382
29.7941   343
29.8041   330
29.8141   386
29.8241   333
29.8341   373
29.8441   324
29.8541   343
29.8641   326
29.8741   335
29.8841   322
29.8941   341
29.9041   359
29.9141   350
29.9241   325
29.9341   346
29.9441   305
29.9541   340
29.9641   329
29.9741   351
29.9841   327
29.9941   341
30.0041   306
30.0141   331
30.0241   327
30.0341   329
30.0441   310
30.0541   323
30.0641   320
30.0741   323
30.0841   343
30.0941   336
30.1041   307
30.1141   316
30.1241   311
30.1341   344
30.1441   346
30.1541   340
30.1641   308
30.1741   332
30.1841   374
30.1941   329
30.2041   318
30.2141   291
30.2241   297
30.2341   343
30.2441   328
30.2541   295
30.2641   292
30.2741   326
30.2841   312
30.2941   323
30.3041   293
30.3141   317
30.3241   328
30.3341   305
30.3441   317
30.3541   332
30.3641   316
30.3741   304
30.3841   303
30.3941   349
30.4041   329
30.4141   307
30.4241   306
30.4341   316
30.4441   336
30.4541   298
30.4641   291
30.4741   287
30.4841   296
30.4941   326
30.5041   347
30.5141   303
30.5241   330
30.5341   340
30.5441   317
30.5541   317
30.5641   304
30.5741   316
30.5841   305
30.5941   292
30.6041   292
30.6141   272
30.6241   285
30.6341   292
30.6441   308
30.6541   300
30.6641   330
30.6741   309
30.6841   308
30.6941   280
30.7041   288
30.7141   300
30.7241   324
30.7341   320
30.7441   304
30.7541   326
30.7641   279
30.7741   299
30.7841   304
30.7941   281
30.8041   270
30.8141   304
30.8241   295
30.8341   293
30.8441   273
30.8541   302
30.8641   309
30.8741   306
30.8841   327
30.8941   301
30.9041   292
30.9141   319
30.9241   302
30.9341   257
30.9441   296
30.9541   302
30.9641   292
30.9741   290
30.9841   264
30.9941   310
31.0041   302
31.0141   301
31.0241   281
31.0341   268
31.0441   278
31.0541   291
31.0641   287
31.0741   287
31.0841   268
31.0941   303
31.1041   287
31.1141   292
31.1241   269
31.1341   290
31.1441   280
31.1541   280
31.1641   293
31.1741   284
31.1841   264
31.1941   265
31.2041   244
31.2141   267
31.2241   247
31.2341   280
31.2441   261
31.2541   297
31.2641   278
31.2741   256
31.2841   282
31.2941   303
31.3041   292
31.3141   279
31.3241   254
31.3341   263
31.3441   252
31.3541   290
31.3641   261
31.3741   283
31.3841   278
31.3941   278
31.4041   282
31.4141   271
31.4241   242
31.4341   253
31.4441   275
31.4541   276
31.4641   257
31.4741   266
31.4841   277
31.4941   254
31.5041   274
31.5141   264
31.5241   268
31.5341   274
31.5441   301
31.5541   281
31.5641   260
31.5741   281
31.5841   283
31.5941   260
31.6041   285
31.6141   260
31.6241   261
31.6341   247
31.6441   260
31.6541   290
31.6641   246
31.6741   282
31.6841   287
31.6941   266
31.7041   260
31.7141   269
31.7241   237
31.7341   260
31.7441   280
31.7541   255
31.7641   255
31.7741   249
31.7841   263
31.7941   255
31.8041   276
31.8141   245
31.8241   251
31.8341   297
31.8441   268
31.8541   258
31.8641   253
31.8741   244
31.8841   265
31.8941   278
31.9041   242
31.9141   280
31.9241   251
31.9341   244
31.9441   233
31.9541   241
31.9641   234
31.9741   267
31.9841   271
31.9941   261
32.0041   264
32.0141   257
32.0241   267
32.0341   252
32.0441   233
32.0541   246
32.0641   241
32.0741   252
32.0841   276
32.0941   259
32.1041   267
32.1141   252
32.1241   234
32.1341   262
32.1441   261
32.1541   243
32.1641   256
32.1741   229
32.1841   251
32.1941   237
32.2041   234
32.2141   237
32.2241   241
32.2341   227
32.2441   259
32.2541   252
32.2641   250
32.2741   248
32.2841   271
32.2941   248
32.3041   235
32.3141   247
32.3241   234
32.3341   223
32.3441   215
32.3541   244
32.3641   245
32.3741   224
32.3841   231
32.3941   219
32.4041   238
32.4141   238
32.4241   229
32.4341   221
32.4441   198
32.4541   223
32.4641   241
32.4741   214
32.4841   213
32.4941   211
32.5041   223
32.5141   237
32.5241   232
32.5341   230
32.5441   239
32.5541   216
32.5641   206
32.5741   212
32.5841   222
32.5941   212
32.6041   247
32.6141   231
32.6241   228
32.6341   248
32.6441   224
32.6541   219
32.6641   200
32.6741   191
32.6841   226
32.6941   269
32.7041   224
32.7141   220
32.7241   201
32.7341   216
32.7441   211
32.7541   228
32.7641   222
32.7741   231
32.7841   241
32.7941   236
32.8041   214
32.8141   225
32.8241   230
32.8341   220
32.8441   227
32.8541   196
32.8641   198
32.8741   204
32.8841   199
32.8941   216
32.9041   206
32.9141   219
32.9241   192
32.9341   218
32.9441   196
32.9541   196
32.9641   196
32.9741   225
32.9841   212
32.9941   210
33.0041   211
33.0141   226
33.0241   197
33.0341   185
33.0441   195
33.0541   190
33.0641   206
33.0741   188
33.0841   214
33.0941   205
33.1041   224
33.1141   211
33.1241   181
33.1341   197
33.1441   195
33.1541   232
33.1641   217
33.1741   222
33.1841   206
33.1941   186
33.2041   191
33.2141   190
33.2241   185
33.2341   195
33.2441   209
33.2541   215
33.2641   216
33.2741   212
33.2841   188
33.2941   219
33.3041   205
33.3141   193
33.3241   210
33.3341   204
33.3441   206
33.3541   198
33.3641   200
33.3741   209
33.3841   190
33.3941   183
33.4041   211
33.4141   181
33.4241   196
33.4341   194
33.4441   209
33.4541   224
33.4641   195
33.4741   166
33.4841   209
33.4941   177
33.5041   195
33.5141   175
33.5241   176
33.5341   201
33.5441   184
33.5541   193
33.5641   172
33.5741   198
33.5841   180
33.5941   185
33.6041   153
33.6141   199
33.6241   197
33.6341   192
33.6441   182
33.6541   183
33.6641   207
33.6741   203
33.6841   169
33.6941   170
33.7041   172
33.7141   180
33.7241   203
33.7341   168
33.7441   188
33.7541   201
33.7641   194
33.7741   177
33.7841   170
33.7941   165
33.8041   179
33.8141   154
33.8241   198
33.8341   187
33.8441   204
33.8541   165
33.8641   148
33.8741   175
33.8841   168
33.8941   170
33.9041   181
33.9141   171
33.9241   190
33.9341   191
33.9441   176
33.9541   163
33.9641   186
33.9741   159
33.9841   175
33.9941   178
34.0041   177
34.0141   173
34.0241   151
34.0341   169
34.0441   156
34.0541   187
34.0641   172
34.0741   167
34.0841   189
34.0941   158
34.1041   169
34.1141   180
34.1241   151
34.1341   181
34.1441   173
34.1541   151
34.1641   164
34.1741   155
34.1841   160
34.1941   180
34.2041   140
34.2141   148
34.2241   159
34.2341   160
34.2441   172
34.2541   171
34.2641   144
34.2741   162
34.2841   158
34.2941   174
34.3041   162
34.3141   167
34.3241   168
34.3341   164
34.3441   147
34.3541   174
34.3641   164
34.3741   144
34.3841   157
34.3941   145
34.4041   138
34.4141   150
34.4241   182
34.4341   155
34.4441   176
34.4541   160
34.4641   150
34.4741   184
34.4841   170
34.4941   165
34.5041   171
34.5141   168
34.5241   143
34.5341   150
34.5441   152
34.5541   173
34.5641   148
34.5741   166
34.5841   160
34.5941   131
34.6041   166
34.6141   151
34.6241   155
34.6341   162
34.6441   158
34.6541   134
34.6641   136
34.6741   160
34.6841   148
34.6941   152
34.7041   143
34.7141   151
34.7241   133
34.7341   140
34.7441   151
34.7541   149
34.7641   140
34.7741   121
34.7841   145
34.7941   154
34.8041   170
34.8141   147
34.8241   141
34.8341   145
34.8441   127
34.8541   156
34.8641   157
34.8741   140
34.8841   121
34.8941   145
34.9041   172
34.9141   151
34.9241   137
34.9341   147
34.9441   164
34.9541   135
34.9641   142
34.9741   132
34.9841   149
34.9941   149
35.0041   143
35.0141   166
35.0241   134
35.0341   132
35.0441   148
35.0541   149
35.0641   137
35.0741   139
35.0841   135
35.0941   147
35.1041   123
35.1141   138
35.1241   127
35.1341   134
35.1441   157
35.1541   133
35.1641   135
35.1741   128
35.1841   125
35.1941   133
35.2041   155
35.2141   140
35.2241   119
35.2341   145
35.2441   135
35.2541   132
35.2641   139
35.2741   125
35.2841   124
35.2941   129
35.3041   145
35.3141   149
35.3241   120
35.3341   115
35.3441   123
35.3541   120
35.3641   146
35.3741   131
35.3841   128
35.3941   120
35.4041   133
35.4141   128
35.4241   135
35.4341   142
35.4441   141
35.4541   130
35.4641   137
35.4741   144
35.4841   122
35.4941   130
35.5041   129
35.5141   138
35.5241   128
35.5341   128
35.5441   113
35.5541   121
35.5641   116
35.5741   105
35.5841   110
35.5941   116
35.6041   130
35.6141   123
35.6241   133
35.6341   141
35.6441   110
35.6541   122
35.6641   109
35.6741   113
35.6841   134
35.6941   127
35.7041   116
35.7141   134
35.7241   130
35.7341   131
35.7441   132
35.7541   103
35.7641   110
35.7741   130
35.7841   105
35.7941   120
35.8041   125
35.8141   105
35.8241   124
35.8341   133
35.8441   117
35.8541   109
35.8641   114
35.8741   116
35.8841   110
35.8941   111
35.9041   120
35.9141   131
35.9241   115
35.9341   121
35.9441   124
35.9541   128
35.9641    92
35.9741   114
35.9841   109
35.9941   127
36.0041   121
36.0141   112
36.0241   129
36.0341   120
36.0441   117
36.0541   108
36.0641   116
36.0741   110
36.0841    95
36.0941   111
36.1041   121
36.1141   117
36.1241   118
36.1341    96
36.1441   123
36.1541   119
36.1641    98
36.1741   108
36.1841   116
36.1941   106
36.2041   106
36.2141   114
36.2241    99
36.2341    90
36.2441    92
36.2541   114
36.2641   117
36.2741    93
36.2841   101
36.2941   126
36.3041   113
36.3141    97
36.3241   107
36.3341   119
36.3441   103
36.3541   102
36.3641   125
36.3741    94
36.3841    93
36.3941   112
36.4041   118
36.4141   120
36.4241   100
36.4341   117
36.4441    97
36.4541   104
36.4641   115
36.4741   101
36.4841    93
36.4941    80
36.5041   114
36.5141   102
36.5241   101
36.5341   108
36.5441    93
36.5541   109
36.5641    95
36.5741   115
36.5841    87
36.5941   103
36.6041    95
36.6141   105
36.6241    94
36.6341    93
36.6441    73
36.6541    87
36.6641   117
36.6741   107
36.6841    96
36.6941    85
36.7041    82
36.7141   103
36.7241    87
36.7341   110
36.7441    85
36.7541   114
36.7641   111
36.7741    92
36.7841   106
36.7941    83
36.8041    96
36.8141   102
36.8241    88
36.8341    90
36.8441    95
36.8541   105
36.8641   101
36.8741   100
36.8841    98
36.8941    90
36.9041    82
36.9141    98
36.9241    93
36.9341    99
36.9441    85
36.9541   116
36.9641    91
36.9741    79
36.9841    83
36.9941    95
37.0041    76
37.0141    93
37.0241    77
37.0341    93
37.0441   101
37.0541    72
37.0641    91
37.0741    94
37.0841    89
37.0941    78
37.1041    90
37.1141    93
37.1241    69
37.1341    98
37.1441    89
37.1541    81
37.1641    99
37.1741    95
37.1841    90
37.1941    85
37.2041    73
37.2141    95
37.2241    84
37.2341    89
37.2441    97
37.2541    78
37.2641    85
37.2741    85
37.2841    80
37.2941    86
37.3041    88
37.3141    87
37.3241    88
37.3341    86
37.3441    80
37.3541    85
37.3641    94
37.3741    89
37.3841    73
37.3941    83
37.4041    94
37.4141    69
37.4241    74
37.4341    77
37.4441    90
37.4541    89
37.4641    80
37.4741    73
37.4841    84
37.4941    79
37.5041    87
37.5141    84
37.5241    85
37.5341    88
37.5441    84
37.5541    70
37.5641    91
37.5741    85
37.5841    64
37.5941    83
37.6041    60
37.6141    73
37.6241    84
37.6341    63
37.6441    85
37.6541    73
37.6641    74
37.6741    69
37.6841    68
37.6941    71
37.7041    75
37.7141    70
37.7241    73
37.7341    66
37.7441    77
37.7541    67
37.7641    72
37.7741    56
37.7841    73
37.7941    64
37.8041    84
37.8141    66
37.8241    87
37.8341    85
37.8441    71
37.8541    66
37.8641    81
37.8741    72
37.8841    87
37.8941    80
37.9041    85
37.9141    64
37.9241    80
37.9341    74
37.9441    73
37.9541    74
37.9641    80
37.9741    69
37.9841    70
37.9941    71
38.0041    73
38.0141    66
38.0241    72
38.0341    62
38.0441    72
38.0541    71
38.0641    61
38.0741    70
38.0841    59
38.0941    68
38.1041    81
38.1141    62
38.1241    69
38.1341    78
38.1441    73
38.1541    87
38.1641    74
38.1741    64
38.1841    64
38.1941    66
38.2041    70
38.2141    64
38.2241    65
38.2341    66
38.2441    56
38.2541    62
38.2641    75
38.2741    65
38.2841    58
38.2941    68
38.3041    56
38.3141    60
38.3241    62
38.3341    63
38.3441    62
38.3541    69
38.3641    68
38.3741    46
38.3841    69
38.3941    47
38.4041    55
38.4141    55
38.4241    58
38.4341    67
38.4441    64
38.4541    68
38.4641    59
38.4741    55
38.4841    64
38.4941    56
38.5041    71
38.5141    47
38.5241    63
38.5341    42
38.5441    53
38.5541    55
38.5641    60
38.5741    69
38.5841    62
38.5941    50
38.6041    63
38.6141    56
38.6241    65
38.6341    63
38.6441    57
38.6541    63
38.6641    44
38.6741    52
38.6841    56
38.6941    55
38.7041    66
38.7141    69
38.7241    56
38.7341    57
38.7441    60
38.7541    55
38.7641    60
38.7741    52
38.7841    69
38.7941    67
38.8041    60
38.8141    55
38.8241    56
38.8341    43
38.8441    55
38.8541    50
38.8641    45
38.8741    63
38.8841    46
38.8941    50
38.9041    56
38.9141    54
38.9241    39
38.9341    47
38.9441    64
38.9541    56
38.9641    60
38.9741    65
38.9841    52
38.9941    59
39.0041    51
39.0141    67
39.0241    58
39.0341    43
39.0441    37
39.0541    56
39.0641    35
39.0741    46
39.0841    59
39.0941    62
39.1041    43
39.1141    40
39.1241    41
39.1341    45
39.1441    50
39.1541    53
39.1641    46
39.1741    45
39.1841    47
39.1941    41
39.2041    49
39.2141    53
39.2241    46
39.2341    44
39.2441    48
39.2541    50
39.2641    40
39.2741    47
39.2841    49
39.2941    51
39.3041    52
39.3141    44
39.3241    53
39.3341    48
39.3441    40
39.3541    45
39.3641    46
39.3741    54
39.3841    35
39.3941    45
39.4041    51
39.4141    37
39.4241    57
39.4341    48
39.4441    41
39.4541    47
39.4641    39
39.4741    39
39.4841    46
39.4941    43
39.5041    44
39.5141    49
39.5241    42
39.5341    47
39.5441    43
39.5541    36
39.5641    46
39.5741    40
39.5841    46
39.5941    38
39.6041    36
39.6141    34
39.6241    53
39.6341    36
39.6441    36
39.6541    42
39.6641    41
39.6741    35
39.6841    33
39.6941    37
39.7041    32
39.7141    46
39.7241    49
39.7341    36
39.7441    33
39.7541    42
39.7641    37
39.7741    38
39.7841    45
39.7941    34
39.8041    46
39.8141    48
39.8241    43
39.8341    43
39.8441    29
39.8541    29
39.8641    51
39.8741    34
39.8841    45
39.8941    43
39.9041    33
39.9141    40
39.9241    35
39.9341    40
39.9441    32
39.9541    41
39.9641    40
39.9741    37
39.9841    26
