Bruker Nano GmbH Berlin, Germany
Esprit 1.9

Date: 4/1/2021 4:56:23 PM
Real time: 34181
Life time: 32300
Pulse density: 78170


Detector type: XFlash 430
Window type: Custom type
Detector thickness: 0.45
Si dead layer:0.029

Calibration, lin.: 10
Calibration, abs.: -955.9
Mn FWHM: 137.05
Fano factor: 0.121
Channels: 4096

Energy Counts
-0.9559     0
-0.9459     0
-0.9359     0
-0.9259     0
-0.9159     0
-0.9059     0
-0.8959     0
-0.8859     0
-0.8759     0
-0.8659     0
-0.8559     0
-0.8459     0
-0.8359     0
-0.8259     0
-0.8159     0
-0.8059     0
-0.7959     0
-0.7859     0
-0.7759     0
-0.7659     0
-0.7559     0
-0.7459     0
-0.7359     0
-0.7259     0
-0.7159     0
-0.7059     0
-0.6959     0
-0.6859     0
-0.6759     0
-0.6659     0
-0.6559     0
-0.6459     0
-0.6359     0
-0.6259     0
-0.6159     0
-0.6059     0
-0.5959     0
-0.5859     0
-0.5759     0
-0.5659     0
-0.5559     0
-0.5459     0
-0.5359     0
-0.5259     0
-0.5159     0
-0.5059     0
-0.4959     0
-0.4859     0
-0.4759     0
-0.4659     0
-0.4559     0
-0.4459     0
-0.4359     0
-0.4259     0
-0.4159     0
-0.4059     0
-0.3959     0
-0.3859     0
-0.3759     0
-0.3659     0
-0.3559     0
-0.3459     0
-0.3359     0
-0.3259     0
-0.3159     0
-0.3059     0
-0.2959     0
-0.2859     0
-0.2759     0
-0.2659     0
-0.2559     0
-0.2459     0
-0.2359     0
-0.2259     0
-0.2159     0
-0.2059     0
-0.1959     0
-0.1859     0
-0.1759     0
-0.1659     1
-0.1559     0
-0.1459     0
-0.1359     0
-0.1259     1
-0.1159     8
-0.1059    22
-0.0959    70
-0.0859   357
-0.0759  1236
-0.0659  3686
-0.0559  9426
-0.0459 20580
-0.0359 38929
-0.0259 61529
-0.0159 84358
-0.0059 98542
 0.0041 99733
 0.0141 85418
 0.0241 63075
 0.0341 40275
 0.0441 21800
 0.0541  9998
 0.0641  3993
 0.0741  1344
 0.0841   434
 0.0941   124
 0.1041    43
 0.1141    23
 0.1241    16
 0.1341    16
 0.1441     9
 0.1541    11
 0.1641     5
 0.1741     5
 0.1841   266
 0.1941   572
 0.2041   539
 0.2141   522
 0.2241   505
 0.2341   531
 0.2441   542
 0.2541   556
 0.2641   550
 0.2741   564
 0.2841   538
 0.2941   533
 0.3041   535
 0.3141   532
 0.3241   539
 0.3341   519
 0.3441   524
 0.3541   503
 0.3641   501
 0.3741   482
 0.3841   458
 0.3941   475
 0.4041   494
 0.4141   470
 0.4241   456
 0.4341   463
 0.4441   439
 0.4541   453
 0.4641   460
 0.4741   453
 0.4841   443
 0.4941   457
 0.5041   452
 0.5141   434
 0.5241   448
 0.5341   449
 0.5441   442
 0.5541   444
 0.5641   442
 0.5741   426
 0.5841   419
 0.5941   430
 0.6041   415
 0.6141   410
 0.6241   422
 0.6341   413
 0.6441   405
 0.6541   404
 0.6641   421
 0.6741   430
 0.6841   430
 0.6941   419
 0.7041   399
 0.7141   394
 0.7241   383
 0.7341   403
 0.7441   409
 0.7541   383
 0.7641   370
 0.7741   388
 0.7841   393
 0.7941   391
 0.8041   376
 0.8141   364
 0.8241   366
 0.8341   368
 0.8441   359
 0.8541   364
 0.8641   380
 0.8741   373
 0.8841   371
 0.8941   390
 0.9041   400
 0.9141   374
 0.9241   358
 0.9341   361
 0.9441   347
 0.9541   357
 0.9641   341
 0.9741   364
 0.9841   353
 0.9941   346
 1.0041   376
 1.0141   357
 1.0241   350
 1.0341   342
 1.0441   325
 1.0541   397
 1.0641   353
 1.0741   334
 1.0841   355
 1.0941   361
 1.1041   341
 1.1141   326
 1.1241   355
 1.1341   346
 1.1441   351
 1.1541   335
 1.1641   347
 1.1741   333
 1.1841   301
 1.1941   342
 1.2041   329
 1.2141   324
 1.2241   308
 1.2341   321
 1.2441   324
 1.2541   318
 1.2641   313
 1.2741   330
 1.2841   321
 1.2941   335
 1.3041   303
 1.3141   302
 1.3241   284
 1.3341   308
 1.3441   304
 1.3541   310
 1.3641   326
 1.3741   304
 1.3841   288
 1.3941   332
 1.4041   329
 1.4141   314
 1.4241   290
 1.4341   302
 1.4441   329
 1.4541   300
 1.4641   306
 1.4741   307
 1.4841   303
 1.4941   295
 1.5041   309
 1.5141   307
 1.5241   296
 1.5341   318
 1.5441   287
 1.5541   288
 1.5641   263
 1.5741   266
 1.5841   309
 1.5941   285
 1.6041   287
 1.6141   306
 1.6241   293
 1.6341   305
 1.6441   351
 1.6541   383
 1.6641   391
 1.6741   481
 1.6841   627
 1.6941   748
 1.7041   894
 1.7141  1004
 1.7241  1129
 1.7341  1215
 1.7441  1183
 1.7541  1136
 1.7641  1032
 1.7741   918
 1.7841   768
 1.7941   639
 1.8041   534
 1.8141   459
 1.8241   416
 1.8341   413
 1.8441   417
 1.8541   364
 1.8641   313
 1.8741   284
 1.8841   347
 1.8941   343
 1.9041   316
 1.9141   288
 1.9241   319
 1.9341   294
 1.9441   314
 1.9541   317
 1.9641   288
 1.9741   326
 1.9841   380
 1.9941   333
 2.0041   357
 2.0141   362
 2.0241   373
 2.0341   356
 2.0441   358
 2.0541   346
 2.0641   328
 2.0741   332
 2.0841   277
 2.0941   312
 2.1041   290
 2.1141   279
 2.1241   285
 2.1341   257
 2.1441   259
 2.1541   275
 2.1641   262
 2.1741   299
 2.1841   275
 2.1941   291
 2.2041   264
 2.2141   252
 2.2241   251
 2.2341   237
 2.2441   239
 2.2541   253
 2.2641   257
 2.2741   283
 2.2841   233
 2.2941   265
 2.3041   266
 2.3141   236
 2.3241   244
 2.3341   230
 2.3441   257
 2.3541   235
 2.3641   227
 2.3741   286
 2.3841   235
 2.3941   260
 2.4041   271
 2.4141   252
 2.4241   246
 2.4341   225
 2.4441   248
 2.4541   228
 2.4641   219
 2.4741   247
 2.4841   231
 2.4941   230
 2.5041   258
 2.5141   226
 2.5241   234
 2.5341   237
 2.5441   218
 2.5541   238
 2.5641   236
 2.5741   240
 2.5841   217
 2.5941   209
 2.6041   236
 2.6141   212
 2.6241   239
 2.6341   239
 2.6441   206
 2.6541   216
 2.6641   219
 2.6741   225
 2.6841   252
 2.6941   196
 2.7041   198
 2.7141   225
 2.7241   205
 2.7341   228
 2.7441   227
 2.7541   222
 2.7641   232
 2.7741   225
 2.7841   231
 2.7941   226
 2.8041   241
 2.8141   252
 2.8241   230
 2.8341   228
 2.8441   228
 2.8541   230
 2.8641   240
 2.8741   208
 2.8841   197
 2.8941   231
 2.9041   212
 2.9141   208
 2.9241   241
 2.9341   196
 2.9441   214
 2.9541   215
 2.9641   222
 2.9741   218
 2.9841   188
 2.9941   195
 3.0041   186
 3.0141   186
 3.0241   221
 3.0341   196
 3.0441   199
 3.0541   193
 3.0641   225
 3.0741   209
 3.0841   197
 3.0941   178
 3.1041   175
 3.1141   182
 3.1241   201
 3.1341   176
 3.1441   198
 3.1541   173
 3.1641   193
 3.1741   168
 3.1841   193
 3.1941   197
 3.2041   218
 3.2141   196
 3.2241   191
 3.2341   182
 3.2441   214
 3.2541   213
 3.2641   236
 3.2741   245
 3.2841   271
 3.2941   305
 3.3041   313
 3.3141   279
 3.3241   307
 3.3341   281
 3.3441   262
 3.3541   249
 3.3641   235
 3.3741   226
 3.3841   203
 3.3941   176
 3.4041   174
 3.4141   190
 3.4241   191
 3.4341   180
 3.4441   149
 3.4541   179
 3.4641   164
 3.4741   191
 3.4841   175
 3.4941   180
 3.5041   180
 3.5141   204
 3.5241   174
 3.5341   197
 3.5441   193
 3.5541   230
 3.5641   262
 3.5741   286
 3.5841   342
 3.5941   423
 3.6041   546
 3.6141   689
 3.6241   838
 3.6341   995
 3.6441  1229
 3.6541  1405
 3.6641  1588
 3.6741  1665
 3.6841  1775
 3.6941  1697
 3.7041  1642
 3.7141  1608
 3.7241  1442
 3.7341  1204
 3.7441  1025
 3.7541   799
 3.7641   628
 3.7741   525
 3.7841   377
 3.7941   290
 3.8041   230
 3.8141   198
 3.8241   168
 3.8341   173
 3.8441   193
 3.8541   146
 3.8641   142
 3.8741   147
 3.8841   143
 3.8941   151
 3.9041   153
 3.9141   187
 3.9241   201
 3.9341   211
 3.9441   209
 3.9541   240
 3.9641   264
 3.9741   300
 3.9841   329
 3.9941   332
 4.0041   372
 4.0141   341
 4.0241   347
 4.0341   352
 4.0441   311
 4.0541   268
 4.0641   239
 4.0741   221
 4.0841   219
 4.0941   194
 4.1041   166
 4.1141   162
 4.1241   142
 4.1341   149
 4.1441   139
 4.1541   130
 4.1641   140
 4.1741   130
 4.1841   136
 4.1941   132
 4.2041   117
 4.2141   121
 4.2241   117
 4.2341   130
 4.2441   134
 4.2541   109
 4.2641   129
 4.2741   119
 4.2841   136
 4.2941   135
 4.3041   122
 4.3141   131
 4.3241   123
 4.3341   136
 4.3441   121
 4.3541   121
 4.3641   115
 4.3741   139
 4.3841   118
 4.3941   152
 4.4041   179
 4.4141   169
 4.4241   198
 4.4341   214
 4.4441   218
 4.4541   253
 4.4641   274
 4.4741   302
 4.4841   319
 4.4941   347
 4.5041   316
 4.5141   337
 4.5241   317
 4.5341   335
 4.5441   298
 4.5541   265
 4.5641   224
 4.5741   223
 4.5841   202
 4.5941   186
 4.6041   165
 4.6141   178
 4.6241   156
 4.6341   170
 4.6441   145
 4.6541   139
 4.6641   122
 4.6741   130
 4.6841   129
 4.6941   139
 4.7041   133
 4.7141   138
 4.7241   129
 4.7341   137
 4.7441   128
 4.7541   127
 4.7641   133
 4.7741   134
 4.7841   131
 4.7941   130
 4.8041   124
 4.8141   134
 4.8241   128
 4.8341   147
 4.8441   151
 4.8541   153
 4.8641   180
 4.8741   159
 4.8841   175
 4.8941   177
 4.9041   160
 4.9141   186
 4.9241   170
 4.9341   178
 4.9441   192
 4.9541   151
 4.9641   181
 4.9741   177
 4.9841   181
 4.9941   179
 5.0041   155
 5.0141   144
 5.0241   161
 5.0341   153
 5.0441   131
 5.0541   161
 5.0641   142
 5.0741   135
 5.0841   140
 5.0941   138
 5.1041   131
 5.1141   139
 5.1241   132
 5.1341   134
 5.1441   140
 5.1541   126
 5.1641   136
 5.1741   145
 5.1841   139
 5.1941   136
 5.2041   139
 5.2141   136
 5.2241   150
 5.2341   136
 5.2441   148
 5.2541   143
 5.2641   148
 5.2741   152
 5.2841   153
 5.2941   161
 5.3041   126
 5.3141   157
 5.3241   151
 5.3341   144
 5.3441   162
 5.3541   165
 5.3641   162
 5.3741   155
 5.3841   157
 5.3941   144
 5.4041   161
 5.4141   171
 5.4241   170
 5.4341   162
 5.4441   165
 5.4541   148
 5.4641   139
 5.4741   162
 5.4841   149
 5.4941   152
 5.5041   136
 5.5141   135
 5.5241   139
 5.5341   147
 5.5441   129
 5.5541   145
 5.5641   157
 5.5741   159
 5.5841   148
 5.5941   142
 5.6041   144
 5.6141   142
 5.6241   141
 5.6341   150
 5.6441   171
 5.6541   150
 5.6641   134
 5.6741   124
 5.6841   155
 5.6941   166
 5.7041   164
 5.7141   170
 5.7241   163
 5.7341   137
 5.7441   176
 5.7541   181
 5.7641   197
 5.7741   184
 5.7841   205
 5.7941   195
 5.8041   203
 5.8141   236
 5.8241   267
 5.8341   252
 5.8441   274
 5.8541   299
 5.8641   295
 5.8741   302
 5.8841   323
 5.8941   323
 5.9041   316
 5.9141   267
 5.9241   312
 5.9341   308
 5.9441   311
 5.9541   285
 5.9641   249
 5.9741   214
 5.9841   217
 5.9941   212
 6.0041   174
 6.0141   187
 6.0241   209
 6.0341   206
 6.0441   209
 6.0541   187
 6.0641   159
 6.0741   160
 6.0841   155
 6.0941   177
 6.1041   165
 6.1141   196
 6.1241   212
 6.1341   173
 6.1441   179
 6.1541   182
 6.1641   197
 6.1741   185
 6.1841   211
 6.1941   192
 6.2041   223
 6.2141   223
 6.2241   261
 6.2341   309
 6.2441   322
 6.2541   398
 6.2641   496
 6.2741   619
 6.2841   744
 6.2941   949
 6.3041  1196
 6.3141  1580
 6.3241  1903
 6.3341  2277
 6.3441  2596
 6.3541  2987
 6.3641  3178
 6.3741  3425
 6.3841  3595
 6.3941  3717
 6.4041  3672
 6.4141  3533
 6.4241  3449
 6.4341  3123
 6.4441  2903
 6.4541  2499
 6.4641  2130
 6.4741  1730
 6.4841  1419
 6.4941  1173
 6.5041   939
 6.5141   758
 6.5241   577
 6.5341   474
 6.5441   364
 6.5541   335
 6.5641   273
 6.5741   235
 6.5841   207
 6.5941   234
 6.6041   201
 6.6141   184
 6.6241   190
 6.6341   165
 6.6441   183
 6.6541   217
 6.6641   192
 6.6741   173
 6.6841   183
 6.6941   221
 6.7041   217
 6.7141   193
 6.7241   201
 6.7341   214
 6.7441   185
 6.7541   177
 6.7641   219
 6.7741   222
 6.7841   205
 6.7941   222
 6.8041   199
 6.8141   228
 6.8241   231
 6.8341   226
 6.8441   242
 6.8541   236
 6.8641   225
 6.8741   250
 6.8841   249
 6.8941   273
 6.9041   249
 6.9141   260
 6.9241   293
 6.9341   325
 6.9441   391
 6.9541   399
 6.9641   458
 6.9741   500
 6.9841   544
 6.9941   652
 7.0041   676
 7.0141   742
 7.0241   775
 7.0341   788
 7.0441   787
 7.0541   823
 7.0641   786
 7.0741   766
 7.0841   739
 7.0941   744
 7.1041   680
 7.1141   644
 7.1241   547
 7.1341   528
 7.1441   430
 7.1541   437
 7.1641   397
 7.1741   359
 7.1841   359
 7.1941   315
 7.2041   359
 7.2141   311
 7.2241   344
 7.2341   310
 7.2441   308
 7.2541   319
 7.2641   331
 7.2741   355
 7.2841   369
 7.2941   351
 7.3041   378
 7.3141   386
 7.3241   430
 7.3341   454
 7.3441   443
 7.3541   486
 7.3641   486
 7.3741   492
 7.3841   501
 7.3941   520
 7.4041   473
 7.4141   471
 7.4241   487
 7.4341   476
 7.4441   525
 7.4541   446
 7.4641   425
 7.4741   385
 7.4841   377
 7.4941   407
 7.5041   385
 7.5141   346
 7.5241   380
 7.5341   342
 7.5441   342
 7.5541   339
 7.5641   323
 7.5741   347
 7.5841   342
 7.5941   316
 7.6041   340
 7.6141   353
 7.6241   383
 7.6341   365
 7.6441   387
 7.6541   395
 7.6641   373
 7.6741   374
 7.6841   404
 7.6941   407
 7.7041   434
 7.7141   407
 7.7241   411
 7.7341   427
 7.7441   435
 7.7541   459
 7.7641   498
 7.7741   418
 7.7841   440
 7.7941   483
 7.8041   507
 7.8141   476
 7.8241   517
 7.8341   546
 7.8441   519
 7.8541   509
 7.8641   538
 7.8741   549
 7.8841   563
 7.8941   575
 7.9041   629
 7.9141   697
 7.9241   673
 7.9341   684
 7.9441   717
 7.9541   800
 7.9641   835
 7.9741   876
 7.9841   937
 7.9941  1098
 8.0041  1102
 8.0141  1210
 8.0241  1242
 8.0341  1314
 8.0441  1423
 8.0541  1492
 8.0641  1558
 8.0741  1712
 8.0841  1819
 8.0941  1910
 8.1041  2009
 8.1141  2099
 8.1241  2163
 8.1341  2214
 8.1441  2269
 8.1541  2372
 8.1641  2455
 8.1741  2436
 8.1841  2514
 8.1941  2534
 8.2041  2631
 8.2141  2547
 8.2241  2616
 8.2341  2785
 8.2441  2765
 8.2541  2874
 8.2641  3063
 8.2741  3268
 8.2841  3511
 8.2941  3830
 8.3041  4066
 8.3141  4311
 8.3241  4604
 8.3341  5010
 8.3441  5398
 8.3541  5689
 8.3641  6002
 8.3741  6243
 8.3841  6143
 8.3941  6115
 8.4041  5953
 8.4141  5789
 8.4241  5397
 8.4341  5148
 8.4441  4612
 8.4541  4227
 8.4641  3688
 8.4741  3267
 8.4841  2744
 8.4941  2340
 8.5041  2011
 8.5141  1675
 8.5241  1342
 8.5341  1164
 8.5441   992
 8.5541   874
 8.5641   840
 8.5741   711
 8.5841   669
 8.5941   640
 8.6041   639
 8.6141   609
 8.6241   591
 8.6341   628
 8.6441   653
 8.6541   624
 8.6641   587
 8.6741   593
 8.6841   608
 8.6941   650
 8.7041   610
 8.7141   627
 8.7241   641
 8.7341   634
 8.7441   603
 8.7541   598
 8.7641   581
 8.7741   630
 8.7841   596
 8.7941   597
 8.8041   588
 8.8141   596
 8.8241   599
 8.8341   550
 8.8441   538
 8.8541   559
 8.8641   545
 8.8741   611
 8.8841   597
 8.8941   601
 8.9041   624
 8.9141   631
 8.9241   603
 8.9341   629
 8.9441   643
 8.9541   670
 8.9641   619
 8.9741   673
 8.9841   704
 8.9941   670
 9.0041   676
 9.0141   735
 9.0241   752
 9.0341   823
 9.0441   776
 9.0541   844
 9.0641   815
 9.0741   815
 9.0841   855
 9.0941   847
 9.1041   895
 9.1141   917
 9.1241   949
 9.1341   964
 9.1441  1022
 9.1541  1038
 9.1641  1103
 9.1741  1160
 9.1841  1235
 9.1941  1236
 9.2041  1290
 9.2141  1401
 9.2241  1528
 9.2341  1525
 9.2441  1574
 9.2541  1639
 9.2641  1786
 9.2741  1796
 9.2841  1856
 9.2941  2011
 9.3041  2111
 9.3141  2212
 9.3241  2244
 9.3341  2246
 9.3441  2345
 9.3541  2407
 9.3641  2524
 9.3741  2544
 9.3841  2519
 9.3941  2621
 9.4041  2594
 9.4141  2715
 9.4241  2811
 9.4341  2744
 9.4441  2750
 9.4541  2761
 9.4641  2742
 9.4741  2915
 9.4841  2922
 9.4941  2964
 9.5041  3018
 9.5141  3170
 9.5241  3282
 9.5341  3268
 9.5441  3524
 9.5541  3769
 9.5641  3799
 9.5741  4053
 9.5841  4272
 9.5941  4422
 9.6041  4775
 9.6141  5073
 9.6241  5262
 9.6341  5496
 9.6441  5730
 9.6541  5738
 9.6641  5783
 9.6741  5760
 9.6841  5569
 9.6941  5475
 9.7041  5314
 9.7141  5024
 9.7241  4765
 9.7341  4519
 9.7441  4248
 9.7541  3776
 9.7641  3691
 9.7741  3373
 9.7841  3142
 9.7941  2919
 9.8041  2724
 9.8141  2690
 9.8241  2571
 9.8341  2420
 9.8441  2461
 9.8541  2395
 9.8641  2392
 9.8741  2421
 9.8841  2349
 9.8941  2493
 9.9041  2534
 9.9141  2550
 9.9241  2583
 9.9341  2632
 9.9441  2598
 9.9541  2651
 9.9641  2606
 9.9741  2561
 9.9841  2396
 9.9941  2298
10.0041  2194
10.0141  2020
10.0241  1826
10.0341  1653
10.0441  1533
10.0541  1371
10.0641  1232
10.0741  1122
10.0841   982
10.0941   866
10.1041   815
10.1141   751
10.1241   659
10.1341   602
10.1441   566
10.1541   531
10.1641   504
10.1741   530
10.1841   485
10.1941   488
10.2041   467
10.2141   443
10.2241   438
10.2341   415
10.2441   423
10.2541   414
10.2641   401
10.2741   395
10.2841   369
10.2941   376
10.3041   349
10.3141   353
10.3241   356
10.3341   330
10.3441   324
10.3541   336
10.3641   328
10.3741   358
10.3841   346
10.3941   345
10.4041   352
10.4141   369
10.4241   360
10.4341   351
10.4441   355
10.4541   343
10.4641   357
10.4741   364
10.4841   387
10.4941   371
10.5041   381
10.5141   370
10.5241   358
10.5341   381
10.5441   371
10.5541   386
10.5641   377
10.5741   371
10.5841   391
10.5941   366
10.6041   395
10.6141   395
10.6241   382
10.6341   384
10.6441   392
10.6541   386
10.6641   378
10.6741   405
10.6841   433
10.6941   420
10.7041   416
10.7141   442
10.7241   447
10.7341   491
10.7441   484
10.7541   503
10.7641   498
10.7741   472
10.7841   500
10.7941   511
10.8041   548
10.8141   549
10.8241   554
10.8341   561
10.8441   586
10.8541   591
10.8641   624
10.8741   611
10.8841   612
10.8941   598
10.9041   590
10.9141   617
10.9241   600
10.9341   602
10.9441   592
10.9541   597
10.9641   605
10.9741   585
10.9841   598
10.9941   608
11.0041   581
11.0141   543
11.0241   539
11.0341   557
11.0441   543
11.0541   530
11.0641   523
11.0741   516
11.0841   541
11.0941   528
11.1041   524
11.1141   545
11.1241   534
11.1341   523
11.1441   531
11.1541   565
11.1641   583
11.1741   600
11.1841   649
11.1941   654
11.2041   677
11.2141   657
11.2241   719
11.2341   750
11.2441   755
11.2541   807
11.2641   821
11.2741   780
11.2841   791
11.2941   787
11.3041   813
11.3141   775
11.3241   725
11.3341   716
11.3441   684
11.3541   640
11.3641   613
11.3741   594
11.3841   542
11.3941   542
11.4041   524
11.4141   472
11.4241   455
11.4341   441
11.4441   432
11.4541   412
11.4641   442
11.4741   437
11.4841   412
11.4941   410
11.5041   412
11.5141   410
11.5241   418
11.5341   426
11.5441   417
11.5541   389
11.5641   408
11.5741   407
11.5841   435
11.5941   448
11.6041   441
11.6141   453
11.6241   452
11.6341   437
11.6441   436
11.6541   423
11.6641   413
11.6741   426
11.6841   411
11.6941   398
11.7041   382
11.7141   357
11.7241   372
11.7341   353
11.7441   350
11.7541   356
11.7641   352
11.7741   325
11.7841   337
11.7941   340
11.8041   331
11.8141   327
11.8241   315
11.8341   305
11.8441   317
11.8541   318
11.8641   325
11.8741   318
11.8841   304
11.8941   292
11.9041   298
11.9141   302
11.9241   293
11.9341   316
11.9441   313
11.9541   319
11.9641   324
11.9741   325
11.9841   325
11.9941   319
12.0041   315
12.0141   296
12.0241   325
12.0341   345
12.0441   321
12.0541   303
12.0641   307
12.0741   324
12.0841   333
12.0941   322
12.1041   327
12.1141   329
12.1241   324
12.1341   305
12.1441   295
12.1541   317
12.1641   321
12.1741   320
12.1841   317
12.1941   287
12.2041   294
12.2141   322
12.2241   312
12.2341   312
12.2441   334
12.2541   318
12.2641   313
12.2741   306
12.2841   312
12.2941   331
12.3041   329
12.3141   321
12.3241   322
12.3341   309
12.3441   318
12.3541   321
12.3641   318
12.3741   313
12.3841   316
12.3941   316
12.4041   324
12.4141   324
12.4241   308
12.4341   300
12.4441   308
12.4541   309
12.4641   319
12.4741   335
12.4841   319
12.4941   317
12.5041   311
12.5141   322
12.5241   312
12.5341   313
12.5441   338
12.5541   337
12.5641   341
12.5741   327
12.5841   323
12.5941   336
12.6041   328
12.6141   329
12.6241   349
12.6341   331
12.6441   329
12.6541   349
12.6641   354
12.6741   357
12.6841   345
12.6941   328
12.7041   339
12.7141   335
12.7241   352
12.7341   354
12.7441   359
12.7541   341
12.7641   317
12.7741   316
12.7841   319
12.7941   334
12.8041   346
12.8141   341
12.8241   337
12.8341   354
12.8441   346
12.8541   353
12.8641   363
12.8741   342
12.8841   344
12.8941   348
12.9041   329
12.9141   341
12.9241   328
12.9341   336
12.9441   349
12.9541   333
12.9641   360
12.9741   369
12.9841   357
12.9941   354
13.0041   381
13.0141   392
13.0241   351
13.0341   362
13.0441   378
13.0541   358
13.0641   351
13.0741   342
13.0841   342
13.0941   354
13.1041   369
13.1141   358
13.1241   363
13.1341   353
13.1441   340
13.1541   343
13.1641   360
13.1741   374
13.1841   382
13.1941   393
13.2041   416
13.2141   405
13.2241   391
13.2341   421
13.2441   421
13.2541   412
13.2641   410
13.2741   417
13.2841   446
13.2941   476
13.3041   480
13.3141   471
13.3241   477
13.3341   508
13.3441   509
13.3541   485
13.3641   475
13.3741   498
13.3841   513
13.3941   496
13.4041   491
13.4141   489
13.4241   483
13.4341   490
13.4441   481
13.4541   447
13.4641   434
13.4741   455
13.4841   446
13.4941   438
13.5041   440
13.5141   438
13.5241   453
13.5341   452
13.5441   441
13.5541   414
13.5641   396
13.5741   415
13.5841   398
13.5941   397
13.6041   418
13.6141   404
13.6241   426
13.6341   425
13.6441   416
13.6541   423
13.6641   444
13.6741   457
13.6841   442
13.6941   420
13.7041   428
13.7141   444
13.7241   450
13.7341   441
13.7441   416
13.7541   427
13.7641   451
13.7741   471
13.7841   444
13.7941   426
13.8041   419
13.8141   410
13.8241   435
13.8341   446
13.8441   441
13.8541   439
13.8641   438
13.8741   467
13.8841   465
13.8941   448
13.9041   454
13.9141   441
13.9241   447
13.9341   466
13.9441   485
13.9541   503
13.9641   487
13.9741   477
13.9841   494
13.9941   504
14.0041   505
14.0141   510
14.0241   529
14.0341   536
14.0441   552
14.0541   572
14.0641   579
14.0741   577
14.0841   589
14.0941   600
14.1041   595
14.1141   587
14.1241   582
14.1341   592
14.1441   598
14.1541   607
14.1641   614
14.1741   608
14.1841   604
14.1941   583
14.2041   587
14.2141   607
14.2241   577
14.2341   566
14.2441   559
14.2541   560
14.2641   552
14.2741   529
14.2841   504
14.2941   501
14.3041   516
14.3141   516
14.3241   509
14.3341   504
14.3441   505
14.3541   477
14.3641   497
14.3741   514
14.3841   500
14.3941   515
14.4041   517
14.4141   498
14.4241   490
14.4341   479
14.4441   486
14.4541   517
14.4641   509
14.4741   478
14.4841   503
14.4941   518
14.5041   500
14.5141   496
14.5241   520
14.5341   535
14.5441   518
14.5541   523
14.5641   518
14.5741   510
14.5841   525
14.5941   556
14.6041   527
14.6141   512
14.6241   536
14.6341   542
14.6441   521
14.6541   515
14.6641   528
14.6741   524
14.6841   516
14.6941   498
14.7041   521
14.7141   536
14.7241   522
14.7341   537
14.7441   551
14.7541   550
14.7641   513
14.7741   503
14.7841   517
14.7941   510
14.8041   527
14.8141   533
14.8241   538
14.8341   538
14.8441   530
14.8541   537
14.8641   549
14.8741   547
14.8841   579
14.8941   576
14.9041   553
14.9141   565
14.9241   578
14.9341   565
14.9441   563
14.9541   561
14.9641   556
14.9741   564
14.9841   565
14.9941   558
15.0041   549
15.0141   558
15.0241   589
15.0341   597
15.0441   548
15.0541   566
15.0641   546
15.0741   541
15.0841   573
15.0941   578
15.1041   573
15.1141   585
15.1241   582
15.1341   578
15.1441   552
15.1541   550
15.1641   545
15.1741   559
15.1841   548
15.1941   573
15.2041   561
15.2141   535
15.2241   565
15.2341   573
15.2441   549
15.2541   544
15.2641   564
15.2741   551
15.2841   539
15.2941   566
15.3041   574
15.3141   594
15.3241   593
15.3341   600
15.3441   592
15.3541   578
15.3641   595
15.3741   591
15.3841   561
15.3941   576
15.4041   611
15.4141   623
15.4241   614
15.4341   588
15.4441   629
15.4541   618
15.4641   584
15.4741   564
15.4841   570
15.4941   575
15.5041   597
15.5141   628
15.5241   632
15.5341   617
15.5441   635
15.5541   623
15.5641   623
15.5741   642
15.5841   661
15.5941   658
15.6041   652
15.6141   711
15.6241   731
15.6341   733
15.6441   744
15.6541   763
15.6641   760
15.6741   784
15.6841   772
15.6941   797
15.7041   842
15.7141   864
15.7241   869
15.7341   870
15.7441   869
15.7541   928
15.7641   889
15.7741   887
15.7841   856
15.7941   872
15.8041   886
15.8141   857
15.8241   818
15.8341   812
15.8441   812
15.8541   780
15.8641   795
15.8741   797
15.8841   763
15.8941   726
15.9041   690
15.9141   700
15.9241   688
15.9341   686
15.9441   691
15.9541   654
15.9641   656
15.9741   663
15.9841   688
15.9941   690
16.0041   678
16.0141   626
16.0241   642
16.0341   655
16.0441   621
16.0541   637
16.0641   659
16.0741   691
16.0841   667
16.0941   674
16.1041   655
16.1141   667
16.1241   669
16.1341   699
16.1441   704
16.1541   691
16.1641   660
16.1741   659
16.1841   669
16.1941   688
16.2041   686
16.2141   677
16.2241   684
16.2341   720
16.2441   679
16.2541   713
16.2641   695
16.2741   670
16.2841   687
16.2941   680
16.3041   692
16.3141   664
16.3241   677
16.3341   688
16.3441   663
16.3541   686
16.3641   707
16.3741   673
16.3841   677
16.3941   695
16.4041   723
16.4141   703
16.4241   709
16.4341   743
16.4441   735
16.4541   712
16.4641   724
16.4741   684
16.4841   716
16.4941   738
16.5041   738
16.5141   720
16.5241   716
16.5341   736
16.5441   704
16.5541   745
16.5641   741
16.5741   729
16.5841   680
16.5941   713
16.6041   738
16.6141   741
16.6241   748
16.6341   750
16.6441   722
16.6541   742
16.6641   732
16.6741   720
16.6841   737
16.6941   781
16.7041   780
16.7141   743
16.7241   710
16.7341   730
16.7441   733
16.7541   771
16.7641   792
16.7741   790
16.7841   720
16.7941   713
16.8041   753
16.8141   752
16.8241   751
16.8341   752
16.8441   765
16.8541   753
16.8641   782
16.8741   774
16.8841   771
16.8941   815
16.9041   742
16.9141   759
16.9241   799
16.9341   761
16.9441   771
16.9541   757
16.9641   760
16.9741   804
16.9841   774
16.9941   754
17.0041   765
17.0141   777
17.0241   765
17.0341   786
17.0441   797
17.0541   794
17.0641   780
17.0741   789
17.0841   744
17.0941   787
17.1041   761
17.1141   768
17.1241   785
17.1341   753
17.1441   764
17.1541   785
17.1641   771
17.1741   760
17.1841   782
17.1941   787
17.2041   779
17.2141   800
17.2241   803
17.2341   797
17.2441   787
17.2541   794
17.2641   851
17.2741   854
17.2841   810
17.2941   810
17.3041   797
17.3141   816
17.3241   837
17.3341   800
17.3441   821
17.3541   819
17.3641   825
17.3741   796
17.3841   793
17.3941   784
17.4041   782
17.4141   820
17.4241   815
17.4341   771
17.4441   821
17.4541   835
17.4641   884
17.4741   814
17.4841   809
17.4941   866
17.5041   854
17.5141   823
17.5241   852
17.5341   884
17.5441   894
17.5541   886
17.5641   872
17.5741   880
17.5841   888
17.5941   870
17.6041   860
17.6141   869
17.6241   885
17.6341   884
17.6441   853
17.6541   865
17.6641   867
17.6741   846
17.6841   927
17.6941   885
17.7041   875
17.7141   938
17.7241   878
17.7341   877
17.7441   874
17.7541   905
17.7641   877
17.7741   850
17.7841   875
17.7941   844
17.8041   855
17.8141   901
17.8241   904
17.8341   857
17.8441   865
17.8541   873
17.8641   884
17.8741   905
17.8841   900
17.8941   871
17.9041   872
17.9141   848
17.9241   902
17.9341   892
17.9441   877
17.9541   897
17.9641   894
17.9741   887
17.9841   905
17.9941   898
18.0041   894
18.0141   894
18.0241   891
18.0341   908
18.0441   904
18.0541   892
18.0641   892
18.0741   911
18.0841   910
18.0941   861
18.1041   916
18.1141   927
18.1241   897
18.1341   933
18.1441   922
18.1541   936
18.1641   939
18.1741   901
18.1841   908
18.1941   884
18.2041   882
18.2141   897
18.2241   915
18.2341   908
18.2441   907
18.2541   948
18.2641   921
18.2741   893
18.2841   920
18.2941   898
18.3041   917
18.3141   935
18.3241   945
18.3341   950
18.3441   918
18.3541   950
18.3641   917
18.3741   938
18.3841   906
18.3941   899
18.4041   885
18.4141   933
18.4241   935
18.4341   933
18.4441   913
18.4541   913
18.4641   919
18.4741   926
18.4841   921
18.4941   979
18.5041   961
18.5141   936
18.5241   910
18.5341   900
18.5441   951
18.5541   963
18.5641   941
18.5741   937
18.5841   919
18.5941   946
18.6041   925
18.6141   969
18.6241   922
18.6341   940
18.6441   922
18.6541   918
18.6641   893
18.6741   910
18.6841   967
18.6941   933
18.7041   949
18.7141   944
18.7241   945
18.7341   946
18.7441   976
18.7541   936
18.7641   944
18.7741   964
18.7841   922
18.7941   935
18.8041   987
18.8141   952
18.8241   970
18.8341   965
18.8441   937
18.8541   939
18.8641   964
18.8741   943
18.8841   936
18.8941   962
18.9041  1016
18.9141  1011
18.9241   930
18.9341   951
18.9441  1024
18.9541   963
18.9641   945
18.9741   942
18.9841   999
18.9941   983
19.0041   998
19.0141   965
19.0241   976
19.0341   982
19.0441   968
19.0541   976
19.0641   933
19.0741   957
19.0841   968
19.0941  1009
19.1041   997
19.1141  1031
19.1241   995
19.1341   940
19.1441   979
19.1541   955
19.1641   980
19.1741   978
19.1841   964
19.1941   962
19.2041   927
19.2141   937
19.2241  1015
19.2341   957
19.2441   974
19.2541  1038
19.2641   983
19.2741  1023
19.2841  1004
19.2941   982
19.3041  1023
19.3141   947
19.3241   955
19.3341   958
19.3441   924
19.3541   979
19.3641   962
19.3741  1023
19.3841   913
19.3941   968
19.4041  1008
19.4141  1022
19.4241  1015
19.4341   962
19.4441   965
19.4541   967
19.4641  1005
19.4741  1026
19.4841  1055
19.4941   983
19.5041   975
19.5141  1009
19.5241  1002
19.5341  1005
19.5441   952
19.5541  1010
19.5641  1006
19.5741  1004
19.5841  1004
19.5941  1003
19.6041   995
19.6141  1040
19.6241  1022
19.6341   996
19.6441  1004
19.6541  1009
19.6641   961
19.6741   980
19.6841  1006
19.6941   970
19.7041   983
19.7141  1005
19.7241  1011
19.7341   996
19.7441   998
19.7541  1003
19.7641  1001
19.7741  1060
19.7841  1013
19.7941   993
19.8041  1063
19.8141  1027
19.8241  1021
19.8341  1043
19.8441  1050
19.8541  1014
19.8641  1028
19.8741  1004
19.8841  1008
19.8941  1012
19.9041  1036
19.9141  1002
19.9241  1015
19.9341   992
19.9441  1020
19.9541   980
19.9641  1000
19.9741  1067
19.9841   996
19.9941  1047
20.0041  1047
20.0141  1091
20.0241  1032
20.0341  1021
20.0441  1002
20.0541  1043
20.0641  1024
20.0741  1063
20.0841   996
20.0941  1054
20.1041  1033
20.1141  1049
20.1241  1053
20.1341  1008
20.1441  1013
20.1541  1011
20.1641  1032
20.1741  1035
20.1841  1022
20.1941  1044
20.2041  1033
20.2141  1010
20.2241  1045
20.2341  1004
20.2441  1013
20.2541  1051
20.2641  1024
20.2741  1059
20.2841  1048
20.2941  1054
20.3041  1003
20.3141  1035
20.3241  1046
20.3341  1042
20.3441  1028
20.3541  1079
20.3641  1058
20.3741  1079
20.3841  1052
20.3941   994
20.4041   955
20.4141  1000
20.4241  1091
20.4341  1040
20.4441  1015
20.4541   983
20.4641  1009
20.4741  1043
20.4841  1060
20.4941  1040
20.5041  1057
20.5141  1006
20.5241  1005
20.5341  1013
20.5441  1008
20.5541  1060
20.5641  1055
20.5741  1025
20.5841  1030
20.5941  1002
20.6041  1056
20.6141  1061
20.6241  1050
20.6341  1070
20.6441  1096
20.6541  1090
20.6641  1095
20.6741  1057
20.6841  1044
20.6941  1048
20.7041  1071
20.7141  1102
20.7241  1019
20.7341  1052
20.7441  1059
20.7541  1038
20.7641  1014
20.7741  1077
20.7841  1075
20.7941  1073
20.8041  1098
20.8141  1133
20.8241  1056
20.8341  1130
20.8441  1112
20.8541  1103
20.8641  1128
20.8741  1123
20.8841  1208
20.8941  1194
20.9041  1146
20.9141  1224
20.9241  1321
20.9341  1242
20.9441  1241
20.9541  1312
20.9641  1378
20.9741  1366
20.9841  1428
20.9941  1298
21.0041  1343
21.0141  1445
21.0241  1391
21.0341  1435
21.0441  1412
21.0541  1415
21.0641  1482
21.0741  1549
21.0841  1503
21.0941  1500
21.1041  1586
21.1141  1548
21.1241  1549
21.1341  1547
21.1441  1487
21.1541  1551
21.1641  1472
21.1741  1543
21.1841  1556
21.1941  1486
21.2041  1397
21.2141  1479
21.2241  1418
21.2341  1411
21.2441  1359
21.2541  1357
21.2641  1311
21.2741  1323
21.2841  1226
21.2941  1258
21.3041  1262
21.3141  1179
21.3241  1149
21.3341  1124
21.3441  1136
21.3541  1094
21.3641  1149
21.3741  1038
21.3841  1088
21.3941  1082
21.4041  1078
21.4141  1082
21.4241  1043
21.4341  1055
21.4441  1054
21.4541  1123
21.4641  1084
21.4741  1071
21.4841  1066
21.4941  1041
21.5041  1014
21.5141   983
21.5241  1043
21.5341  1094
21.5441  1040
21.5541  1025
21.5641  1059
21.5741  1042
21.5841  1051
21.5941  1071
21.6041  1038
21.6141  1006
21.6241  1035
21.6341   979
21.6441  1090
21.6541  1024
21.6641  1037
21.6741  1030
21.6841  1064
21.6941  1099
21.7041  1014
21.7141  1028
21.7241  1050
21.7341  1012
21.7441  1032
21.7541  1028
21.7641  1057
21.7741  1112
21.7841  1092
21.7941  1033
21.8041  1060
21.8141  1054
21.8241   996
21.8341  1080
21.8441  1020
21.8541  1037
21.8641  1057
21.8741  1055
21.8841  1032
21.8941  1066
21.9041  1074
21.9141  1127
21.9241  1063
21.9341  1036
21.9441  1008
21.9541  1054
21.9641  1069
21.9741  1049
21.9841  1046
21.9941  1029
22.0041  1096
22.0141  1070
22.0241  1013
22.0341  1029
22.0441  1063
22.0541  1058
22.0641  1057
22.0741  1054
22.0841  1037
22.0941  1104
22.1041  1107
22.1141  1012
22.1241  1035
22.1341  1003
22.1441  1082
22.1541  1038
22.1641  1048
22.1741  1034
22.1841  1059
22.1941  1077
22.2041   993
22.2141  1099
22.2241  1060
22.2341  1068
22.2441  1032
22.2541  1018
22.2641   978
22.2741  1012
22.2841  1045
22.2941  1064
22.3041  1079
22.3141  1016
22.3241  1062
22.3341  1044
22.3441   969
22.3541  1035
22.3641  1041
22.3741  1029
22.3841   992
22.3941  1088
22.4041  1028
22.4141   970
22.4241  1050
22.4341   989
22.4441  1103
22.4541   992
22.4641  1012
22.4741  1028
22.4841  1021
22.4941   987
22.5041  1045
22.5141  1086
22.5241   986
22.5341  1081
22.5441  1023
22.5541  1094
22.5641  1037
22.5741  1007
22.5841   966
22.5941  1026
22.6041  1017
22.6141  1004
22.6241   981
22.6341  1064
22.6441   987
22.6541  1025
22.6641  1004
22.6741   977
22.6841  1051
22.6941  1017
22.7041  1056
22.7141  1001
22.7241  1026
22.7341  1008
22.7441   994
22.7541  1047
22.7641  1057
22.7741  1018
22.7841   997
22.7941  1045
22.8041  1034
22.8141   993
22.8241  1056
22.8341   992
22.8441  1070
22.8541  1047
22.8641   999
22.8741  1013
22.8841  1045
22.8941  1035
22.9041  1044
22.9141   991
22.9241  1023
22.9341  1026
22.9441  1009
22.9541  1022
22.9641  1000
22.9741  1045
22.9841  1047
22.9941  1038
23.0041  1005
23.0141  1003
23.0241   983
23.0341   964
23.0441   961
23.0541   961
23.0641  1025
23.0741  1032
23.0841  1041
23.0941   990
23.1041   983
23.1141  1044
23.1241   977
23.1341  1057
23.1441   996
23.1541  1045
23.1641  1041
23.1741  1063
23.1841  1048
23.1941  1034
23.2041   982
23.2141   985
23.2241   934
23.2341   997
23.2441  1012
23.2541   990
23.2641  1037
23.2741  1041
23.2841   992
23.2941  1020
23.3041   952
23.3141   965
23.3241   965
23.3341   991
23.3441  1023
23.3541   973
23.3641  1005
23.3741   991
23.3841   971
23.3941   979
23.4041   955
23.4141   940
23.4241   965
23.4341   978
23.4441   969
23.4541   984
23.4641   970
23.4741   949
23.4841   985
23.4941  1025
23.5041   996
23.5141  1027
23.5241  1014
23.5341  1015
23.5441  1015
23.5541   990
23.5641  1000
23.5741  1014
23.5841  1018
23.5941   987
23.6041   963
23.6141  1061
23.6241  1001
23.6341  1034
23.6441  1000
23.6541  1080
23.6641  1000
23.6741  1063
23.6841  1024
23.6941  1046
23.7041  1090
23.7141  1049
23.7241  1025
23.7341  1031
23.7441  1092
23.7541  1086
23.7641  1109
23.7741  1072
23.7841  1069
23.7941  1046
23.8041  1060
23.8141  1067
23.8241  1085
23.8341  1114
23.8441  1032
23.8541  1037
23.8641  1022
23.8741  1019
23.8841  1090
23.8941  1010
23.9041  1020
23.9141  1003
23.9241  1042
23.9341  1050
23.9441   997
23.9541   946
23.9641   968
23.9741  1008
23.9841  1005
23.9941   991
24.0041   988
24.0141  1001
24.0241   996
24.0341  1003
24.0441   932
24.0541   942
24.0641   980
24.0741   959
24.0841   964
24.0941   969
24.1041   940
24.1141   998
24.1241  1006
24.1341   943
24.1441   934
24.1541   948
24.1641   958
24.1741   947
24.1841   950
24.1941   972
24.2041   999
24.2141   905
24.2241   915
24.2341   936
24.2441   943
24.2541   934
24.2641   983
24.2741   976
24.2841   986
24.2941   994
24.3041   967
24.3141   969
24.3241   945
24.3341   975
24.3441   961
24.3541   946
24.3641   892
24.3741   943
24.3841   928
24.3941   964
24.4041   928
24.4141   969
24.4241   965
24.4341   942
24.4441   930
24.4541   960
24.4641   917
24.4741   943
24.4841   917
24.4941   926
24.5041   943
24.5141   888
24.5241   945
24.5341   891
24.5441   870
24.5541   917
24.5641   934
24.5741   896
24.5841   947
24.5941   882
24.6041   896
24.6141   865
24.6241   919
24.6341   948
24.6441   898
24.6541   927
24.6641   859
24.6741   925
24.6841   930
24.6941   884
24.7041   917
24.7141   903
24.7241   916
24.7341   928
24.7441   900
24.7541   884
24.7641   927
24.7741   884
24.7841   904
24.7941   908
24.8041   884
24.8141   876
24.8241   926
24.8341   934
24.8441   902
24.8541   880
24.8641   889
24.8741   897
24.8841   890
24.8941   871
24.9041   922
24.9141   885
24.9241   861
24.9341   866
24.9441   898
24.9541   889
24.9641   871
24.9741   877
24.9841   857
24.9941   938
25.0041   931
25.0141   922
25.0241   903
25.0341   894
25.0441   926
25.0541   897
25.0641   903
25.0741   859
25.0841   942
25.0941   900
25.1041   935
25.1141   944
25.1241   874
25.1341   938
25.1441   880
25.1541   921
25.1641   932
25.1741   918
25.1841   909
25.1941   901
25.2041   908
25.2141   952
25.2241   874
25.2341   918
25.2441   891
25.2541   899
25.2641   911
25.2741   870
25.2841   863
25.2941   866
25.3041   869
25.3141   892
25.3241   855
25.3341   853
25.3441   867
25.3541   898
25.3641   970
25.3741   893
25.3841   859
25.3941   865
25.4041   886
25.4141   889
25.4241   916
25.4341   873
25.4441   889
25.4541   894
25.4641   851
25.4741   840
25.4841   892
25.4941   853
25.5041   860
25.5141   864
25.5241   879
25.5341   844
25.5441   843
25.5541   829
25.5641   822
25.5741   818
25.5841   832
25.5941   872
25.6041   868
25.6141   825
25.6241   849
25.6341   870
25.6441   872
25.6541   840
25.6641   885
25.6741   834
25.6841   870
25.6941   867
25.7041   897
25.7141   914
25.7241   898
25.7341   849
25.7441   851
25.7541   822
25.7641   842
25.7741   816
25.7841   794
25.7941   839
25.8041   836
25.8141   871
25.8241   809
25.8341   814
25.8441   803
25.8541   824
25.8641   852
25.8741   863
25.8841   804
25.8941   823
25.9041   802
25.9141   806
25.9241   833
25.9341   818
25.9441   803
25.9541   808
25.9641   845
25.9741   786
25.9841   768
25.9941   807
26.0041   805
26.0141   840
26.0241   767
26.0341   782
26.0441   859
26.0541   818
26.0641   798
26.0741   831
26.0841   823
26.0941   823
26.1041   828
26.1141   824
26.1241   841
26.1341   822
26.1441   815
26.1541   807
26.1641   795
26.1741   850
26.1841   829
26.1941   814
26.2041   803
26.2141   804
26.2241   878
26.2341   788
26.2441   820
26.2541   804
26.2641   784
26.2741   809
26.2841   813
26.2941   801
26.3041   813
26.3141   817
26.3241   818
26.3341   780
26.3441   761
26.3541   752
26.3641   796
26.3741   801
26.3841   771
26.3941   782
26.4041   778
26.4141   836
26.4241   816
26.4341   777
26.4441   751
26.4541   802
26.4641   800
26.4741   782
26.4841   789
26.4941   782
26.5041   768
26.5141   743
26.5241   734
26.5341   807
26.5441   772
26.5541   779
26.5641   789
26.5741   781
26.5841   787
26.5941   749
26.6041   810
26.6141   772
26.6241   737
26.6341   773
26.6441   779
26.6541   745
26.6641   728
26.6741   808
26.6841   763
26.6941   751
26.7041   765
26.7141   770
26.7241   769
26.7341   734
26.7441   717
26.7541   736
26.7641   730
26.7741   772
26.7841   766
26.7941   782
26.8041   766
26.8141   785
26.8241   779
26.8341   771
26.8441   739
26.8541   754
26.8641   797
26.8741   738
26.8841   774
26.8941   741
26.9041   744
26.9141   773
26.9241   704
26.9341   737
26.9441   737
26.9541   749
26.9641   718
26.9741   729
26.9841   747
26.9941   741
27.0041   698
27.0141   750
27.0241   732
27.0341   659
27.0441   701
27.0541   764
27.0641   705
27.0741   710
27.0841   732
27.0941   723
27.1041   746
27.1141   700
27.1241   739
27.1341   722
27.1441   728
27.1541   789
27.1641   745
27.1741   761
27.1841   721
27.1941   751
27.2041   714
27.2141   719
27.2241   727
27.2341   743
27.2441   682
27.2541   756
27.2641   760
27.2741   722
27.2841   716
27.2941   696
27.3041   708
27.3141   740
27.3241   709
27.3341   717
27.3441   698
27.3541   673
27.3641   687
27.3741   665
27.3841   702
27.3941   698
27.4041   711
27.4141   689
27.4241   683
27.4341   718
27.4441   725
27.4541   727
27.4641   744
27.4741   720
27.4841   709
27.4941   701
27.5041   707
27.5141   697
27.5241   690
27.5341   688
27.5441   706
27.5541   704
27.5641   684
27.5741   736
27.5841   716
27.5941   701
27.6041   672
27.6141   698
27.6241   670
27.6341   654
27.6441   670
27.6541   682
27.6641   701
27.6741   687
27.6841   688
27.6941   615
27.7041   673
27.7141   651
27.7241   668
27.7341   649
27.7441   636
27.7541   633
27.7641   646
27.7741   700
27.7841   704
27.7941   673
27.8041   670
27.8141   657
27.8241   649
27.8341   666
27.8441   703
27.8541   670
27.8641   657
27.8741   678
27.8841   657
27.8941   714
27.9041   627
27.9141   626
27.9241   693
27.9341   678
27.9441   635
27.9541   627
27.9641   674
27.9741   629
27.9841   654
27.9941   653
28.0041   690
28.0141   675
28.0241   644
28.0341   674
28.0441   665
28.0541   606
28.0641   634
28.0741   663
28.0841   640
28.0941   647
28.1041   629
28.1141   645
28.1241   660
28.1341   627
28.1441   630
28.1541   655
28.1641   636
28.1741   649
28.1841   641
28.1941   639
28.2041   657
28.2141   630
28.2241   642
28.2341   680
28.2441   657
28.2541   668
28.2641   614
28.2741   613
28.2841   649
28.2941   632
28.3041   613
28.3141   616
28.3241   597
28.3341   638
28.3441   643
28.3541   645
28.3641   608
28.3741   608
28.3841   644
28.3941   674
28.4041   599
28.4141   644
28.4241   604
28.4341   620
28.4441   660
28.4541   648
28.4641   646
28.4741   612
28.4841   670
28.4941   589
28.5041   621
28.5141   652
28.5241   617
28.5341   641
28.5441   618
28.5541   596
28.5641   601
28.5741   664
28.5841   584
28.5941   606
28.6041   598
28.6141   579
28.6241   608
28.6341   621
28.6441   613
28.6541   634
28.6641   631
28.6741   593
28.6841   568
28.6941   552
28.7041   592
28.7141   582
28.7241   605
28.7341   556
28.7441   591
28.7541   581
28.7641   598
28.7741   612
28.7841   608
28.7941   604
28.8041   616
28.8141   582
28.8241   600
28.8341   634
28.8441   621
28.8541   604
28.8641   574
28.8741   599
28.8841   613
28.8941   574
28.9041   599
28.9141   558
28.9241   591
28.9341   590
28.9441   602
28.9541   620
28.9641   571
28.9741   575
28.9841   566
28.9941   570
29.0041   568
29.0141   556
29.0241   543
29.0341   565
29.0441   593
29.0541   573
29.0641   560
29.0741   566
29.0841   575
29.0941   550
29.1041   573
29.1141   579
29.1241   573
29.1341   571
29.1441   543
29.1541   511
29.1641   571
29.1741   577
29.1841   585
29.1941   528
29.2041   512
29.2141   556
29.2241   585
29.2341   555
29.2441   591
29.2541   536
29.2641   532
29.2741   560
29.2841   566
29.2941   541
29.3041   554
29.3141   543
29.3241   499
29.3341   581
29.3441   529
29.3541   587
29.3641   579
29.3741   552
29.3841   570
29.3941   535
29.4041   525
29.4141   531
29.4241   531
29.4341   564
29.4441   552
29.4541   560
29.4641   525
29.4741   529
29.4841   538
29.4941   518
29.5041   546
29.5141   514
29.5241   520
29.5341   562
29.5441   534
29.5541   504
29.5641   521
29.5741   538
29.5841   508
29.5941   528
29.6041   553
29.6141   551
29.6241   536
29.6341   488
29.6441   509
29.6541   477
29.6641   510
29.6741   552
29.6841   496
29.6941   515
29.7041   522
29.7141   511
29.7241   523
29.7341   513
29.7441   542
29.7541   506
29.7641   522
29.7741   523
29.7841   554
29.7941   489
29.8041   479
29.8141   494
29.8241   545
29.8341   509
29.8441   509
29.8541   509
29.8641   499
29.8741   519
29.8841   504
29.8941   538
29.9041   479
29.9141   552
29.9241   531
29.9341   477
29.9441   459
29.9541   517
29.9641   506
29.9741   520
29.9841   525
29.9941   494
30.0041   493
30.0141   476
30.0241   460
30.0341   501
30.0441   489
30.0541   490
30.0641   497
30.0741   460
30.0841   529
30.0941   508
30.1041   527
30.1141   526
30.1241   478
30.1341   474
30.1441   480
30.1541   489
30.1641   494
30.1741   511
30.1841   493
30.1941   486
30.2041   485
30.2141   458
30.2241   477
30.2341   470
30.2441   444
30.2541   491
30.2641   467
30.2741   518
30.2841   443
30.2941   474
30.3041   482
30.3141   496
30.3241   461
30.3341   484
30.3441   501
30.3541   474
30.3641   444
30.3741   451
30.3841   519
30.3941   477
30.4041   453
30.4141   457
30.4241   469
30.4341   477
30.4441   461
30.4541   468
30.4641   490
30.4741   448
30.4841   447
30.4941   431
30.5041   460
30.5141   469
30.5241   431
30.5341   453
30.5441   439
30.5541   460
30.5641   464
30.5741   456
30.5841   493
30.5941   483
30.6041   503
30.6141   496
30.6241   458
30.6341   457
30.6441   459
30.6541   482
30.6641   409
30.6741   468
30.6841   442
30.6941   448
30.7041   471
30.7141   447
30.7241   457
30.7341   411
30.7441   446
30.7541   439
30.7641   444
30.7741   416
30.7841   438
30.7941   432
30.8041   432
30.8141   449
30.8241   476
30.8341   430
30.8441   422
30.8541   455
30.8641   440
30.8741   446
30.8841   436
30.8941   417
30.9041   435
30.9141   427
30.9241   406
30.9341   447
30.9441   405
30.9541   446
30.9641   438
30.9741   454
30.9841   457
30.9941   453
31.0041   449
31.0141   430
31.0241   436
31.0341   455
31.0441   427
31.0541   421
31.0641   460
31.0741   451
31.0841   422
31.0941   438
31.1041   446
31.1141   428
31.1241   423
31.1341   425
31.1441   419
31.1541   401
31.1641   407
31.1741   416
31.1841   403
31.1941   415
31.2041   381
31.2141   412
31.2241   438
31.2341   386
31.2441   444
31.2541   436
31.2641   401
31.2741   443
31.2841   431
31.2941   402
31.3041   452
31.3141   427
31.3241   409
31.3341   415
31.3441   412
31.3541   364
31.3641   405
31.3741   411
31.3841   419
31.3941   402
31.4041   429
31.4141   385
31.4241   426
31.4341   399
31.4441   397
31.4541   380
31.4641   409
31.4741   432
31.4841   399
31.4941   404
31.5041   392
31.5141   384
31.5241   414
31.5341   357
31.5441   378
31.5541   379
31.5641   383
31.5741   373
31.5841   380
31.5941   388
31.6041   448
31.6141   413
31.6241   370
31.6341   375
31.6441   398
31.6541   380
31.6641   376
31.6741   393
31.6841   395
31.6941   384
31.7041   393
31.7141   411
31.7241   418
31.7341   400
31.7441   394
31.7541   414
31.7641   362
31.7741   415
31.7841   400
31.7941   399
31.8041   399
31.8141   369
31.8241   386
31.8341   397
31.8441   384
31.8541   364
31.8641   404
31.8741   413
31.8841   371
31.8941   345
31.9041   374
31.9141   357
31.9241   396
31.9341   350
31.9441   394
31.9541   394
31.9641   364
31.9741   386
31.9841   341
31.9941   397
32.0041   359
32.0141   355
32.0241   389
32.0341   377
32.0441   385
32.0541   381
32.0641   376
32.0741   378
32.0841   358
32.0941   364
32.1041   377
32.1141   338
32.1241   367
32.1341   391
32.1441   345
32.1541   350
32.1641   358
32.1741   356
32.1841   347
32.1941   386
32.2041   368
32.2141   382
32.2241   362
32.2341   365
32.2441   348
32.2541   338
32.2641   345
32.2741   344
32.2841   374
32.2941   362
32.3041   346
32.3141   336
32.3241   329
32.3341   349
32.3441   334
32.3541   317
32.3641   358
32.3741   368
32.3841   373
32.3941   332
32.4041   348
32.4141   336
32.4241   340
32.4341   338
32.4441   355
32.4541   359
32.4641   341
32.4741   348
32.4841   344
32.4941   330
32.5041   299
32.5141   347
32.5241   332
32.5341   324
32.5441   339
32.5541   337
32.5641   337
32.5741   334
32.5841   332
32.5941   329
32.6041   287
32.6141   329
32.6241   330
32.6341   346
32.6441   325
32.6541   292
32.6641   316
32.6741   331
32.6841   361
32.6941   309
32.7041   309
32.7141   323
32.7241   368
32.7341   335
32.7441   322
32.7541   344
32.7641   329
32.7741   337
32.7841   311
32.7941   358
32.8041   350
32.8141   319
32.8241   309
32.8341   329
32.8441   336
32.8541   310
32.8641   328
32.8741   310
32.8841   322
32.8941   294
32.9041   288
32.9141   326
32.9241   307
32.9341   320
32.9441   310
32.9541   317
32.9641   328
32.9741   280
32.9841   303
32.9941   293
33.0041   326
33.0141   278
33.0241   310
33.0341   313
33.0441   291
33.0541   327
33.0641   319
33.0741   270
33.0841   296
33.0941   322
33.1041   296
33.1141   280
33.1241   289
33.1341   327
33.1441   273
33.1541   314
33.1641   327
33.1741   329
33.1841   310
33.1941   329
33.2041   306
33.2141   298
33.2241   276
33.2341   335
33.2441   275
33.2541   298
33.2641   270
33.2741   297
33.2841   313
33.2941   307
33.3041   291
33.3141   282
33.3241   302
33.3341   299
33.3441   285
33.3541   293
33.3641   316
33.3741   300
33.3841   308
33.3941   285
33.4041   287
33.4141   296
33.4241   271
33.4341   288
33.4441   267
33.4541   267
33.4641   275
33.4741   280
33.4841   278
33.4941   295
33.5041   294
33.5141   308
33.5241   298
33.5341   295
33.5441   278
33.5541   282
33.5641   277
33.5741   271
33.5841   274
33.5941   279
33.6041   295
33.6141   284
33.6241   288
33.6341   262
33.6441   240
33.6541   278
33.6641   274
33.6741   259
33.6841   242
33.6941   279
33.7041   263
33.7141   273
33.7241   272
33.7341   267
33.7441   269
33.7541   255
33.7641   268
33.7741   245
33.7841   279
33.7941   272
33.8041   299
33.8141   270
33.8241   285
33.8341   284
33.8441   255
33.8541   223
33.8641   266
33.8741   275
33.8841   261
33.8941   262
33.9041   254
33.9141   276
33.9241   262
33.9341   282
33.9441   269
33.9541   251
33.9641   261
33.9741   247
33.9841   256
33.9941   258
34.0041   238
34.0141   247
34.0241   257
34.0341   257
34.0441   232
34.0541   267
34.0641   254
34.0741   250
34.0841   269
34.0941   250
34.1041   256
34.1141   261
34.1241   267
34.1341   230
34.1441   233
34.1541   239
34.1641   253
34.1741   246
34.1841   282
34.1941   249
34.2041   222
34.2141   248
34.2241   253
34.2341   257
34.2441   255
34.2541   253
34.2641   244
34.2741   255
34.2841   243
34.2941   247
34.3041   236
34.3141   232
34.3241   251
34.3341   267
34.3441   227
34.3541   261
34.3641   257
34.3741   221
34.3841   234
34.3941   251
34.4041   273
34.4141   245
34.4241   219
34.4341   230
34.4441   242
34.4541   237
34.4641   238
34.4741   258
34.4841   218
34.4941   221
34.5041   224
34.5141   272
34.5241   257
34.5341   258
34.5441   222
34.5541   227
34.5641   245
34.5741   217
34.5841   209
34.5941   217
34.6041   218
34.6141   222
34.6241   247
34.6341   242
34.6441   241
34.6541   236
34.6641   213
34.6741   211
34.6841   229
34.6941   224
34.7041   219
34.7141   243
34.7241   227
34.7341   222
34.7441   220
34.7541   228
34.7641   225
34.7741   225
34.7841   219
34.7941   200
34.8041   192
34.8141   218
34.8241   203
34.8341   222
34.8441   216
34.8541   242
34.8641   232
34.8741   237
34.8841   232
34.8941   198
34.9041   218
34.9141   227
34.9241   232
34.9341   211
34.9441   213
34.9541   207
34.9641   240
34.9741   200
34.9841   223
34.9941   227
35.0041   226
35.0141   197
35.0241   221
35.0341   206
35.0441   203
35.0541   187
35.0641   209
35.0741   190
35.0841   182
35.0941   214
35.1041   214
35.1141   198
35.1241   205
35.1341   208
35.1441   202
35.1541   211
35.1641   216
35.1741   213
35.1841   189
35.1941   199
35.2041   178
35.2141   202
35.2241   217
35.2341   188
35.2441   180
35.2541   182
35.2641   207
35.2741   197
35.2841   204
35.2941   204
35.3041   215
35.3141   210
35.3241   215
35.3341   188
35.3441   200
35.3541   207
35.3641   209
35.3741   209
35.3841   196
35.3941   180
35.4041   178
35.4141   216
35.4241   203
35.4341   181
35.4441   200
35.4541   212
35.4641   180
35.4741   212
35.4841   212
35.4941   180
35.5041   187
35.5141   181
35.5241   213
35.5341   187
35.5441   177
35.5541   214
35.5641   210
35.5741   177
35.5841   176
35.5941   173
35.6041   187
35.6141   197
35.6241   201
35.6341   184
35.6441   196
35.6541   206
35.6641   174
35.6741   208
35.6841   201
35.6941   170
35.7041   171
35.7141   179
35.7241   186
35.7341   188
35.7441   188
35.7541   178
35.7641   167
35.7741   203
35.7841   182
35.7941   186
35.8041   189
35.8141   181
35.8241   164
35.8341   171
35.8441   177
35.8541   163
35.8641   192
35.8741   188
35.8841   185
35.8941   190
35.9041   192
35.9141   168
35.9241   173
35.9341   169
35.9441   147
35.9541   174
35.9641   193
35.9741   177
35.9841   169
35.9941   183
36.0041   177
36.0141   183
36.0241   157
36.0341   169
36.0441   165
36.0541   170
36.0641   176
36.0741   169
36.0841   165
36.0941   163
36.1041   169
36.1141   172
36.1241   164
36.1341   186
36.1441   199
36.1541   181
36.1641   167
36.1741   167
36.1841   177
36.1941   162
36.2041   173
36.2141   148
36.2241   169
36.2341   175
36.2441   157
36.2541   165
36.2641   159
36.2741   144
36.2841   179
36.2941   189
36.3041   168
36.3141   177
36.3241   153
36.3341   151
36.3441   160
36.3541   155
36.3641   165
36.3741   146
36.3841   149
36.3941   183
36.4041   171
36.4141   155
36.4241   157
36.4341   165
36.4441   173
36.4541   168
36.4641   160
36.4741   141
36.4841   156
36.4941   167
36.5041   159
36.5141   151
36.5241   153
36.5341   151
36.5441   154
36.5541   152
36.5641   123
36.5741   126
36.5841   130
36.5941   145
36.6041   144
36.6141   142
36.6241   146
36.6341   140
36.6441   146
36.6541   159
36.6641   135
36.6741   147
36.6841   158
36.6941   161
36.7041   160
36.7141   164
36.7241   165
36.7341   165
36.7441   153
36.7541   151
36.7641   144
36.7741   132
36.7841   145
36.7941   167
36.8041   142
36.8141   135
36.8241   133
36.8341   145
36.8441   153
36.8541   144
36.8641   157
36.8741   138
36.8841   142
36.8941   127
36.9041   156
36.9141   141
36.9241   138
36.9341   145
36.9441   124
36.9541   139
36.9641   149
36.9741   142
36.9841   144
36.9941   153
37.0041   154
37.0141   142
37.0241   121
37.0341   128
37.0441   136
37.0541   137
37.0641   117
37.0741   125
37.0841   137
37.0941   126
37.1041   140
37.1141   134
37.1241   135
37.1341   134
37.1441   117
37.1541   124
37.1641   132
37.1741   128
37.1841   122
37.1941   114
37.2041   115
37.2141   112
37.2241   126
37.2341   124
37.2441   141
37.2541   127
37.2641   133
37.2741   127
37.2841   132
37.2941   112
37.3041   138
37.3141   120
37.3241   145
37.3341   143
37.3441   126
37.3541   119
37.3641   116
37.3741   141
37.3841   135
37.3941   124
37.4041   123
37.4141   139
37.4241   102
37.4341   107
37.4441   103
37.4541   121
37.4641   129
37.4741   132
37.4841   127
37.4941   124
37.5041   118
37.5141   125
37.5241   137
37.5341   130
37.5441    94
37.5541   139
37.5641   126
37.5741   115
37.5841    98
37.5941   108
37.6041   129
37.6141   100
37.6241   105
37.6341   113
37.6441   102
37.6541   121
37.6641   140
37.6741   118
37.6841   112
37.6941   112
37.7041   124
37.7141   123
37.7241   105
37.7341   129
37.7441   128
37.7541   105
37.7641    95
37.7741   110
37.7841   114
37.7941   106
37.8041   107
37.8141   115
37.8241   113
37.8341   104
37.8441   118
37.8541   107
37.8641   134
37.8741   116
37.8841   115
37.8941    99
37.9041   101
37.9141   123
37.9241   109
37.9341    99
37.9441   111
37.9541   107
37.9641    95
37.9741   126
37.9841    90
37.9941    91
38.0041   107
38.0141   103
38.0241   103
38.0341   114
38.0441   110
38.0541   107
38.0641    93
38.0741   107
38.0841    90
38.0941   110
38.1041    92
38.1141   123
38.1241    98
38.1341    99
38.1441   108
38.1541   109
38.1641    89
38.1741    89
38.1841    93
38.1941   112
38.2041    89
38.2141    89
38.2241   100
38.2341    96
38.2441    93
38.2541   101
38.2641    81
38.2741   105
38.2841    93
38.2941   101
38.3041   127
38.3141   114
38.3241   105
38.3341    80
38.3441    88
38.3541    99
38.3641    91
38.3741    96
38.3841    82
38.3941    97
38.4041    91
38.4141   104
38.4241    91
38.4341    99
38.4441   100
38.4541    87
38.4641    98
38.4741    90
38.4841    93
38.4941    86
38.5041    81
38.5141    82
38.5241   113
38.5341    74
38.5441    89
38.5541    76
38.5641    77
38.5741    96
38.5841   104
38.5941    87
38.6041    99
38.6141    71
38.6241    74
38.6341    88
38.6441    78
38.6541    92
38.6641    90
38.6741    87
38.6841    89
38.6941    80
38.7041    88
38.7141    85
38.7241   101
38.7341    97
38.7441    74
38.7541    99
38.7641    71
38.7741    84
38.7841    95
38.7941    82
38.8041    75
38.8141    80
38.8241    93
38.8341    79
38.8441    72
38.8541    76
38.8641    82
38.8741    98
38.8841    96
38.8941    97
38.9041    74
38.9141    77
38.9241    94
38.9341    66
38.9441    88
38.9541    74
38.9641    91
38.9741    78
38.9841    74
38.9941    56
39.0041    77
39.0141    74
39.0241    83
39.0341    80
39.0441    94
39.0541    82
39.0641    58
39.0741    70
39.0841    88
39.0941    78
39.1041    70
39.1141    81
39.1241    81
39.1341    76
39.1441    67
39.1541    63
39.1641    82
39.1741    80
39.1841    72
39.1941    90
39.2041    88
39.2141    53
39.2241    73
39.2341    65
39.2441    64
39.2541    64
39.2641    78
39.2741    61
39.2841    64
39.2941    86
39.3041    74
39.3141    54
39.3241    73
39.3341    71
39.3441    55
39.3541    77
39.3641    74
39.3741    55
39.3841    67
39.3941    83
39.4041    76
39.4141    78
39.4241    74
39.4341    75
39.4441    57
39.4541    69
39.4641    61
39.4741    74
39.4841    54
39.4941    71
39.5041    62
39.5141    71
39.5241    61
39.5341    58
39.5441    59
39.5541    75
39.5641    72
39.5741    79
39.5841    52
39.5941    58
39.6041    61
39.6141    59
39.6241    70
39.6341    75
39.6441    72
39.6541    63
39.6641    76
39.6741    70
39.6841    65
39.6941    58
39.7041    69
39.7141    50
39.7241    56
39.7341    51
39.7441    46
39.7541    78
39.7641    63
39.7741    52
39.7841    62
39.7941    81
39.8041    69
39.8141    55
39.8241    51
39.8341    61
39.8441    66
39.8541    62
39.8641    51
39.8741    63
39.8841    56
39.8941    61
39.9041    52
39.9141    57
39.9241    55
39.9341    63
39.9441    69
39.9541    50
39.9641    50
39.9741    61
39.9841    58
39.9941    57
