Bruker Nano GmbH Berlin, Germany
Esprit 1.9

Date: 5/14/2021 3:49:58 PM
Real time: 15404
Life time: 14326
Pulse density: 104574


Detector type: XFlash 430
Window type: Custom type
Detector thickness: 0.45
Si dead layer:0.029

Calibration, lin.: 10
Calibration, abs.: -955.9
Mn FWHM: 137.05
Fano factor: 0.121
Channels: 4095

Energy Counts
-0.9559     0
-0.9459     0
-0.9359     0
-0.9259     0
-0.9159     0
-0.9059     0
-0.8959     0
-0.8859     0
-0.8759     0
-0.8659     0
-0.8559     0
-0.8459     0
-0.8359     0
-0.8259     0
-0.8159     0
-0.8059     0
-0.7959     0
-0.7859     0
-0.7759     0
-0.7659     0
-0.7559     0
-0.7459     0
-0.7359     0
-0.7259     0
-0.7159     0
-0.7059     0
-0.6959     0
-0.6859     0
-0.6759     0
-0.6659     0
-0.6559     0
-0.6459     0
-0.6359     0
-0.6259     0
-0.6159     0
-0.6059     0
-0.5959     0
-0.5859     0
-0.5759     0
-0.5659     0
-0.5559     0
-0.5459     0
-0.5359     0
-0.5259     0
-0.5159     0
-0.5059     0
-0.4959     0
-0.4859     0
-0.4759     0
-0.4659     0
-0.4559     0
-0.4459     0
-0.4359     0
-0.4259     0
-0.4159     0
-0.4059     0
-0.3959     0
-0.3859     0
-0.3759     0
-0.3659     0
-0.3559     0
-0.3459     0
-0.3359     0
-0.3259     0
-0.3159     0
-0.3059     0
-0.2959     0
-0.2859     0
-0.2759     0
-0.2659     0
-0.2559     0
-0.2459     0
-0.2359     0
-0.2259     0
-0.2159     0
-0.2059     0
-0.1959     0
-0.1859     0
-0.1759     0
-0.1659     0
-0.1559     0
-0.1459     0
-0.1359     0
-0.1259     1
-0.1159     3
-0.1059    16
-0.0959    47
-0.0859   163
-0.0759   580
-0.0659  1685
-0.0559  4221
-0.0459  9130
-0.0359 17031
-0.0259 26836
-0.0159 37618
-0.0059 43701
 0.0041 43599
 0.0141 38047
 0.0241 28208
 0.0341 18028
 0.0441  9933
 0.0541  4585
 0.0641  1788
 0.0741   656
 0.0841   191
 0.0941    56
 0.1041    13
 0.1141    10
 0.1241     7
 0.1341     8
 0.1441     0
 0.1541     8
 0.1641     0
 0.1741    14
 0.1841   133
 0.1941   251
 0.2041   229
 0.2141   225
 0.2241   254
 0.2341   257
 0.2441   268
 0.2541   247
 0.2641   248
 0.2741   262
 0.2841   233
 0.2941   233
 0.3041   230
 0.3141   252
 0.3241   238
 0.3341   228
 0.3441   247
 0.3541   242
 0.3641   215
 0.3741   231
 0.3841   222
 0.3941   199
 0.4041   210
 0.4141   217
 0.4241   198
 0.4341   223
 0.4441   219
 0.4541   202
 0.4641   184
 0.4741   207
 0.4841   208
 0.4941   228
 0.5041   210
 0.5141   190
 0.5241   213
 0.5341   210
 0.5441   217
 0.5541   211
 0.5641   197
 0.5741   180
 0.5841   173
 0.5941   173
 0.6041   193
 0.6141   188
 0.6241   175
 0.6341   189
 0.6441   187
 0.6541   194
 0.6641   184
 0.6741   187
 0.6841   192
 0.6941   184
 0.7041   187
 0.7141   182
 0.7241   174
 0.7341   184
 0.7441   174
 0.7541   166
 0.7641   174
 0.7741   172
 0.7841   184
 0.7941   170
 0.8041   171
 0.8141   188
 0.8241   177
 0.8341   182
 0.8441   193
 0.8541   171
 0.8641   154
 0.8741   162
 0.8841   155
 0.8941   142
 0.9041   159
 0.9141   163
 0.9241   159
 0.9341   172
 0.9441   175
 0.9541   175
 0.9641   173
 0.9741   173
 0.9841   158
 0.9941   169
 1.0041   162
 1.0141   166
 1.0241   171
 1.0341   142
 1.0441   151
 1.0541   151
 1.0641   152
 1.0741   167
 1.0841   145
 1.0941   158
 1.1041   164
 1.1141   154
 1.1241   160
 1.1341   150
 1.1441   157
 1.1541   154
 1.1641   142
 1.1741   168
 1.1841   142
 1.1941   150
 1.2041   151
 1.2141   136
 1.2241   148
 1.2341   137
 1.2441   155
 1.2541   164
 1.2641   150
 1.2741   147
 1.2841   138
 1.2941   135
 1.3041   144
 1.3141   140
 1.3241   140
 1.3341   136
 1.3441   143
 1.3541   145
 1.3641   139
 1.3741   152
 1.3841   147
 1.3941   147
 1.4041   141
 1.4141   132
 1.4241   134
 1.4341   133
 1.4441   152
 1.4541   133
 1.4641   143
 1.4741   138
 1.4841   132
 1.4941   151
 1.5041   149
 1.5141   139
 1.5241   141
 1.5341   135
 1.5441   127
 1.5541   143
 1.5641   135
 1.5741   147
 1.5841   151
 1.5941   146
 1.6041   131
 1.6141   135
 1.6241   145
 1.6341   135
 1.6441   135
 1.6541   166
 1.6641   190
 1.6741   248
 1.6841   292
 1.6941   372
 1.7041   432
 1.7141   487
 1.7241   577
 1.7341   565
 1.7441   587
 1.7541   606
 1.7641   530
 1.7741   471
 1.7841   374
 1.7941   333
 1.8041   266
 1.8141   242
 1.8241   185
 1.8341   164
 1.8441   159
 1.8541   165
 1.8641   172
 1.8741   152
 1.8841   143
 1.8941   172
 1.9041   153
 1.9141   160
 1.9241   135
 1.9341   137
 1.9441   164
 1.9541   164
 1.9641   148
 1.9741   166
 1.9841   166
 1.9941   178
 2.0041   172
 2.0141   154
 2.0241   153
 2.0341   177
 2.0441   164
 2.0541   161
 2.0641   153
 2.0741   135
 2.0841   114
 2.0941   129
 2.1041   134
 2.1141   143
 2.1241   153
 2.1341   126
 2.1441   113
 2.1541   127
 2.1641   127
 2.1741   121
 2.1841   130
 2.1941   133
 2.2041   135
 2.2141   141
 2.2241   131
 2.2341   130
 2.2441   117
 2.2541   127
 2.2641   130
 2.2741   118
 2.2841   112
 2.2941   134
 2.3041   113
 2.3141   123
 2.3241   120
 2.3341   108
 2.3441   149
 2.3541   131
 2.3641   114
 2.3741   109
 2.3841   129
 2.3941   111
 2.4041   116
 2.4141    99
 2.4241   125
 2.4341   122
 2.4441   121
 2.4541   120
 2.4641   111
 2.4741   106
 2.4841   133
 2.4941   125
 2.5041   105
 2.5141   115
 2.5241   109
 2.5341   108
 2.5441   102
 2.5541    97
 2.5641    99
 2.5741   107
 2.5841   102
 2.5941   122
 2.6041   106
 2.6141   101
 2.6241   106
 2.6341   106
 2.6441   107
 2.6541   103
 2.6641   110
 2.6741   107
 2.6841   102
 2.6941   108
 2.7041   112
 2.7141   105
 2.7241    95
 2.7341   101
 2.7441   102
 2.7541   101
 2.7641   103
 2.7741    99
 2.7841    93
 2.7941   104
 2.8041   108
 2.8141   107
 2.8241    89
 2.8341   109
 2.8441   108
 2.8541   110
 2.8641    91
 2.8741    95
 2.8841   107
 2.8941    74
 2.9041   114
 2.9141   101
 2.9241    93
 2.9341    97
 2.9441   124
 2.9541   110
 2.9641    94
 2.9741   118
 2.9841   102
 2.9941    80
 3.0041    94
 3.0141   110
 3.0241   101
 3.0341    81
 3.0441    97
 3.0541   100
 3.0641   101
 3.0741    91
 3.0841    77
 3.0941    99
 3.1041    86
 3.1141   101
 3.1241    79
 3.1341    83
 3.1441    93
 3.1541    89
 3.1641    93
 3.1741    88
 3.1841    75
 3.1941   112
 3.2041   100
 3.2141    96
 3.2241   106
 3.2341   120
 3.2441   148
 3.2541   170
 3.2641   165
 3.2741   198
 3.2841   201
 3.2941   245
 3.3041   246
 3.3141   247
 3.3241   246
 3.3341   223
 3.3441   210
 3.3541   205
 3.3641   188
 3.3741   155
 3.3841   142
 3.3941   108
 3.4041    92
 3.4141    86
 3.4241    90
 3.4341    83
 3.4441    75
 3.4541    74
 3.4641    72
 3.4741    84
 3.4841    80
 3.4941    79
 3.5041    97
 3.5141   107
 3.5241   121
 3.5341   122
 3.5441   133
 3.5541   134
 3.5641   190
 3.5741   204
 3.5841   237
 3.5941   310
 3.6041   419
 3.6141   574
 3.6241   697
 3.6341   876
 3.6441  1011
 3.6541  1205
 3.6641  1379
 3.6741  1480
 3.6841  1544
 3.6941  1537
 3.7041  1497
 3.7141  1379
 3.7241  1198
 3.7341   986
 3.7441   823
 3.7541   676
 3.7641   540
 3.7741   401
 3.7841   286
 3.7941   209
 3.8041   175
 3.8141   132
 3.8241   109
 3.8341    87
 3.8441    84
 3.8541    92
 3.8641    82
 3.8741    72
 3.8841    86
 3.8941   107
 3.9041   121
 3.9141    95
 3.9241   137
 3.9341   136
 3.9441   158
 3.9541   194
 3.9641   236
 3.9741   258
 3.9841   269
 3.9941   284
 4.0041   322
 4.0141   303
 4.0241   303
 4.0341   290
 4.0441   295
 4.0541   269
 4.0641   218
 4.0741   194
 4.0841   153
 4.0941   146
 4.1041   117
 4.1141   106
 4.1241    85
 4.1341   102
 4.1441    71
 4.1541    63
 4.1641    61
 4.1741    64
 4.1841    66
 4.1941    59
 4.2041    66
 4.2141    71
 4.2241    55
 4.2341    67
 4.2441    65
 4.2541    57
 4.2641    66
 4.2741    60
 4.2841    67
 4.2941    68
 4.3041    54
 4.3141    59
 4.3241    72
 4.3341    62
 4.3441    67
 4.3541    65
 4.3641    70
 4.3741    89
 4.3841    98
 4.3941    93
 4.4041   118
 4.4141   138
 4.4241   181
 4.4341   193
 4.4441   239
 4.4541   303
 4.4641   335
 4.4741   385
 4.4841   402
 4.4941   410
 4.5041   445
 4.5141   418
 4.5241   419
 4.5341   376
 4.5441   328
 4.5541   320
 4.5641   259
 4.5741   232
 4.5841   192
 4.5941   129
 4.6041   111
 4.6141   108
 4.6241    94
 4.6341    95
 4.6441    97
 4.6541    67
 4.6641    73
 4.6741    54
 4.6841    85
 4.6941    74
 4.7041    78
 4.7141    81
 4.7241    67
 4.7341    92
 4.7441    57
 4.7541    69
 4.7641    86
 4.7741    65
 4.7841    85
 4.7941    78
 4.8041    85
 4.8141    92
 4.8241    91
 4.8341    93
 4.8441   116
 4.8541   116
 4.8641   131
 4.8741   131
 4.8841   138
 4.8941   153
 4.9041   161
 4.9141   174
 4.9241   168
 4.9341   180
 4.9441   152
 4.9541   174
 4.9641   155
 4.9741   159
 4.9841   163
 4.9941   132
 5.0041   123
 5.0141   108
 5.0241   101
 5.0341    86
 5.0441    95
 5.0541    80
 5.0641    73
 5.0741    71
 5.0841    82
 5.0941    86
 5.1041    74
 5.1141    71
 5.1241    81
 5.1341    67
 5.1441    74
 5.1541    75
 5.1641    92
 5.1741    80
 5.1841    73
 5.1941    68
 5.2041    79
 5.2141    73
 5.2241    74
 5.2341    77
 5.2441    71
 5.2541    84
 5.2641    76
 5.2741    97
 5.2841    87
 5.2941    86
 5.3041    96
 5.3141    78
 5.3241    69
 5.3341    80
 5.3441    96
 5.3541    91
 5.3641    96
 5.3741   117
 5.3841   121
 5.3941   128
 5.4041   100
 5.4141   104
 5.4241   118
 5.4341   113
 5.4441   103
 5.4541    94
 5.4641    99
 5.4741   105
 5.4841    89
 5.4941    78
 5.5041    88
 5.5141    84
 5.5241   101
 5.5341    82
 5.5441    94
 5.5541    87
 5.5641    80
 5.5741    76
 5.5841    84
 5.5941    75
 5.6041    77
 5.6141    77
 5.6241    85
 5.6341    78
 5.6441    65
 5.6541    71
 5.6641    96
 5.6741    86
 5.6841    72
 5.6941    93
 5.7041    75
 5.7141    88
 5.7241    99
 5.7341    84
 5.7441    94
 5.7541    96
 5.7641   118
 5.7741   128
 5.7841   118
 5.7941   148
 5.8041   162
 5.8141   166
 5.8241   191
 5.8341   211
 5.8441   236
 5.8541   289
 5.8641   287
 5.8741   332
 5.8841   307
 5.8941   311
 5.9041   287
 5.9141   318
 5.9241   304
 5.9341   263
 5.9441   257
 5.9541   222
 5.9641   199
 5.9741   196
 5.9841   180
 5.9941   139
 6.0041   139
 6.0141   122
 6.0241   105
 6.0341   102
 6.0441   121
 6.0541   107
 6.0641   112
 6.0741   108
 6.0841   111
 6.0941   105
 6.1041   111
 6.1141   132
 6.1241   153
 6.1341   122
 6.1441   134
 6.1541   154
 6.1641   154
 6.1741   195
 6.1841   210
 6.1941   254
 6.2041   333
 6.2141   429
 6.2241   561
 6.2341   706
 6.2441  1031
 6.2541  1518
 6.2641  2109
 6.2741  2941
 6.2841  3840
 6.2941  5253
 6.3041  6758
 6.3141  8475
 6.3241 10549
 6.3341 12649
 6.3441 15005
 6.3541 17024
 6.3641 18892
 6.3741 20372
 6.3841 21578
 6.3941 22105
 6.4041 22070
 6.4141 21227
 6.4241 20353
 6.4341 18548
 6.4441 16337
 6.4541 14320
 6.4641 12080
 6.4741 10063
 6.4841  7913
 6.4941  6230
 6.5041  4654
 6.5141  3415
 6.5241  2566
 6.5341  1795
 6.5441  1218
 6.5541   857
 6.5641   635
 6.5741   445
 6.5841   353
 6.5941   252
 6.6041   199
 6.6141   151
 6.6241   168
 6.6341   156
 6.6441   175
 6.6541   146
 6.6641   144
 6.6741   146
 6.6841   131
 6.6941   125
 6.7041   132
 6.7141   149
 6.7241   164
 6.7341   148
 6.7441   145
 6.7541   137
 6.7641   138
 6.7741   148
 6.7841   148
 6.7941   177
 6.8041   161
 6.8141   174
 6.8241   182
 6.8341   184
 6.8441   215
 6.8541   212
 6.8641   273
 6.8741   258
 6.8841   314
 6.8941   406
 6.9041   424
 6.9141   576
 6.9241   710
 6.9341   833
 6.9441  1061
 6.9541  1315
 6.9641  1507
 6.9741  1890
 6.9841  2209
 6.9941  2543
 7.0041  2855
 7.0141  3233
 7.0241  3344
 7.0341  3667
 7.0441  3690
 7.0541  3790
 7.0641  3718
 7.0741  3685
 7.0841  3410
 7.0941  3084
 7.1041  2776
 7.1141  2505
 7.1241  2121
 7.1341  1757
 7.1441  1481
 7.1541  1196
 7.1641   913
 7.1741   802
 7.1841   584
 7.1941   461
 7.2041   353
 7.2141   290
 7.2241   256
 7.2341   234
 7.2441   199
 7.2541   166
 7.2641   154
 7.2741   176
 7.2841   158
 7.2941   162
 7.3041   159
 7.3141   200
 7.3241   177
 7.3341   204
 7.3441   209
 7.3541   214
 7.3641   199
 7.3741   203
 7.3841   196
 7.3941   222
 7.4041   219
 7.4141   254
 7.4241   224
 7.4341   224
 7.4441   239
 7.4541   206
 7.4641   215
 7.4741   217
 7.4841   218
 7.4941   212
 7.5041   205
 7.5141   218
 7.5241   213
 7.5341   183
 7.5441   166
 7.5541   172
 7.5641   155
 7.5741   154
 7.5841   161
 7.5941   164
 7.6041   150
 7.6141   146
 7.6241   125
 7.6341   145
 7.6441   166
 7.6541   152
 7.6641   158
 7.6741   172
 7.6841   176
 7.6941   156
 7.7041   181
 7.7141   164
 7.7241   170
 7.7341   181
 7.7441   187
 7.7541   194
 7.7641   183
 7.7741   198
 7.7841   184
 7.7941   196
 7.8041   203
 7.8141   200
 7.8241   208
 7.8341   206
 7.8441   228
 7.8541   215
 7.8641   187
 7.8741   226
 7.8841   266
 7.8941   242
 7.9041   261
 7.9141   284
 7.9241   301
 7.9341   296
 7.9441   310
 7.9541   367
 7.9641   372
 7.9741   403
 7.9841   439
 7.9941   454
 8.0041   456
 8.0141   536
 8.0241   554
 8.0341   559
 8.0441   597
 8.0541   638
 8.0641   716
 8.0741   813
 8.0841   772
 8.0941   863
 8.1041   857
 8.1141   955
 8.1241   990
 8.1341   948
 8.1441  1026
 8.1541   971
 8.1641  1064
 8.1741  1074
 8.1841  1054
 8.1941  1095
 8.2041  1011
 8.2141  1098
 8.2241  1136
 8.2341  1124
 8.2441  1166
 8.2541  1257
 8.2641  1281
 8.2741  1356
 8.2841  1363
 8.2941  1505
 8.3041  1592
 8.3141  1727
 8.3241  1922
 8.3341  2004
 8.3441  2216
 8.3541  2395
 8.3641  2519
 8.3741  2409
 8.3841  2561
 8.3941  2498
 8.4041  2381
 8.4141  2290
 8.4241  2200
 8.4341  1992
 8.4441  1872
 8.4541  1656
 8.4641  1583
 8.4741  1327
 8.4841  1171
 8.4941  1019
 8.5041   812
 8.5141   674
 8.5241   645
 8.5341   584
 8.5441   533
 8.5541   478
 8.5641   524
 8.5741   462
 8.5841   485
 8.5941   465
 8.6041   478
 8.6141   474
 8.6241   485
 8.6341   469
 8.6441   479
 8.6541   466
 8.6641   446
 8.6741   439
 8.6841   440
 8.6941   428
 8.7041   388
 8.7141   337
 8.7241   326
 8.7341   323
 8.7441   313
 8.7541   298
 8.7641   275
 8.7741   265
 8.7841   265
 8.7941   245
 8.8041   235
 8.8141   217
 8.8241   232
 8.8341   226
 8.8441   242
 8.8541   213
 8.8641   210
 8.8741   265
 8.8841   264
 8.8941   256
 8.9041   247
 8.9141   241
 8.9241   278
 8.9341   282
 8.9441   266
 8.9541   257
 8.9641   280
 8.9741   269
 8.9841   269
 8.9941   265
 9.0041   296
 9.0141   297
 9.0241   299
 9.0341   303
 9.0441   306
 9.0541   317
 9.0641   323
 9.0741   325
 9.0841   350
 9.0941   350
 9.1041   332
 9.1141   389
 9.1241   408
 9.1341   379
 9.1441   386
 9.1541   435
 9.1641   434
 9.1741   500
 9.1841   539
 9.1941   525
 9.2041   546
 9.2141   575
 9.2241   610
 9.2341   590
 9.2441   646
 9.2541   703
 9.2641   699
 9.2741   766
 9.2841   801
 9.2941   821
 9.3041   806
 9.3141   854
 9.3241   908
 9.3341   920
 9.3441   940
 9.3541   982
 9.3641  1028
 9.3741   967
 9.3841  1053
 9.3941  1084
 9.4041  1066
 9.4141  1070
 9.4241  1099
 9.4341  1081
 9.4441  1095
 9.4541  1132
 9.4641  1167
 9.4741  1213
 9.4841  1189
 9.4941  1199
 9.5041  1249
 9.5141  1273
 9.5241  1344
 9.5341  1332
 9.5441  1417
 9.5541  1460
 9.5641  1575
 9.5741  1651
 9.5841  1765
 9.5941  1849
 9.6041  1881
 9.6141  2050
 9.6241  2118
 9.6341  2160
 9.6441  2264
 9.6541  2289
 9.6641  2384
 9.6741  2310
 9.6841  2316
 9.6941  2187
 9.7041  2165
 9.7141  2028
 9.7241  1900
 9.7341  1765
 9.7441  1730
 9.7541  1531
 9.7641  1406
 9.7741  1300
 9.7841  1197
 9.7941  1120
 9.8041  1030
 9.8141  1005
 9.8241  1005
 9.8341   951
 9.8441   908
 9.8541   920
 9.8641   898
 9.8741   923
 9.8841   940
 9.8941   942
 9.9041   913
 9.9141   966
 9.9241  1007
 9.9341  1025
 9.9441  1023
 9.9541  1035
 9.9641  1004
 9.9741   994
 9.9841   922
 9.9941   898
10.0041   833
10.0141   765
10.0241   720
10.0341   644
10.0441   564
10.0541   540
10.0641   493
10.0741   430
10.0841   385
10.0941   352
10.1041   315
10.1141   287
10.1241   273
10.1341   249
10.1441   230
10.1541   234
10.1641   216
10.1741   194
10.1841   192
10.1941   192
10.2041   192
10.2141   188
10.2241   172
10.2341   184
10.2441   163
10.2541   152
10.2641   158
10.2741   147
10.2841   152
10.2941   147
10.3041   133
10.3141   135
10.3241   129
10.3341   144
10.3441   137
10.3541   142
10.3641   151
10.3741   129
10.3841   146
10.3941   113
10.4041   107
10.4141   136
10.4241   147
10.4341   145
10.4441   147
10.4541   145
10.4641   132
10.4741   156
10.4841   155
10.4941   160
10.5041   158
10.5141   167
10.5241   171
10.5341   154
10.5441   152
10.5541   159
10.5641   151
10.5741   171
10.5841   171
10.5941   160
10.6041   161
10.6141   164
10.6241   147
10.6341   161
10.6441   175
10.6541   170
10.6641   157
10.6741   139
10.6841   177
10.6941   181
10.7041   173
10.7141   157
10.7241   163
10.7341   189
10.7441   166
10.7541   164
10.7641   177
10.7741   195
10.7841   194
10.7941   181
10.8041   183
10.8141   198
10.8241   196
10.8341   209
10.8441   233
10.8541   229
10.8641   226
10.8741   233
10.8841   233
10.8941   230
10.9041   211
10.9141   230
10.9241   250
10.9341   239
10.9441   228
10.9541   234
10.9641   241
10.9741   231
10.9841   222
10.9941   220
11.0041   202
11.0141   200
11.0241   231
11.0341   237
11.0441   209
11.0541   217
11.0641   207
11.0741   199
11.0841   207
11.0941   207
11.1041   202
11.1141   215
11.1241   229
11.1341   213
11.1441   206
11.1541   239
11.1641   219
11.1741   231
11.1841   239
11.1941   262
11.2041   273
11.2141   283
11.2241   288
11.2341   283
11.2441   302
11.2541   312
11.2641   310
11.2741   318
11.2841   318
11.2941   310
11.3041   311
11.3141   298
11.3241   311
11.3341   308
11.3441   282
11.3541   275
11.3641   239
11.3741   232
11.3841   238
11.3941   223
11.4041   199
11.4141   186
11.4241   189
11.4341   191
11.4441   172
11.4541   164
11.4641   166
11.4741   150
11.4841   165
11.4941   167
11.5041   155
11.5141   166
11.5241   177
11.5341   159
11.5441   161
11.5541   162
11.5641   156
11.5741   155
11.5841   176
11.5941   207
11.6041   193
11.6141   175
11.6241   175
11.6341   190
11.6441   181
11.6541   171
11.6641   154
11.6741   153
11.6841   147
11.6941   150
11.7041   154
11.7141   151
11.7241   143
11.7341   150
11.7441   152
11.7541   132
11.7641   140
11.7741   136
11.7841   123
11.7941   125
11.8041   121
11.8141   134
11.8241   130
11.8341   113
11.8441   127
11.8541   129
11.8641   121
11.8741   119
11.8841   112
11.8941   110
11.9041   124
11.9141   120
11.9241   130
11.9341   117
11.9441   117
11.9541   127
11.9641   130
11.9741   127
11.9841   134
11.9941   140
12.0041   137
12.0141   130
12.0241   132
12.0341   133
12.0441   121
12.0541   132
12.0641   141
12.0741   136
12.0841   122
12.0941   130
12.1041   126
12.1141   119
12.1241   110
12.1341   112
12.1441   110
12.1541   111
12.1641   116
12.1741   123
12.1841   119
12.1941   109
12.2041   114
12.2141   121
12.2241   120
12.2341   112
12.2441   121
12.2541   119
12.2641   108
12.2741   115
12.2841   107
12.2941   113
12.3041   131
12.3141   132
12.3241   130
12.3341   123
12.3441   109
12.3541   119
12.3641   135
12.3741   128
12.3841   130
12.3941   134
12.4041   120
12.4141   117
12.4241   121
12.4341   111
12.4441   103
12.4541   113
12.4641   124
12.4741   118
12.4841   122
12.4941   107
12.5041   103
12.5141   119
12.5241   114
12.5341   129
12.5441   141
12.5541   130
12.5641   129
12.5741   126
12.5841   132
12.5941   140
12.6041   143
12.6141   140
12.6241   141
12.6341   138
12.6441   151
12.6541   159
12.6641   155
12.6741   148
12.6841   140
12.6941   140
12.7041   147
12.7141   150
12.7241   148
12.7341   146
12.7441   146
12.7541   147
12.7641   145
12.7741   142
12.7841   141
12.7941   145
12.8041   150
12.8141   145
12.8241   139
12.8341   139
12.8441   145
12.8541   149
12.8641   147
12.8741   146
12.8841   152
12.8941   153
12.9041   150
12.9141   149
12.9241   149
12.9341   151
12.9441   146
12.9541   137
12.9641   136
12.9741   140
12.9841   141
12.9941   152
13.0041   142
13.0141   137
13.0241   132
13.0341   151
13.0441   147
13.0541   129
13.0641   135
13.0741   141
13.0841   145
13.0941   152
13.1041   144
13.1141   138
13.1241   154
13.1341   159
13.1441   149
13.1541   152
13.1641   151
13.1741   158
13.1841   164
13.1941   168
13.2041   183
13.2141   199
13.2241   192
13.2341   188
13.2441   194
13.2541   204
13.2641   228
13.2741   238
13.2841   242
13.2941   253
13.3041   272
13.3141   264
13.3241   279
13.3341   303
13.3441   307
13.3541   318
13.3641   323
13.3741   314
13.3841   306
13.3941   304
13.4041   295
13.4141   292
13.4241   300
13.4341   304
13.4441   297
13.4541   280
13.4641   260
13.4741   249
13.4841   241
13.4941   226
13.5041   215
13.5141   215
13.5241   215
13.5341   207
13.5441   194
13.5541   183
13.5641   181
13.5741   183
13.5841   181
13.5941   174
13.6041   163
13.6141   160
13.6241   161
13.6341   147
13.6441   133
13.6541   149
13.6641   181
13.6741   169
13.6841   150
13.6941   162
13.7041   157
13.7141   151
13.7241   159
13.7341   166
13.7441   165
13.7541   165
13.7641   159
13.7741   154
13.7841   167
13.7941   163
13.8041   164
13.8141   163
13.8241   155
13.8341   158
13.8441   167
13.8541   179
13.8641   172
13.8741   173
13.8841   183
13.8941   178
13.9041   173
13.9141   181
13.9241   191
13.9341   201
13.9441   206
13.9541   208
13.9641   214
13.9741   223
13.9841   238
13.9941   257
14.0041   273
14.0141   283
14.0241   287
14.0341   296
14.0441   325
14.0541   356
14.0641   369
14.0741   374
14.0841   382
14.0941   390
14.1041   396
14.1141   406
14.1241   424
14.1341   436
14.1441   435
14.1541   433
14.1641   436
14.1741   433
14.1841   424
14.1941   425
14.2041   414
14.2141   378
14.2241   358
14.2341   351
14.2441   342
14.2541   325
14.2641   295
14.2741   293
14.2841   279
14.2941   253
14.3041   244
14.3141   238
14.3241   229
14.3341   221
14.3441   225
14.3541   217
14.3641   210
14.3741   197
14.3841   194
14.3941   196
14.4041   192
14.4141   202
14.4241   196
14.4341   188
14.4441   189
14.4541   178
14.4641   192
14.4741   212
14.4841   203
14.4941   200
14.5041   198
14.5141   196
14.5241   194
14.5341   189
14.5441   187
14.5541   191
14.5641   192
14.5741   206
14.5841   220
14.5941   207
14.6041   196
14.6141   200
14.6241   196
14.6341   205
14.6441   206
14.6541   200
14.6641   192
14.6741   185
14.6841   199
14.6941   197
14.7041   196
14.7141   199
14.7241   209
14.7341   214
14.7441   221
14.7541   214
14.7641   209
14.7741   224
14.7841   239
14.7941   253
14.8041   236
14.8141   206
14.8241   231
14.8341   255
14.8441   264
14.8541   246
14.8641   246
14.8741   250
14.8841   257
14.8941   261
14.9041   248
14.9141   251
14.9241   268
14.9341   278
14.9441   280
14.9541   271
14.9641   280
14.9741   285
14.9841   289
14.9941   296
15.0041   268
15.0141   256
15.0241   255
15.0341   245
15.0441   242
15.0541   247
15.0641   251
15.0741   244
15.0841   243
15.0941   256
15.1041   251
15.1141   246
15.1241   226
15.1341   203
15.1441   228
15.1541   245
15.1641   226
15.1741   211
15.1841   216
15.1941   241
15.2041   241
15.2141   230
15.2241   238
15.2341   223
15.2441   217
15.2541   236
15.2641   225
15.2741   225
15.2841   240
15.2941   239
15.3041   233
15.3141   222
15.3241   221
15.3341   213
15.3441   195
15.3541   199
15.3641   223
15.3741   224
15.3841   225
15.3941   232
15.4041   242
15.4141   237
15.4241   255
15.4341   246
15.4441   242
15.4541   245
15.4641   237
15.4741   252
15.4841   255
15.4941   257
15.5041   265
15.5141   251
15.5241   256
15.5341   261
15.5441   272
15.5541   283
15.5641   290
15.5741   290
15.5841   274
15.5941   293
15.6041   333
15.6141   330
15.6241   355
15.6341   356
15.6441   359
15.6541   403
15.6641   415
15.6741   416
15.6841   437
15.6941   443
15.7041   443
15.7141   449
15.7241   456
15.7341   467
15.7441   479
15.7541   519
15.7641   533
15.7741   483
15.7841   465
15.7941   479
15.8041   471
15.8141   477
15.8241   450
15.8341   441
15.8441   443
15.8541   425
15.8641   415
15.8741   412
15.8841   361
15.8941   361
15.9041   381
15.9141   346
15.9241   314
15.9341   317
15.9441   341
15.9541   334
15.9641   301
15.9741   296
15.9841   296
15.9941   295
16.0041   297
16.0141   294
16.0241   287
16.0341   288
16.0441   271
16.0541   289
16.0641   298
16.0741   292
16.0841   272
16.0941   261
16.1041   270
16.1141   265
16.1241   268
16.1341   266
16.1441   260
16.1541   266
16.1641   277
16.1741   284
16.1841   263
16.1941   262
16.2041   277
16.2141   283
16.2241   293
16.2341   280
16.2441   273
16.2541   266
16.2641   280
16.2741   287
16.2841   288
16.2941   284
16.3041   274
16.3141   276
16.3241   276
16.3341   269
16.3441   270
16.3541   282
16.3641   281
16.3741   270
16.3841   286
16.3941   282
16.4041   269
16.4141   280
16.4241   302
16.4341   306
16.4441   266
16.4541   280
16.4641   298
16.4741   293
16.4841   302
16.4941   307
16.5041   306
16.5141   312
16.5241   327
16.5341   299
16.5441   290
16.5541   303
16.5641   279
16.5741   300
16.5841   302
16.5941   294
16.6041   307
16.6141   284
16.6241   286
16.6341   288
16.6441   302
16.6541   318
16.6641   301
16.6741   302
16.6841   318
16.6941   310
16.7041   298
16.7141   296
16.7241   302
16.7341   301
16.7441   309
16.7541   305
16.7641   302
16.7741   315
16.7841   318
16.7941   305
16.8041   290
16.8141   312
16.8241   293
16.8341   302
16.8441   295
16.8541   310
16.8641   315
16.8741   324
16.8841   306
16.8941   321
16.9041   332
16.9141   312
16.9241   303
16.9341   308
16.9441   310
16.9541   290
16.9641   293
16.9741   300
16.9841   318
16.9941   323
17.0041   315
17.0141   303
17.0241   284
17.0341   328
17.0441   347
17.0541   339
17.0641   303
17.0741   331
17.0841   331
17.0941   321
17.1041   323
17.1141   331
17.1241   287
17.1341   298
17.1441   338
17.1541   349
17.1641   319
17.1741   318
17.1841   320
17.1941   329
17.2041   309
17.2141   307
17.2241   321
17.2341   340
17.2441   331
17.2541   322
17.2641   324
17.2741   336
17.2841   331
17.2941   341
17.3041   346
17.3141   354
17.3241   341
17.3341   335
17.3441   329
17.3541   329
17.3641   345
17.3741   364
17.3841   366
17.3941   338
17.4041   339
17.4141   344
17.4241   364
17.4341   338
17.4441   344
17.4541   353
17.4641   315
17.4741   341
17.4841   367
17.4941   345
17.5041   366
17.5141   383
17.5241   377
17.5341   374
17.5441   358
17.5541   350
17.5641   347
17.5741   354
17.5841   344
17.5941   394
17.6041   381
17.6141   393
17.6241   381
17.6341   365
17.6441   378
17.6541   432
17.6641   408
17.6741   389
17.6841   383
17.6941   374
17.7041   385
17.7141   401
17.7241   370
17.7341   365
17.7441   373
17.7541   377
17.7641   355
17.7741   370
17.7841   347
17.7941   369
17.8041   393
17.8141   331
17.8241   342
17.8341   347
17.8441   386
17.8541   410
17.8641   375
17.8741   336
17.8841   379
17.8941   366
17.9041   354
17.9141   367
17.9241   337
17.9341   374
17.9441   377
17.9541   362
17.9641   368
17.9741   380
17.9841   399
17.9941   364
18.0041   372
18.0141   404
18.0241   379
18.0341   355
18.0441   374
18.0541   355
18.0641   376
18.0741   350
18.0841   358
18.0941   379
18.1041   401
18.1141   378
18.1241   386
18.1341   355
18.1441   354
18.1541   355
18.1641   380
18.1741   365
18.1841   356
18.1941   384
18.2041   409
18.2141   372
18.2241   370
18.2341   381
18.2441   393
18.2541   373
18.2641   366
18.2741   365
18.2841   351
18.2941   357
18.3041   360
18.3141   362
18.3241   376
18.3341   403
18.3441   380
18.3541   358
18.3641   353
18.3741   365
18.3841   381
18.3941   393
18.4041   376
18.4141   390
18.4241   384
18.4341   395
18.4441   377
18.4541   369
18.4641   373
18.4741   367
18.4841   386
18.4941   404
18.5041   418
18.5141   388
18.5241   383
18.5341   389
18.5441   379
18.5541   367
18.5641   389
18.5741   377
18.5841   393
18.5941   371
18.6041   406
18.6141   405
18.6241   405
18.6341   370
18.6441   361
18.6541   379
18.6641   378
18.6741   385
18.6841   372
18.6941   378
18.7041   390
18.7141   419
18.7241   407
18.7341   368
18.7441   404
18.7541   402
18.7641   394
18.7741   383
18.7841   372
18.7941   400
18.8041   374
18.8141   370
18.8241   389
18.8341   404
18.8441   395
18.8541   404
18.8641   422
18.8741   413
18.8841   408
18.8941   422
18.9041   413
18.9141   406
18.9241   391
18.9341   394
18.9441   407
18.9541   404
18.9641   408
18.9741   381
18.9841   441
18.9941   419
19.0041   393
19.0141   417
19.0241   440
19.0341   415
19.0441   430
19.0541   389
19.0641   405
19.0741   407
19.0841   425
19.0941   402
19.1041   405
19.1141   423
19.1241   401
19.1341   396
19.1441   408
19.1541   417
19.1641   414
19.1741   446
19.1841   423
19.1941   395
19.2041   420
19.2141   387
19.2241   413
19.2341   455
19.2441   378
19.2541   374
19.2641   387
19.2741   424
19.2841   444
19.2941   412
19.3041   408
19.3141   446
19.3241   427
19.3341   431
19.3441   438
19.3541   436
19.3641   414
19.3741   394
19.3841   425
19.3941   419
19.4041   433
19.4141   433
19.4241   441
19.4341   430
19.4441   420
19.4541   451
19.4641   444
19.4741   426
19.4841   421
19.4941   416
19.5041   428
19.5141   426
19.5241   424
19.5341   441
19.5441   389
19.5541   428
19.5641   420
19.5741   422
19.5841   412
19.5941   424
19.6041   444
19.6141   413
19.6241   441
19.6341   453
19.6441   388
19.6541   419
19.6641   471
19.6741   466
19.6841   454
19.6941   439
19.7041   431
19.7141   416
19.7241   446
19.7341   449
19.7441   453
19.7541   402
19.7641   396
19.7741   427
19.7841   399
19.7941   412
19.8041   443
19.8141   462
19.8241   436
19.8341   421
19.8441   431
19.8541   423
19.8641   430
19.8741   429
19.8841   399
19.8941   438
19.9041   439
19.9141   458
19.9241   410
19.9341   417
19.9441   437
19.9541   427
19.9641   399
19.9741   469
19.9841   428
19.9941   457
20.0041   424
20.0141   424
20.0241   449
20.0341   420
20.0441   398
20.0541   419
20.0641   428
20.0741   455
20.0841   458
20.0941   477
20.1041   415
20.1141   412
20.1241   417
20.1341   448
20.1441   442
20.1541   437
20.1641   423
20.1741   417
20.1841   435
20.1941   430
20.2041   408
20.2141   418
20.2241   448
20.2341   452
20.2441   462
20.2541   461
20.2641   435
20.2741   416
20.2841   413
20.2941   422
20.3041   456
20.3141   426
20.3241   433
20.3341   454
20.3441   425
20.3541   465
20.3641   465
20.3741   450
20.3841   444
20.3941   445
20.4041   398
20.4141   451
20.4241   476
20.4341   409
20.4441   438
20.4541   406
20.4641   451
20.4741   428
20.4841   445
20.4941   452
20.5041   429
20.5141   434
20.5241   434
20.5341   478
20.5441   423
20.5541   466
20.5641   464
20.5741   422
20.5841   471
20.5941   445
20.6041   450
20.6141   458
20.6241   457
20.6341   448
20.6441   440
20.6541   476
20.6641   448
20.6741   452
20.6841   429
20.6941   439
20.7041   448
20.7141   437
20.7241   484
20.7341   472
20.7441   464
20.7541   446
20.7641   469
20.7741   445
20.7841   464
20.7941   468
20.8041   465
20.8141   474
20.8241   528
20.8341   474
20.8441   458
20.8541   477
20.8641   480
20.8741   473
20.8841   482
20.8941   505
20.9041   512
20.9141   523
20.9241   524
20.9341   546
20.9441   557
20.9541   561
20.9641   568
20.9741   577
20.9841   591
20.9941   570
21.0041   609
21.0141   631
21.0241   636
21.0341   653
21.0441   689
21.0541   675
21.0641   648
21.0741   670
21.0841   649
21.0941   652
21.1041   639
21.1141   685
21.1241   668
21.1341   695
21.1441   647
21.1541   646
21.1641   667
21.1741   649
21.1841   664
21.1941   662
21.2041   607
21.2141   604
21.2241   596
21.2341   614
21.2441   616
21.2541   593
21.2641   564
21.2741   608
21.2841   566
21.2941   549
21.3041   536
21.3141   527
21.3241   504
21.3341   533
21.3441   539
21.3541   506
21.3641   440
21.3741   524
21.3841   483
21.3941   482
21.4041   473
21.4141   498
21.4241   463
21.4341   457
21.4441   474
21.4541   452
21.4641   458
21.4741   463
21.4841   460
21.4941   474
21.5041   459
21.5141   461
21.5241   436
21.5341   453
21.5441   438
21.5541   456
21.5641   470
21.5741   447
21.5841   460
21.5941   435
21.6041   421
21.6141   451
21.6241   476
21.6341   457
21.6441   427
21.6541   461
21.6641   421
21.6741   443
21.6841   443
21.6941   464
21.7041   488
21.7141   453
21.7241   433
21.7341   493
21.7441   446
21.7541   459
21.7641   435
21.7741   453
21.7841   447
21.7941   429
21.8041   402
21.8141   460
21.8241   416
21.8341   452
21.8441   473
21.8541   475
21.8641   454
21.8741   452
21.8841   453
21.8941   451
21.9041   430
21.9141   431
21.9241   479
21.9341   458
21.9441   449
21.9541   423
21.9641   470
21.9741   431
21.9841   435
21.9941   460
22.0041   440
22.0141   446
22.0241   428
22.0341   467
22.0441   454
22.0541   426
22.0641   449
22.0741   455
22.0841   461
22.0941   445
22.1041   434
22.1141   423
22.1241   421
22.1341   438
22.1441   437
22.1541   475
22.1641   442
22.1741   484
22.1841   491
22.1941   487
22.2041   481
22.2141   450
22.2241   443
22.2341   455
22.2441   453
22.2541   473
22.2641   460
22.2741   484
22.2841   491
22.2941   457
22.3041   436
22.3141   433
22.3241   459
22.3341   442
22.3441   454
22.3541   460
22.3641   458
22.3741   440
22.3841   458
22.3941   485
22.4041   449
22.4141   463
22.4241   409
22.4341   454
22.4441   455
22.4541   463
22.4641   451
22.4741   438
22.4841   417
22.4941   454
22.5041   458
22.5141   473
22.5241   461
22.5341   457
22.5441   460
22.5541   464
22.5641   441
22.5741   449
22.5841   459
22.5941   436
22.6041   456
22.6141   432
22.6241   494
22.6341   440
22.6441   437
22.6541   439
22.6641   442
22.6741   473
22.6841   457
22.6941   454
22.7041   416
22.7141   469
22.7241   433
22.7341   454
22.7441   420
22.7541   414
22.7641   462
22.7741   434
22.7841   490
22.7941   445
22.8041   436
22.8141   433
22.8241   440
22.8341   453
22.8441   423
22.8541   448
22.8641   455
22.8741   425
22.8841   425
22.8941   468
22.9041   450
22.9141   433
22.9241   438
22.9341   448
22.9441   425
22.9541   457
22.9641   449
22.9741   457
22.9841   447
22.9941   442
23.0041   439
23.0141   463
23.0241   463
23.0341   422
23.0441   440
23.0541   485
23.0641   437
23.0741   449
23.0841   458
23.0941   417
23.1041   445
23.1141   432
23.1241   437
23.1341   456
23.1441   457
23.1541   476
23.1641   460
23.1741   449
23.1841   416
23.1941   431
23.2041   428
23.2141   433
23.2241   422
23.2341   450
23.2441   472
23.2541   479
23.2641   420
23.2741   430
23.2841   451
23.2941   426
23.3041   421
23.3141   415
23.3241   454
23.3341   441
23.3441   432
23.3541   455
23.3641   423
23.3741   446
23.3841   419
23.3941   446
23.4041   446
23.4141   426
23.4241   466
23.4341   428
23.4441   450
23.4541   423
23.4641   437
23.4741   447
23.4841   421
23.4941   443
23.5041   432
23.5141   443
23.5241   455
23.5341   442
23.5441   452
23.5541   439
23.5641   388
23.5741   409
23.5841   430
23.5941   434
23.6041   446
23.6141   465
23.6241   449
23.6341   445
23.6441   452
23.6541   458
23.6641   432
23.6741   462
23.6841   432
23.6941   481
23.7041   450
23.7141   464
23.7241   488
23.7341   497
23.7441   482
23.7541   463
23.7641   467
23.7741   446
23.7841   471
23.7941   424
23.8041   446
23.8141   407
23.8241   452
23.8341   460
23.8441   441
23.8541   462
23.8641   455
23.8741   450
23.8841   456
23.8941   454
23.9041   464
23.9141   444
23.9241   440
23.9341   458
23.9441   426
23.9541   439
23.9641   454
23.9741   437
23.9841   428
23.9941   424
24.0041   451
24.0141   435
24.0241   438
24.0341   414
24.0441   439
24.0541   414
24.0641   458
24.0741   404
24.0841   435
24.0941   454
24.1041   426
24.1141   404
24.1241   433
24.1341   434
24.1441   415
24.1541   443
24.1641   419
24.1741   422
24.1841   461
24.1941   431
24.2041   401
24.2141   427
24.2241   412
24.2341   408
24.2441   416
24.2541   409
24.2641   393
24.2741   399
24.2841   432
24.2941   419
24.3041   426
24.3141   400
24.3241   407
24.3341   458
24.3441   433
24.3541   437
24.3641   423
24.3741   412
24.3841   432
24.3941   415
24.4041   410
24.4141   437
24.4241   424
24.4341   431
24.4441   459
24.4541   425
24.4641   395
24.4741   411
24.4841   388
24.4941   429
24.5041   417
24.5141   404
24.5241   437
24.5341   395
24.5441   402
24.5541   397
24.5641   404
24.5741   411
24.5841   397
24.5941   414
24.6041   389
24.6141   404
24.6241   436
24.6341   406
24.6441   432
24.6541   430
24.6641   385
24.6741   399
24.6841   446
24.6941   433
24.7041   396
24.7141   378
24.7241   420
24.7341   402
24.7441   417
24.7541   442
24.7641   377
24.7741   360
24.7841   407
24.7941   387
24.8041   406
24.8141   406
24.8241   422
24.8341   412
24.8441   404
24.8541   381
24.8641   411
24.8741   445
24.8841   405
24.8941   413
24.9041   409
24.9141   420
24.9241   396
24.9341   399
24.9441   388
24.9541   358
24.9641   435
24.9741   401
24.9841   404
24.9941   409
25.0041   395
25.0141   382
25.0241   417
25.0341   414
25.0441   389
25.0541   352
25.0641   396
25.0741   412
25.0841   395
25.0941   371
25.1041   422
25.1141   443
25.1241   404
25.1341   418
25.1441   408
25.1541   412
25.1641   416
25.1741   407
25.1841   413
25.1941   406
25.2041   421
25.2141   395
25.2241   427
25.2341   378
25.2441   406
25.2541   393
25.2641   406
25.2741   398
25.2841   380
25.2941   383
25.3041   425
25.3141   423
25.3241   406
25.3341   412
25.3441   359
25.3541   363
25.3641   379
25.3741   416
25.3841   404
25.3941   424
25.4041   385
25.4141   405
25.4241   430
25.4341   385
25.4441   378
25.4541   366
25.4641   405
25.4741   408
25.4841   402
25.4941   373
25.5041   406
25.5141   382
25.5241   381
25.5341   392
25.5441   373
25.5541   403
25.5641   391
25.5741   414
25.5841   379
25.5941   371
25.6041   382
25.6141   376
25.6241   395
25.6341   359
25.6441   361
25.6541   348
25.6641   352
25.6741   397
25.6841   345
25.6941   352
25.7041   393
25.7141   397
25.7241   378
25.7341   388
25.7441   394
25.7541   379
25.7641   367
25.7741   367
25.7841   369
25.7941   361
25.8041   356
25.8141   375
25.8241   391
25.8341   379
25.8441   366
25.8541   330
25.8641   348
25.8741   350
25.8841   339
25.8941   363
25.9041   393
25.9141   362
25.9241   367
25.9341   378
25.9441   387
25.9541   392
25.9641   366
25.9741   397
25.9841   369
25.9941   352
26.0041   346
26.0141   362
26.0241   382
26.0341   359
26.0441   339
26.0541   391
26.0641   391
26.0741   341
26.0841   380
26.0941   342
26.1041   343
26.1141   341
26.1241   325
26.1341   371
26.1441   368
26.1541   394
26.1641   370
26.1741   371
26.1841   352
26.1941   343
26.2041   376
26.2141   350
26.2241   382
26.2341   412
26.2441   373
26.2541   347
26.2641   363
26.2741   360
26.2841   370
26.2941   350
26.3041   365
26.3141   348
26.3241   353
26.3341   365
26.3441   376
26.3541   337
26.3641   382
26.3741   357
26.3841   344
26.3941   323
26.4041   397
26.4141   332
26.4241   348
26.4341   357
26.4441   367
26.4541   353
26.4641   320
26.4741   369
26.4841   332
26.4941   331
26.5041   361
26.5141   365
26.5241   335
26.5341   338
26.5441   338
26.5541   345
26.5641   323
26.5741   351
26.5841   382
26.5941   341
26.6041   357
26.6141   341
26.6241   338
26.6341   375
26.6441   357
26.6541   343
26.6641   332
26.6741   362
26.6841   319
26.6941   338
26.7041   371
26.7141   348
26.7241   309
26.7341   356
26.7441   333
26.7541   355
26.7641   351
26.7741   314
26.7841   337
26.7941   298
26.8041   320
26.8141   375
26.8241   350
26.8341   316
26.8441   337
26.8541   327
26.8641   344
26.8741   329
26.8841   333
26.8941   350
26.9041   359
26.9141   316
26.9241   284
26.9341   317
26.9441   328
26.9541   355
26.9641   311
26.9741   305
26.9841   337
26.9941   343
27.0041   360
27.0141   336
27.0241   318
27.0341   346
27.0441   339
27.0541   325
27.0641   301
27.0741   335
27.0841   310
27.0941   336
27.1041   302
27.1141   333
27.1241   312
27.1341   332
27.1441   331
27.1541   344
27.1641   309
27.1741   343
27.1841   341
27.1941   322
27.2041   345
27.2141   306
27.2241   322
27.2341   343
27.2441   349
27.2541   326
27.2641   327
27.2741   315
27.2841   320
27.2941   291
27.3041   342
27.3141   335
27.3241   317
27.3341   327
27.3441   331
27.3541   320
27.3641   352
27.3741   330
27.3841   324
27.3941   347
27.4041   325
27.4141   318
27.4241   301
27.4341   328
27.4441   322
27.4541   349
27.4641   334
27.4741   328
27.4841   301
27.4941   314
27.5041   328
27.5141   293
27.5241   326
27.5341   315
27.5441   299
27.5541   303
27.5641   345
27.5741   317
27.5841   326
27.5941   317
27.6041   329
27.6141   339
27.6241   314
27.6341   295
27.6441   302
27.6541   298
27.6641   297
27.6741   280
27.6841   309
27.6941   301
27.7041   305
27.7141   303
27.7241   300
27.7341   286
27.7441   353
27.7541   316
27.7641   307
27.7741   293
27.7841   296
27.7941   291
27.8041   308
27.8141   299
27.8241   305
27.8341   322
27.8441   309
27.8541   302
27.8641   311
27.8741   298
27.8841   321
27.8941   284
27.9041   305
27.9141   292
27.9241   303
27.9341   300
27.9441   306
27.9541   298
27.9641   270
27.9741   290
27.9841   272
27.9941   309
28.0041   298
28.0141   287
28.0241   288
28.0341   295
28.0441   313
28.0541   269
28.0641   301
28.0741   297
28.0841   286
28.0941   265
28.1041   300
28.1141   293
28.1241   317
28.1341   303
28.1441   274
28.1541   279
28.1641   280
28.1741   286
28.1841   302
28.1941   296
28.2041   263
28.2141   265
28.2241   287
28.2341   287
28.2441   285
28.2541   283
28.2641   274
28.2741   249
28.2841   278
28.2941   294
28.3041   280
28.3141   271
28.3241   297
28.3341   291
28.3441   305
28.3541   243
28.3641   269
28.3741   287
28.3841   305
28.3941   296
28.4041   293
28.4141   282
28.4241   282
28.4341   280
28.4441   300
28.4541   286
28.4641   269
28.4741   272
28.4841   277
28.4941   259
28.5041   276
28.5141   290
28.5241   288
28.5341   303
28.5441   275
28.5541   286
28.5641   286
28.5741   273
28.5841   274
28.5941   255
28.6041   281
28.6141   272
28.6241   256
28.6341   240
28.6441   286
28.6541   261
28.6641   290
28.6741   275
28.6841   276
28.6941   258
28.7041   260
28.7141   284
28.7241   254
28.7341   270
28.7441   274
28.7541   264
28.7641   271
28.7741   255
28.7841   284
28.7941   246
28.8041   272
28.8141   263
28.8241   257
28.8341   264
28.8441   255
28.8541   253
28.8641   268
28.8741   256
28.8841   250
28.8941   252
28.9041   270
28.9141   246
28.9241   265
28.9341   251
28.9441   286
28.9541   280
28.9641   241
28.9741   259
28.9841   289
28.9941   306
29.0041   277
29.0141   260
29.0241   248
29.0341   247
29.0441   267
29.0541   262
29.0641   266
29.0741   251
29.0841   251
29.0941   265
29.1041   272
29.1141   269
29.1241   258
29.1341   270
29.1441   270
29.1541   265
29.1641   297
29.1741   238
29.1841   242
29.1941   260
29.2041   272
29.2141   270
29.2241   258
29.2341   255
29.2441   276
29.2541   282
29.2641   249
29.2741   233
29.2841   273
29.2941   291
29.3041   277
29.3141   239
29.3241   269
29.3341   263
29.3441   245
29.3541   231
29.3641   255
29.3741   254
29.3841   276
29.3941   228
29.4041   240
29.4141   246
29.4241   237
29.4341   234
29.4441   235
29.4541   228
29.4641   255
29.4741   237
29.4841   247
29.4941   246
29.5041   255
29.5141   230
29.5241   230
29.5341   231
29.5441   257
29.5541   263
29.5641   252
29.5741   260
29.5841   225
29.5941   252
29.6041   237
29.6141   242
29.6241   254
29.6341   242
29.6441   244
29.6541   235
29.6641   239
29.6741   238
29.6841   277
29.6941   238
29.7041   241
29.7141   231
29.7241   247
29.7341   257
29.7441   282
29.7541   266
29.7641   251
29.7741   240
29.7841   222
29.7941   232
29.8041   221
29.8141   236
29.8241   236
29.8341   204
29.8441   229
29.8541   207
29.8641   217
29.8741   209
29.8841   216
29.8941   234
29.9041   255
29.9141   233
29.9241   233
29.9341   236
29.9441   254
29.9541   228
29.9641   226
29.9741   242
29.9841   242
29.9941   237
30.0041   218
30.0141   235
30.0241   244
30.0341   231
30.0441   226
30.0541   230
30.0641   222
30.0741   249
30.0841   245
30.0941   217
30.1041   220
30.1141   202
30.1241   210
30.1341   232
30.1441   243
30.1541   239
30.1641   228
30.1741   237
30.1841   238
30.1941   211
30.2041   217
30.2141   225
30.2241   198
30.2341   241
30.2441   233
30.2541   203
30.2641   218
30.2741   224
30.2841   234
30.2941   199
30.3041   203
30.3141   206
30.3241   213
30.3341   208
30.3441   200
30.3541   208
30.3641   219
30.3741   210
30.3841   227
30.3941   207
30.4041   211
30.4141   191
30.4241   217
30.4341   202
30.4441   206
30.4541   214
30.4641   219
30.4741   210
30.4841   204
30.4941   191
30.5041   219
30.5141   214
30.5241   183
30.5341   205
30.5441   181
30.5541   220
30.5641   229
30.5741   224
30.5841   216
30.5941   229
30.6041   213
30.6141   203
30.6241   199
30.6341   229
30.6441   197
30.6541   189
30.6641   236
30.6741   223
30.6841   203
30.6941   184
30.7041   244
30.7141   210
30.7241   220
30.7341   208
30.7441   229
30.7541   239
30.7641   206
30.7741   189
30.7841   198
30.7941   210
30.8041   238
30.8141   215
30.8241   207
30.8341   197
30.8441   180
30.8541   202
30.8641   199
30.8741   210
30.8841   208
30.8941   197
30.9041   187
30.9141   194
30.9241   169
30.9341   194
30.9441   212
30.9541   201
30.9641   210
30.9741   199
30.9841   190
30.9941   223
31.0041   205
31.0141   193
31.0241   211
31.0341   207
31.0441   192
31.0541   172
31.0641   193
31.0741   204
31.0841   202
31.0941   193
31.1041   198
31.1141   198
31.1241   185
31.1341   193
31.1441   227
31.1541   189
31.1641   194
31.1741   181
31.1841   192
31.1941   191
31.2041   213
31.2141   196
31.2241   182
31.2341   189
31.2441   197
31.2541   194
31.2641   190
31.2741   180
31.2841   192
31.2941   187
31.3041   201
31.3141   176
31.3241   175
31.3341   191
31.3441   164
31.3541   197
31.3641   176
31.3741   175
31.3841   195
31.3941   188
31.4041   202
31.4141   199
31.4241   188
31.4341   190
31.4441   183
31.4541   190
31.4641   186
31.4741   183
31.4841   175
31.4941   198
31.5041   182
31.5141   200
31.5241   198
31.5341   169
31.5441   225
31.5541   190
31.5641   205
31.5741   164
31.5841   170
31.5941   194
31.6041   177
31.6141   169
31.6241   175
31.6341   171
31.6441   188
31.6541   186
31.6641   168
31.6741   179
31.6841   181
31.6941   188
31.7041   171
31.7141   164
31.7241   206
31.7341   166
31.7441   192
31.7541   193
31.7641   173
31.7741   163
31.7841   217
31.7941   182
31.8041   188
31.8141   199
31.8241   174
31.8341   178
31.8441   185
31.8541   179
31.8641   177
31.8741   197
31.8841   185
31.8941   171
31.9041   174
31.9141   182
31.9241   178
31.9341   162
31.9441   180
31.9541   186
31.9641   174
31.9741   171
31.9841   152
31.9941   186
32.0041   160
32.0141   161
32.0241   185
32.0341   160
32.0441   195
32.0541   180
32.0641   161
32.0741   160
32.0841   187
32.0941   173
32.1041   170
32.1141   179
32.1241   197
32.1341   191
32.1441   165
32.1541   176
32.1641   162
32.1741   197
32.1841   194
32.1941   203
32.2041   203
32.2141   196
32.2241   172
32.2341   166
32.2441   176
32.2541   177
32.2641   175
32.2741   159
32.2841   178
32.2941   162
32.3041   168
32.3141   180
32.3241   157
32.3341   181
32.3441   170
32.3541   158
32.3641   177
32.3741   168
32.3841   151
32.3941   154
32.4041   157
32.4141   148
32.4241   171
32.4341   143
32.4441   160
32.4541   126
32.4641   133
32.4741   131
32.4841   161
32.4941   148
32.5041   122
32.5141   152
32.5241   166
32.5341   139
32.5441   171
32.5541   161
32.5641   149
32.5741   163
32.5841   136
32.5941   171
32.6041   139
32.6141   153
32.6241   161
32.6341   162
32.6441   156
32.6541   163
32.6641   124
32.6741   141
32.6841   141
32.6941   158
32.7041   146
32.7141   153
32.7241   159
32.7341   129
32.7441   148
32.7541   140
32.7641   151
32.7741   140
32.7841   151
32.7941   135
32.8041   160
32.8141   136
32.8241   131
32.8341   128
32.8441   137
32.8541   155
32.8641   165
32.8741   139
32.8841   159
32.8941   144
32.9041   137
32.9141   140
32.9241   151
32.9341   124
32.9441   149
32.9541   141
32.9641   137
32.9741   140
32.9841   141
32.9941   136
33.0041   136
33.0141   136
33.0241   154
33.0341   149
33.0441   128
33.0541   117
33.0641   146
33.0741   150
33.0841   154
33.0941   148
33.1041   143
33.1141   127
33.1241   118
33.1341   135
33.1441   128
33.1541   119
33.1641   120
33.1741   144
33.1841   158
33.1941   140
33.2041   136
33.2141   154
33.2241   160
33.2341   142
33.2441   129
33.2541   132
33.2641   124
33.2741   121
33.2841   155
33.2941   131
33.3041   142
33.3141   134
33.3241   123
33.3341   151
33.3441   143
33.3541   141
33.3641   121
33.3741   128
33.3841   113
33.3941   120
33.4041   114
33.4141   124
33.4241   136
33.4341   138
33.4441   123
33.4541   142
33.4641   133
33.4741   124
33.4841   135
33.4941   128
33.5041   134
33.5141   148
33.5241   116
33.5341   132
33.5441   126
33.5541   128
33.5641   120
33.5741   118
33.5841   140
33.5941   137
33.6041   134
33.6141   138
33.6241   139
33.6341   125
33.6441   128
33.6541   147
33.6641   134
33.6741   114
33.6841   129
33.6941   122
33.7041   105
33.7141   119
33.7241   126
33.7341   128
33.7441   115
33.7541   120
33.7641   131
33.7741   138
33.7841   118
33.7941   115
33.8041   134
33.8141   133
33.8241   133
33.8341   128
33.8441   113
33.8541   128
33.8641   127
33.8741   117
33.8841   125
33.8941   114
33.9041   127
33.9141   113
33.9241   121
33.9341   119
33.9441   130
33.9541   127
33.9641   125
33.9741   103
33.9841   100
33.9941   125
34.0041   112
34.0141   104
34.0241    97
34.0341   125
34.0441   117
34.0541   129
34.0641   118
34.0741   116
34.0841   127
34.0941   118
34.1041   110
34.1141   117
34.1241   140
34.1341   108
34.1441   123
34.1541   127
34.1641   116
34.1741   114
34.1841   124
34.1941   116
34.2041   111
34.2141   113
34.2241   113
34.2341   109
34.2441   103
34.2541    96
34.2641   116
34.2741   104
34.2841   111
34.2941   110
34.3041   124
34.3141   124
34.3241   130
34.3341   102
34.3441    99
34.3541   114
34.3641   119
34.3741   110
34.3841   108
34.3941   107
34.4041   106
34.4141   116
34.4241   119
34.4341   119
34.4441   103
34.4541    98
34.4641   120
34.4741   106
34.4841   110
34.4941   100
34.5041   108
34.5141   118
34.5241   101
34.5341   103
34.5441   101
34.5541   115
34.5641   108
34.5741    96
34.5841    84
34.5941   102
34.6041    91
34.6141    89
34.6241   110
34.6341    92
34.6441   113
34.6541   103
34.6641   101
34.6741   109
34.6841    95
34.6941    89
34.7041    90
34.7141    89
34.7241    92
34.7341    86
34.7441   109
34.7541    93
34.7641    88
34.7741   110
34.7841   111
34.7941    95
34.8041    96
34.8141    95
34.8241    91
34.8341    87
34.8441    96
34.8541   111
34.8641    92
34.8741   101
34.8841   104
34.8941    99
34.9041    98
34.9141    99
34.9241    94
34.9341    75
34.9441   106
34.9541    97
34.9641    96
34.9741   102
34.9841    94
34.9941    94
35.0041    90
35.0141    89
35.0241   105
35.0341    86
35.0441    96
35.0541   107
35.0641    86
35.0741    87
35.0841    95
35.0941    84
35.1041    97
35.1141    90
35.1241    94
35.1341    79
35.1441    94
35.1541    93
35.1641    87
35.1741    86
35.1841   102
35.1941   108
35.2041    90
35.2141    96
35.2241   100
35.2341    79
35.2441    96
35.2541    97
35.2641    95
35.2741   105
35.2841   100
35.2941    94
35.3041   109
35.3141   108
35.3241    91
35.3341   101
35.3441    93
35.3541    79
35.3641    99
35.3741    89
35.3841    79
35.3941    79
35.4041    95
35.4141    74
35.4241    93
35.4341    88
35.4441    89
35.4541    93
35.4641    87
35.4741    86
35.4841    88
35.4941    68
35.5041   107
35.5141    78
35.5241   103
35.5341    69
35.5441    81
35.5541    80
35.5641    78
35.5741    86
35.5841    82
35.5941    91
35.6041    84
35.6141    84
35.6241    79
35.6341    83
35.6441    93
35.6541    83
35.6641    88
35.6741    80
35.6841    96
35.6941    89
35.7041    85
35.7141    79
35.7241    91
35.7341    78
35.7441    94
35.7541    88
35.7641    77
35.7741    82
35.7841    82
35.7941    83
35.8041    91
35.8141    80
35.8241    71
35.8341    71
35.8441    76
35.8541    89
35.8641    85
35.8741    85
35.8841    64
35.8941    89
35.9041    94
35.9141    87
35.9241    64
35.9341    94
35.9441    80
35.9541    75
35.9641    82
35.9741    81
35.9841    84
35.9941    91
36.0041    80
36.0141    87
36.0241    94
36.0341    70
36.0441    72
36.0541    76
36.0641    86
36.0741    72
36.0841    81
36.0941    87
36.1041    91
36.1141    96
36.1241    63
36.1341    77
36.1441    75
36.1541    76
36.1641    82
36.1741    79
36.1841    86
36.1941    64
36.2041    64
36.2141    83
36.2241    69
36.2341    83
36.2441    78
36.2541    67
36.2641    66
36.2741    79
36.2841    88
36.2941    66
36.3041    95
36.3141    92
36.3241    73
36.3341    80
36.3441    88
36.3541    80
36.3641    67
36.3741    81
36.3841    83
36.3941    76
36.4041    60
36.4141    76
36.4241    78
36.4341    62
36.4441    61
36.4541    71
36.4641    69
36.4741    73
36.4841    59
36.4941    65
36.5041    67
36.5141    86
36.5241    73
36.5341    75
36.5441    64
36.5541    76
36.5641    69
36.5741    72
36.5841    84
36.5941    67
36.6041    66
36.6141    67
36.6241    59
36.6341    67
36.6441    64
36.6541    64
36.6641    57
36.6741    67
36.6841    76
36.6941    81
36.7041    65
36.7141    64
36.7241    53
36.7341    60
36.7441    64
36.7541    63
36.7641    72
36.7741    55
36.7841    64
36.7941    45
36.8041    63
36.8141    62
36.8241    60
36.8341    51
36.8441    73
36.8541    59
36.8641    65
36.8741    58
36.8841    57
36.8941    68
36.9041    53
36.9141    70
36.9241    60
36.9341    62
36.9441    55
36.9541    57
36.9641    63
36.9741    53
36.9841    54
36.9941    61
37.0041    49
37.0141    63
37.0241    56
37.0341    46
37.0441    61
37.0541    60
37.0641    60
37.0741    63
37.0841    67
37.0941    52
37.1041    71
37.1141    53
37.1241    60
37.1341    65
37.1441    65
37.1541    70
37.1641    58
37.1741    64
37.1841    74
37.1941    74
37.2041    79
37.2141    68
37.2241    51
37.2341    52
37.2441    56
37.2541    66
37.2641    69
37.2741    66
37.2841    57
37.2941    58
37.3041    61
37.3141    62
37.3241    58
37.3341    64
37.3441    56
37.3541    40
37.3641    42
37.3741    57
37.3841    56
37.3941    43
37.4041    43
37.4141    54
37.4241    69
37.4341    46
37.4441    48
37.4541    44
37.4641    50
37.4741    46
37.4841    51
37.4941    56
37.5041    55
37.5141    52
37.5241    61
37.5341    49
37.5441    60
37.5541    59
37.5641    63
37.5741    58
37.5841    56
37.5941    49
37.6041    62
37.6141    68
37.6241    58
37.6341    40
37.6441    47
37.6541    58
37.6641    34
37.6741    63
37.6841    54
37.6941    44
37.7041    56
37.7141    51
37.7241    48
37.7341    53
37.7441    56
37.7541    59
37.7641    64
37.7741    55
37.7841    45
37.7941    57
37.8041    54
37.8141    54
37.8241    42
37.8341    60
37.8441    68
37.8541    56
37.8641    51
37.8741    56
37.8841    46
37.8941    51
37.9041    48
37.9141    59
37.9241    57
37.9341    45
37.9441    50
37.9541    46
37.9641    43
37.9741    56
37.9841    48
37.9941    34
38.0041    72
38.0141    52
38.0241    50
38.0341    50
38.0441    34
38.0541    50
38.0641    51
38.0741    44
38.0841    39
38.0941    53
38.1041    53
38.1141    43
38.1241    54
38.1341    35
38.1441    42
38.1541    43
38.1641    49
38.1741    43
38.1841    45
38.1941    40
38.2041    32
38.2141    36
38.2241    36
38.2341    42
38.2441    49
38.2541    35
38.2641    34
38.2741    39
38.2841    38
38.2941    41
38.3041    39
38.3141    51
38.3241    44
38.3341    50
38.3441    46
38.3541    50
38.3641    35
38.3741    48
38.3841    42
38.3941    44
38.4041    42
38.4141    40
38.4241    45
38.4341    43
38.4441    46
38.4541    53
38.4641    38
38.4741    47
38.4841    50
38.4941    46
38.5041    45
38.5141    41
38.5241    35
38.5341    43
38.5441    45
38.5541    35
38.5641    39
38.5741    45
38.5841    31
38.5941    42
38.6041    43
38.6141    53
38.6241    49
38.6341    44
38.6441    35
38.6541    50
38.6641    47
38.6741    51
38.6841    36
38.6941    39
38.7041    30
38.7141    41
38.7241    41
38.7341    33
38.7441    39
38.7541    40
38.7641    45
38.7741    39
38.7841    35
38.7941    45
38.8041    32
38.8141    37
38.8241    47
38.8341    32
38.8441    41
38.8541    37
38.8641    42
38.8741    40
38.8841    44
38.8941    26
38.9041    32
38.9141    39
38.9241    34
38.9341    32
38.9441    27
38.9541    31
38.9641    32
38.9741    35
38.9841    28
38.9941    36
39.0041    46
39.0141    38
39.0241    33
39.0341    36
39.0441    34
39.0541    39
39.0641    39
39.0741    35
39.0841    37
39.0941    44
39.1041    32
39.1141    34
39.1241    33
39.1341    40
39.1441    30
39.1541    32
39.1641    23
39.1741    36
39.1841    37
39.1941    31
39.2041    44
39.2141    30
39.2241    39
39.2341    24
39.2441    33
39.2541    26
39.2641    28
39.2741    35
39.2841    38
39.2941    36
39.3041    26
39.3141    26
39.3241    26
39.3341    29
39.3441    22
39.3541    28
39.3641    35
39.3741    29
39.3841    36
39.3941    27
39.4041    30
39.4141    33
39.4241    29
39.4341    33
39.4441    24
39.4541    29
39.4641    35
39.4741    28
39.4841    37
39.4941    36
39.5041    27
39.5141    29
39.5241    29
39.5341    29
39.5441    36
39.5541    36
39.5641    37
39.5741    29
39.5841    25
39.5941    34
39.6041    27
39.6141    39
39.6241    34
39.6341    39
39.6441    24
39.6541    32
39.6641    36
39.6741    27
39.6841    21
39.6941    17
39.7041    27
39.7141    18
39.7241    20
39.7341    29
39.7441    31
39.7541    25
39.7641    19
39.7741    32
39.7841    29
39.7941    23
39.8041    32
39.8141    27
39.8241    29
39.8341    30
39.8441    31
39.8541    42
39.8641    28
39.8741    20
39.8841    36
39.8941    40
39.9041    17
39.9141    19
39.9241    19
39.9341    24
39.9441    31
39.9541    24
39.9641    32
39.9741    28
39.9841    23
