Bruker Nano GmbH Berlin, Germany
Esprit 1.9

Date: 5/14/2021 3:56:15 PM
Real time: 13228
Life time: 12214
Pulse density: 114935


Detector type: XFlash 430
Window type: Custom type
Detector thickness: 0.45
Si dead layer:0.029

Calibration, lin.: 10
Calibration, abs.: -955.9
Mn FWHM: 137.05
Fano factor: 0.121
Channels: 4095

Energy Counts
-0.9559     0
-0.9459     0
-0.9359     0
-0.9259     0
-0.9159     0
-0.9059     0
-0.8959     0
-0.8859     0
-0.8759     0
-0.8659     0
-0.8559     0
-0.8459     0
-0.8359     0
-0.8259     0
-0.8159     0
-0.8059     0
-0.7959     0
-0.7859     0
-0.7759     0
-0.7659     0
-0.7559     0
-0.7459     0
-0.7359     0
-0.7259     0
-0.7159     0
-0.7059     0
-0.6959     0
-0.6859     0
-0.6759     0
-0.6659     0
-0.6559     0
-0.6459     0
-0.6359     0
-0.6259     0
-0.6159     0
-0.6059     0
-0.5959     0
-0.5859     0
-0.5759     0
-0.5659     0
-0.5559     0
-0.5459     0
-0.5359     0
-0.5259     0
-0.5159     0
-0.5059     0
-0.4959     0
-0.4859     0
-0.4759     0
-0.4659     0
-0.4559     0
-0.4459     0
-0.4359     0
-0.4259     0
-0.4159     0
-0.4059     0
-0.3959     0
-0.3859     0
-0.3759     0
-0.3659     0
-0.3559     0
-0.3459     0
-0.3359     0
-0.3259     0
-0.3159     0
-0.3059     0
-0.2959     0
-0.2859     0
-0.2759     0
-0.2659     0
-0.2559     0
-0.2459     0
-0.2359     0
-0.2259     0
-0.2159     0
-0.2059     0
-0.1959     0
-0.1859     0
-0.1759     0
-0.1659     0
-0.1559     0
-0.1459     0
-0.1359     0
-0.1259     0
-0.1159     5
-0.1059     6
-0.0959    37
-0.0859   143
-0.0759   479
-0.0659  1389
-0.0559  3561
-0.0459  7731
-0.0359 14633
-0.0259 23490
-0.0159 31948
-0.0059 37519
 0.0041 37288
 0.0141 32268
 0.0241 23540
 0.0341 15444
 0.0441  8268
 0.0541  3897
 0.0641  1525
 0.0741   575
 0.0841   198
 0.0941    41
 0.1041    15
 0.1141    10
 0.1241     7
 0.1341     3
 0.1441     6
 0.1541     6
 0.1641     0
 0.1741    21
 0.1841   112
 0.1941   202
 0.2041   193
 0.2141   201
 0.2241   207
 0.2341   200
 0.2441   188
 0.2541   198
 0.2641   204
 0.2741   185
 0.2841   208
 0.2941   184
 0.3041   182
 0.3141   170
 0.3241   180
 0.3341   198
 0.3441   171
 0.3541   190
 0.3641   198
 0.3741   165
 0.3841   158
 0.3941   176
 0.4041   163
 0.4141   170
 0.4241   168
 0.4341   170
 0.4441   177
 0.4541   162
 0.4641   161
 0.4741   184
 0.4841   159
 0.4941   170
 0.5041   154
 0.5141   165
 0.5241   162
 0.5341   163
 0.5441   164
 0.5541   160
 0.5641   148
 0.5741   167
 0.5841   159
 0.5941   153
 0.6041   155
 0.6141   163
 0.6241   150
 0.6341   131
 0.6441   129
 0.6541   133
 0.6641   142
 0.6741   142
 0.6841   133
 0.6941   140
 0.7041   150
 0.7141   149
 0.7241   152
 0.7341   156
 0.7441   157
 0.7541   133
 0.7641   127
 0.7741   141
 0.7841   140
 0.7941   142
 0.8041   140
 0.8141   134
 0.8241   130
 0.8341   134
 0.8441   137
 0.8541   131
 0.8641   125
 0.8741   155
 0.8841   145
 0.8941   141
 0.9041   134
 0.9141   122
 0.9241   115
 0.9341   124
 0.9441   128
 0.9541   126
 0.9641   116
 0.9741   112
 0.9841   108
 0.9941   125
 1.0041   122
 1.0141   138
 1.0241   143
 1.0341   119
 1.0441   117
 1.0541   116
 1.0641   103
 1.0741   126
 1.0841   118
 1.0941   109
 1.1041   124
 1.1141   119
 1.1241   106
 1.1341   126
 1.1441   106
 1.1541   114
 1.1641   106
 1.1741   121
 1.1841   114
 1.1941   103
 1.2041   125
 1.2141   109
 1.2241   127
 1.2341   110
 1.2441   115
 1.2541   128
 1.2641   124
 1.2741   107
 1.2841   126
 1.2941   109
 1.3041   112
 1.3141   119
 1.3241   105
 1.3341   113
 1.3441   122
 1.3541   124
 1.3641   104
 1.3741   102
 1.3841   119
 1.3941   145
 1.4041   102
 1.4141   110
 1.4241   108
 1.4341   127
 1.4441   117
 1.4541   125
 1.4641   106
 1.4741   114
 1.4841   123
 1.4941   122
 1.5041   119
 1.5141   105
 1.5241   104
 1.5341   105
 1.5441   114
 1.5541   112
 1.5641    99
 1.5741   109
 1.5841   119
 1.5941   125
 1.6041   110
 1.6141   104
 1.6241   112
 1.6341   118
 1.6441   124
 1.6541   137
 1.6641   173
 1.6741   225
 1.6841   261
 1.6941   303
 1.7041   338
 1.7141   393
 1.7241   455
 1.7341   494
 1.7441   477
 1.7541   470
 1.7641   413
 1.7741   376
 1.7841   313
 1.7941   252
 1.8041   245
 1.8141   179
 1.8241   162
 1.8341   136
 1.8441   136
 1.8541   135
 1.8641   106
 1.8741   127
 1.8841   135
 1.8941   129
 1.9041    89
 1.9141    98
 1.9241   120
 1.9341   107
 1.9441   108
 1.9541   120
 1.9641   110
 1.9741   134
 1.9841   146
 1.9941   137
 2.0041   143
 2.0141   125
 2.0241   137
 2.0341   135
 2.0441   112
 2.0541   134
 2.0641   115
 2.0741   107
 2.0841   111
 2.0941   103
 2.1041   108
 2.1141   105
 2.1241   109
 2.1341    94
 2.1441    86
 2.1541   114
 2.1641    84
 2.1741    87
 2.1841    99
 2.1941   100
 2.2041    97
 2.2141    92
 2.2241   105
 2.2341   101
 2.2441    86
 2.2541    99
 2.2641   102
 2.2741    88
 2.2841   100
 2.2941    96
 2.3041    95
 2.3141    80
 2.3241    75
 2.3341    87
 2.3441    83
 2.3541    92
 2.3641   105
 2.3741    94
 2.3841    84
 2.3941    96
 2.4041    91
 2.4141    78
 2.4241    98
 2.4341   102
 2.4441    82
 2.4541    83
 2.4641    81
 2.4741    91
 2.4841    89
 2.4941    80
 2.5041   100
 2.5141    88
 2.5241   102
 2.5341    72
 2.5441    88
 2.5541    87
 2.5641    83
 2.5741    80
 2.5841    67
 2.5941    89
 2.6041    84
 2.6141    68
 2.6241    74
 2.6341   106
 2.6441    60
 2.6541    68
 2.6641    67
 2.6741    75
 2.6841    75
 2.6941    69
 2.7041    78
 2.7141    88
 2.7241    90
 2.7341    75
 2.7441    74
 2.7541    81
 2.7641    85
 2.7741    83
 2.7841    77
 2.7941    89
 2.8041    82
 2.8141    73
 2.8241    96
 2.8341    91
 2.8441    78
 2.8541    80
 2.8641    67
 2.8741    89
 2.8841    70
 2.8941    77
 2.9041    61
 2.9141    70
 2.9241    86
 2.9341    79
 2.9441    69
 2.9541    75
 2.9641   107
 2.9741    70
 2.9841   100
 2.9941    63
 3.0041    75
 3.0141    85
 3.0241    66
 3.0341    64
 3.0441    83
 3.0541    70
 3.0641    60
 3.0741    65
 3.0841    83
 3.0941    74
 3.1041    67
 3.1141    80
 3.1241    76
 3.1341    55
 3.1441    71
 3.1541    84
 3.1641    66
 3.1741    68
 3.1841    60
 3.1941    70
 3.2041    89
 3.2141    79
 3.2241    83
 3.2341    94
 3.2441   105
 3.2541   105
 3.2641   114
 3.2741   152
 3.2841   161
 3.2941   191
 3.3041   173
 3.3141   172
 3.3241   180
 3.3341   163
 3.3441   139
 3.3541   132
 3.3641   140
 3.3741   104
 3.3841    91
 3.3941    87
 3.4041    79
 3.4141    59
 3.4241    69
 3.4341    56
 3.4441    51
 3.4541    55
 3.4641    58
 3.4741    62
 3.4841    52
 3.4941    68
 3.5041    64
 3.5141    77
 3.5241    74
 3.5341    80
 3.5441    91
 3.5541    79
 3.5641   102
 3.5741   123
 3.5841   135
 3.5941   174
 3.6041   208
 3.6141   282
 3.6241   331
 3.6341   391
 3.6441   466
 3.6541   574
 3.6641   630
 3.6741   632
 3.6841   692
 3.6941   702
 3.7041   671
 3.7141   576
 3.7241   565
 3.7341   467
 3.7441   393
 3.7541   321
 3.7641   236
 3.7741   179
 3.7841   152
 3.7941   141
 3.8041   101
 3.8141    74
 3.8241    82
 3.8341    58
 3.8441    58
 3.8541    58
 3.8641    47
 3.8741    52
 3.8841    61
 3.8941    51
 3.9041    71
 3.9141    71
 3.9241    69
 3.9341    62
 3.9441    72
 3.9541    90
 3.9641   104
 3.9741   118
 3.9841   137
 3.9941   142
 4.0041   128
 4.0141   124
 4.0241   122
 4.0341   130
 4.0441   133
 4.0541   110
 4.0641   107
 4.0741    89
 4.0841    72
 4.0941    77
 4.1041    65
 4.1141    61
 4.1241    59
 4.1341    53
 4.1441    56
 4.1541    47
 4.1641    48
 4.1741    48
 4.1841    54
 4.1941    50
 4.2041    57
 4.2141    50
 4.2241    46
 4.2341    58
 4.2441    49
 4.2541    39
 4.2641    49
 4.2741    43
 4.2841    38
 4.2941    42
 4.3041    45
 4.3141    59
 4.3241    54
 4.3341    52
 4.3441    66
 4.3541    58
 4.3641    62
 4.3741    55
 4.3841    94
 4.3941    90
 4.4041   115
 4.4141   152
 4.4241   186
 4.4341   240
 4.4441   279
 4.4541   305
 4.4641   377
 4.4741   442
 4.4841   489
 4.4941   497
 4.5041   468
 4.5141   466
 4.5241   498
 4.5341   422
 4.5441   434
 4.5541   365
 4.5641   311
 4.5741   261
 4.5841   233
 4.5941   196
 4.6041   147
 4.6141   104
 4.6241    89
 4.6341    68
 4.6441    92
 4.6541    82
 4.6641    75
 4.6741    45
 4.6841    48
 4.6941    58
 4.7041    68
 4.7141    71
 4.7241    67
 4.7341    52
 4.7441    60
 4.7541    48
 4.7641    65
 4.7741    57
 4.7841    63
 4.7941    66
 4.8041    70
 4.8141    67
 4.8241    73
 4.8341    81
 4.8441    87
 4.8541    94
 4.8641   104
 4.8741   115
 4.8841   123
 4.8941   132
 4.9041   143
 4.9141   165
 4.9241   171
 4.9341   154
 4.9441   169
 4.9541   166
 4.9641   143
 4.9741   152
 4.9841   109
 4.9941   111
 5.0041   113
 5.0141    91
 5.0241    84
 5.0341    76
 5.0441    85
 5.0541    68
 5.0641    85
 5.0741    53
 5.0841    59
 5.0941    55
 5.1041    46
 5.1141    61
 5.1241    67
 5.1341    63
 5.1441    64
 5.1541    63
 5.1641    75
 5.1741    65
 5.1841    82
 5.1941    52
 5.2041    75
 5.2141    75
 5.2241    63
 5.2341    70
 5.2441    61
 5.2541    54
 5.2641    47
 5.2741    66
 5.2841    62
 5.2941    66
 5.3041    82
 5.3141    75
 5.3241    92
 5.3341    74
 5.3441    84
 5.3541   106
 5.3641   100
 5.3741    95
 5.3841   100
 5.3941   120
 5.4041    98
 5.4141   110
 5.4241   121
 5.4341   102
 5.4441    91
 5.4541    92
 5.4641   102
 5.4741    94
 5.4841    86
 5.4941    73
 5.5041    65
 5.5141    77
 5.5241    73
 5.5341    74
 5.5441    60
 5.5541    85
 5.5641    72
 5.5741    67
 5.5841    62
 5.5941    76
 5.6041    72
 5.6141    78
 5.6241    65
 5.6341    69
 5.6441    82
 5.6541    86
 5.6641    75
 5.6741    75
 5.6841    59
 5.6941    86
 5.7041    81
 5.7141    78
 5.7241    77
 5.7341    87
 5.7441   104
 5.7541   127
 5.7641   118
 5.7741   168
 5.7841   178
 5.7941   237
 5.8041   279
 5.8141   330
 5.8241   406
 5.8341   493
 5.8441   579
 5.8541   583
 5.8641   675
 5.8741   713
 5.8841   726
 5.8941   735
 5.9041   716
 5.9141   705
 5.9241   647
 5.9341   590
 5.9441   548
 5.9541   471
 5.9641   424
 5.9741   342
 5.9841   276
 5.9941   250
 6.0041   191
 6.0141   162
 6.0241   149
 6.0341   142
 6.0441   131
 6.0541   120
 6.0641   107
 6.0741   104
 6.0841   121
 6.0941   113
 6.1041   109
 6.1141   113
 6.1241   128
 6.1341   151
 6.1441   148
 6.1541   169
 6.1641   148
 6.1741   195
 6.1841   211
 6.1941   256
 6.2041   340
 6.2141   434
 6.2241   638
 6.2341   893
 6.2441  1188
 6.2541  1700
 6.2641  2338
 6.2741  3184
 6.2841  4295
 6.2941  5841
 6.3041  7604
 6.3141  9398
 6.3241 11613
 6.3341 14063
 6.3441 16580
 6.3541 18960
 6.3641 20838
 6.3741 22928
 6.3841 24056
 6.3941 24607
 6.4041 24507
 6.4141 24223
 6.4241 22521
 6.4341 20632
 6.4441 18602
 6.4541 16096
 6.4641 13762
 6.4741 11128
 6.4841  8900
 6.4941  7023
 6.5041  5297
 6.5141  3958
 6.5241  2885
 6.5341  2081
 6.5441  1535
 6.5541   987
 6.5641   717
 6.5741   505
 6.5841   358
 6.5941   258
 6.6041   203
 6.6141   175
 6.6241   192
 6.6341   153
 6.6441   153
 6.6541   136
 6.6641   112
 6.6741   134
 6.6841   133
 6.6941   123
 6.7041   135
 6.7141   129
 6.7241   143
 6.7341   142
 6.7441   126
 6.7541   163
 6.7641   137
 6.7741   141
 6.7841   139
 6.7941   146
 6.8041   173
 6.8141   186
 6.8241   182
 6.8341   180
 6.8441   227
 6.8541   229
 6.8641   269
 6.8741   282
 6.8841   369
 6.8941   414
 6.9041   513
 6.9141   625
 6.9241   721
 6.9341   874
 6.9441  1135
 6.9541  1440
 6.9641  1756
 6.9741  2013
 6.9841  2491
 6.9941  2812
 7.0041  3157
 7.0141  3500
 7.0241  3749
 7.0341  4102
 7.0441  4133
 7.0541  4210
 7.0641  4247
 7.0741  4043
 7.0841  3780
 7.0941  3518
 7.1041  3050
 7.1141  2687
 7.1241  2323
 7.1341  1932
 7.1441  1568
 7.1541  1321
 7.1641  1000
 7.1741   793
 7.1841   610
 7.1941   479
 7.2041   384
 7.2141   260
 7.2241   260
 7.2341   206
 7.2441   166
 7.2541   171
 7.2641   176
 7.2741   156
 7.2841   108
 7.2941   136
 7.3041   161
 7.3141   147
 7.3241   147
 7.3341   153
 7.3441   174
 7.3541   183
 7.3641   205
 7.3741   183
 7.3841   210
 7.3941   209
 7.4041   232
 7.4141   211
 7.4241   208
 7.4341   204
 7.4441   194
 7.4541   215
 7.4641   212
 7.4741   192
 7.4841   215
 7.4941   196
 7.5041   197
 7.5141   176
 7.5241   178
 7.5341   158
 7.5441   152
 7.5541   152
 7.5641   155
 7.5741   129
 7.5841   136
 7.5941   138
 7.6041   124
 7.6141   149
 7.6241   133
 7.6341   148
 7.6441   138
 7.6541   123
 7.6641   119
 7.6741   137
 7.6841   147
 7.6941   134
 7.7041   149
 7.7141   141
 7.7241   154
 7.7341   156
 7.7441   158
 7.7541   176
 7.7641   143
 7.7741   178
 7.7841   163
 7.7941   183
 7.8041   166
 7.8141   166
 7.8241   171
 7.8341   177
 7.8441   186
 7.8541   197
 7.8641   222
 7.8741   197
 7.8841   227
 7.8941   211
 7.9041   242
 7.9141   247
 7.9241   246
 7.9341   276
 7.9441   269
 7.9541   308
 7.9641   318
 7.9741   340
 7.9841   343
 7.9941   368
 8.0041   429
 8.0141   471
 8.0241   497
 8.0341   536
 8.0441   614
 8.0541   579
 8.0641   620
 8.0741   646
 8.0841   710
 8.0941   712
 8.1041   787
 8.1141   809
 8.1241   838
 8.1341   836
 8.1441   885
 8.1541   857
 8.1641   923
 8.1741   878
 8.1841   952
 8.1941   960
 8.2041   914
 8.2141   963
 8.2241   949
 8.2341   975
 8.2441   995
 8.2541  1100
 8.2641  1117
 8.2741  1136
 8.2841  1235
 8.2941  1321
 8.3041  1422
 8.3141  1614
 8.3241  1692
 8.3341  1782
 8.3441  1966
 8.3541  2015
 8.3641  2066
 8.3741  2190
 8.3841  2238
 8.3941  2195
 8.4041  2258
 8.4141  2176
 8.4241  2007
 8.4341  1876
 8.4441  1749
 8.4541  1550
 8.4641  1356
 8.4741  1181
 8.4841  1034
 8.4941   866
 8.5041   738
 8.5141   662
 8.5241   559
 8.5341   482
 8.5441   400
 8.5541   380
 8.5641   372
 8.5741   348
 8.5841   339
 8.5941   332
 8.6041   356
 8.6141   325
 8.6241   361
 8.6341   365
 8.6441   351
 8.6541   346
 8.6641   340
 8.6741   314
 8.6841   323
 8.6941   314
 8.7041   270
 8.7141   281
 8.7241   265
 8.7341   257
 8.7441   217
 8.7541   227
 8.7641   241
 8.7741   234
 8.7841   225
 8.7941   218
 8.8041   210
 8.8141   190
 8.8241   217
 8.8341   201
 8.8441   213
 8.8541   218
 8.8641   218
 8.8741   210
 8.8841   204
 8.8941   237
 8.9041   214
 8.9141   218
 8.9241   219
 8.9341   211
 8.9441   223
 8.9541   225
 8.9641   211
 8.9741   218
 8.9841   255
 8.9941   256
 9.0041   246
 9.0141   253
 9.0241   237
 9.0341   266
 9.0441   261
 9.0541   276
 9.0641   257
 9.0741   284
 9.0841   280
 9.0941   298
 9.1041   310
 9.1141   332
 9.1241   341
 9.1341   378
 9.1441   366
 9.1541   386
 9.1641   417
 9.1741   421
 9.1841   443
 9.1941   498
 9.2041   505
 9.2141   510
 9.2241   544
 9.2341   559
 9.2441   596
 9.2541   623
 9.2641   685
 9.2741   660
 9.2841   717
 9.2941   742
 9.3041   788
 9.3141   804
 9.3241   825
 9.3341   858
 9.3441   856
 9.3541   845
 9.3641   902
 9.3741   906
 9.3841   918
 9.3941   937
 9.4041   945
 9.4141   979
 9.4241   966
 9.4341   987
 9.4441   967
 9.4541   999
 9.4641  1025
 9.4741   976
 9.4841  1036
 9.4941  1065
 9.5041  1075
 9.5141  1120
 9.5241  1162
 9.5341  1194
 9.5441  1224
 9.5541  1219
 9.5641  1329
 9.5741  1469
 9.5841  1543
 9.5941  1587
 9.6041  1720
 9.6141  1814
 9.6241  1901
 9.6341  1890
 9.6441  1964
 9.6541  1998
 9.6641  2046
 9.6741  2038
 9.6841  2019
 9.6941  1960
 9.7041  1826
 9.7141  1755
 9.7241  1646
 9.7341  1549
 9.7441  1459
 9.7541  1312
 9.7641  1240
 9.7741  1155
 9.7841  1049
 9.7941   952
 9.8041   934
 9.8141   863
 9.8241   832
 9.8341   814
 9.8441   782
 9.8541   778
 9.8641   789
 9.8741   815
 9.8841   811
 9.8941   811
 9.9041   826
 9.9141   851
 9.9241   830
 9.9341   834
 9.9441   893
 9.9541   893
 9.9641   860
 9.9741   799
 9.9841   789
 9.9941   854
10.0041   755
10.0141   645
10.0241   632
10.0341   564
10.0441   499
10.0541   476
10.0641   431
10.0741   367
10.0841   314
10.0941   294
10.1041   278
10.1141   250
10.1241   241
10.1341   226
10.1441   211
10.1541   177
10.1641   193
10.1741   175
10.1841   173
10.1941   167
10.2041   156
10.2141   141
10.2241   140
10.2341   139
10.2441   131
10.2541   126
10.2641   120
10.2741   120
10.2841   132
10.2941   116
10.3041   130
10.3141   131
10.3241   108
10.3341   108
10.3441   110
10.3541   111
10.3641   119
10.3741   120
10.3841   117
10.3941   107
10.4041   115
10.4141   123
10.4241   131
10.4341   138
10.4441   128
10.4541   130
10.4641   127
10.4741   118
10.4841   152
10.4941   138
10.5041   143
10.5141   151
10.5241   143
10.5341   149
10.5441   160
10.5541   144
10.5641   133
10.5741   147
10.5841   154
10.5941   147
10.6041   154
10.6141   149
10.6241   147
10.6341   152
10.6441   151
10.6541   153
10.6641   154
10.6741   141
10.6841   142
10.6941   154
10.7041   147
10.7141   160
10.7241   173
10.7341   171
10.7441   158
10.7541   172
10.7641   170
10.7741   173
10.7841   192
10.7941   193
10.8041   171
10.8141   191
10.8241   206
10.8341   207
10.8441   195
10.8541   201
10.8641   191
10.8741   201
10.8841   207
10.8941   219
10.9041   229
10.9141   233
10.9241   211
10.9341   208
10.9441   205
10.9541   212
10.9641   213
10.9741   194
10.9841   197
10.9941   195
11.0041   204
11.0141   211
11.0241   218
11.0341   210
11.0441   193
11.0541   181
11.0641   182
11.0741   186
11.0841   188
11.0941   190
11.1041   181
11.1141   176
11.1241   174
11.1341   198
11.1441   209
11.1541   219
11.1641   209
11.1741   211
11.1841   223
11.1941   223
11.2041   246
11.2141   245
11.2241   240
11.2341   272
11.2441   270
11.2541   282
11.2641   296
11.2741   295
11.2841   297
11.2941   295
11.3041   268
11.3141   276
11.3241   290
11.3341   269
11.3441   266
11.3541   253
11.3641   226
11.3741   222
11.3841   217
11.3941   186
11.4041   185
11.4141   184
11.4241   164
11.4341   170
11.4441   173
11.4541   166
11.4641   148
11.4741   143
11.4841   150
11.4941   153
11.5041   148
11.5141   150
11.5241   154
11.5341   154
11.5441   146
11.5541   153
11.5641   150
11.5741   156
11.5841   157
11.5941   153
11.6041   161
11.6141   154
11.6241   157
11.6341   165
11.6441   168
11.6541   165
11.6641   144
11.6741   150
11.6841   165
11.6941   165
11.7041   158
11.7141   149
11.7241   151
11.7341   135
11.7441   122
11.7541   123
11.7641   126
11.7741   129
11.7841   116
11.7941   118
11.8041   123
11.8141   124
11.8241   122
11.8341   126
11.8441   132
11.8541   135
11.8641   140
11.8741   116
11.8841   136
11.8941   142
11.9041   127
11.9141   135
11.9241   133
11.9341   144
11.9441   138
11.9541   140
11.9641   132
11.9741   122
11.9841   136
11.9941   141
12.0041   122
12.0141   110
12.0241   112
12.0341   123
12.0441   131
12.0541   137
12.0641   137
12.0741   132
12.0841   139
12.0941   124
12.1041   123
12.1141   117
12.1241   125
12.1341   122
12.1441   106
12.1541   103
12.1641   117
12.1741   120
12.1841   108
12.1941   109
12.2041   117
12.2141   127
12.2241   106
12.2341   107
12.2441   110
12.2541   118
12.2641   118
12.2741   115
12.2841   115
12.2941   117
12.3041   119
12.3141   115
12.3241   115
12.3341   109
12.3441   113
12.3541   115
12.3641   121
12.3741   117
12.3841   116
12.3941   121
12.4041   129
12.4141   121
12.4241   108
12.4341   117
12.4441   113
12.4541   110
12.4641   120
12.4741   119
12.4841   119
12.4941   113
12.5041   114
12.5141   128
12.5241   137
12.5341   141
12.5441   144
12.5541   130
12.5641   124
12.5741   131
12.5841   138
12.5941   136
12.6041   127
12.6141   116
12.6241   123
12.6341   125
12.6441   136
12.6541   140
12.6641   135
12.6741   133
12.6841   129
12.6941   134
12.7041   146
12.7141   144
12.7241   132
12.7341   131
12.7441   136
12.7541   137
12.7641   138
12.7741   140
12.7841   137
12.7941   134
12.8041   138
12.8141   138
12.8241   134
12.8341   136
12.8441   137
12.8541   139
12.8641   142
12.8741   145
12.8841   147
12.8941   147
12.9041   146
12.9141   144
12.9241   141
12.9341   140
12.9441   142
12.9541   142
12.9641   141
12.9741   145
12.9841   159
12.9941   153
13.0041   146
13.0141   142
13.0241   139
13.0341   140
13.0441   149
13.0541   140
13.0641   130
13.0741   137
13.0841   129
13.0941   141
13.1041   157
13.1141   145
13.1241   138
13.1341   155
13.1441   166
13.1541   170
13.1641   179
13.1741   171
13.1841   153
13.1941   149
13.2041   153
13.2141   176
13.2241   171
13.2341   164
13.2441   186
13.2541   197
13.2641   201
13.2741   205
13.2841   198
13.2941   194
13.3041   203
13.3141   219
13.3241   224
13.3341   230
13.3441   237
13.3541   237
13.3641   241
13.3741   255
13.3841   265
13.3941   260
13.4041   247
13.4141   241
13.4241   242
13.4341   244
13.4441   244
13.4541   238
13.4641   226
13.4741   212
13.4841   200
13.4941   193
13.5041   187
13.5141   180
13.5241   179
13.5341   178
13.5441   171
13.5541   163
13.5641   159
13.5741   163
13.5841   168
13.5941   170
13.6041   178
13.6141   184
13.6241   184
13.6341   169
13.6441   168
13.6541   170
13.6641   162
13.6741   170
13.6841   188
13.6941   183
13.7041   164
13.7141   160
13.7241   160
13.7341   152
13.7441   165
13.7541   178
13.7641   167
13.7741   174
13.7841   178
13.7941   168
13.8041   178
13.8141   171
13.8241   152
13.8341   162
13.8441   182
13.8541   196
13.8641   202
13.8741   194
13.8841   189
13.8941   189
13.9041   180
13.9141   176
13.9241   189
13.9341   195
13.9441   191
13.9541   200
13.9641   203
13.9741   202
13.9841   205
13.9941   211
14.0041   214
14.0141   217
14.0241   222
14.0341   218
14.0441   211
14.0541   212
14.0641   224
14.0741   238
14.0841   246
14.0941   245
14.1041   238
14.1141   240
14.1241   251
14.1341   257
14.1441   264
14.1541   271
14.1641   265
14.1741   254
14.1841   241
14.1941   245
14.2041   257
14.2141   265
14.2241   270
14.2341   244
14.2441   222
14.2541   224
14.2641   220
14.2741   231
14.2841   237
14.2941   224
14.3041   231
14.3141   221
14.3241   216
14.3341   217
14.3441   213
14.3541   207
14.3641   195
14.3741   211
14.3841   207
14.3941   210
14.4041   213
14.4141   212
14.4241   217
14.4341   212
14.4441   214
14.4541   206
14.4641   203
14.4741   222
14.4841   225
14.4941   221
14.5041   216
14.5141   202
14.5241   202
14.5341   217
14.5441   218
14.5541   224
14.5641   231
14.5741   218
14.5841   214
14.5941   230
14.6041   222
14.6141   212
14.6241   232
14.6341   231
14.6441   214
14.6541   211
14.6641   217
14.6741   227
14.6841   240
14.6941   228
14.7041   223
14.7141   231
14.7241   233
14.7341   251
14.7441   247
14.7541   224
14.7641   214
14.7741   235
14.7841   234
14.7941   227
14.8041   244
14.8141   254
14.8241   265
14.8341   266
14.8441   263
14.8541   257
14.8641   249
14.8741   249
14.8841   259
14.8941   278
14.9041   268
14.9141   261
14.9241   284
14.9341   275
14.9441   271
14.9541   273
14.9641   276
14.9741   266
14.9841   251
14.9941   257
15.0041   257
15.0141   250
15.0241   281
15.0341   278
15.0441   270
15.0541   284
15.0641   261
15.0741   245
15.0841   248
15.0941   249
15.1041   258
15.1141   264
15.1241   247
15.1341   239
15.1441   240
15.1541   269
15.1641   252
15.1741   234
15.1841   245
15.1941   250
15.2041   242
15.2141   237
15.2241   248
15.2341   242
15.2441   247
15.2541   239
15.2641   236
15.2741   259
15.2841   263
15.2941   257
15.3041   249
15.3141   268
15.3241   273
15.3341   268
15.3441   258
15.3541   259
15.3641   247
15.3741   244
15.3841   268
15.3941   271
15.4041   276
15.4141   279
15.4241   251
15.4341   248
15.4441   254
15.4541   248
15.4641   273
15.4741   283
15.4841   262
15.4941   266
15.5041   271
15.5141   261
15.5241   278
15.5341   297
15.5441   303
15.5541   296
15.5641   301
15.5741   314
15.5841   318
15.5941   331
15.6041   331
15.6141   345
15.6241   372
15.6341   399
15.6441   406
15.6541   418
15.6641   445
15.6741   412
15.6841   435
15.6941   452
15.7041   444
15.7141   463
15.7241   490
15.7341   494
15.7441   480
15.7541   483
15.7641   478
15.7741   477
15.7841   508
15.7941   495
15.8041   457
15.8141   475
15.8241   442
15.8341   431
15.8441   430
15.8541   428
15.8641   400
15.8741   382
15.8841   376
15.8941   367
15.9041   366
15.9141   342
15.9241   308
15.9341   323
15.9441   326
15.9541   316
15.9641   327
15.9741   299
15.9841   285
15.9941   278
16.0041   281
16.0141   296
16.0241   298
16.0341   280
16.0441   299
16.0541   281
16.0641   305
16.0741   308
16.0841   274
16.0941   278
16.1041   289
16.1141   308
16.1241   289
16.1341   278
16.1441   293
16.1541   302
16.1641   338
16.1741   344
16.1841   293
16.1941   275
16.2041   287
16.2141   318
16.2241   301
16.2341   307
16.2441   321
16.2541   323
16.2641   311
16.2741   295
16.2841   307
16.2941   289
16.3041   294
16.3141   307
16.3241   316
16.3341   321
16.3441   304
16.3541   310
16.3641   326
16.3741   334
16.3841   297
16.3941   295
16.4041   296
16.4141   307
16.4241   309
16.4341   310
16.4441   338
16.4541   323
16.4641   315
16.4741   311
16.4841   329
16.4941   318
16.5041   333
16.5141   324
16.5241   307
16.5341   307
16.5441   348
16.5541   341
16.5641   336
16.5741   341
16.5841   357
16.5941   354
16.6041   335
16.6141   331
16.6241   330
16.6341   345
16.6441   367
16.6541   364
16.6641   357
16.6741   329
16.6841   314
16.6941   353
16.7041   352
16.7141   345
16.7241   338
16.7341   329
16.7441   354
16.7541   357
16.7641   353
16.7741   355
16.7841   347
16.7941   333
16.8041   352
16.8141   359
16.8241   330
16.8341   321
16.8441   329
16.8541   348
16.8641   350
16.8741   317
16.8841   318
16.8941   307
16.9041   349
16.9141   362
16.9241   357
16.9341   330
16.9441   357
16.9541   350
16.9641   347
16.9741   352
16.9841   343
16.9941   344
17.0041   328
17.0141   343
17.0241   313
17.0341   321
17.0441   362
17.0541   342
17.0641   319
17.0741   343
17.0841   364
17.0941   349
17.1041   363
17.1141   348
17.1241   334
17.1341   347
17.1441   329
17.1541   359
17.1641   390
17.1741   368
17.1841   316
17.1941   327
17.2041   344
17.2141   339
17.2241   336
17.2341   357
17.2441   354
17.2541   363
17.2641   365
17.2741   353
17.2841   349
17.2941   374
17.3041   379
17.3141   365
17.3241   376
17.3341   348
17.3441   349
17.3541   358
17.3641   349
17.3741   362
17.3841   339
17.3941   353
17.4041   372
17.4141   375
17.4241   366
17.4341   380
17.4441   356
17.4541   341
17.4641   349
17.4741   366
17.4841   384
17.4941   400
17.5041   380
17.5141   409
17.5241   409
17.5341   400
17.5441   372
17.5541   377
17.5641   373
17.5741   400
17.5841   391
17.5941   387
17.6041   380
17.6141   403
17.6241   400
17.6341   378
17.6441   393
17.6541   416
17.6641   408
17.6741   405
17.6841   402
17.6941   397
17.7041   400
17.7141   442
17.7241   414
17.7341   386
17.7441   380
17.7541   386
17.7641   382
17.7741   364
17.7841   394
17.7941   396
17.8041   397
17.8141   385
17.8241   390
17.8341   375
17.8441   387
17.8541   424
17.8641   397
17.8741   386
17.8841   361
17.8941   393
17.9041   412
17.9141   384
17.9241   367
17.9341   404
17.9441   380
17.9541   359
17.9641   352
17.9741   389
17.9841   396
17.9941   402
18.0041   418
18.0141   400
18.0241   371
18.0341   374
18.0441   385
18.0541   421
18.0641   405
18.0741   404
18.0841   400
18.0941   418
18.1041   379
18.1141   379
18.1241   402
18.1341   397
18.1441   388
18.1541   379
18.1641   400
18.1741   416
18.1841   398
18.1941   408
18.2041   388
18.2141   378
18.2241   387
18.2341   369
18.2441   365
18.2541   366
18.2641   409
18.2741   387
18.2841   356
18.2941   381
18.3041   403
18.3141   401
18.3241   382
18.3341   381
18.3441   379
18.3541   366
18.3641   374
18.3741   394
18.3841   360
18.3941   406
18.4041   416
18.4141   406
18.4241   398
18.4341   379
18.4441   395
18.4541   418
18.4641   401
18.4741   386
18.4841   390
18.4941   385
18.5041   392
18.5141   421
18.5241   410
18.5341   419
18.5441   390
18.5541   397
18.5641   394
18.5741   387
18.5841   431
18.5941   431
18.6041   405
18.6141   401
18.6241   373
18.6341   367
18.6441   385
18.6541   402
18.6641   430
18.6741   392
18.6841   392
18.6941   384
18.7041   381
18.7141   406
18.7241   414
18.7341   398
18.7441   379
18.7541   425
18.7641   423
18.7741   401
18.7841   395
18.7941   416
18.8041   425
18.8141   425
18.8241   403
18.8341   390
18.8441   425
18.8541   400
18.8641   420
18.8741   418
18.8841   398
18.8941   428
18.9041   401
18.9141   420
18.9241   450
18.9341   432
18.9441   402
18.9541   412
18.9641   401
18.9741   394
18.9841   411
18.9941   421
19.0041   449
19.0141   407
19.0241   398
19.0341   439
19.0441   432
19.0541   416
19.0641   402
19.0741   382
19.0841   425
19.0941   419
19.1041   402
19.1141   420
19.1241   407
19.1341   421
19.1441   452
19.1541   410
19.1641   413
19.1741   376
19.1841   430
19.1941   403
19.2041   411
19.2141   415
19.2241   412
19.2341   452
19.2441   442
19.2541   445
19.2641   436
19.2741   422
19.2841   422
19.2941   421
19.3041   397
19.3141   411
19.3241   410
19.3341   413
19.3441   396
19.3541   363
19.3641   388
19.3741   407
19.3841   417
19.3941   433
19.4041   416
19.4141   414
19.4241   432
19.4341   415
19.4441   414
19.4541   433
19.4641   425
19.4741   412
19.4841   439
19.4941   422
19.5041   408
19.5141   398
19.5241   396
19.5341   431
19.5441   423
19.5541   430
19.5641   438
19.5741   412
19.5841   414
19.5941   423
19.6041   421
19.6141   405
19.6241   391
19.6341   416
19.6441   399
19.6541   402
19.6641   429
19.6741   405
19.6841   437
19.6941   431
19.7041   416
19.7141   407
19.7241   439
19.7341   433
19.7441   436
19.7541   422
19.7641   436
19.7741   450
19.7841   429
19.7941   450
19.8041   392
19.8141   427
19.8241   421
19.8341   427
19.8441   408
19.8541   430
19.8641   419
19.8741   411
19.8841   438
19.8941   402
19.9041   411
19.9141   417
19.9241   396
19.9341   393
19.9441   400
19.9541   430
19.9641   428
19.9741   419
19.9841   400
19.9941   438
20.0041   403
20.0141   430
20.0241   447
20.0341   409
20.0441   402
20.0541   384
20.0641   450
20.0741   435
20.0841   438
20.0941   419
20.1041   401
20.1141   424
20.1241   449
20.1341   417
20.1441   445
20.1541   440
20.1641   420
20.1741   428
20.1841   418
20.1941   427
20.2041   418
20.2141   433
20.2241   421
20.2341   416
20.2441   381
20.2541   434
20.2641   438
20.2741   406
20.2841   431
20.2941   430
20.3041   443
20.3141   412
20.3241   430
20.3341   436
20.3441   423
20.3541   429
20.3641   458
20.3741   420
20.3841   393
20.3941   384
20.4041   409
20.4141   409
20.4241   431
20.4341   404
20.4441   431
20.4541   405
20.4641   392
20.4741   426
20.4841   420
20.4941   417
20.5041   441
20.5141   399
20.5241   453
20.5341   421
20.5441   422
20.5541   416
20.5641   434
20.5741   404
20.5841   416
20.5941   417
20.6041   424
20.6141   413
20.6241   417
20.6341   429
20.6441   423
20.6541   432
20.6641   416
20.6741   407
20.6841   454
20.6941   461
20.7041   413
20.7141   421
20.7241   432
20.7341   416
20.7441   439
20.7541   452
20.7641   424
20.7741   437
20.7841   412
20.7941   404
20.8041   424
20.8141   436
20.8241   446
20.8341   421
20.8441   436
20.8541   436
20.8641   457
20.8741   449
20.8841   455
20.8941   472
20.9041   469
20.9141   462
20.9241   448
20.9341   478
20.9441   531
20.9541   554
20.9641   493
20.9741   543
20.9841   520
20.9941   581
21.0041   561
21.0141   566
21.0241   545
21.0341   557
21.0441   534
21.0541   533
21.0641   591
21.0741   569
21.0841   599
21.0941   599
21.1041   549
21.1141   571
21.1241   607
21.1341   557
21.1441   617
21.1541   565
21.1641   563
21.1741   589
21.1841   573
21.1941   580
21.2041   577
21.2141   597
21.2241   498
21.2341   506
21.2441   519
21.2541   532
21.2641   522
21.2741   480
21.2841   474
21.2941   499
21.3041   495
21.3141   450
21.3241   470
21.3341   488
21.3441   436
21.3541   410
21.3641   465
21.3741   444
21.3841   428
21.3941   438
21.4041   452
21.4141   394
21.4241   385
21.4341   393
21.4441   447
21.4541   434
21.4641   399
21.4741   439
21.4841   405
21.4941   411
21.5041   421
21.5141   406
21.5241   443
21.5341   419
21.5441   433
21.5541   420
21.5641   396
21.5741   398
21.5841   401
21.5941   401
21.6041   416
21.6141   405
21.6241   429
21.6341   405
21.6441   399
21.6541   407
21.6641   399
21.6741   437
21.6841   380
21.6941   406
21.7041   362
21.7141   423
21.7241   411
21.7341   406
21.7441   395
21.7541   405
21.7641   387
21.7741   419
21.7841   413
21.7941   397
21.8041   385
21.8141   398
21.8241   391
21.8341   415
21.8441   443
21.8541   402
21.8641   412
21.8741   406
21.8841   414
21.8941   434
21.9041   385
21.9141   430
21.9241   436
21.9341   421
21.9441   413
21.9541   369
21.9641   446
21.9741   426
21.9841   431
21.9941   396
22.0041   405
22.0141   403
22.0241   401
22.0341   387
22.0441   425
22.0541   398
22.0641   427
22.0741   398
22.0841   409
22.0941   390
22.1041   399
22.1141   376
22.1241   412
22.1341   412
22.1441   424
22.1541   422
22.1641   399
22.1741   407
22.1841   407
22.1941   398
22.2041   393
22.2141   398
22.2241   373
22.2341   397
22.2441   414
22.2541   370
22.2641   403
22.2741   383
22.2841   395
22.2941   417
22.3041   392
22.3141   391
22.3241   422
22.3341   372
22.3441   407
22.3541   434
22.3641   387
22.3741   413
22.3841   403
22.3941   391
22.4041   365
22.4141   382
22.4241   392
22.4341   389
22.4441   428
22.4541   393
22.4641   417
22.4741   401
22.4841   421
22.4941   395
22.5041   408
22.5141   372
22.5241   415
22.5341   404
22.5441   387
22.5541   387
22.5641   383
22.5741   413
22.5841   400
22.5941   381
22.6041   359
22.6141   386
22.6241   399
22.6341   400
22.6441   426
22.6541   426
22.6641   350
22.6741   376
22.6841   397
22.6941   409
22.7041   407
22.7141   405
22.7241   399
22.7341   372
22.7441   425
22.7541   383
22.7641   425
22.7741   413
22.7841   374
22.7941   366
22.8041   431
22.8141   424
22.8241   392
22.8341   359
22.8441   388
22.8541   400
22.8641   347
22.8741   412
22.8841   387
22.8941   399
22.9041   376
22.9141   428
22.9241   379
22.9341   428
22.9441   365
22.9541   390
22.9641   378
22.9741   394
22.9841   354
22.9941   410
23.0041   368
23.0141   403
23.0241   395
23.0341   398
23.0441   363
23.0541   386
23.0641   354
23.0741   394
23.0841   381
23.0941   378
23.1041   392
23.1141   398
23.1241   376
23.1341   378
23.1441   394
23.1541   366
23.1641   350
23.1741   343
23.1841   393
23.1941   363
23.2041   379
23.2141   379
23.2241   376
23.2341   396
23.2441   365
23.2541   379
23.2641   389
23.2741   422
23.2841   346
23.2941   394
23.3041   364
23.3141   360
23.3241   372
23.3341   397
23.3441   357
23.3541   393
23.3641   385
23.3741   343
23.3841   396
23.3941   365
23.4041   366
23.4141   375
23.4241   373
23.4341   382
23.4441   347
23.4541   393
23.4641   368
23.4741   355
23.4841   347
23.4941   393
23.5041   378
23.5141   344
23.5241   351
23.5341   365
23.5441   372
23.5541   374
23.5641   366
23.5741   398
23.5841   356
23.5941   380
23.6041   365
23.6141   420
23.6241   387
23.6341   360
23.6441   402
23.6541   357
23.6641   378
23.6741   349
23.6841   417
23.6941   367
23.7041   351
23.7141   380
23.7241   373
23.7341   363
23.7441   362
23.7541   393
23.7641   370
23.7741   389
23.7841   391
23.7941   411
23.8041   373
23.8141   379
23.8241   367
23.8341   387
23.8441   374
23.8541   416
23.8641   386
23.8741   412
23.8841   376
23.8941   350
23.9041   376
23.9141   361
23.9241   374
23.9341   350
23.9441   407
23.9541   375
23.9641   334
23.9741   366
23.9841   375
23.9941   348
24.0041   362
24.0141   351
24.0241   364
24.0341   331
24.0441   313
24.0541   363
24.0641   363
24.0741   370
24.0841   342
24.0941   337
24.1041   350
24.1141   350
24.1241   377
24.1341   371
24.1441   332
24.1541   337
24.1641   359
24.1741   338
24.1841   362
24.1941   323
24.2041   351
24.2141   356
24.2241   334
24.2341   356
24.2441   327
24.2541   324
24.2641   334
24.2741   350
24.2841   350
24.2941   373
24.3041   341
24.3141   367
24.3241   320
24.3341   357
24.3441   334
24.3541   372
24.3641   362
24.3741   356
24.3841   331
24.3941   337
24.4041   347
24.4141   344
24.4241   332
24.4341   335
24.4441   326
24.4541   335
24.4641   321
24.4741   333
24.4841   314
24.4941   354
24.5041   355
24.5141   351
24.5241   346
24.5341   336
24.5441   313
24.5541   350
24.5641   347
24.5741   336
24.5841   334
24.5941   329
24.6041   324
24.6141   326
24.6241   360
24.6341   363
24.6441   314
24.6541   325
24.6641   334
24.6741   345
24.6841   353
24.6941   319
24.7041   340
24.7141   329
24.7241   321
24.7341   345
24.7441   367
24.7541   351
24.7641   319
24.7741   359
24.7841   329
24.7941   326
24.8041   320
24.8141   295
24.8241   349
24.8341   346
24.8441   329
24.8541   333
24.8641   309
24.8741   308
24.8841   310
24.8941   300
24.9041   340
24.9141   308
24.9241   337
24.9341   313
24.9441   330
24.9541   364
24.9641   353
24.9741   357
24.9841   358
24.9941   339
25.0041   330
25.0141   326
25.0241   363
25.0341   351
25.0441   341
25.0541   329
25.0641   333
25.0741   298
25.0841   349
25.0941   332
25.1041   336
25.1141   321
25.1241   315
25.1341   339
25.1441   352
25.1541   323
25.1641   331
25.1741   315
25.1841   328
25.1941   305
25.2041   327
25.2141   357
25.2241   347
25.2341   332
25.2441   343
25.2541   362
25.2641   325
25.2741   331
25.2841   302
25.2941   331
25.3041   308
25.3141   342
25.3241   324
25.3341   318
25.3441   341
25.3541   316
25.3641   295
25.3741   337
25.3841   318
25.3941   292
25.4041   294
25.4141   289
25.4241   327
25.4341   309
25.4441   292
25.4541   319
25.4641   300
25.4741   322
25.4841   294
25.4941   325
25.5041   318
25.5141   302
25.5241   292
25.5341   320
25.5441   315
25.5541   294
25.5641   322
25.5741   303
25.5841   292
25.5941   305
25.6041   297
25.6141   285
25.6241   277
25.6341   298
25.6441   313
25.6541   314
25.6641   289
25.6741   279
25.6841   285
25.6941   325
25.7041   323
25.7141   313
25.7241   293
25.7341   286
25.7441   294
25.7541   283
25.7641   281
25.7741   303
25.7841   319
25.7941   294
25.8041   302
25.8141   318
25.8241   277
25.8341   266
25.8441   295
25.8541   317
25.8641   282
25.8741   289
25.8841   291
25.8941   299
25.9041   270
25.9141   269
25.9241   269
25.9341   280
25.9441   273
25.9541   260
25.9641   277
25.9741   283
25.9841   313
25.9941   288
26.0041   292
26.0141   317
26.0241   276
26.0341   268
26.0441   254
26.0541   292
26.0641   301
26.0741   300
26.0841   267
26.0941   250
26.1041   291
26.1141   308
26.1241   303
26.1341   300
26.1441   276
26.1541   292
26.1641   299
26.1741   289
26.1841   275
26.1941   276
26.2041   291
26.2141   286
26.2241   271
26.2341   283
26.2441   257
26.2541   252
26.2641   258
26.2741   284
26.2841   252
26.2941   271
26.3041   261
26.3141   265
26.3241   253
26.3341   276
26.3441   287
26.3541   292
26.3641   293
26.3741   279
26.3841   326
26.3941   282
26.4041   277
26.4141   233
26.4241   260
26.4341   299
26.4441   269
26.4541   279
26.4641   299
26.4741   283
26.4841   267
26.4941   296
26.5041   280
26.5141   273
26.5241   278
26.5341   292
26.5441   251
26.5541   272
26.5641   298
26.5741   288
26.5841   273
26.5941   275
26.6041   235
26.6141   259
26.6241   285
26.6341   257
26.6441   241
26.6541   289
26.6641   289
26.6741   270
26.6841   256
26.6941   262
26.7041   257
26.7141   292
26.7241   301
26.7341   291
26.7441   266
26.7541   264
26.7641   250
26.7741   262
26.7841   269
26.7941   233
26.8041   272
26.8141   251
26.8241   245
26.8341   250
26.8441   273
26.8541   235
26.8641   265
26.8741   269
26.8841   245
26.8941   251
26.9041   251
26.9141   271
26.9241   286
26.9341   234
26.9441   265
26.9541   270
26.9641   273
26.9741   236
26.9841   243
26.9941   267
27.0041   244
27.0141   262
27.0241   245
27.0341   243
27.0441   236
27.0541   271
27.0641   267
27.0741   249
27.0841   244
27.0941   263
27.1041   258
27.1141   262
27.1241   264
27.1341   288
27.1441   256
27.1541   272
27.1641   276
27.1741   258
27.1841   260
27.1941   276
27.2041   258
27.2141   230
27.2241   258
27.2341   261
27.2441   242
27.2541   293
27.2641   252
27.2741   266
27.2841   256
27.2941   247
27.3041   276
27.3141   242
27.3241   251
27.3341   265
27.3441   229
27.3541   232
27.3641   253
27.3741   234
27.3841   243
27.3941   243
27.4041   244
27.4141   271
27.4241   243
27.4341   240
27.4441   261
27.4541   238
27.4641   236
27.4741   231
27.4841   274
27.4941   264
27.5041   235
27.5141   229
27.5241   254
27.5341   236
27.5441   251
27.5541   227
27.5641   239
27.5741   253
27.5841   250
27.5941   226
27.6041   257
27.6141   218
27.6241   247
27.6341   220
27.6441   224
27.6541   253
27.6641   242
27.6741   225
27.6841   238
27.6941   224
27.7041   228
27.7141   220
27.7241   249
27.7341   261
27.7441   231
27.7541   222
27.7641   245
27.7741   245
27.7841   258
27.7941   232
27.8041   245
27.8141   234
27.8241   255
27.8341   245
27.8441   203
27.8541   225
27.8641   230
27.8741   222
27.8841   217
27.8941   249
27.9041   220
27.9141   242
27.9241   237
27.9341   226
27.9441   243
27.9541   228
27.9641   229
27.9741   240
27.9841   220
27.9941   217
28.0041   218
28.0141   203
28.0241   233
28.0341   230
28.0441   248
28.0541   231
28.0641   222
28.0741   215
28.0841   230
28.0941   202
28.1041   239
28.1141   227
28.1241   228
28.1341   221
28.1441   201
28.1541   216
28.1641   237
28.1741   231
28.1841   228
28.1941   230
28.2041   226
28.2141   217
28.2241   230
28.2341   220
28.2441   223
28.2541   233
28.2641   219
28.2741   230
28.2841   216
28.2941   205
28.3041   198
28.3141   203
28.3241   224
28.3341   210
28.3441   253
28.3541   233
28.3641   223
28.3741   212
28.3841   222
28.3941   209
28.4041   234
28.4141   244
28.4241   217
28.4341   217
28.4441   210
28.4541   212
28.4641   234
28.4741   203
28.4841   213
28.4941   225
28.5041   199
28.5141   212
28.5241   183
28.5341   203
28.5441   235
28.5541   213
28.5641   228
28.5741   221
28.5841   215
28.5941   225
28.6041   189
28.6141   184
28.6241   195
28.6341   205
28.6441   214
28.6541   221
28.6641   208
28.6741   207
28.6841   190
28.6941   204
28.7041   195
28.7141   190
28.7241   220
28.7341   218
28.7441   201
28.7541   209
28.7641   202
28.7741   209
28.7841   215
28.7941   177
28.8041   187
28.8141   202
28.8241   192
28.8341   217
28.8441   203
28.8541   195
28.8641   241
28.8741   202
28.8841   210
28.8941   197
28.9041   185
28.9141   187
28.9241   179
28.9341   212
28.9441   204
28.9541   219
28.9641   187
28.9741   184
28.9841   190
28.9941   215
29.0041   220
29.0141   186
29.0241   182
29.0341   191
29.0441   217
29.0541   198
29.0641   199
29.0741   204
29.0841   209
29.0941   192
29.1041   196
29.1141   182
29.1241   195
29.1341   185
29.1441   200
29.1541   186
29.1641   208
29.1741   206
29.1841   209
29.1941   212
29.2041   200
29.2141   191
29.2241   199
29.2341   196
29.2441   194
29.2541   175
29.2641   201
29.2741   196
29.2841   161
29.2941   184
29.3041   191
29.3141   176
29.3241   176
29.3341   166
29.3441   165
29.3541   204
29.3641   175
29.3741   183
29.3841   202
29.3941   168
29.4041   166
29.4141   174
29.4241   196
29.4341   197
29.4441   188
29.4541   191
29.4641   183
29.4741   185
29.4841   186
29.4941   175
29.5041   197
29.5141   199
29.5241   164
29.5341   166
29.5441   196
29.5541   202
29.5641   176
29.5741   180
29.5841   199
29.5941   175
29.6041   157
29.6141   180
29.6241   187
29.6341   199
29.6441   176
29.6541   185
29.6641   186
29.6741   178
29.6841   180
29.6941   170
29.7041   167
29.7141   178
29.7241   180
29.7341   165
29.7441   166
29.7541   195
29.7641   148
29.7741   164
29.7841   189
29.7941   185
29.8041   197
29.8141   158
29.8241   150
29.8341   171
29.8441   158
29.8541   163
29.8641   165
29.8741   168
29.8841   172
29.8941   179
29.9041   191
29.9141   181
29.9241   163
29.9341   178
29.9441   197
29.9541   189
29.9641   182
29.9741   160
29.9841   161
29.9941   185
30.0041   173
30.0141   176
30.0241   171
30.0341   160
30.0441   165
30.0541   179
30.0641   157
30.0741   164
30.0841   146
30.0941   166
30.1041   175
30.1141   149
30.1241   168
30.1341   164
30.1441   183
30.1541   148
30.1641   158
30.1741   161
30.1841   175
30.1941   157
30.2041   161
30.2141   168
30.2241   159
30.2341   164
30.2441   156
30.2541   178
30.2641   174
30.2741   168
30.2841   167
30.2941   141
30.3041   189
30.3141   137
30.3241   183
30.3341   185
30.3441   152
30.3541   152
30.3641   146
30.3741   166
30.3841   151
30.3941   184
30.4041   175
30.4141   159
30.4241   148
30.4341   161
30.4441   144
30.4541   154
30.4641   160
30.4741   148
30.4841   152
30.4941   144
30.5041   154
30.5141   154
30.5241   166
30.5341   162
30.5441   159
30.5541   154
30.5641   147
30.5741   153
30.5841   169
30.5941   163
30.6041   157
30.6141   152
30.6241   153
30.6341   140
30.6441   161
30.6541   157
30.6641   152
30.6741   153
30.6841   141
30.6941   156
30.7041   161
30.7141   138
30.7241   155
30.7341   149
30.7441   148
30.7541   172
30.7641   158
30.7741   159
30.7841   145
30.7941   127
30.8041   143
30.8141   139
30.8241   117
30.8341   126
30.8441   142
30.8541   158
30.8641   150
30.8741   158
30.8841   153
30.8941   145
30.9041   147
30.9141   156
30.9241   159
30.9341   155
30.9441   156
30.9541   150
30.9641   137
30.9741   161
30.9841   138
30.9941   138
31.0041   137
31.0141   139
31.0241   122
31.0341   117
31.0441   149
31.0541   152
31.0641   159
31.0741   138
31.0841   156
31.0941   160
31.1041   135
31.1141   139
31.1241   147
31.1341   143
31.1441   145
31.1541   151
31.1641   144
31.1741   145
31.1841   133
31.1941   123
31.2041   132
31.2141   154
31.2241   154
31.2341   149
31.2441   125
31.2541   110
31.2641   134
31.2741   136
31.2841   133
31.2941   134
31.3041   146
31.3141   128
31.3241   109
31.3341   141
31.3441   127
31.3541   121
31.3641   132
31.3741   128
31.3841   143
31.3941   124
31.4041   134
31.4141   143
31.4241   138
31.4341   139
31.4441   143
31.4541   133
31.4641   136
31.4741   108
31.4841   126
31.4941   121
31.5041   140
31.5141   139
31.5241   122
31.5341   144
31.5441   117
31.5541   114
31.5641   134
31.5741   132
31.5841   114
31.5941   112
31.6041   133
31.6141   157
31.6241   143
31.6341   119
31.6441   126
31.6541   118
31.6641   155
31.6741   143
31.6841   124
31.6941   124
31.7041   106
31.7141   131
31.7241   119
31.7341   120
31.7441   119
31.7541   126
31.7641   135
31.7741   116
31.7841   134
31.7941   134
31.8041   157
31.8141   126
31.8241   137
31.8341   133
31.8441   140
31.8541   134
31.8641   115
31.8741   142
31.8841   147
31.8941   143
31.9041   130
31.9141   124
31.9241   121
31.9341   107
31.9441   128
31.9541   116
31.9641   125
31.9741   145
31.9841   126
31.9941   126
32.0041   143
32.0141   115
32.0241   124
32.0341   118
32.0441   118
32.0541   120
32.0641   114
32.0741   108
32.0841   100
32.0941   115
32.1041   108
32.1141   132
32.1241   133
32.1341   121
32.1441   131
32.1541   125
32.1641   123
32.1741   125
32.1841   111
32.1941   110
32.2041   119
32.2141   112
32.2241   151
32.2341   149
32.2441   111
32.2541   104
32.2641   119
32.2741   100
32.2841   119
32.2941   109
32.3041   124
32.3141   133
32.3241   115
32.3341    87
32.3441   111
32.3541   105
32.3641   111
32.3741   112
32.3841   115
32.3941   121
32.4041   117
32.4141   123
32.4241   111
32.4341    94
32.4441   113
32.4541    93
32.4641   109
32.4741   134
32.4841   103
32.4941   115
32.5041    97
32.5141   119
32.5241   104
32.5341   124
32.5441   104
32.5541   114
32.5641   103
32.5741    99
32.5841    98
32.5941   119
32.6041   104
32.6141   116
32.6241   124
32.6341    96
32.6441   113
32.6541    98
32.6641   106
32.6741   103
32.6841    92
32.6941    89
32.7041   113
32.7141    86
32.7241    80
32.7341   112
32.7441   111
32.7541   103
32.7641   113
32.7741   119
32.7841   103
32.7941   104
32.8041   116
32.8141   107
32.8241   108
32.8341   108
32.8441   102
32.8541   116
32.8641   104
32.8741   107
32.8841    97
32.8941   108
32.9041   107
32.9141    91
32.9241   101
32.9341    99
32.9441   108
32.9541    97
32.9641   105
32.9741   110
32.9841    80
32.9941   103
33.0041    87
33.0141   104
33.0241    91
33.0341   102
33.0441    89
33.0541    86
33.0641   118
33.0741   102
33.0841    91
33.0941   106
33.1041    91
33.1141   106
33.1241    94
33.1341   102
33.1441   106
33.1541    99
33.1641   110
33.1741    92
33.1841    92
33.1941    94
33.2041    97
33.2141    98
33.2241    86
33.2341    87
33.2441    98
33.2541   107
33.2641    92
33.2741    91
33.2841    98
33.2941   112
33.3041    96
33.3141   100
33.3241    85
33.3341   106
33.3441    87
33.3541   101
33.3641    92
33.3741   103
33.3841    99
33.3941    98
33.4041   104
33.4141    99
33.4241   111
33.4341    89
33.4441    83
33.4541    80
33.4641    92
33.4741    96
33.4841    97
33.4941    94
33.5041   102
33.5141    76
33.5241    78
33.5341    82
33.5441    89
33.5541    77
33.5641    75
33.5741    67
33.5841    85
33.5941    94
33.6041    87
33.6141    97
33.6241   105
33.6341    99
33.6441    83
33.6541    82
33.6641   109
33.6741    81
33.6841    96
33.6941    80
33.7041    98
33.7141    93
33.7241    79
33.7341    96
33.7441    93
33.7541    80
33.7641    78
33.7741    77
33.7841    98
33.7941    81
33.8041    88
33.8141    76
33.8241    82
33.8341    80
33.8441    79
33.8541    79
33.8641    83
33.8741    87
33.8841    99
33.8941    70
33.9041    86
33.9141    93
33.9241    90
33.9341    87
33.9441    85
33.9541    77
33.9641    82
33.9741    86
33.9841    82
33.9941    71
34.0041    79
34.0141    84
34.0241    73
34.0341    76
34.0441    89
34.0541    87
34.0641    73
34.0741    86
34.0841    96
34.0941    74
34.1041    76
34.1141    85
34.1241    71
34.1341    72
34.1441    84
34.1541    69
34.1641    85
34.1741    86
34.1841    88
34.1941    84
34.2041    73
34.2141    68
34.2241   105
34.2341    85
34.2441    73
34.2541    80
34.2641    86
34.2741    88
34.2841    88
34.2941    89
34.3041    76
34.3141    79
34.3241    83
34.3341    81
34.3441    83
34.3541    74
34.3641    68
34.3741    58
34.3841    75
34.3941    64
34.4041    71
34.4141    92
34.4241    81
34.4341    82
34.4441    88
34.4541    80
34.4641    75
34.4741    94
34.4841    71
34.4941    76
34.5041    72
34.5141    79
34.5241    80
34.5341    73
34.5441    81
34.5541    83
34.5641    83
34.5741    75
34.5841    79
34.5941    73
34.6041    70
34.6141    71
34.6241    65
34.6341    74
34.6441    58
34.6541    69
34.6641    76
34.6741    70
34.6841    74
34.6941    73
34.7041    69
34.7141    81
34.7241    61
34.7341    67
34.7441    78
34.7541    58
34.7641    59
34.7741    71
34.7841    71
34.7941    87
34.8041    73
34.8141    68
34.8241    63
34.8341    78
34.8441    67
34.8541    67
34.8641    72
34.8741    62
34.8841    72
34.8941    74
34.9041    69
34.9141    86
34.9241    59
34.9341    67
34.9441    77
34.9541    80
34.9641    67
34.9741    86
34.9841    75
34.9941    66
35.0041    50
35.0141    70
35.0241    71
35.0341    79
35.0441    81
35.0541    76
35.0641    68
35.0741    67
35.0841    76
35.0941    91
35.1041    75
35.1141    74
35.1241    74
35.1341    54
35.1441    51
35.1541    58
35.1641    60
35.1741    66
35.1841    72
35.1941    71
35.2041    73
35.2141    62
35.2241    67
35.2341    74
35.2441    67
35.2541    59
35.2641    73
35.2741    70
35.2841    76
35.2941    56
35.3041    67
35.3141    85
35.3241    67
35.3341    67
35.3441    58
35.3541    81
35.3641    65
35.3741    57
35.3841    74
35.3941    60
35.4041    61
35.4141    60
35.4241    65
35.4341    61
35.4441    63
35.4541    48
35.4641    55
35.4741    67
35.4841    64
35.4941    57
35.5041    74
35.5141    63
35.5241    55
35.5341    52
35.5441    59
35.5541    70
35.5641    40
35.5741    57
35.5841    55
35.5941    70
35.6041    55
35.6141    54
35.6241    55
35.6341    76
35.6441    74
35.6541    71
35.6641    60
35.6741    51
35.6841    60
35.6941    62
35.7041    62
35.7141    58
35.7241    64
35.7341    61
35.7441    58
35.7541    70
35.7641    59
35.7741    70
35.7841    56
35.7941    54
35.8041    52
35.8141    65
35.8241    64
35.8341    52
35.8441    65
35.8541    69
35.8641    51
35.8741    52
35.8841    54
35.8941    59
35.9041    46
35.9141    41
35.9241    51
35.9341    52
35.9441    69
35.9541    54
35.9641    43
35.9741    47
35.9841    52
35.9941    54
36.0041    55
36.0141    63
36.0241    48
36.0341    66
36.0441    53
36.0541    59
36.0641    56
36.0741    58
36.0841    49
36.0941    60
36.1041    51
36.1141    58
36.1241    56
36.1341    58
36.1441    46
36.1541    61
36.1641    67
36.1741    52
36.1841    45
36.1941    61
36.2041    53
36.2141    45
36.2241    50
36.2341    55
36.2441    53
36.2541    50
36.2641    64
36.2741    51
36.2841    67
36.2941    55
36.3041    44
36.3141    53
36.3241    43
36.3341    63
36.3441    49
36.3541    63
36.3641    50
36.3741    45
36.3841    55
36.3941    54
36.4041    62
36.4141    44
36.4241    52
36.4341    46
36.4441    39
36.4541    41
36.4641    44
36.4741    47
36.4841    58
36.4941    59
36.5041    49
36.5141    43
36.5241    48
36.5341    56
36.5441    48
36.5541    39
36.5641    52
36.5741    52
36.5841    52
36.5941    55
36.6041    45
36.6141    43
36.6241    53
36.6341    43
36.6441    47
36.6541    39
36.6641    42
36.6741    44
36.6841    54
36.6941    56
36.7041    48
36.7141    52
36.7241    41
36.7341    62
36.7441    34
36.7541    36
36.7641    36
36.7741    46
36.7841    45
36.7941    40
36.8041    48
36.8141    52
36.8241    38
36.8341    51
36.8441    45
36.8541    41
36.8641    50
36.8741    57
36.8841    48
36.8941    51
36.9041    37
36.9141    39
36.9241    41
36.9341    50
36.9441    49
36.9541    34
36.9641    36
36.9741    35
36.9841    49
36.9941    32
37.0041    41
37.0141    41
37.0241    34
37.0341    55
37.0441    38
37.0541    31
37.0641    33
37.0741    46
37.0841    33
37.0941    33
37.1041    49
37.1141    49
37.1241    39
37.1341    51
37.1441    43
37.1541    41
37.1641    34
37.1741    32
37.1841    36
37.1941    47
37.2041    49
37.2141    37
37.2241    41
37.2341    35
37.2441    39
37.2541    39
37.2641    53
37.2741    47
37.2841    34
37.2941    32
37.3041    33
37.3141    46
37.3241    46
37.3341    37
37.3441    34
37.3541    31
37.3641    47
37.3741    34
37.3841    39
37.3941    35
37.4041    35
37.4141    49
37.4241    36
37.4341    40
37.4441    38
37.4541    46
37.4641    40
37.4741    41
37.4841    33
37.4941    36
37.5041    38
37.5141    36
37.5241    33
37.5341    44
37.5441    43
37.5541    33
37.5641    26
37.5741    36
37.5841    32
37.5941    33
37.6041    40
37.6141    46
37.6241    39
37.6341    34
37.6441    40
37.6541    46
37.6641    50
37.6741    32
37.6841    32
37.6941    38
37.7041    35
37.7141    35
37.7241    31
37.7341    36
37.7441    28
37.7541    39
37.7641    41
37.7741    36
37.7841    42
37.7941    37
37.8041    23
37.8141    35
37.8241    46
37.8341    26
37.8441    47
37.8541    46
37.8641    39
37.8741    40
37.8841    31
37.8941    37
37.9041    29
37.9141    29
37.9241    25
37.9341    36
37.9441    32
37.9541    30
37.9641    34
37.9741    46
37.9841    34
37.9941    29
38.0041    44
38.0141    43
38.0241    44
38.0341    32
38.0441    36
38.0541    40
38.0641    35
38.0741    22
38.0841    33
38.0941    34
38.1041    28
38.1141    23
38.1241    20
38.1341    49
38.1441    27
38.1541    35
38.1641    36
38.1741    35
38.1841    31
38.1941    41
38.2041    28
38.2141    30
38.2241    21
38.2341    27
38.2441    32
38.2541    34
38.2641    30
38.2741    28
38.2841    20
38.2941    26
38.3041    29
38.3141    15
38.3241    33
38.3341    31
38.3441    27
38.3541    31
38.3641    29
38.3741    23
38.3841    27
38.3941    25
38.4041    23
38.4141    26
38.4241    27
38.4341    22
38.4441    30
38.4541    33
38.4641    35
38.4741    39
38.4841    26
38.4941    25
38.5041    30
38.5141    31
38.5241    24
38.5341    24
38.5441    26
38.5541    19
38.5641    43
38.5741    20
38.5841    29
38.5941    27
38.6041    17
38.6141    26
38.6241    26
38.6341    19
38.6441    21
38.6541    24
38.6641    31
38.6741    23
38.6841    23
38.6941    33
38.7041    34
38.7141    29
38.7241    28
38.7341    29
38.7441    26
38.7541    29
38.7641    20
38.7741    23
38.7841    34
38.7941    33
38.8041    35
38.8141    23
38.8241    26
38.8341    22
38.8441    23
38.8541    31
38.8641    29
38.8741    25
38.8841    35
38.8941    26
38.9041    23
38.9141    24
38.9241    22
38.9341    22
38.9441    26
38.9541    29
38.9641    27
38.9741    24
38.9841    21
38.9941    30
39.0041    22
39.0141    19
39.0241    31
39.0341    22
39.0441    20
39.0541    25
39.0641    27
39.0741    30
39.0841    25
39.0941    24
39.1041    21
39.1141    21
39.1241    26
39.1341    30
39.1441    26
39.1541    26
39.1641    20
39.1741    23
39.1841    22
39.1941    39
39.2041    23
39.2141    37
39.2241    18
39.2341    15
39.2441    23
39.2541    26
39.2641    23
39.2741    28
39.2841    19
39.2941    27
39.3041    18
39.3141    22
39.3241    32
39.3341    20
39.3441    24
39.3541    19
39.3641    16
39.3741    31
39.3841    22
39.3941    10
39.4041    22
39.4141    21
39.4241    23
39.4341    15
39.4441    20
39.4541    19
39.4641    18
39.4741    27
39.4841    17
39.4941    17
39.5041    19
39.5141    27
39.5241    21
39.5341    25
39.5441    15
39.5541    26
39.5641    22
39.5741    23
39.5841    22
39.5941    21
39.6041    19
39.6141    29
39.6241    15
39.6341    15
39.6441    25
39.6541    26
39.6641    14
39.6741    20
39.6841    18
39.6941    17
39.7041    18
39.7141    23
39.7241    19
39.7341    21
39.7441    22
39.7541    22
39.7641    14
39.7741    22
39.7841    19
39.7941    19
39.8041    18
39.8141    11
39.8241    19
39.8341    23
39.8441    17
39.8541    20
39.8641    18
39.8741    17
39.8841    11
39.8941    23
39.9041     6
39.9141    17
39.9241    27
39.9341    22
39.9441    19
39.9541    10
39.9641    14
39.9741    20
39.9841    17
