Bruker Nano GmbH Berlin, Germany
Esprit 1.9

Date: 4/21/2021 1:35:23 PM
Real time: 22860
Life time: 21398
Pulse density: 93287


Detector type: XFlash 430
Window type: Custom type
Detector thickness: 0.45
Si dead layer:0.029

Calibration, lin.: 10
Calibration, abs.: -955.9
Mn FWHM: 137.05
Fano factor: 0.121
Channels: 4095

Energy Counts
-0.9559     0
-0.9459     0
-0.9359     0
-0.9259     0
-0.9159     0
-0.9059     0
-0.8959     0
-0.8859     0
-0.8759     0
-0.8659     0
-0.8559     0
-0.8459     0
-0.8359     0
-0.8259     0
-0.8159     0
-0.8059     0
-0.7959     0
-0.7859     0
-0.7759     0
-0.7659     0
-0.7559     0
-0.7459     0
-0.7359     0
-0.7259     0
-0.7159     0
-0.7059     0
-0.6959     0
-0.6859     0
-0.6759     0
-0.6659     0
-0.6559     0
-0.6459     0
-0.6359     0
-0.6259     0
-0.6159     0
-0.6059     0
-0.5959     0
-0.5859     0
-0.5759     0
-0.5659     0
-0.5559     0
-0.5459     0
-0.5359     0
-0.5259     0
-0.5159     0
-0.5059     0
-0.4959     0
-0.4859     0
-0.4759     0
-0.4659     0
-0.4559     0
-0.4459     0
-0.4359     0
-0.4259     0
-0.4159     0
-0.4059     0
-0.3959     0
-0.3859     0
-0.3759     0
-0.3659     0
-0.3559     0
-0.3459     0
-0.3359     0
-0.3259     0
-0.3159     0
-0.3059     0
-0.2959     0
-0.2859     0
-0.2759     0
-0.2659     0
-0.2559     0
-0.2459     0
-0.2359     0
-0.2259     0
-0.2159     0
-0.2059     0
-0.1959     0
-0.1859     0
-0.1759     0
-0.1659     0
-0.1559     0
-0.1459     0
-0.1359     0
-0.1259     1
-0.1159     5
-0.1059    13
-0.0959    63
-0.0859   257
-0.0759   846
-0.0659  2431
-0.0559  6449
-0.0459 13586
-0.0359 25344
-0.0259 40465
-0.0159 55778
-0.0059 65649
 0.0041 65835
 0.0141 56882
 0.0241 42353
 0.0341 26352
 0.0441 14501
 0.0541  6544
 0.0641  2640
 0.0741   954
 0.0841   285
 0.0941    83
 0.1041    20
 0.1141    13
 0.1241     9
 0.1341    10
 0.1441     9
 0.1541    11
 0.1641     6
 0.1741     1
 0.1841   211
 0.1941   405
 0.2041   360
 0.2141   368
 0.2241   380
 0.2341   360
 0.2441   354
 0.2541   373
 0.2641   398
 0.2741   383
 0.2841   362
 0.2941   350
 0.3041   341
 0.3141   372
 0.3241   328
 0.3341   352
 0.3441   325
 0.3541   316
 0.3641   344
 0.3741   350
 0.3841   335
 0.3941   340
 0.4041   346
 0.4141   344
 0.4241   319
 0.4341   334
 0.4441   332
 0.4541   323
 0.4641   327
 0.4741   331
 0.4841   341
 0.4941   326
 0.5041   313
 0.5141   305
 0.5241   302
 0.5341   298
 0.5441   307
 0.5541   302
 0.5641   299
 0.5741   309
 0.5841   305
 0.5941   305
 0.6041   288
 0.6141   284
 0.6241   287
 0.6341   280
 0.6441   293
 0.6541   300
 0.6641   297
 0.6741   298
 0.6841   299
 0.6941   277
 0.7041   267
 0.7141   278
 0.7241   276
 0.7341   276
 0.7441   273
 0.7541   252
 0.7641   265
 0.7741   283
 0.7841   269
 0.7941   266
 0.8041   261
 0.8141   251
 0.8241   240
 0.8341   248
 0.8441   241
 0.8541   242
 0.8641   245
 0.8741   232
 0.8841   265
 0.8941   244
 0.9041   264
 0.9141   278
 0.9241   239
 0.9341   242
 0.9441   252
 0.9541   248
 0.9641   238
 0.9741   206
 0.9841   223
 0.9941   244
 1.0041   235
 1.0141   243
 1.0241   227
 1.0341   228
 1.0441   231
 1.0541   216
 1.0641   235
 1.0741   220
 1.0841   231
 1.0941   241
 1.1041   236
 1.1141   227
 1.1241   240
 1.1341   226
 1.1441   255
 1.1541   246
 1.1641   225
 1.1741   194
 1.1841   217
 1.1941   225
 1.2041   227
 1.2141   236
 1.2241   228
 1.2341   228
 1.2441   210
 1.2541   219
 1.2641   220
 1.2741   227
 1.2841   247
 1.2941   235
 1.3041   214
 1.3141   238
 1.3241   230
 1.3341   227
 1.3441   223
 1.3541   205
 1.3641   218
 1.3741   220
 1.3841   236
 1.3941   211
 1.4041   220
 1.4141   216
 1.4241   210
 1.4341   216
 1.4441   216
 1.4541   221
 1.4641   237
 1.4741   210
 1.4841   228
 1.4941   220
 1.5041   204
 1.5141   217
 1.5241   213
 1.5341   201
 1.5441   212
 1.5541   194
 1.5641   208
 1.5741   192
 1.5841   187
 1.5941   193
 1.6041   209
 1.6141   205
 1.6241   204
 1.6341   209
 1.6441   238
 1.6541   259
 1.6641   317
 1.6741   376
 1.6841   462
 1.6941   496
 1.7041   659
 1.7141   681
 1.7241   823
 1.7341   863
 1.7441   896
 1.7541   833
 1.7641   733
 1.7741   624
 1.7841   557
 1.7941   475
 1.8041   405
 1.8141   326
 1.8241   274
 1.8341   283
 1.8441   239
 1.8541   261
 1.8641   263
 1.8741   234
 1.8841   224
 1.8941   235
 1.9041   234
 1.9141   214
 1.9241   233
 1.9341   205
 1.9441   215
 1.9541   234
 1.9641   227
 1.9741   252
 1.9841   256
 1.9941   251
 2.0041   245
 2.0141   237
 2.0241   270
 2.0341   278
 2.0441   228
 2.0541   239
 2.0641   208
 2.0741   207
 2.0841   218
 2.0941   218
 2.1041   202
 2.1141   179
 2.1241   186
 2.1341   212
 2.1441   183
 2.1541   193
 2.1641   183
 2.1741   177
 2.1841   175
 2.1941   183
 2.2041   172
 2.2141   187
 2.2241   161
 2.2341   174
 2.2441   194
 2.2541   194
 2.2641   187
 2.2741   171
 2.2841   191
 2.2941   175
 2.3041   167
 2.3141   170
 2.3241   184
 2.3341   163
 2.3441   164
 2.3541   173
 2.3641   184
 2.3741   177
 2.3841   181
 2.3941   169
 2.4041   189
 2.4141   161
 2.4241   190
 2.4341   180
 2.4441   185
 2.4541   164
 2.4641   144
 2.4741   182
 2.4841   184
 2.4941   152
 2.5041   155
 2.5141   164
 2.5241   174
 2.5341   163
 2.5441   153
 2.5541   145
 2.5641   176
 2.5741   187
 2.5841   170
 2.5941   169
 2.6041   173
 2.6141   158
 2.6241   153
 2.6341   163
 2.6441   172
 2.6541   166
 2.6641   182
 2.6741   138
 2.6841   167
 2.6941   129
 2.7041   168
 2.7141   155
 2.7241   150
 2.7341   170
 2.7441   155
 2.7541   146
 2.7641   160
 2.7741   162
 2.7841   165
 2.7941   155
 2.8041   165
 2.8141   186
 2.8241   183
 2.8341   187
 2.8441   154
 2.8541   151
 2.8641   171
 2.8741   162
 2.8841   151
 2.8941   121
 2.9041   162
 2.9141   153
 2.9241   167
 2.9341   136
 2.9441   158
 2.9541   137
 2.9641   148
 2.9741   135
 2.9841   150
 2.9941   152
 3.0041   147
 3.0141   155
 3.0241   152
 3.0341   123
 3.0441   136
 3.0541   158
 3.0641   142
 3.0741   134
 3.0841   146
 3.0941   121
 3.1041   125
 3.1141   135
 3.1241   114
 3.1341   137
 3.1441   131
 3.1541   127
 3.1641   140
 3.1741   135
 3.1841   141
 3.1941   136
 3.2041   151
 3.2141   161
 3.2241   173
 3.2341   186
 3.2441   194
 3.2541   211
 3.2641   275
 3.2741   282
 3.2841   318
 3.2941   340
 3.3041   381
 3.3141   410
 3.3241   358
 3.3341   340
 3.3441   343
 3.3541   301
 3.3641   253
 3.3741   244
 3.3841   184
 3.3941   190
 3.4041   140
 3.4141   133
 3.4241   148
 3.4341   132
 3.4441   136
 3.4541   129
 3.4641   125
 3.4741   130
 3.4841   136
 3.4941   134
 3.5041   140
 3.5141   153
 3.5241   151
 3.5341   166
 3.5441   184
 3.5541   202
 3.5641   225
 3.5741   259
 3.5841   308
 3.5941   368
 3.6041   456
 3.6141   572
 3.6241   673
 3.6341   849
 3.6441  1052
 3.6541  1177
 3.6641  1360
 3.6741  1473
 3.6841  1513
 3.6941  1565
 3.7041  1407
 3.7141  1409
 3.7241  1210
 3.7341  1052
 3.7441   841
 3.7541   649
 3.7641   542
 3.7741   420
 3.7841   283
 3.7941   207
 3.8041   197
 3.8141   166
 3.8241   139
 3.8341   128
 3.8441   105
 3.8541   120
 3.8641   126
 3.8741   109
 3.8841   133
 3.8941   141
 3.9041   129
 3.9141   144
 3.9241   150
 3.9341   146
 3.9441   164
 3.9541   193
 3.9641   244
 3.9741   245
 3.9841   270
 3.9941   300
 4.0041   308
 4.0141   304
 4.0241   279
 4.0341   295
 4.0441   249
 4.0541   256
 4.0641   213
 4.0741   209
 4.0841   193
 4.0941   151
 4.1041   143
 4.1141   133
 4.1241   110
 4.1341    95
 4.1441   104
 4.1541    84
 4.1641    89
 4.1741    92
 4.1841    95
 4.1941    93
 4.2041    92
 4.2141    79
 4.2241    87
 4.2341    92
 4.2441    75
 4.2541    74
 4.2641    81
 4.2741    78
 4.2841    87
 4.2941    99
 4.3041    98
 4.3141    91
 4.3241    95
 4.3341    88
 4.3441   108
 4.3541    99
 4.3641   107
 4.3741   122
 4.3841   156
 4.3941   166
 4.4041   202
 4.4141   232
 4.4241   325
 4.4341   380
 4.4441   479
 4.4541   491
 4.4641   552
 4.4741   641
 4.4841   746
 4.4941   742
 4.5041   763
 4.5141   781
 4.5241   743
 4.5341   719
 4.5441   600
 4.5541   563
 4.5641   483
 4.5741   416
 4.5841   341
 4.5941   255
 4.6041   220
 4.6141   196
 4.6241   184
 4.6341   143
 4.6441   142
 4.6541   111
 4.6641    94
 4.6741    97
 4.6841   105
 4.6941   129
 4.7041   116
 4.7141    84
 4.7241    89
 4.7341   108
 4.7441    90
 4.7541   101
 4.7641   121
 4.7741   120
 4.7841   143
 4.7941   135
 4.8041   138
 4.8141   117
 4.8241   153
 4.8341   169
 4.8441   171
 4.8541   193
 4.8641   177
 4.8741   186
 4.8841   213
 4.8941   213
 4.9041   270
 4.9141   256
 4.9241   276
 4.9341   251
 4.9441   258
 4.9541   232
 4.9641   231
 4.9741   228
 4.9841   207
 4.9941   168
 5.0041   153
 5.0141   151
 5.0241   135
 5.0341   124
 5.0441   118
 5.0541   112
 5.0641   123
 5.0741   101
 5.0841    93
 5.0941    96
 5.1041   103
 5.1141   112
 5.1241   104
 5.1341   131
 5.1441   119
 5.1541   108
 5.1641   124
 5.1741   103
 5.1841   121
 5.1941   124
 5.2041   109
 5.2141   111
 5.2241   125
 5.2341   109
 5.2441   102
 5.2541   109
 5.2641   103
 5.2741   102
 5.2841   103
 5.2941   118
 5.3041   116
 5.3141   125
 5.3241   121
 5.3341   131
 5.3441   129
 5.3541   124
 5.3641   131
 5.3741   158
 5.3841   147
 5.3941   156
 5.4041   154
 5.4141   164
 5.4241   133
 5.4341   155
 5.4441   140
 5.4541   140
 5.4641   141
 5.4741   119
 5.4841   126
 5.4941   117
 5.5041   130
 5.5141   122
 5.5241   126
 5.5341   113
 5.5441   132
 5.5541   108
 5.5641   105
 5.5741    99
 5.5841   116
 5.5941   110
 5.6041   127
 5.6141   110
 5.6241   104
 5.6341    96
 5.6441   107
 5.6541   104
 5.6641   133
 5.6741    97
 5.6841   109
 5.6941   103
 5.7041   135
 5.7141   125
 5.7241   139
 5.7341   125
 5.7441   130
 5.7541   145
 5.7641   158
 5.7741   155
 5.7841   202
 5.7941   221
 5.8041   247
 5.8141   277
 5.8241   336
 5.8341   385
 5.8441   430
 5.8541   456
 5.8641   517
 5.8741   554
 5.8841   592
 5.8941   596
 5.9041   573
 5.9141   551
 5.9241   512
 5.9341   530
 5.9441   463
 5.9541   370
 5.9641   352
 5.9741   323
 5.9841   257
 5.9941   241
 6.0041   195
 6.0141   188
 6.0241   162
 6.0341   151
 6.0441   172
 6.0541   135
 6.0641   148
 6.0741   144
 6.0841   134
 6.0941   147
 6.1041   152
 6.1141   160
 6.1241   172
 6.1341   170
 6.1441   180
 6.1541   211
 6.1641   200
 6.1741   209
 6.1841   244
 6.1941   283
 6.2041   354
 6.2141   480
 6.2241   583
 6.2341   792
 6.2441  1076
 6.2541  1534
 6.2641  2078
 6.2741  2882
 6.2841  3825
 6.2941  5111
 6.3041  6734
 6.3141  8340
 6.3241 10346
 6.3341 12494
 6.3441 14548
 6.3541 16463
 6.3641 18690
 6.3741 20198
 6.3841 21548
 6.3941 21850
 6.4041 21958
 6.4141 21526
 6.4241 19740
 6.4341 18328
 6.4441 16747
 6.4541 14335
 6.4641 12064
 6.4741 10022
 6.4841  8165
 6.4941  6316
 6.5041  4706
 6.5141  3537
 6.5241  2617
 6.5341  1891
 6.5441  1365
 6.5541   972
 6.5641   673
 6.5741   504
 6.5841   380
 6.5941   289
 6.6041   279
 6.6141   231
 6.6241   184
 6.6341   205
 6.6441   197
 6.6541   202
 6.6641   195
 6.6741   172
 6.6841   184
 6.6941   187
 6.7041   172
 6.7141   195
 6.7241   187
 6.7341   185
 6.7441   179
 6.7541   205
 6.7641   203
 6.7741   171
 6.7841   205
 6.7941   213
 6.8041   218
 6.8141   203
 6.8241   235
 6.8341   237
 6.8441   243
 6.8541   251
 6.8641   286
 6.8741   318
 6.8841   348
 6.8941   405
 6.9041   473
 6.9141   543
 6.9241   659
 6.9341   810
 6.9441  1047
 6.9541  1265
 6.9641  1442
 6.9741  1797
 6.9841  2117
 6.9941  2356
 7.0041  2682
 7.0141  2920
 7.0241  3272
 7.0341  3359
 7.0441  3653
 7.0541  3526
 7.0641  3539
 7.0741  3355
 7.0841  3207
 7.0941  3022
 7.1041  2606
 7.1141  2356
 7.1241  2027
 7.1341  1652
 7.1441  1342
 7.1541  1177
 7.1641   909
 7.1741   807
 7.1841   600
 7.1941   531
 7.2041   425
 7.2141   350
 7.2241   313
 7.2341   291
 7.2441   270
 7.2541   249
 7.2641   224
 7.2741   237
 7.2841   256
 7.2941   240
 7.3041   264
 7.3141   277
 7.3241   248
 7.3341   295
 7.3441   280
 7.3541   283
 7.3641   290
 7.3741   334
 7.3841   314
 7.3941   310
 7.4041   323
 7.4141   329
 7.4241   359
 7.4341   342
 7.4441   321
 7.4541   287
 7.4641   306
 7.4741   309
 7.4841   283
 7.4941   303
 7.5041   278
 7.5141   269
 7.5241   261
 7.5341   258
 7.5441   242
 7.5541   241
 7.5641   207
 7.5741   219
 7.5841   235
 7.5941   203
 7.6041   203
 7.6141   239
 7.6241   203
 7.6341   209
 7.6441   220
 7.6541   218
 7.6641   203
 7.6741   212
 7.6841   239
 7.6941   227
 7.7041   228
 7.7141   221
 7.7241   244
 7.7341   255
 7.7441   272
 7.7541   274
 7.7641   246
 7.7741   282
 7.7841   262
 7.7941   272
 7.8041   291
 7.8141   302
 7.8241   266
 7.8341   306
 7.8441   302
 7.8541   299
 7.8641   317
 7.8741   340
 7.8841   352
 7.8941   374
 7.9041   376
 7.9141   411
 7.9241   402
 7.9341   437
 7.9441   476
 7.9541   504
 7.9641   551
 7.9741   566
 7.9841   587
 7.9941   653
 8.0041   634
 8.0141   705
 8.0241   758
 8.0341   814
 8.0441   856
 8.0541  1005
 8.0641   971
 8.0741  1063
 8.0841  1173
 8.0941  1132
 8.1041  1254
 8.1141  1282
 8.1241  1379
 8.1341  1449
 8.1441  1457
 8.1541  1528
 8.1641  1464
 8.1741  1548
 8.1841  1549
 8.1941  1502
 8.2041  1634
 8.2141  1600
 8.2241  1613
 8.2341  1652
 8.2441  1722
 8.2541  1813
 8.2641  1833
 8.2741  1996
 8.2841  2173
 8.2941  2285
 8.3041  2427
 8.3141  2620
 8.3241  2816
 8.3341  2940
 8.3441  3266
 8.3541  3433
 8.3641  3466
 8.3741  3560
 8.3841  3585
 8.3941  3586
 8.4041  3635
 8.4141  3433
 8.4241  3297
 8.4341  2991
 8.4441  2692
 8.4541  2454
 8.4641  2223
 8.4741  1870
 8.4841  1615
 8.4941  1381
 8.5041  1204
 8.5141   974
 8.5241   890
 8.5341   721
 8.5441   634
 8.5541   562
 8.5641   493
 8.5741   442
 8.5841   438
 8.5941   456
 8.6041   435
 8.6141   418
 8.6241   455
 8.6341   390
 8.6441   439
 8.6541   456
 8.6641   447
 8.6741   444
 8.6841   448
 8.6941   435
 8.7041   430
 8.7141   428
 8.7241   442
 8.7341   405
 8.7441   413
 8.7541   385
 8.7641   368
 8.7741   362
 8.7841   358
 8.7941   348
 8.8041   362
 8.8141   348
 8.8241   378
 8.8341   359
 8.8441   343
 8.8541   341
 8.8641   354
 8.8741   352
 8.8841   340
 8.8941   351
 8.9041   345
 8.9141   353
 8.9241   373
 8.9341   357
 8.9441   382
 8.9541   358
 8.9641   365
 8.9741   409
 8.9841   378
 8.9941   394
 9.0041   405
 9.0141   421
 9.0241   423
 9.0341   423
 9.0441   475
 9.0541   461
 9.0641   485
 9.0741   516
 9.0841   527
 9.0941   528
 9.1041   568
 9.1141   554
 9.1241   557
 9.1341   594
 9.1441   646
 9.1541   618
 9.1641   671
 9.1741   713
 9.1841   738
 9.1941   797
 9.2041   812
 9.2141   867
 9.2241   901
 9.2341   915
 9.2441   931
 9.2541  1004
 9.2641  1060
 9.2741  1059
 9.2841  1165
 9.2941  1269
 9.3041  1276
 9.3141  1317
 9.3241  1363
 9.3341  1430
 9.3441  1356
 9.3541  1401
 9.3641  1462
 9.3741  1553
 9.3841  1509
 9.3941  1515
 9.4041  1487
 9.4141  1570
 9.4241  1593
 9.4341  1644
 9.4441  1590
 9.4541  1593
 9.4641  1605
 9.4741  1634
 9.4841  1772
 9.4941  1774
 9.5041  1834
 9.5141  1799
 9.5241  1850
 9.5341  1930
 9.5441  2056
 9.5541  2065
 9.5641  2292
 9.5741  2278
 9.5841  2386
 9.5941  2596
 9.6041  2682
 9.6141  2758
 9.6241  2859
 9.6341  2966
 9.6441  3084
 9.6541  3112
 9.6641  3100
 9.6741  3122
 9.6841  3073
 9.6941  2911
 9.7041  2882
 9.7141  2739
 9.7241  2548
 9.7341  2385
 9.7441  2210
 9.7541  2032
 9.7641  1904
 9.7741  1760
 9.7841  1579
 9.7941  1512
 9.8041  1429
 9.8141  1334
 9.8241  1325
 9.8341  1259
 9.8441  1275
 9.8541  1272
 9.8641  1291
 9.8741  1259
 9.8841  1300
 9.8941  1389
 9.9041  1532
 9.9141  1560
 9.9241  1578
 9.9341  1630
 9.9441  1629
 9.9541  1704
 9.9641  1680
 9.9741  1634
 9.9841  1562
 9.9941  1599
10.0041  1511
10.0141  1331
10.0241  1272
10.0341  1136
10.0441  1026
10.0541   919
10.0641   847
10.0741   709
10.0841   642
10.0941   598
10.1041   517
10.1141   463
10.1241   414
10.1341   413
10.1441   355
10.1541   311
10.1641   315
10.1741   307
10.1841   268
10.1941   250
10.2041   234
10.2141   242
10.2241   260
10.2341   225
10.2441   216
10.2541   204
10.2641   207
10.2741   202
10.2841   192
10.2941   189
10.3041   190
10.3141   185
10.3241   175
10.3341   189
10.3441   191
10.3541   174
10.3641   193
10.3741   190
10.3841   195
10.3941   183
10.4041   188
10.4141   201
10.4241   203
10.4341   205
10.4441   200
10.4541   198
10.4641   226
10.4741   218
10.4841   224
10.4941   224
10.5041   208
10.5141   235
10.5241   233
10.5341   240
10.5441   239
10.5541   243
10.5641   232
10.5741   248
10.5841   223
10.5941   235
10.6041   226
10.6141   216
10.6241   214
10.6341   212
10.6441   228
10.6541   241
10.6641   215
10.6741   243
10.6841   243
10.6941   233
10.7041   250
10.7141   240
10.7241   243
10.7341   255
10.7441   268
10.7541   278
10.7641   267
10.7741   252
10.7841   279
10.7941   305
10.8041   306
10.8141   331
10.8241   323
10.8341   315
10.8441   327
10.8541   318
10.8641   322
10.8741   324
10.8841   327
10.8941   311
10.9041   321
10.9141   320
10.9241   338
10.9341   345
10.9441   327
10.9541   335
10.9641   345
10.9741   329
10.9841   331
10.9941   337
11.0041   345
11.0141   330
11.0241   320
11.0341   318
11.0441   311
11.0541   304
11.0641   275
11.0741   300
11.0841   306
11.0941   317
11.1041   302
11.1141   296
11.1241   306
11.1341   325
11.1441   328
11.1541   325
11.1641   315
11.1741   335
11.1841   378
11.1941   387
11.2041   389
11.2141   404
11.2241   397
11.2341   431
11.2441   450
11.2541   456
11.2641   466
11.2741   464
11.2841   471
11.2941   460
11.3041   430
11.3141   422
11.3241   431
11.3341   431
11.3441   412
11.3541   387
11.3641   385
11.3741   363
11.3841   341
11.3941   306
11.4041   325
11.4141   297
11.4241   281
11.4341   276
11.4441   253
11.4541   240
11.4641   260
11.4741   246
11.4841   250
11.4941   261
11.5041   250
11.5141   264
11.5241   256
11.5341   229
11.5441   235
11.5541   259
11.5641   250
11.5741   247
11.5841   239
11.5941   262
11.6041   260
11.6141   274
11.6241   248
11.6341   229
11.6441   247
11.6541   245
11.6641   233
11.6741   262
11.6841   250
11.6941   232
11.7041   230
11.7141   223
11.7241   207
11.7341   220
11.7441   230
11.7541   217
11.7641   197
11.7741   218
11.7841   194
11.7941   181
11.8041   209
11.8141   196
11.8241   186
11.8341   191
11.8441   185
11.8541   171
11.8641   169
11.8741   185
11.8841   183
11.8941   179
11.9041   173
11.9141   174
11.9241   187
11.9341   185
11.9441   184
11.9541   178
11.9641   178
11.9741   172
11.9841   174
11.9941   161
12.0041   173
12.0141   182
12.0241   203
12.0341   201
12.0441   179
12.0541   175
12.0641   173
12.0741   145
12.0841   165
12.0941   165
12.1041   156
12.1141   154
12.1241   166
12.1341   180
12.1441   181
12.1541   189
12.1641   182
12.1741   187
12.1841   181
12.1941   172
12.2041   170
12.2141   179
12.2241   187
12.2341   165
12.2441   160
12.2541   159
12.2641   157
12.2741   176
12.2841   178
12.2941   189
12.3041   189
12.3141   192
12.3241   189
12.3341   177
12.3441   186
12.3541   178
12.3641   186
12.3741   180
12.3841   163
12.3941   164
12.4041   181
12.4141   186
12.4241   178
12.4341   177
12.4441   176
12.4541   177
12.4641   174
12.4741   187
12.4841   185
12.4941   186
12.5041   185
12.5141   198
12.5241   190
12.5341   185
12.5441   194
12.5541   214
12.5641   212
12.5741   197
12.5841   193
12.5941   197
12.6041   203
12.6141   192
12.6241   194
12.6341   213
12.6441   205
12.6541   206
12.6641   197
12.6741   203
12.6841   200
12.6941   187
12.7041   206
12.7141   197
12.7241   184
12.7341   215
12.7441   226
12.7541   211
12.7641   204
12.7741   202
12.7841   205
12.7941   211
12.8041   208
12.8141   202
12.8241   206
12.8341   207
12.8441   202
12.8541   194
12.8641   191
12.8741   194
12.8841   197
12.8941   200
12.9041   207
12.9141   207
12.9241   201
12.9341   202
12.9441   209
12.9541   210
12.9641   201
12.9741   195
12.9841   212
12.9941   212
13.0041   201
13.0141   203
13.0241   213
13.0341   198
13.0441   191
13.0541   208
13.0641   207
13.0741   210
13.0841   220
13.0941   229
13.1041   229
13.1141   215
13.1241   213
13.1341   208
13.1441   222
13.1541   233
13.1641   238
13.1741   237
13.1841   220
13.1941   222
13.2041   237
13.2141   236
13.2241   240
13.2341   256
13.2441   263
13.2541   270
13.2641   282
13.2741   302
13.2841   315
13.2941   315
13.3041   332
13.3141   350
13.3241   356
13.3341   369
13.3441   381
13.3541   379
13.3641   382
13.3741   372
13.3841   379
13.3941   379
13.4041   363
13.4141   353
13.4241   352
13.4341   351
13.4441   347
13.4541   340
13.4641   324
13.4741   324
13.4841   305
13.4941   296
13.5041   288
13.5141   282
13.5241   283
13.5341   287
13.5441   276
13.5541   258
13.5641   241
13.5741   241
13.5841   246
13.5941   242
13.6041   236
13.6141   233
13.6241   244
13.6341   246
13.6441   243
13.6541   254
13.6641   254
13.6741   244
13.6841   244
13.6941   253
13.7041   254
13.7141   252
13.7241   241
13.7341   231
13.7441   244
13.7541   260
13.7641   250
13.7741   245
13.7841   250
13.7941   245
13.8041   253
13.8141   270
13.8241   255
13.8341   232
13.8441   255
13.8541   271
13.8641   266
13.8741   269
13.8841   264
13.8941   270
13.9041   286
13.9141   293
13.9241   326
13.9341   349
13.9441   337
13.9541   338
13.9641   348
13.9741   367
13.9841   400
13.9941   431
14.0041   445
14.0141   461
14.0241   507
14.0341   550
14.0441   582
14.0541   630
14.0641   648
14.0741   662
14.0841   711
14.0941   769
14.1041   829
14.1141   827
14.1241   822
14.1341   862
14.1441   895
14.1541   869
14.1641   848
14.1741   844
14.1841   787
14.1941   765
14.2041   759
14.2141   719
14.2241   695
14.2341   653
14.2441   586
14.2541   541
14.2641   501
14.2741   482
14.2841   458
14.2941   430
14.3041   407
14.3141   393
14.3241   369
14.3341   349
14.3441   328
14.3541   320
14.3641   326
14.3741   315
14.3841   287
14.3941   277
14.4041   275
14.4141   275
14.4241   300
14.4341   298
14.4441   288
14.4541   287
14.4641   286
14.4741   279
14.4841   274
14.4941   275
14.5041   287
14.5141   292
14.5241   290
14.5341   287
14.5441   273
14.5541   280
14.5641   295
14.5741   304
14.5841   305
14.5941   300
14.6041   299
14.6141   294
14.6241   301
14.6341   296
14.6441   291
14.6541   309
14.6641   302
14.6741   290
14.6841   288
14.6941   291
14.7041   290
14.7141   276
14.7241   296
14.7341   309
14.7441   297
14.7541   299
14.7641   299
14.7741   299
14.7841   302
14.7941   321
14.8041   339
14.8141   335
14.8241   326
14.8341   322
14.8441   314
14.8541   318
14.8641   324
14.8741   331
14.8841   352
14.8941   357
14.9041   344
14.9141   358
14.9241   362
14.9341   357
14.9441   363
14.9541   355
14.9641   333
14.9741   338
14.9841   348
14.9941   360
15.0041   374
15.0141   343
15.0241   355
15.0341   360
15.0441   341
15.0541   340
15.0641   335
15.0741   347
15.0841   334
15.0941   351
15.1041   347
15.1141   311
15.1241   313
15.1341   312
15.1441   313
15.1541   300
15.1641   299
15.1741   324
15.1841   320
15.1941   317
15.2041   330
15.2141   328
15.2241   311
15.2341   312
15.2441   312
15.2541   310
15.2641   331
15.2741   329
15.2841   317
15.2941   322
15.3041   315
15.3141   336
15.3241   338
15.3341   325
15.3441   332
15.3541   323
15.3641   309
15.3741   319
15.3841   314
15.3941   325
15.4041   330
15.4141   311
15.4241   320
15.4341   340
15.4441   349
15.4541   352
15.4641   346
15.4741   337
15.4841   330
15.4941   336
15.5041   351
15.5141   356
15.5241   347
15.5341   357
15.5441   356
15.5541   375
15.5641   389
15.5741   381
15.5841   365
15.5941   372
15.6041   394
15.6141   396
15.6241   405
15.6341   417
15.6441   409
15.6541   432
15.6641   442
15.6741   435
15.6841   454
15.6941   472
15.7041   471
15.7141   475
15.7241   476
15.7341   486
15.7441   511
15.7541   532
15.7641   554
15.7741   548
15.7841   520
15.7941   545
15.8041   552
15.8141   541
15.8241   536
15.8341   526
15.8441   527
15.8541   527
15.8641   528
15.8741   518
15.8841   492
15.8941   486
15.9041   466
15.9141   447
15.9241   450
15.9341   440
15.9441   421
15.9541   410
15.9641   422
15.9741   432
15.9841   428
15.9941   408
16.0041   400
16.0141   427
16.0241   435
16.0341   391
16.0441   377
16.0541   371
16.0641   401
16.0741   407
16.0841   403
16.0941   391
16.1041   410
16.1141   391
16.1241   370
16.1341   371
16.1441   359
16.1541   391
16.1641   400
16.1741   401
16.1841   409
16.1941   385
16.2041   411
16.2141   419
16.2241   412
16.2341   404
16.2441   418
16.2541   404
16.2641   410
16.2741   405
16.2841   389
16.2941   406
16.3041   415
16.3141   416
16.3241   427
16.3341   395
16.3441   375
16.3541   396
16.3641   406
16.3741   412
16.3841   394
16.3941   384
16.4041   394
16.4141   379
16.4241   386
16.4341   404
16.4441   397
16.4541   394
16.4641   397
16.4741   406
16.4841   412
16.4941   381
16.5041   400
16.5141   405
16.5241   442
16.5341   439
16.5441   412
16.5541   423
16.5641   417
16.5741   441
16.5841   444
16.5941   407
16.6041   418
16.6141   406
16.6241   420
16.6341   418
16.6441   410
16.6541   405
16.6641   451
16.6741   443
16.6841   414
16.6941   428
16.7041   443
16.7141   461
16.7241   440
16.7341   430
16.7441   434
16.7541   420
16.7641   398
16.7741   424
16.7841   442
16.7941   442
16.8041   437
16.8141   449
16.8241   434
16.8341   435
16.8441   411
16.8541   398
16.8641   423
16.8741   448
16.8841   454
16.8941   455
16.9041   425
16.9141   446
16.9241   424
16.9341   426
16.9441   435
16.9541   425
16.9641   444
16.9741   457
16.9841   484
16.9941   478
17.0041   455
17.0141   439
17.0241   465
17.0341   459
17.0441   464
17.0541   474
17.0641   456
17.0741   452
17.0841   439
17.0941   455
17.1041   456
17.1141   448
17.1241   457
17.1341   469
17.1441   451
17.1541   454
17.1641   470
17.1741   457
17.1841   441
17.1941   419
17.2041   448
17.2141   463
17.2241   489
17.2341   475
17.2441   462
17.2541   451
17.2641   451
17.2741   452
17.2841   472
17.2941   483
17.3041   463
17.3141   481
17.3241   460
17.3341   473
17.3441   462
17.3541   470
17.3641   472
17.3741   480
17.3841   493
17.3941   450
17.4041   474
17.4141   460
17.4241   459
17.4341   463
17.4441   458
17.4541   472
17.4641   470
17.4741   455
17.4841   479
17.4941   466
17.5041   471
17.5141   481
17.5241   476
17.5341   506
17.5441   466
17.5541   519
17.5641   500
17.5741   496
17.5841   482
17.5941   491
17.6041   527
17.6141   501
17.6241   501
17.6341   507
17.6441   508
17.6541   518
17.6641   506
17.6741   485
17.6841   506
17.6941   527
17.7041   508
17.7141   503
17.7241   493
17.7341   499
17.7441   526
17.7541   515
17.7641   521
17.7741   538
17.7841   517
17.7941   488
17.8041   483
17.8141   520
17.8241   488
17.8341   520
17.8441   525
17.8541   539
17.8641   529
17.8741   523
17.8841   510
17.8941   526
17.9041   502
17.9141   500
17.9241   515
17.9341   542
17.9441   537
17.9541   552
17.9641   542
17.9741   508
17.9841   497
17.9941   508
18.0041   493
18.0141   527
18.0241   508
18.0341   481
18.0441   493
18.0541   502
18.0641   541
18.0741   537
18.0841   555
18.0941   589
18.1041   535
18.1141   535
18.1241   539
18.1341   545
18.1441   532
18.1541   540
18.1641   537
18.1741   528
18.1841   539
18.1941   534
18.2041   567
18.2141   570
18.2241   550
18.2341   538
18.2441   532
18.2541   531
18.2641   547
18.2741   564
18.2841   533
18.2941   510
18.3041   500
18.3141   517
18.3241   590
18.3341   544
18.3441   540
18.3541   558
18.3641   548
18.3741   582
18.3841   542
18.3941   545
18.4041   556
18.4141   523
18.4241   564
18.4341   600
18.4441   550
18.4541   596
18.4641   576
18.4741   558
18.4841   526
18.4941   571
18.5041   557
18.5141   586
18.5241   563
18.5341   540
18.5441   541
18.5541   521
18.5641   561
18.5741   560
18.5841   561
18.5941   577
18.6041   553
18.6141   540
18.6241   519
18.6341   558
18.6441   538
18.6541   534
18.6641   580
18.6741   573
18.6841   567
18.6941   567
18.7041   536
18.7141   567
18.7241   558
18.7341   547
18.7441   525
18.7541   551
18.7641   601
18.7741   601
18.7841   597
18.7941   581
18.8041   545
18.8141   562
18.8241   553
18.8341   588
18.8441   581
18.8541   592
18.8641   574
18.8741   597
18.8841   563
18.8941   572
18.9041   542
18.9141   553
18.9241   548
18.9341   576
18.9441   584
18.9541   544
18.9641   563
18.9741   584
18.9841   584
18.9941   593
19.0041   579
19.0141   568
19.0241   535
19.0341   553
19.0441   587
19.0541   583
19.0641   565
19.0741   565
19.0841   560
19.0941   569
19.1041   573
19.1141   597
19.1241   596
19.1341   597
19.1441   590
19.1541   611
19.1641   606
19.1741   601
19.1841   581
19.1941   580
19.2041   570
19.2141   609
19.2241   582
19.2341   562
19.2441   605
19.2541   597
19.2641   618
19.2741   617
19.2841   574
19.2941   585
19.3041   593
19.3141   569
19.3241   583
19.3341   573
19.3441   574
19.3541   587
19.3641   596
19.3741   587
19.3841   618
19.3941   619
19.4041   578
19.4141   603
19.4241   588
19.4341   565
19.4441   599
19.4541   598
19.4641   581
19.4741   606
19.4841   623
19.4941   616
19.5041   619
19.5141   583
19.5241   605
19.5341   612
19.5441   618
19.5541   604
19.5641   633
19.5741   583
19.5841   642
19.5941   590
19.6041   590
19.6141   648
19.6241   627
19.6341   617
19.6441   629
19.6541   629
19.6641   619
19.6741   631
19.6841   612
19.6941   625
19.7041   599
19.7141   614
19.7241   622
19.7341   608
19.7441   588
19.7541   597
19.7641   637
19.7741   606
19.7841   566
19.7941   577
19.8041   607
19.8141   609
19.8241   657
19.8341   595
19.8441   584
19.8541   639
19.8641   621
19.8741   646
19.8841   629
19.8941   593
19.9041   634
19.9141   611
19.9241   637
19.9341   611
19.9441   631
19.9541   644
19.9641   647
19.9741   608
19.9841   594
19.9941   634
20.0041   619
20.0141   594
20.0241   608
20.0341   613
20.0441   638
20.0541   637
20.0641   627
20.0741   579
20.0841   622
20.0941   591
20.1041   612
20.1141   597
20.1241   655
20.1341   634
20.1441   571
20.1541   623
20.1641   616
20.1741   613
20.1841   622
20.1941   620
20.2041   635
20.2141   642
20.2241   666
20.2341   652
20.2441   629
20.2541   601
20.2641   618
20.2741   645
20.2841   693
20.2941   630
20.3041   659
20.3141   634
20.3241   646
20.3341   590
20.3441   621
20.3541   621
20.3641   643
20.3741   653
20.3841   640
20.3941   621
20.4041   651
20.4141   658
20.4241   621
20.4341   618
20.4441   613
20.4541   611
20.4641   615
20.4741   579
20.4841   662
20.4941   633
20.5041   611
20.5141   635
20.5241   611
20.5341   632
20.5441   638
20.5541   656
20.5641   657
20.5741   659
20.5841   677
20.5941   633
20.6041   601
20.6141   626
20.6241   628
20.6341   615
20.6441   655
20.6541   634
20.6641   634
20.6741   623
20.6841   647
20.6941   665
20.7041   656
20.7141   618
20.7241   653
20.7341   611
20.7441   630
20.7541   656
20.7641   652
20.7741   613
20.7841   659
20.7941   665
20.8041   687
20.8141   697
20.8241   683
20.8341   686
20.8441   654
20.8541   683
20.8641   672
20.8741   708
20.8841   712
20.8941   735
20.9041   737
20.9141   757
20.9241   791
20.9341   801
20.9441   824
20.9541   856
20.9641   859
20.9741   848
20.9841   868
20.9941   841
21.0041   848
21.0141   926
21.0241   904
21.0341   921
21.0441   971
21.0541   993
21.0641   915
21.0741   995
21.0841   950
21.0941   932
21.1041  1015
21.1141  1013
21.1241  1053
21.1341   979
21.1441   980
21.1541   997
21.1641   992
21.1741  1061
21.1841  1044
21.1941   993
21.2041   917
21.2141   919
21.2241   922
21.2341   935
21.2441   919
21.2541   898
21.2641   888
21.2741   859
21.2841   849
21.2941   783
21.3041   802
21.3141   770
21.3241   781
21.3341   771
21.3441   741
21.3541   705
21.3641   721
21.3741   708
21.3841   743
21.3941   700
21.4041   754
21.4141   646
21.4241   689
21.4341   674
21.4441   705
21.4541   638
21.4641   651
21.4741   683
21.4841   639
21.4941   638
21.5041   655
21.5141   658
21.5241   642
21.5341   632
21.5441   632
21.5541   652
21.5641   682
21.5741   638
21.5841   647
21.5941   674
21.6041   642
21.6141   681
21.6241   694
21.6341   666
21.6441   687
21.6541   680
21.6641   682
21.6741   690
21.6841   653
21.6941   669
21.7041   742
21.7141   660
21.7241   640
21.7341   686
21.7441   652
21.7541   630
21.7641   658
21.7741   693
21.7841   649
21.7941   638
21.8041   640
21.8141   650
21.8241   719
21.8341   665
21.8441   643
21.8541   679
21.8641   691
21.8741   653
21.8841   664
21.8941   666
21.9041   655
21.9141   676
21.9241   644
21.9341   649
21.9441   660
21.9541   636
21.9641   621
21.9741   683
21.9841   653
21.9941   685
22.0041   717
22.0141   654
22.0241   640
22.0341   648
22.0441   683
22.0541   670
22.0641   672
22.0741   637
22.0841   621
22.0941   641
22.1041   691
22.1141   642
22.1241   663
22.1341   640
22.1441   710
22.1541   676
22.1641   664
22.1741   691
22.1841   701
22.1941   651
22.2041   627
22.2141   650
22.2241   662
22.2341   673
22.2441   651
22.2541   682
22.2641   634
22.2741   700
22.2841   618
22.2941   648
22.3041   653
22.3141   696
22.3241   673
22.3341   658
22.3441   652
22.3541   630
22.3641   680
22.3741   628
22.3841   658
22.3941   674
22.4041   628
22.4141   654
22.4241   660
22.4341   663
22.4441   685
22.4541   677
22.4641   675
22.4741   676
22.4841   680
22.4941   621
22.5041   621
22.5141   630
22.5241   642
22.5341   686
22.5441   696
22.5541   673
22.5641   676
22.5741   629
22.5841   713
22.5941   697
22.6041   691
22.6141   650
22.6241   606
22.6341   664
22.6441   677
22.6541   624
22.6641   680
22.6741   627
22.6841   661
22.6941   640
22.7041   649
22.7141   608
22.7241   679
22.7341   634
22.7441   682
22.7541   662
22.7641   613
22.7741   692
22.7841   653
22.7941   643
22.8041   659
22.8141   608
22.8241   653
22.8341   654
22.8441   643
22.8541   673
22.8641   650
22.8741   609
22.8841   628
22.8941   659
22.9041   700
22.9141   614
22.9241   644
22.9341   645
22.9441   661
22.9541   642
22.9641   601
22.9741   710
22.9841   683
22.9941   651
23.0041   616
23.0141   714
23.0241   682
23.0341   663
23.0441   675
23.0541   675
23.0641   662
23.0741   628
23.0841   657
23.0941   648
23.1041   616
23.1141   619
23.1241   643
23.1341   689
23.1441   686
23.1541   659
23.1641   607
23.1741   665
23.1841   631
23.1941   672
23.2041   645
23.2141   650
23.2241   654
23.2341   641
23.2441   588
23.2541   661
23.2641   626
23.2741   612
23.2841   673
23.2941   658
23.3041   656
23.3141   650
23.3241   614
23.3341   660
23.3441   638
23.3541   658
23.3641   659
23.3741   666
23.3841   614
23.3941   621
23.4041   620
23.4141   618
23.4241   670
23.4341   650
23.4441   621
23.4541   632
23.4641   626
23.4741   637
23.4841   618
23.4941   644
23.5041   677
23.5141   644
23.5241   626
23.5341   645
23.5441   649
23.5541   681
23.5641   672
23.5741   610
23.5841   637
23.5941   641
23.6041   674
23.6141   602
23.6241   646
23.6341   657
23.6441   653
23.6541   676
23.6641   689
23.6741   717
23.6841   677
23.6941   636
23.7041   673
23.7141   702
23.7241   700
23.7341   678
23.7441   676
23.7541   715
23.7641   698
23.7741   664
23.7841   719
23.7941   670
23.8041   686
23.8141   695
23.8241   706
23.8341   697
23.8441   655
23.8541   667
23.8641   719
23.8741   702
23.8841   687
23.8941   689
23.9041   660
23.9141   654
23.9241   655
23.9341   660
23.9441   642
23.9541   652
23.9641   669
23.9741   629
23.9841   631
23.9941   609
24.0041   633
24.0141   623
24.0241   664
24.0341   611
24.0441   678
24.0541   630
24.0641   614
24.0741   618
24.0841   646
24.0941   670
24.1041   639
24.1141   611
24.1241   615
24.1341   620
24.1441   660
24.1541   646
24.1641   600
24.1741   665
24.1841   624
24.1941   610
24.2041   615
24.2141   643
24.2241   636
24.2341   604
24.2441   628
24.2541   647
24.2641   595
24.2741   654
24.2841   646
24.2941   629
24.3041   637
24.3141   647
24.3241   628
24.3341   621
24.3441   637
24.3541   637
24.3641   619
24.3741   600
24.3841   573
24.3941   621
24.4041   593
24.4141   631
24.4241   627
24.4341   603
24.4441   593
24.4541   631
24.4641   631
24.4741   658
24.4841   650
24.4941   585
24.5041   617
24.5141   579
24.5241   614
24.5341   602
24.5441   611
24.5541   612
24.5641   599
24.5741   588
24.5841   563
24.5941   596
24.6041   608
24.6141   639
24.6241   608
24.6341   584
24.6441   596
24.6541   599
24.6641   581
24.6741   601
24.6841   597
24.6941   584
24.7041   614
24.7141   564
24.7241   572
24.7341   595
24.7441   555
24.7541   563
24.7641   568
24.7741   610
24.7841   597
24.7941   611
24.8041   631
24.8141   625
24.8241   560
24.8341   601
24.8441   598
24.8541   609
24.8641   593
24.8741   596
24.8841   614
24.8941   591
24.9041   572
24.9141   593
24.9241   566
24.9341   598
24.9441   650
24.9541   581
24.9641   575
24.9741   591
24.9841   561
24.9941   570
25.0041   570
25.0141   628
25.0241   596
25.0341   595
25.0441   610
25.0541   595
25.0641   584
25.0741   586
25.0841   600
25.0941   614
25.1041   593
25.1141   560
25.1241   630
25.1341   609
25.1441   600
25.1541   611
25.1641   605
25.1741   598
25.1841   587
25.1941   618
25.2041   561
25.2141   589
25.2241   637
25.2341   599
25.2441   619
25.2541   570
25.2641   619
25.2741   578
25.2841   636
25.2941   600
25.3041   592
25.3141   598
25.3241   637
25.3341   608
25.3441   570
25.3541   598
25.3641   590
25.3741   619
25.3841   591
25.3941   558
25.4041   596
25.4141   579
25.4241   584
25.4341   566
25.4441   575
25.4541   565
25.4641   600
25.4741   603
25.4841   543
25.4941   578
25.5041   573
25.5141   570
25.5241   595
25.5341   552
25.5441   603
25.5541   609
25.5641   567
25.5741   544
25.5841   615
25.5941   556
25.6041   543
25.6141   554
25.6241   589
25.6341   571
25.6441   569
25.6541   577
25.6641   567
25.6741   583
25.6841   566
25.6941   582
25.7041   551
25.7141   546
25.7241   564
25.7341   571
25.7441   534
25.7541   538
25.7641   526
25.7741   538
25.7841   535
25.7941   556
25.8041   562
25.8141   547
25.8241   555
25.8341   561
25.8441   550
25.8541   564
25.8641   558
25.8741   521
25.8841   568
25.8941   559
25.9041   533
25.9141   532
25.9241   527
25.9341   547
25.9441   531
25.9541   562
25.9641   552
25.9741   517
25.9841   547
25.9941   533
26.0041   540
26.0141   564
26.0241   569
26.0341   577
26.0441   551
26.0541   539
26.0641   521
26.0741   515
26.0841   550
26.0941   560
26.1041   561
26.1141   566
26.1241   567
26.1341   563
26.1441   536
26.1541   570
26.1641   561
26.1741   550
26.1841   507
26.1941   557
26.2041   548
26.2141   514
26.2241   530
26.2341   556
26.2441   574
26.2541   533
26.2641   571
26.2741   534
26.2841   512
26.2941   538
26.3041   558
26.3141   518
26.3241   548
26.3341   562
26.3441   499
26.3541   545
26.3641   556
26.3741   532
26.3841   521
26.3941   534
26.4041   546
26.4141   553
26.4241   563
26.4341   523
26.4441   534
26.4541   521
26.4641   529
26.4741   557
26.4841   547
26.4941   517
26.5041   546
26.5141   576
26.5241   543
26.5341   521
26.5441   522
26.5541   556
26.5641   536
26.5741   551
26.5841   534
26.5941   533
26.6041   487
26.6141   514
26.6241   517
26.6341   556
26.6441   547
26.6541   536
26.6641   532
26.6741   546
26.6841   513
26.6941   528
26.7041   515
26.7141   501
26.7241   497
26.7341   538
26.7441   498
26.7541   489
26.7641   511
26.7741   491
26.7841   513
26.7941   559
26.8041   521
26.8141   526
26.8241   542
26.8341   535
26.8441   554
26.8541   550
26.8641   512
26.8741   495
26.8841   517
26.8941   539
26.9041   468
26.9141   509
26.9241   490
26.9341   512
26.9441   507
26.9541   493
26.9641   520
26.9741   506
26.9841   484
26.9941   462
27.0041   524
27.0141   460
27.0241   508
27.0341   519
27.0441   523
27.0541   492
27.0641   492
27.0741   528
27.0841   504
27.0941   502
27.1041   474
27.1141   508
27.1241   491
27.1341   511
27.1441   515
27.1541   479
27.1641   479
27.1741   514
27.1841   496
27.1941   491
27.2041   509
27.2141   522
27.2241   489
27.2341   489
27.2441   471
27.2541   460
27.2641   471
27.2741   453
27.2841   468
27.2941   552
27.3041   524
27.3141   529
27.3241   497
27.3341   489
27.3441   488
27.3541   507
27.3641   515
27.3741   454
27.3841   471
27.3941   484
27.4041   510
27.4141   523
27.4241   492
27.4341   514
27.4441   463
27.4541   442
27.4641   462
27.4741   504
27.4841   468
27.4941   474
27.5041   478
27.5141   495
27.5241   497
27.5341   506
27.5441   509
27.5541   477
27.5641   507
27.5741   472
27.5841   503
27.5941   464
27.6041   482
27.6141   507
27.6241   499
27.6341   486
27.6441   484
27.6541   476
27.6641   485
27.6741   439
27.6841   500
27.6941   449
27.7041   474
27.7141   475
27.7241   480
27.7341   495
27.7441   476
27.7541   487
27.7641   459
27.7741   497
27.7841   434
27.7941   424
27.8041   455
27.8141   411
27.8241   469
27.8341   492
27.8441   467
27.8541   488
27.8641   484
27.8741   476
27.8841   447
27.8941   449
27.9041   430
27.9141   462
27.9241   462
27.9341   479
27.9441   482
27.9541   436
27.9641   479
27.9741   466
27.9841   455
27.9941   428
28.0041   464
28.0141   461
28.0241   431
28.0341   461
28.0441   448
28.0541   450
28.0641   464
28.0741   469
28.0841   441
28.0941   450
28.1041   439
28.1141   444
28.1241   440
28.1341   453
28.1441   419
28.1541   451
28.1641   425
28.1741   412
28.1841   449
28.1941   453
28.2041   438
28.2141   461
28.2241   450
28.2341   478
28.2441   422
28.2541   427
28.2641   433
28.2741   462
28.2841   441
28.2941   408
28.3041   428
28.3141   445
28.3241   434
28.3341   423
28.3441   436
28.3541   397
28.3641   435
28.3741   460
28.3841   455
28.3941   423
28.4041   423
28.4141   430
28.4241   418
28.4341   387
28.4441   421
28.4541   456
28.4641   415
28.4741   438
28.4841   464
28.4941   440
28.5041   439
28.5141   393
28.5241   420
28.5341   474
28.5441   430
28.5541   433
28.5641   437
28.5741   458
28.5841   461
28.5941   460
28.6041   436
28.6141   431
28.6241   428
28.6341   434
28.6441   394
28.6541   433
28.6641   416
28.6741   427
28.6841   451
28.6941   446
28.7041   459
28.7141   402
28.7241   443
28.7341   409
28.7441   414
28.7541   385
28.7641   406
28.7741   429
28.7841   402
28.7941   437
28.8041   421
28.8141   405
28.8241   429
28.8341   418
28.8441   432
28.8541   419
28.8641   424
28.8741   364
28.8841   436
28.8941   392
28.9041   388
28.9141   382
28.9241   419
28.9341   437
28.9441   390
28.9541   404
28.9641   408
28.9741   392
28.9841   420
28.9941   410
29.0041   425
29.0141   417
29.0241   416
29.0341   415
29.0441   388
29.0541   403
29.0641   367
29.0741   382
29.0841   408
29.0941   405
29.1041   396
29.1141   405
29.1241   409
29.1341   390
29.1441   386
29.1541   358
29.1641   380
29.1741   417
29.1841   395
29.1941   417
29.2041   433
29.2141   392
29.2241   408
29.2341   396
29.2441   382
29.2541   405
29.2641   415
29.2741   363
29.2841   371
29.2941   398
29.3041   371
29.3141   371
29.3241   364
29.3341   403
29.3441   368
29.3541   397
29.3641   379
29.3741   397
29.3841   389
29.3941   368
29.4041   362
29.4141   386
29.4241   424
29.4341   371
29.4441   355
29.4541   357
29.4641   377
29.4741   350
29.4841   404
29.4941   404
29.5041   379
29.5141   364
29.5241   388
29.5341   372
29.5441   408
29.5541   362
29.5641   405
29.5741   393
29.5841   327
29.5941   368
29.6041   364
29.6141   394
29.6241   416
29.6341   381
29.6441   396
29.6541   343
29.6641   357
29.6741   388
29.6841   383
29.6941   377
29.7041   345
29.7141   386
29.7241   382
29.7341   340
29.7441   365
29.7541   347
29.7641   334
29.7741   358
29.7841   393
29.7941   365
29.8041   364
29.8141   366
29.8241   375
29.8341   399
29.8441   369
29.8541   345
29.8641   314
29.8741   360
29.8841   349
29.8941   347
29.9041   378
29.9141   356
29.9241   353
29.9341   347
29.9441   359
29.9541   348
29.9641   353
29.9741   339
29.9841   325
29.9941   335
30.0041   349
30.0141   363
30.0241   343
30.0341   350
30.0441   369
30.0541   346
30.0641   351
30.0741   338
30.0841   372
30.0941   355
30.1041   330
30.1141   341
30.1241   362
30.1341   337
30.1441   337
30.1541   348
30.1641   334
30.1741   343
30.1841   331
30.1941   339
30.2041   322
30.2141   359
30.2241   343
30.2341   337
30.2441   339
30.2541   353
30.2641   336
30.2741   342
30.2841   354
30.2941   334
30.3041   346
30.3141   315
30.3241   350
30.3341   333
30.3441   329
30.3541   325
30.3641   326
30.3741   318
30.3841   346
30.3941   356
30.4041   351
30.4141   335
30.4241   328
30.4341   321
30.4441   327
30.4541   298
30.4641   338
30.4741   325
30.4841   333
30.4941   342
30.5041   316
30.5141   309
30.5241   348
30.5341   327
30.5441   316
30.5541   336
30.5641   360
30.5741   314
30.5841   333
30.5941   335
30.6041   314
30.6141   315
30.6241   299
30.6341   295
30.6441   322
30.6541   344
30.6641   338
30.6741   339
30.6841   305
30.6941   323
30.7041   314
30.7141   322
30.7241   325
30.7341   309
30.7441   334
30.7541   315
30.7641   330
30.7741   314
30.7841   327
30.7941   306
30.8041   285
30.8141   314
30.8241   343
30.8341   317
30.8441   318
30.8541   309
30.8641   306
30.8741   326
30.8841   313
30.8941   290
30.9041   302
30.9141   315
30.9241   299
30.9341   324
30.9441   322
30.9541   291
30.9641   313
30.9741   300
30.9841   329
30.9941   334
31.0041   313
31.0141   318
31.0241   333
31.0341   306
31.0441   332
31.0541   302
31.0641   295
31.0741   319
31.0841   268
31.0941   320
31.1041   287
31.1141   311
31.1241   292
31.1341   284
31.1441   269
31.1541   284
31.1641   295
31.1741   290
31.1841   295
31.1941   305
31.2041   287
31.2141   289
31.2241   296
31.2341   312
31.2441   295
31.2541   304
31.2641   292
31.2741   273
31.2841   306
31.2941   309
31.3041   300
31.3141   315
31.3241   281
31.3341   272
31.3441   280
31.3541   273
31.3641   323
31.3741   292
31.3841   282
31.3941   304
31.4041   283
31.4141   279
31.4241   281
31.4341   292
31.4441   298
31.4541   290
31.4641   292
31.4741   295
31.4841   274
31.4941   283
31.5041   303
31.5141   284
31.5241   278
31.5341   290
31.5441   270
31.5541   255
31.5641   289
31.5741   319
31.5841   268
31.5941   280
31.6041   277
31.6141   290
31.6241   304
31.6341   294
31.6441   305
31.6541   283
31.6641   302
31.6741   280
31.6841   293
31.6941   267
31.7041   284
31.7141   276
31.7241   282
31.7341   322
31.7441   289
31.7541   286
31.7641   288
31.7741   299
31.7841   311
31.7941   295
31.8041   312
31.8141   306
31.8241   303
31.8341   280
31.8441   269
31.8541   293
31.8641   289
31.8741   279
31.8841   292
31.8941   277
31.9041   274
31.9141   291
31.9241   295
31.9341   260
31.9441   274
31.9541   285
31.9641   282
31.9741   272
31.9841   279
31.9941   274
32.0041   304
32.0141   281
32.0241   309
32.0341   279
32.0441   279
32.0541   275
32.0641   293
32.0741   268
32.0841   291
32.0941   269
32.1041   313
32.1141   304
32.1241   334
32.1341   285
32.1441   308
32.1541   258
32.1641   297
32.1741   292
32.1841   306
32.1941   314
32.2041   307
32.2141   273
32.2241   281
32.2341   281
32.2441   300
32.2541   307
32.2641   293
32.2741   292
32.2841   244
32.2941   275
32.3041   288
32.3141   254
32.3241   274
32.3341   299
32.3441   269
32.3541   251
32.3641   274
32.3741   267
32.3841   262
32.3941   245
32.4041   243
32.4141   250
32.4241   254
32.4341   249
32.4441   276
32.4541   238
32.4641   217
32.4741   232
32.4841   241
32.4941   236
32.5041   254
32.5141   244
32.5241   253
32.5341   232
32.5441   227
32.5541   229
32.5641   234
32.5741   259
32.5841   253
32.5941   241
32.6041   227
32.6141   231
32.6241   236
32.6341   239
32.6441   256
32.6541   236
32.6641   238
32.6741   246
32.6841   253
32.6941   249
32.7041   236
32.7141   243
32.7241   248
32.7341   212
32.7441   239
32.7541   231
32.7641   225
32.7741   221
32.7841   233
32.7941   267
32.8041   235
32.8141   221
32.8241   252
32.8341   204
32.8441   243
32.8541   223
32.8641   223
32.8741   220
32.8841   224
32.8941   257
32.9041   237
32.9141   227
32.9241   225
32.9341   232
32.9441   224
32.9541   231
32.9641   226
32.9741   219
32.9841   233
32.9941   222
33.0041   228
33.0141   221
33.0241   218
33.0341   210
33.0441   237
33.0541   214
33.0641   217
33.0741   225
33.0841   219
33.0941   211
33.1041   208
33.1141   235
33.1241   235
33.1341   213
33.1441   225
33.1541   206
33.1641   224
33.1741   217
33.1841   218
33.1941   201
33.2041   205
33.2141   211
33.2241   237
33.2341   203
33.2441   219
33.2541   212
33.2641   221
33.2741   211
33.2841   212
33.2941   228
33.3041   189
33.3141   210
33.3241   220
33.3341   230
33.3441   209
33.3541   199
33.3641   212
33.3741   228
33.3841   200
33.3941   216
33.4041   203
33.4141   225
33.4241   216
33.4341   206
33.4441   207
33.4541   208
33.4641   220
33.4741   214
33.4841   194
33.4941   204
33.5041   199
33.5141   205
33.5241   199
33.5341   204
33.5441   192
33.5541   188
33.5641   193
33.5741   197
33.5841   234
33.5941   204
33.6041   215
33.6141   197
33.6241   192
33.6341   199
33.6441   178
33.6541   218
33.6641   209
33.6741   207
33.6841   191
33.6941   194
33.7041   194
33.7141   206
33.7241   213
33.7341   239
33.7441   198
33.7541   191
33.7641   178
33.7741   168
33.7841   182
33.7941   210
33.8041   181
33.8141   190
33.8241   193
33.8341   222
33.8441   180
33.8541   190
33.8641   186
33.8741   183
33.8841   175
33.8941   211
33.9041   196
33.9141   182
33.9241   181
33.9341   199
33.9441   178
33.9541   184
33.9641   207
33.9741   187
33.9841   175
33.9941   191
34.0041   195
34.0141   198
34.0241   183
34.0341   206
34.0441   186
34.0541   192
34.0641   201
34.0741   163
34.0841   186
34.0941   194
34.1041   185
34.1141   171
34.1241   170
34.1341   162
34.1441   186
34.1541   179
34.1641   170
34.1741   173
34.1841   178
34.1941   184
34.2041   188
34.2141   175
34.2241   187
34.2341   171
34.2441   183
34.2541   157
34.2641   180
34.2741   187
34.2841   193
34.2941   163
34.3041   169
34.3141   179
34.3241   187
34.3341   158
34.3441   178
34.3541   175
34.3641   203
34.3741   180
34.3841   150
34.3941   167
34.4041   161
34.4141   166
34.4241   167
34.4341   153
34.4441   172
34.4541   185
34.4641   188
34.4741   155
34.4841   191
34.4941   188
34.5041   179
34.5141   175
34.5241   175
34.5341   174
34.5441   170
34.5541   170
34.5641   189
34.5741   167
34.5841   168
34.5941   162
34.6041   181
34.6141   164
34.6241   170
34.6341   160
34.6441   171
34.6541   160
34.6641   167
34.6741   174
34.6841   140
34.6941   140
34.7041   162
34.7141   138
34.7241   159
34.7341   156
34.7441   170
34.7541   193
34.7641   154
34.7741   159
34.7841   141
34.7941   150
34.8041   147
34.8141   172
34.8241   149
34.8341   151
34.8441   180
34.8541   151
34.8641   170
34.8741   139
34.8841   159
34.8941   174
34.9041   153
34.9141   170
34.9241   144
34.9341   150
34.9441   149
34.9541   173
34.9641   155
34.9741   150
34.9841   151
34.9941   154
35.0041   170
35.0141   151
35.0241   161
35.0341   161
35.0441   149
35.0541   162
35.0641   144
35.0741   137
35.0841   136
35.0941   164
35.1041   156
35.1141   157
35.1241   162
35.1341   138
35.1441   143
35.1541   142
35.1641   124
35.1741   150
35.1841   159
35.1941   137
35.2041   149
35.2141   138
35.2241   170
35.2341   144
35.2441   152
35.2541   157
35.2641   118
35.2741   133
35.2841   164
35.2941   144
35.3041   137
35.3141   130
35.3241   149
35.3341   158
35.3441   170
35.3541   145
35.3641   137
35.3741   166
35.3841   139
35.3941   151
35.4041   149
35.4141   154
35.4241   135
35.4341   123
35.4441   143
35.4541   141
35.4641   143
35.4741   119
35.4841   128
35.4941   139
35.5041   145
35.5141   126
35.5241   139
35.5341   135
35.5441   157
35.5541   119
35.5641   139
35.5741   138
35.5841   145
35.5941   124
35.6041   139
35.6141   142
35.6241   140
35.6341   124
35.6441   136
35.6541   125
35.6641   134
35.6741   138
35.6841   128
35.6941   136
35.7041   145
35.7141    99
35.7241   144
35.7341   139
35.7441   134
35.7541   136
35.7641   148
35.7741   121
35.7841   156
35.7941   129
35.8041   120
35.8141   124
35.8241   128
35.8341   126
35.8441   136
35.8541   132
35.8641   127
35.8741   110
35.8841   127
35.8941   133
35.9041   123
35.9141   112
35.9241   130
35.9341   139
35.9441   128
35.9541   148
35.9641   117
35.9741   110
35.9841   120
35.9941   123
36.0041   105
36.0141    94
36.0241   134
36.0341   129
36.0441   132
36.0541   121
36.0641   132
36.0741   106
36.0841   141
36.0941   134
36.1041   108
36.1141   131
36.1241   126
36.1341   127
36.1441   124
36.1541   126
36.1641   120
36.1741   117
36.1841   114
36.1941   134
36.2041   121
36.2141   124
36.2241   137
36.2341   117
36.2441   134
36.2541   116
36.2641   126
36.2741   104
36.2841   145
36.2941   122
36.3041   100
36.3141   131
36.3241   108
36.3341   118
36.3441   121
36.3541   122
36.3641   142
36.3741   139
36.3841   124
36.3941   119
36.4041   123
36.4141   128
36.4241   122
36.4341   126
36.4441   105
36.4541   115
36.4641   115
36.4741   130
36.4841   109
36.4941   111
36.5041   126
36.5141   114
36.5241   117
36.5341    97
36.5441   125
36.5541   115
36.5641   111
36.5741   105
36.5841   105
36.5941    93
36.6041   112
36.6141   110
36.6241   105
36.6341   108
36.6441   121
36.6541   100
36.6641   115
36.6741    99
36.6841   119
36.6941   126
36.7041   111
36.7141   107
36.7241    97
36.7341   103
36.7441   116
36.7541   111
36.7641    95
36.7741   114
36.7841   110
36.7941   105
36.8041   105
36.8141   103
36.8241   113
36.8341   109
36.8441    94
36.8541    89
36.8641   112
36.8741   105
36.8841   123
36.8941   107
36.9041   104
36.9141    93
36.9241   100
36.9341   101
36.9441   111
36.9541   110
36.9641   108
36.9741   100
36.9841    91
36.9941    99
37.0041    84
37.0141   100
37.0241   105
37.0341   101
37.0441   100
37.0541    96
37.0641   108
37.0741    84
37.0841    97
37.0941    94
37.1041    96
37.1141   117
37.1241   119
37.1341    97
37.1441   118
37.1541   104
37.1641   102
37.1741   115
37.1841   104
37.1941    96
37.2041    89
37.2141    95
37.2241    96
37.2341   101
37.2441    96
37.2541    92
37.2641    90
37.2741    77
37.2841    91
37.2941    94
37.3041    89
37.3141   104
37.3241   106
37.3341   100
37.3441    96
37.3541    94
37.3641    92
37.3741    85
37.3841    75
37.3941    97
37.4041   105
37.4141    90
37.4241    86
37.4341    83
37.4441    89
37.4541    98
37.4641    88
37.4741    83
37.4841    91
37.4941    84
37.5041    95
37.5141    86
37.5241    88
37.5341   102
37.5441    92
37.5541    78
37.5641    84
37.5741    66
37.5841    81
37.5941    90
37.6041    87
37.6141    72
37.6241    93
37.6341    79
37.6441    78
37.6541    77
37.6641    95
37.6741    83
37.6841    78
37.6941    64
37.7041    73
37.7141    63
37.7241    80
37.7341    68
37.7441    93
37.7541   100
37.7641    79
37.7741    82
37.7841    73
37.7941    88
37.8041    67
37.8141    77
37.8241    81
37.8341    75
37.8441    89
37.8541    83
37.8641    79
37.8741    75
37.8841    70
37.8941    86
37.9041    70
37.9141    85
37.9241    84
37.9341    71
37.9441    72
37.9541    65
37.9641    82
37.9741    81
37.9841    81
37.9941    80
38.0041    78
38.0141    74
38.0241    79
38.0341    59
38.0441    74
38.0541    77
38.0641    69
38.0741    75
38.0841    71
38.0941    69
38.1041    67
38.1141    72
38.1241    85
38.1341    87
38.1441    83
38.1541    75
38.1641    72
38.1741    70
38.1841    84
38.1941    64
38.2041    71
38.2141    67
38.2241    70
38.2341    81
38.2441    57
38.2541    75
38.2641    72
38.2741    82
38.2841    76
38.2941    72
38.3041    67
38.3141    69
38.3241    66
38.3341    68
38.3441    93
38.3541    81
38.3641    69
38.3741    71
38.3841    72
38.3941    67
38.4041    59
38.4141    71
38.4241    76
38.4341    59
38.4441    78
38.4541    65
38.4641    58
38.4741    65
38.4841    64
38.4941    62
38.5041    73
38.5141    55
38.5241    78
38.5341    57
38.5441    74
38.5541    50
38.5641    63
38.5741    61
38.5841    59
38.5941    74
38.6041    64
38.6141    60
38.6241    79
38.6341    74
38.6441    68
38.6541    71
38.6641    64
38.6741    61
38.6841    64
38.6941    78
38.7041    56
38.7141    69
38.7241    69
38.7341    75
38.7441    69
38.7541    58
38.7641    57
38.7741    68
38.7841    58
38.7941    62
38.8041    62
38.8141    58
38.8241    59
38.8341    61
38.8441    62
38.8541    56
38.8641    76
38.8741    59
38.8841    44
38.8941    64
38.9041    53
38.9141    62
38.9241    57
38.9341    57
38.9441    44
38.9541    64
38.9641    64
38.9741    55
38.9841    56
38.9941    74
39.0041    52
39.0141    52
39.0241    56
39.0341    66
39.0441    54
39.0541    54
39.0641    56
39.0741    62
39.0841    42
39.0941    55
39.1041    69
39.1141    54
39.1241    60
39.1341    57
39.1441    51
39.1541    53
39.1641    53
39.1741    48
39.1841    50
39.1941    44
39.2041    59
39.2141    51
39.2241    52
39.2341    54
39.2441    56
39.2541    58
39.2641    57
39.2741    38
39.2841    44
39.2941    46
39.3041    50
39.3141    61
39.3241    51
39.3341    54
39.3441    42
39.3541    44
39.3641    51
39.3741    56
39.3841    54
39.3941    56
39.4041    43
39.4141    61
39.4241    53
39.4341    46
39.4441    53
39.4541    54
39.4641    48
39.4741    47
39.4841    48
39.4941    45
39.5041    39
39.5141    47
39.5241    49
39.5341    43
39.5441    36
39.5541    34
39.5641    55
39.5741    50
39.5841    32
39.5941    54
39.6041    53
39.6141    52
39.6241    44
39.6341    44
39.6441    44
39.6541    44
39.6641    39
39.6741    30
39.6841    48
39.6941    51
39.7041    33
39.7141    47
39.7241    45
39.7341    29
39.7441    32
39.7541    50
39.7641    51
39.7741    46
39.7841    39
39.7941    40
39.8041    31
39.8141    46
39.8241    40
39.8341    54
39.8441    47
39.8541    38
39.8641    42
39.8741    33
39.8841    39
39.8941    41
39.9041    37
39.9141    35
39.9241    45
39.9341    44
39.9441    45
39.9541    42
39.9641    47
39.9741    50
39.9841    42
