Bruker Nano GmbH Berlin, Germany
Esprit 1.9

Date: 4/1/2021 4:18:45 PM
Real time: 34612
Life time: 32701
Pulse density: 78489


Detector type: XFlash 430
Window type: Custom type
Detector thickness: 0.45
Si dead layer:0.029

Calibration, lin.: 10
Calibration, abs.: -955.9
Mn FWHM: 137.05
Fano factor: 0.121
Channels: 4096

Energy Counts
-0.9559      0
-0.9459      0
-0.9359      0
-0.9259      0
-0.9159      0
-0.9059      0
-0.8959      0
-0.8859      0
-0.8759      0
-0.8659      0
-0.8559      0
-0.8459      0
-0.8359      0
-0.8259      0
-0.8159      0
-0.8059      0
-0.7959      0
-0.7859      0
-0.7759      0
-0.7659      0
-0.7559      0
-0.7459      0
-0.7359      0
-0.7259      0
-0.7159      0
-0.7059      0
-0.6959      0
-0.6859      0
-0.6759      0
-0.6659      0
-0.6559      0
-0.6459      0
-0.6359      0
-0.6259      0
-0.6159      0
-0.6059      0
-0.5959      0
-0.5859      0
-0.5759      0
-0.5659      0
-0.5559      0
-0.5459      0
-0.5359      0
-0.5259      0
-0.5159      0
-0.5059      0
-0.4959      0
-0.4859      0
-0.4759      0
-0.4659      0
-0.4559      0
-0.4459      0
-0.4359      0
-0.4259      0
-0.4159      0
-0.4059      0
-0.3959      0
-0.3859      0
-0.3759      0
-0.3659      0
-0.3559      0
-0.3459      0
-0.3359      0
-0.3259      0
-0.3159      0
-0.3059      0
-0.2959      0
-0.2859      0
-0.2759      0
-0.2659      0
-0.2559      0
-0.2459      0
-0.2359      0
-0.2259      0
-0.2159      0
-0.2059      0
-0.1959      0
-0.1859      0
-0.1759      0
-0.1659      0
-0.1559      0
-0.1459      0
-0.1359      0
-0.1259      2
-0.1159      9
-0.1059     26
-0.0959     98
-0.0859    377
-0.0759   1284
-0.0659   3799
-0.0559   9499
-0.0459  20741
-0.0359  38919
-0.0259  62024
-0.0159  85494
-0.0059 100398
 0.0041 101057
 0.0141  86853
 0.0241  63851
 0.0341  40563
 0.0441  21862
 0.0541  10119
 0.0641   4135
 0.0741   1455
 0.0841    432
 0.0941    140
 0.1041     31
 0.1141     24
 0.1241     12
 0.1341      8
 0.1441     17
 0.1541     12
 0.1641      7
 0.1741      4
 0.1841    328
 0.1941    601
 0.2041    515
 0.2141    557
 0.2241    550
 0.2341    522
 0.2441    539
 0.2541    539
 0.2641    571
 0.2741    553
 0.2841    554
 0.2941    557
 0.3041    545
 0.3141    520
 0.3241    502
 0.3341    498
 0.3441    496
 0.3541    488
 0.3641    474
 0.3741    507
 0.3841    488
 0.3941    480
 0.4041    483
 0.4141    459
 0.4241    484
 0.4341    478
 0.4441    468
 0.4541    463
 0.4641    450
 0.4741    454
 0.4841    459
 0.4941    456
 0.5041    462
 0.5141    449
 0.5241    454
 0.5341    481
 0.5441    473
 0.5541    440
 0.5641    442
 0.5741    430
 0.5841    443
 0.5941    439
 0.6041    417
 0.6141    413
 0.6241    406
 0.6341    396
 0.6441    421
 0.6541    413
 0.6641    418
 0.6741    416
 0.6841    370
 0.6941    381
 0.7041    395
 0.7141    409
 0.7241    413
 0.7341    409
 0.7441    407
 0.7541    373
 0.7641    371
 0.7741    389
 0.7841    378
 0.7941    361
 0.8041    381
 0.8141    378
 0.8241    381
 0.8341    388
 0.8441    404
 0.8541    377
 0.8641    348
 0.8741    347
 0.8841    362
 0.8941    372
 0.9041    373
 0.9141    364
 0.9241    327
 0.9341    345
 0.9441    354
 0.9541    372
 0.9641    353
 0.9741    345
 0.9841    371
 0.9941    336
 1.0041    353
 1.0141    343
 1.0241    340
 1.0341    342
 1.0441    349
 1.0541    345
 1.0641    364
 1.0741    356
 1.0841    334
 1.0941    328
 1.1041    325
 1.1141    326
 1.1241    342
 1.1341    355
 1.1441    302
 1.1541    318
 1.1641    331
 1.1741    346
 1.1841    341
 1.1941    339
 1.2041    324
 1.2141    349
 1.2241    331
 1.2341    304
 1.2441    314
 1.2541    340
 1.2641    334
 1.2741    307
 1.2841    293
 1.2941    330
 1.3041    322
 1.3141    336
 1.3241    336
 1.3341    309
 1.3441    317
 1.3541    304
 1.3641    319
 1.3741    330
 1.3841    302
 1.3941    298
 1.4041    287
 1.4141    317
 1.4241    325
 1.4341    271
 1.4441    319
 1.4541    289
 1.4641    312
 1.4741    346
 1.4841    276
 1.4941    288
 1.5041    307
 1.5141    289
 1.5241    322
 1.5341    321
 1.5441    327
 1.5541    290
 1.5641    298
 1.5741    298
 1.5841    299
 1.5941    295
 1.6041    332
 1.6141    314
 1.6241    297
 1.6341    343
 1.6441    333
 1.6541    325
 1.6641    429
 1.6741    531
 1.6841    579
 1.6941    749
 1.7041    889
 1.7141   1028
 1.7241   1134
 1.7341   1175
 1.7441   1192
 1.7541   1099
 1.7641   1044
 1.7741    890
 1.7841    740
 1.7941    608
 1.8041    519
 1.8141    492
 1.8241    431
 1.8341    396
 1.8441    378
 1.8541    320
 1.8641    309
 1.8741    331
 1.8841    340
 1.8941    325
 1.9041    322
 1.9141    322
 1.9241    303
 1.9341    330
 1.9441    328
 1.9541    316
 1.9641    343
 1.9741    380
 1.9841    382
 1.9941    364
 2.0041    354
 2.0141    369
 2.0241    375
 2.0341    340
 2.0441    321
 2.0541    334
 2.0641    318
 2.0741    294
 2.0841    301
 2.0941    294
 2.1041    279
 2.1141    281
 2.1241    275
 2.1341    291
 2.1441    290
 2.1541    296
 2.1641    273
 2.1741    308
 2.1841    255
 2.1941    293
 2.2041    272
 2.2141    270
 2.2241    290
 2.2341    284
 2.2441    270
 2.2541    240
 2.2641    259
 2.2741    231
 2.2841    236
 2.2941    268
 2.3041    275
 2.3141    242
 2.3241    234
 2.3341    246
 2.3441    263
 2.3541    253
 2.3641    274
 2.3741    264
 2.3841    257
 2.3941    234
 2.4041    245
 2.4141    251
 2.4241    247
 2.4341    227
 2.4441    225
 2.4541    228
 2.4641    231
 2.4741    247
 2.4841    239
 2.4941    243
 2.5041    243
 2.5141    257
 2.5241    228
 2.5341    249
 2.5441    239
 2.5541    231
 2.5641    216
 2.5741    206
 2.5841    232
 2.5941    245
 2.6041    223
 2.6141    232
 2.6241    218
 2.6341    219
 2.6441    205
 2.6541    230
 2.6641    202
 2.6741    212
 2.6841    217
 2.6941    218
 2.7041    219
 2.7141    207
 2.7241    215
 2.7341    215
 2.7441    195
 2.7541    218
 2.7641    245
 2.7741    216
 2.7841    223
 2.7941    221
 2.8041    239
 2.8141    229
 2.8241    231
 2.8341    244
 2.8441    240
 2.8541    232
 2.8641    249
 2.8741    215
 2.8841    208
 2.8941    195
 2.9041    238
 2.9141    212
 2.9241    211
 2.9341    206
 2.9441    205
 2.9541    205
 2.9641    180
 2.9741    192
 2.9841    203
 2.9941    192
 3.0041    213
 3.0141    203
 3.0241    204
 3.0341    223
 3.0441    194
 3.0541    201
 3.0641    190
 3.0741    205
 3.0841    212
 3.0941    213
 3.1041    211
 3.1141    183
 3.1241    182
 3.1341    191
 3.1441    183
 3.1541    158
 3.1641    181
 3.1741    184
 3.1841    195
 3.1941    190
 3.2041    176
 3.2141    151
 3.2241    185
 3.2341    191
 3.2441    162
 3.2541    197
 3.2641    195
 3.2741    183
 3.2841    191
 3.2941    178
 3.3041    184
 3.3141    159
 3.3241    174
 3.3341    169
 3.3441    191
 3.3541    169
 3.3641    179
 3.3741    149
 3.3841    173
 3.3941    175
 3.4041    182
 3.4141    169
 3.4241    164
 3.4341    155
 3.4441    148
 3.4541    157
 3.4641    198
 3.4741    177
 3.4841    166
 3.4941    157
 3.5041    166
 3.5141    181
 3.5241    185
 3.5341    161
 3.5441    178
 3.5541    221
 3.5641    218
 3.5741    261
 3.5841    324
 3.5941    369
 3.6041    452
 3.6141    607
 3.6241    722
 3.6341    933
 3.6441   1077
 3.6541   1209
 3.6641   1485
 3.6741   1478
 3.6841   1591
 3.6941   1593
 3.7041   1568
 3.7141   1424
 3.7241   1293
 3.7341   1140
 3.7441    893
 3.7541    701
 3.7641    616
 3.7741    478
 3.7841    362
 3.7941    314
 3.8041    231
 3.8141    191
 3.8241    179
 3.8341    164
 3.8441    156
 3.8541    164
 3.8641    149
 3.8741    137
 3.8841    140
 3.8941    158
 3.9041    145
 3.9141    166
 3.9241    186
 3.9341    199
 3.9441    198
 3.9541    203
 3.9641    232
 3.9741    253
 3.9841    266
 3.9941    270
 4.0041    322
 4.0141    322
 4.0241    320
 4.0341    268
 4.0441    262
 4.0541    256
 4.0641    229
 4.0741    219
 4.0841    219
 4.0941    193
 4.1041    170
 4.1141    154
 4.1241    139
 4.1341    130
 4.1441    131
 4.1541    122
 4.1641    130
 4.1741    121
 4.1841    119
 4.1941    120
 4.2041    119
 4.2141    103
 4.2241    106
 4.2341    130
 4.2441    116
 4.2541    131
 4.2641    111
 4.2741    124
 4.2841    128
 4.2941    136
 4.3041    126
 4.3141    138
 4.3241    123
 4.3341    130
 4.3441    106
 4.3541    119
 4.3641    132
 4.3741    122
 4.3841    134
 4.3941    131
 4.4041    128
 4.4141    150
 4.4241    156
 4.4341    162
 4.4441    157
 4.4541    170
 4.4641    191
 4.4741    170
 4.4841    192
 4.4941    210
 4.5041    224
 4.5141    229
 4.5241    216
 4.5341    200
 4.5441    181
 4.5541    197
 4.5641    202
 4.5741    175
 4.5841    147
 4.5941    164
 4.6041    149
 4.6141    135
 4.6241    146
 4.6341    144
 4.6441    138
 4.6541    139
 4.6641    139
 4.6741    120
 4.6841    133
 4.6941    129
 4.7041    141
 4.7141    144
 4.7241    133
 4.7341    149
 4.7441    136
 4.7541    101
 4.7641    105
 4.7741    118
 4.7841    137
 4.7941    115
 4.8041    126
 4.8141    115
 4.8241    128
 4.8341    139
 4.8441    123
 4.8541    121
 4.8641    141
 4.8741    129
 4.8841    134
 4.8941    160
 4.9041    146
 4.9141    129
 4.9241    147
 4.9341    143
 4.9441    140
 4.9541    145
 4.9641    142
 4.9741    165
 4.9841    146
 4.9941    169
 5.0041    158
 5.0141    150
 5.0241    130
 5.0341    145
 5.0441    162
 5.0541    147
 5.0641    166
 5.0741    161
 5.0841    129
 5.0941    135
 5.1041    141
 5.1141    136
 5.1241    150
 5.1341    141
 5.1441    136
 5.1541    140
 5.1641    117
 5.1741    128
 5.1841    139
 5.1941    117
 5.2041    152
 5.2141    161
 5.2241    154
 5.2341    133
 5.2441    134
 5.2541    144
 5.2641    156
 5.2741    139
 5.2841    157
 5.2941    140
 5.3041    155
 5.3141    148
 5.3241    150
 5.3341    146
 5.3441    162
 5.3541    181
 5.3641    165
 5.3741    177
 5.3841    161
 5.3941    162
 5.4041    192
 5.4141    191
 5.4241    170
 5.4341    174
 5.4441    153
 5.4541    179
 5.4641    164
 5.4741    140
 5.4841    153
 5.4941    180
 5.5041    155
 5.5141    133
 5.5241    145
 5.5341    160
 5.5441    136
 5.5541    155
 5.5641    141
 5.5741    152
 5.5841    151
 5.5941    161
 5.6041    157
 5.6141    140
 5.6241    142
 5.6341    124
 5.6441    136
 5.6541    137
 5.6641    122
 5.6741    179
 5.6841    181
 5.6941    146
 5.7041    171
 5.7141    183
 5.7241    164
 5.7341    177
 5.7441    171
 5.7541    174
 5.7641    174
 5.7741    190
 5.7841    182
 5.7941    157
 5.8041    188
 5.8141    196
 5.8241    162
 5.8341    163
 5.8441    198
 5.8541    199
 5.8641    217
 5.8741    210
 5.8841    210
 5.8941    214
 5.9041    205
 5.9141    193
 5.9241    222
 5.9341    184
 5.9441    196
 5.9541    194
 5.9641    209
 5.9741    174
 5.9841    206
 5.9941    188
 6.0041    189
 6.0141    194
 6.0241    172
 6.0341    199
 6.0441    190
 6.0541    166
 6.0641    200
 6.0741    193
 6.0841    180
 6.0941    178
 6.1041    207
 6.1141    200
 6.1241    196
 6.1341    175
 6.1441    174
 6.1541    190
 6.1641    178
 6.1741    214
 6.1841    186
 6.1941    237
 6.2041    208
 6.2141    257
 6.2241    278
 6.2341    322
 6.2441    354
 6.2541    486
 6.2641    559
 6.2741    752
 6.2841    897
 6.2941   1273
 6.3041   1561
 6.3141   1858
 6.3241   2277
 6.3341   2746
 6.3441   3203
 6.3541   3667
 6.3641   3930
 6.3741   4392
 6.3841   4504
 6.3941   4761
 6.4041   4682
 6.4141   4414
 6.4241   4210
 6.4341   3740
 6.4441   3486
 6.4541   3027
 6.4641   2568
 6.4741   2123
 6.4841   1752
 6.4941   1394
 6.5041   1138
 6.5141    879
 6.5241    678
 6.5341    498
 6.5441    429
 6.5541    346
 6.5641    263
 6.5741    223
 6.5841    216
 6.5941    238
 6.6041    197
 6.6141    183
 6.6241    200
 6.6341    187
 6.6441    195
 6.6541    195
 6.6641    208
 6.6741    201
 6.6841    193
 6.6941    209
 6.7041    199
 6.7141    212
 6.7241    205
 6.7341    196
 6.7441    214
 6.7541    214
 6.7641    195
 6.7741    196
 6.7841    208
 6.7941    227
 6.8041    229
 6.8141    203
 6.8241    252
 6.8341    206
 6.8441    246
 6.8541    266
 6.8641    245
 6.8741    261
 6.8841    308
 6.8941    265
 6.9041    300
 6.9141    340
 6.9241    359
 6.9341    372
 6.9441    410
 6.9541    482
 6.9641    499
 6.9741    568
 6.9841    609
 6.9941    713
 7.0041    737
 7.0141    805
 7.0241    815
 7.0341    848
 7.0441    930
 7.0541    943
 7.0641    937
 7.0741    914
 7.0841    838
 7.0941    791
 7.1041    784
 7.1141    664
 7.1241    649
 7.1341    570
 7.1441    545
 7.1541    463
 7.1641    413
 7.1741    416
 7.1841    363
 7.1941    318
 7.2041    331
 7.2141    309
 7.2241    327
 7.2341    358
 7.2441    340
 7.2541    326
 7.2641    310
 7.2741    341
 7.2841    386
 7.2941    373
 7.3041    365
 7.3141    389
 7.3241    391
 7.3341    441
 7.3441    394
 7.3541    470
 7.3641    467
 7.3741    480
 7.3841    506
 7.3941    459
 7.4041    492
 7.4141    459
 7.4241    474
 7.4341    500
 7.4441    483
 7.4541    476
 7.4641    445
 7.4741    406
 7.4841    405
 7.4941    418
 7.5041    377
 7.5141    366
 7.5241    378
 7.5341    368
 7.5441    359
 7.5541    386
 7.5641    349
 7.5741    328
 7.5841    338
 7.5941    381
 7.6041    349
 7.6141    346
 7.6241    360
 7.6341    354
 7.6441    373
 7.6541    371
 7.6641    405
 7.6741    384
 7.6841    359
 7.6941    393
 7.7041    357
 7.7141    368
 7.7241    439
 7.7341    419
 7.7441    425
 7.7541    396
 7.7641    446
 7.7741    444
 7.7841    426
 7.7941    401
 7.8041    463
 7.8141    470
 7.8241    492
 7.8341    474
 7.8441    518
 7.8541    492
 7.8641    499
 7.8741    559
 7.8841    564
 7.8941    591
 7.9041    642
 7.9141    679
 7.9241    663
 7.9341    709
 7.9441    714
 7.9541    755
 7.9641    818
 7.9741    896
 7.9841    984
 7.9941   1052
 8.0041   1068
 8.0141   1165
 8.0241   1237
 8.0341   1310
 8.0441   1370
 8.0541   1539
 8.0641   1526
 8.0741   1688
 8.0841   1677
 8.0941   1862
 8.1041   1982
 8.1141   2088
 8.1241   2096
 8.1341   2200
 8.1441   2346
 8.1541   2305
 8.1641   2411
 8.1741   2513
 8.1841   2507
 8.1941   2481
 8.2041   2490
 8.2141   2483
 8.2241   2634
 8.2341   2614
 8.2441   2815
 8.2541   2868
 8.2641   3085
 8.2741   3323
 8.2841   3641
 8.2941   3842
 8.3041   4219
 8.3141   4749
 8.3241   5150
 8.3341   5576
 8.3441   6041
 8.3541   6495
 8.3641   6713
 8.3741   6981
 8.3841   7137
 8.3941   7195
 8.4041   6927
 8.4141   6736
 8.4241   6438
 8.4341   6030
 8.4441   5540
 8.4541   4873
 8.4641   4292
 8.4741   3726
 8.4841   3151
 8.4941   2718
 8.5041   2263
 8.5141   1918
 8.5241   1604
 8.5341   1269
 8.5441   1065
 8.5541    963
 8.5641    837
 8.5741    704
 8.5841    654
 8.5941    634
 8.6041    599
 8.6141    581
 8.6241    554
 8.6341    594
 8.6441    598
 8.6541    562
 8.6641    596
 8.6741    606
 8.6841    606
 8.6941    651
 8.7041    611
 8.7141    609
 8.7241    631
 8.7341    639
 8.7441    612
 8.7541    555
 8.7641    564
 8.7741    573
 8.7841    629
 8.7941    569
 8.8041    578
 8.8141    506
 8.8241    559
 8.8341    573
 8.8441    599
 8.8541    621
 8.8641    561
 8.8741    574
 8.8841    576
 8.8941    597
 8.9041    620
 8.9141    592
 8.9241    597
 8.9341    598
 8.9441    625
 8.9541    630
 8.9641    612
 8.9741    639
 8.9841    657
 8.9941    650
 9.0041    650
 9.0141    694
 9.0241    717
 9.0341    706
 9.0441    737
 9.0541    752
 9.0641    783
 9.0741    736
 9.0841    828
 9.0941    815
 9.1041    855
 9.1141    958
 9.1241    967
 9.1341    936
 9.1441    933
 9.1541   1015
 9.1641   1087
 9.1741   1166
 9.1841   1144
 9.1941   1214
 9.2041   1298
 9.2141   1455
 9.2241   1410
 9.2341   1484
 9.2441   1557
 9.2541   1675
 9.2641   1671
 9.2741   1758
 9.2841   1817
 9.2941   1876
 9.3041   1959
 9.3141   1985
 9.3241   2109
 9.3341   2234
 9.3441   2254
 9.3541   2287
 9.3641   2307
 9.3741   2340
 9.3841   2440
 9.3941   2538
 9.4041   2501
 9.4141   2512
 9.4241   2470
 9.4341   2528
 9.4441   2544
 9.4541   2648
 9.4641   2715
 9.4741   2732
 9.4841   2768
 9.4941   2789
 9.5041   2834
 9.5141   2854
 9.5241   2966
 9.5341   3091
 9.5441   3183
 9.5541   3372
 9.5641   3510
 9.5741   3681
 9.5841   3866
 9.5941   4142
 9.6041   4401
 9.6141   4501
 9.6241   4754
 9.6341   4961
 9.6441   5149
 9.6541   5117
 9.6641   5139
 9.6741   5055
 9.6841   5048
 9.6941   4977
 9.7041   4769
 9.7141   4578
 9.7241   4373
 9.7341   4042
 9.7441   3689
 9.7541   3465
 9.7641   3298
 9.7741   3116
 9.7841   2928
 9.7941   2711
 9.8041   2577
 9.8141   2469
 9.8241   2416
 9.8341   2381
 9.8441   2386
 9.8541   2343
 9.8641   2370
 9.8741   2357
 9.8841   2414
 9.8941   2515
 9.9041   2631
 9.9141   2650
 9.9241   2749
 9.9341   2671
 9.9441   2708
 9.9541   2699
 9.9641   2644
 9.9741   2553
 9.9841   2495
 9.9941   2319
10.0041   2147
10.0141   1983
10.0241   1885
10.0341   1719
10.0441   1540
10.0541   1357
10.0641   1193
10.0741   1089
10.0841    941
10.0941    846
10.1041    780
10.1141    765
10.1241    677
10.1341    601
10.1441    577
10.1541    543
10.1641    527
10.1741    491
10.1841    493
10.1941    464
10.2041    442
10.2141    420
10.2241    437
10.2341    430
10.2441    407
10.2541    376
10.2641    369
10.2741    374
10.2841    353
10.2941    376
10.3041    341
10.3141    354
10.3241    337
10.3341    330
10.3441    350
10.3541    349
10.3641    309
10.3741    337
10.3841    339
10.3941    340
10.4041    330
10.4141    332
10.4241    297
10.4341    298
10.4441    329
10.4541    327
10.4641    333
10.4741    316
10.4841    343
10.4941    341
10.5041    332
10.5141    331
10.5241    351
10.5341    352
10.5441    342
10.5541    319
10.5641    357
10.5741    336
10.5841    358
10.5941    364
10.6041    381
10.6141    368
10.6241    369
10.6341    386
10.6441    383
10.6541    372
10.6641    384
10.6741    401
10.6841    409
10.6941    392
10.7041    431
10.7141    430
10.7241    433
10.7341    407
10.7441    459
10.7541    431
10.7641    400
10.7741    431
10.7841    462
10.7941    478
10.8041    477
10.8141    509
10.8241    540
10.8341    542
10.8441    533
10.8541    542
10.8641    559
10.8741    560
10.8841    553
10.8941    567
10.9041    569
10.9141    582
10.9241    620
10.9341    607
10.9441    596
10.9541    557
10.9641    559
10.9741    585
10.9841    584
10.9941    566
11.0041    530
11.0141    526
11.0241    527
11.0341    549
11.0441    531
11.0541    491
11.0641    499
11.0741    519
11.0841    546
11.0941    538
11.1041    516
11.1141    513
11.1241    507
11.1341    573
11.1441    550
11.1541    561
11.1641    587
11.1741    614
11.1841    635
11.1941    660
11.2041    712
11.2141    696
11.2241    750
11.2341    787
11.2441    844
11.2541    853
11.2641    819
11.2741    840
11.2841    850
11.2941    848
11.3041    830
11.3141    838
11.3241    804
11.3341    766
11.3441    725
11.3541    670
11.3641    631
11.3741    614
11.3841    567
11.3941    562
11.4041    557
11.4141    480
11.4241    450
11.4341    448
11.4441    435
11.4541    418
11.4641    414
11.4741    421
11.4841    414
11.4941    402
11.5041    427
11.5141    413
11.5241    384
11.5341    402
11.5441    377
11.5541    402
11.5641    431
11.5741    448
11.5841    428
11.5941    424
11.6041    437
11.6141    448
11.6241    441
11.6341    458
11.6441    461
11.6541    416
11.6641    413
11.6741    421
11.6841    423
11.6941    394
11.7041    416
11.7141    394
11.7241    372
11.7341    379
11.7441    352
11.7541    345
11.7641    353
11.7741    354
11.7841    317
11.7941    317
11.8041    323
11.8141    331
11.8241    329
11.8341    317
11.8441    308
11.8541    320
11.8641    319
11.8741    312
11.8841    293
11.8941    303
11.9041    306
11.9141    282
11.9241    291
11.9341    292
11.9441    311
11.9541    316
11.9641    305
11.9741    323
11.9841    304
11.9941    299
12.0041    309
12.0141    327
12.0241    324
12.0341    313
12.0441    321
12.0541    314
12.0641    286
12.0741    310
12.0841    288
12.0941    290
12.1041    301
12.1141    302
12.1241    302
12.1341    288
12.1441    293
12.1541    305
12.1641    304
12.1741    299
12.1841    294
12.1941    295
12.2041    299
12.2141    313
12.2241    312
12.2341    297
12.2441    295
12.2541    289
12.2641    321
12.2741    319
12.2841    303
12.2941    299
12.3041    289
12.3141    284
12.3241    290
12.3341    294
12.3441    310
12.3541    308
12.3641    290
12.3741    299
12.3841    297
12.3941    307
12.4041    310
12.4141    313
12.4241    291
12.4341    301
12.4441    306
12.4541    307
12.4641    321
12.4741    322
12.4841    349
12.4941    332
12.5041    323
12.5141    315
12.5241    307
12.5341    295
12.5441    301
12.5541    310
12.5641    329
12.5741    339
12.5841    314
12.5941    325
12.6041    331
12.6141    317
12.6241    314
12.6341    329
12.6441    311
12.6541    311
12.6641    313
12.6741    322
12.6841    333
12.6941    338
12.7041    326
12.7141    323
12.7241    342
12.7341    338
12.7441    339
12.7541    354
12.7641    354
12.7741    350
12.7841    329
12.7941    321
12.8041    328
12.8141    338
12.8241    326
12.8341    347
12.8441    339
12.8541    349
12.8641    331
12.8741    327
12.8841    365
12.8941    384
12.9041    357
12.9141    352
12.9241    363
12.9341    354
12.9441    353
12.9541    353
12.9641    344
12.9741    355
12.9841    362
12.9941    352
13.0041    350
13.0141    358
13.0241    376
13.0341    358
13.0441    352
13.0541    372
13.0641    357
13.0741    351
13.0841    368
13.0941    362
13.1041    369
13.1141    373
13.1241    369
13.1341    367
13.1441    356
13.1541    356
13.1641    360
13.1741    363
13.1841    368
13.1941    367
13.2041    362
13.2141    352
13.2241    364
13.2341    377
13.2441    367
13.2541    356
13.2641    380
13.2741    367
13.2841    347
13.2941    379
13.3041    387
13.3141    394
13.3241    409
13.3341    388
13.3441    388
13.3541    397
13.3641    389
13.3741    384
13.3841    373
13.3941    374
13.4041    384
13.4141    383
13.4241    393
13.4341    390
13.4441    389
13.4541    416
13.4641    433
13.4741    419
13.4841    417
13.4941    421
13.5041    402
13.5141    394
13.5241    398
13.5341    413
13.5441    425
13.5541    435
13.5641    440
13.5741    445
13.5841    430
13.5941    413
13.6041    423
13.6141    434
13.6241    430
13.6341    424
13.6441    447
13.6541    426
13.6641    400
13.6741    425
13.6841    437
13.6941    433
13.7041    423
13.7141    430
13.7241    429
13.7341    434
13.7441    450
13.7541    454
13.7641    442
13.7741    466
13.7841    461
13.7941    425
13.8041    427
13.8141    437
13.8241    449
13.8341    455
13.8441    442
13.8541    436
13.8641    430
13.8741    428
13.8841    437
13.8941    433
13.9041    448
13.9141    465
13.9241    478
13.9341    464
13.9441    437
13.9541    450
13.9641    457
13.9741    449
13.9841    487
13.9941    484
14.0041    441
14.0141    459
14.0241    494
14.0341    483
14.0441    473
14.0541    496
14.0641    480
14.0741    466
14.0841    488
14.0941    508
14.1041    503
14.1141    471
14.1241    457
14.1341    473
14.1441    486
14.1541    490
14.1641    507
14.1741    530
14.1841    511
14.1941    492
14.2041    487
14.2141    477
14.2241    492
14.2341    501
14.2441    489
14.2541    495
14.2641    513
14.2741    500
14.2841    500
14.2941    511
14.3041    502
14.3141    496
14.3241    463
14.3341    459
14.3441    498
14.3541    503
14.3641    521
14.3741    518
14.3841    511
14.3941    521
14.4041    501
14.4141    495
14.4241    520
14.4341    530
14.4441    536
14.4541    542
14.4641    532
14.4741    523
14.4841    532
14.4941    532
14.5041    531
14.5141    515
14.5241    502
14.5341    510
14.5441    530
14.5541    547
14.5641    552
14.5741    545
14.5841    537
14.5941    565
14.6041    567
14.6141    532
14.6241    525
14.6341    517
14.6441    536
14.6541    541
14.6641    544
14.6741    555
14.6841    553
14.6941    560
14.7041    559
14.7141    533
14.7241    542
14.7341    571
14.7441    567
14.7541    560
14.7641    589
14.7741    590
14.7841    583
14.7941    589
14.8041    597
14.8141    608
14.8241    595
14.8341    618
14.8441    610
14.8541    597
14.8641    596
14.8741    599
14.8841    625
14.8941    630
14.9041    614
14.9141    639
14.9241    641
14.9341    630
14.9441    636
14.9541    644
14.9641    625
14.9741    633
14.9841    625
14.9941    639
15.0041    618
15.0141    609
15.0241    623
15.0341    616
15.0441    582
15.0541    585
15.0641    590
15.0741    585
15.0841    608
15.0941    599
15.1041    610
15.1141    605
15.1241    594
15.1341    593
15.1441    584
15.1541    606
15.1641    620
15.1741    594
15.1841    590
15.1941    600
15.2041    593
15.2141    594
15.2241    613
15.2341    628
15.2441    598
15.2541    606
15.2641    604
15.2741    616
15.2841    592
15.2941    582
15.3041    616
15.3141    615
15.3241    599
15.3341    594
15.3441    598
15.3541    622
15.3641    630
15.3741    621
15.3841    605
15.3941    595
15.4041    563
15.4141    593
15.4241    584
15.4341    607
15.4441    609
15.4541    635
15.4641    612
15.4741    622
15.4841    616
15.4941    606
15.5041    622
15.5141    641
15.5241    673
15.5341    645
15.5441    627
15.5541    650
15.5641    650
15.5741    651
15.5841    657
15.5941    660
15.6041    670
15.6141    698
15.6241    694
15.6341    705
15.6441    731
15.6541    755
15.6641    733
15.6741    754
15.6841    768
15.6941    765
15.7041    786
15.7141    792
15.7241    798
15.7341    802
15.7441    780
15.7541    766
15.7641    760
15.7741    804
15.7841    805
15.7941    795
15.8041    773
15.8141    745
15.8241    753
15.8341    745
15.8441    758
15.8541    739
15.8641    715
15.8741    734
15.8841    746
15.8941    727
15.9041    694
15.9141    694
15.9241    672
15.9341    681
15.9441    713
15.9541    705
15.9641    692
15.9741    670
15.9841    688
15.9941    706
16.0041    689
16.0141    687
16.0241    669
16.0341    674
16.0441    687
16.0541    705
16.0641    697
16.0741    696
16.0841    726
16.0941    691
16.1041    688
16.1141    714
16.1241    700
16.1341    703
16.1441    718
16.1541    719
16.1641    726
16.1741    718
16.1841    663
16.1941    681
16.2041    678
16.2141    676
16.2241    697
16.2341    761
16.2441    718
16.2541    686
16.2641    695
16.2741    699
16.2841    719
16.2941    754
16.3041    741
16.3141    753
16.3241    718
16.3341    715
16.3441    723
16.3541    711
16.3641    713
16.3741    760
16.3841    792
16.3941    742
16.4041    738
16.4141    753
16.4241    731
16.4341    729
16.4441    770
16.4541    733
16.4641    748
16.4741    754
16.4841    732
16.4941    698
16.5041    696
16.5141    700
16.5241    726
16.5341    758
16.5441    757
16.5541    775
16.5641    775
16.5741    759
16.5841    774
16.5941    736
16.6041    741
16.6141    758
16.6241    802
16.6341    797
16.6441    742
16.6541    811
16.6641    799
16.6741    780
16.6841    802
16.6941    830
16.7041    804
16.7141    784
16.7241    767
16.7341    773
16.7441    809
16.7541    807
16.7641    775
16.7741    801
16.7841    819
16.7941    791
16.8041    792
16.8141    814
16.8241    816
16.8341    798
16.8441    791
16.8541    820
16.8641    808
16.8741    759
16.8841    801
16.8941    829
16.9041    813
16.9141    813
16.9241    812
16.9341    829
16.9441    803
16.9541    811
16.9641    807
16.9741    767
16.9841    802
16.9941    862
17.0041    836
17.0141    801
17.0241    782
17.0341    806
17.0441    804
17.0541    840
17.0641    811
17.0741    811
17.0841    827
17.0941    814
17.1041    819
17.1141    831
17.1241    827
17.1341    805
17.1441    829
17.1541    821
17.1641    820
17.1741    839
17.1841    821
17.1941    776
17.2041    799
17.2141    813
17.2241    803
17.2341    881
17.2441    837
17.2541    856
17.2641    861
17.2741    866
17.2841    846
17.2941    851
17.3041    869
17.3141    838
17.3241    862
17.3341    876
17.3441    852
17.3541    846
17.3641    856
17.3741    870
17.3841    868
17.3941    832
17.4041    865
17.4141    890
17.4241    864
17.4341    834
17.4441    841
17.4541    849
17.4641    907
17.4741    939
17.4841    926
17.4941    893
17.5041    880
17.5141    884
17.5241    888
17.5341    875
17.5441    860
17.5541    893
17.5641    929
17.5741    891
17.5841    870
17.5941    890
17.6041    889
17.6141    907
17.6241    900
17.6341    893
17.6441    946
17.6541    906
17.6641    908
17.6741    924
17.6841    915
17.6941    912
17.7041    902
17.7141    890
17.7241    917
17.7341    937
17.7441    935
17.7541    921
17.7641    926
17.7741    959
17.7841    934
17.7941    915
17.8041    909
17.8141    934
17.8241    927
17.8341    912
17.8441    920
17.8541    899
17.8641    906
17.8741    888
17.8841    922
17.8941    968
17.9041    951
17.9141    935
17.9241    939
17.9341    924
17.9441    921
17.9541    884
17.9641    958
17.9741    962
17.9841    916
17.9941    916
18.0041    961
18.0141    915
18.0241    927
18.0341    916
18.0441    922
18.0541    922
18.0641    962
18.0741    997
18.0841    950
18.0941    958
18.1041    967
18.1141   1002
18.1241    941
18.1341    936
18.1441    958
18.1541    976
18.1641    934
18.1741    954
18.1841    945
18.1941    922
18.2041    965
18.2141    960
18.2241    939
18.2341    974
18.2441    995
18.2541    973
18.2641    983
18.2741   1000
18.2841   1010
18.2941    982
18.3041    945
18.3141   1002
18.3241    981
18.3341    962
18.3441    951
18.3541    993
18.3641    961
18.3741    928
18.3841    910
18.3941    952
18.4041    975
18.4141    935
18.4241    987
18.4341    948
18.4441    955
18.4541    970
18.4641   1006
18.4741    940
18.4841    971
18.4941    960
18.5041   1005
18.5141    982
18.5241    980
18.5341    980
18.5441    971
18.5541    989
18.5641    994
18.5741    985
18.5841    953
18.5941    999
18.6041   1019
18.6141   1004
18.6241    983
18.6341    947
18.6441   1011
18.6541   1043
18.6641    936
18.6741   1001
18.6841   1023
18.6941    941
18.7041    958
18.7141    998
18.7241   1024
18.7341    965
18.7441    951
18.7541    967
18.7641   1012
18.7741    995
18.7841   1045
18.7941   1009
18.8041   1024
18.8141   1003
18.8241   1013
18.8341   1019
18.8441    993
18.8541    984
18.8641   1013
18.8741    969
18.8841    986
18.8941   1048
18.9041   1026
18.9141   1026
18.9241   1043
18.9341   1037
18.9441   1010
18.9541    982
18.9641    995
18.9741   1009
18.9841   1036
18.9941    978
19.0041   1055
19.0141   1031
19.0241   1038
19.0341    980
19.0441   1021
19.0541   1009
19.0641   1064
19.0741    953
19.0841    973
19.0941   1020
19.1041   1015
19.1141   1009
19.1241   1013
19.1341   1018
19.1441   1030
19.1541   1076
19.1641   1034
19.1741   1060
19.1841   1028
19.1941   1051
19.2041   1057
19.2141   1032
19.2241   1039
19.2341   1021
19.2441   1040
19.2541   1048
19.2641   1058
19.2741   1048
19.2841   1022
19.2941   1072
19.3041   1038
19.3141   1041
19.3241   1024
19.3341    985
19.3441   1061
19.3541   1039
19.3641   1045
19.3741   1042
19.3841   1050
19.3941   1049
19.4041   1079
19.4141   1030
19.4241   1073
19.4341   1089
19.4441   1003
19.4541   1000
19.4641   1035
19.4741   1112
19.4841   1086
19.4941   1075
19.5041   1043
19.5141   1062
19.5241   1055
19.5341   1087
19.5441   1016
19.5541   1022
19.5641   1078
19.5741   1052
19.5841   1064
19.5941   1128
19.6041   1101
19.6141   1051
19.6241   1036
19.6341   1056
19.6441    999
19.6541   1095
19.6641   1077
19.6741   1056
19.6841   1054
19.6941   1051
19.7041   1044
19.7141   1100
19.7241   1092
19.7341   1077
19.7441   1080
19.7541   1074
19.7641   1052
19.7741   1087
19.7841   1068
19.7941   1087
19.8041   1042
19.8141   1080
19.8241   1049
19.8341    977
19.8441   1091
19.8541   1129
19.8641   1088
19.8741   1069
19.8841   1061
19.8941   1051
19.9041   1082
19.9141   1107
19.9241   1077
19.9341   1065
19.9441   1098
19.9541   1042
19.9641   1047
19.9741   1057
19.9841   1083
19.9941   1012
20.0041   1039
20.0141   1047
20.0241   1046
20.0341   1045
20.0441   1110
20.0541   1082
20.0641   1054
20.0741   1075
20.0841   1045
20.0941   1078
20.1041   1108
20.1141   1081
20.1241   1129
20.1341   1022
20.1441   1071
20.1541   1098
20.1641   1129
20.1741   1123
20.1841   1083
20.1941   1076
20.2041   1057
20.2141   1052
20.2241   1109
20.2341   1061
20.2441   1132
20.2541   1083
20.2641   1092
20.2741   1074
20.2841   1046
20.2941   1076
20.3041   1076
20.3141   1051
20.3241   1115
20.3341   1132
20.3441   1104
20.3541   1128
20.3641   1138
20.3741   1105
20.3841   1099
20.3941   1131
20.4041   1069
20.4141   1053
20.4241   1045
20.4341   1104
20.4441   1072
20.4541   1078
20.4641   1072
20.4741   1123
20.4841   1036
20.4941   1093
20.5041   1089
20.5141   1107
20.5241   1205
20.5341   1098
20.5441   1127
20.5541   1092
20.5641   1123
20.5741   1132
20.5841   1063
20.5941   1060
20.6041   1148
20.6141   1130
20.6241   1069
20.6341   1128
20.6441   1155
20.6541   1114
20.6641   1127
20.6741   1095
20.6841   1119
20.6941   1101
20.7041   1068
20.7141   1086
20.7241   1087
20.7341   1108
20.7441   1071
20.7541   1080
20.7641   1065
20.7741   1051
20.7841   1088
20.7941   1129
20.8041   1118
20.8141   1142
20.8241   1171
20.8341   1125
20.8441   1109
20.8541   1166
20.8641   1195
20.8741   1172
20.8841   1175
20.8941   1254
20.9041   1239
20.9141   1299
20.9241   1196
20.9341   1301
20.9441   1309
20.9541   1342
20.9641   1363
20.9741   1402
20.9841   1356
20.9941   1388
21.0041   1432
21.0141   1441
21.0241   1475
21.0341   1564
21.0441   1529
21.0541   1533
21.0641   1515
21.0741   1517
21.0841   1533
21.0941   1528
21.1041   1609
21.1141   1672
21.1241   1654
21.1341   1676
21.1441   1608
21.1541   1610
21.1641   1652
21.1741   1616
21.1841   1563
21.1941   1516
21.2041   1516
21.2141   1507
21.2241   1490
21.2341   1501
21.2441   1412
21.2541   1479
21.2641   1412
21.2741   1393
21.2841   1403
21.2941   1259
21.3041   1290
21.3141   1231
21.3241   1224
21.3341   1282
21.3441   1198
21.3541   1138
21.3641   1175
21.3741   1169
21.3841   1143
21.3941   1087
21.4041   1114
21.4141   1147
21.4241   1096
21.4341   1099
21.4441   1081
21.4541   1088
21.4641   1046
21.4741   1146
21.4841   1127
21.4941   1121
21.5041   1079
21.5141   1090
21.5241   1103
21.5341   1101
21.5441   1049
21.5541   1115
21.5641   1142
21.5741   1092
21.5841   1067
21.5941   1077
21.6041   1101
21.6141   1094
21.6241   1028
21.6341   1042
21.6441   1060
21.6541   1109
21.6641   1104
21.6741   1050
21.6841   1070
21.6941   1145
21.7041   1113
21.7141   1035
21.7241   1132
21.7341   1041
21.7441   1053
21.7541   1142
21.7641   1077
21.7741   1060
21.7841   1075
21.7941   1056
21.8041   1070
21.8141   1052
21.8241   1032
21.8341   1072
21.8441   1058
21.8541   1068
21.8641   1070
21.8741   1107
21.8841   1122
21.8941   1035
21.9041   1090
21.9141   1138
21.9241   1091
21.9341   1077
21.9441   1105
21.9541   1068
21.9641   1097
21.9741   1072
21.9841   1043
21.9941   1063
22.0041   1076
22.0141   1060
22.0241   1082
22.0341   1054
22.0441   1069
22.0541   1028
22.0641   1072
22.0741   1070
22.0841   1065
22.0941   1097
22.1041   1090
22.1141   1073
22.1241   1100
22.1341   1147
22.1441   1082
22.1541   1072
22.1641   1136
22.1741   1039
22.1841   1058
22.1941   1106
22.2041   1050
22.2141   1086
22.2241   1122
22.2341   1078
22.2441   1040
22.2541   1076
22.2641   1059
22.2741   1082
22.2841   1060
22.2941   1072
22.3041   1057
22.3141   1103
22.3241   1070
22.3341   1038
22.3441   1029
22.3541   1010
22.3641   1093
22.3741   1073
22.3841   1040
22.3941   1040
22.4041   1047
22.4141   1092
22.4241   1060
22.4341   1045
22.4441   1048
22.4541   1085
22.4641   1059
22.4741   1039
22.4841   1071
22.4941   1101
22.5041   1056
22.5141   1025
22.5241   1073
22.5341   1062
22.5441   1086
22.5541   1054
22.5641   1112
22.5741   1063
22.5841   1061
22.5941   1059
22.6041   1113
22.6141   1084
22.6241   1053
22.6341   1006
22.6441   1023
22.6541   1106
22.6641   1071
22.6741   1048
22.6841   1086
22.6941   1010
22.7041   1069
22.7141   1057
22.7241   1051
22.7341   1011
22.7441   1039
22.7541   1039
22.7641   1048
22.7741    995
22.7841   1054
22.7941   1050
22.8041   1059
22.8141   1046
22.8241   1029
22.8341   1017
22.8441   1027
22.8541   1061
22.8641   1094
22.8741   1028
22.8841   1057
22.8941    985
22.9041   1051
22.9141   1058
22.9241   1030
22.9341   1022
22.9441   1051
22.9541    993
22.9641    990
22.9741   1054
22.9841   1029
22.9941   1039
23.0041   1046
23.0141   1028
23.0241   1057
23.0341   1132
23.0441   1038
23.0541   1012
23.0641   1068
23.0741    976
23.0841   1055
23.0941   1034
23.1041   1002
23.1141   1010
23.1241   1088
23.1341   1057
23.1441   1011
23.1541   1041
23.1641   1062
23.1741   1011
23.1841   1036
23.1941    995
23.2041   1011
23.2141   1072
23.2241   1016
23.2341   1057
23.2441   1089
23.2541   1081
23.2641   1049
23.2741   1017
23.2841   1059
23.2941   1061
23.3041   1033
23.3141   1022
23.3241   1030
23.3341   1032
23.3441   1006
23.3541   1066
23.3641   1032
23.3741   1019
23.3841    956
23.3941   1069
23.4041    976
23.4141    997
23.4241   1005
23.4341   1048
23.4441   1013
23.4541    995
23.4641   1015
23.4741   1005
23.4841   1079
23.4941    972
23.5041   1084
23.5141   1004
23.5241    985
23.5341   1024
23.5441   1037
23.5541   1044
23.5641   1076
23.5741   1039
23.5841   1006
23.5941   1038
23.6041   1016
23.6141    996
23.6241   1057
23.6341   1047
23.6441   1067
23.6541   1048
23.6641   1047
23.6741    990
23.6841   1089
23.6941   1027
23.7041   1065
23.7141   1123
23.7241   1050
23.7341   1052
23.7441   1069
23.7541   1064
23.7641   1093
23.7741   1126
23.7841   1087
23.7941   1113
23.8041   1083
23.8141   1084
23.8241   1125
23.8341   1128
23.8441   1122
23.8541   1089
23.8641   1100
23.8741   1069
23.8841   1065
23.8941   1057
23.9041   1082
23.9141   1017
23.9241    992
23.9341   1019
23.9441   1039
23.9541   1075
23.9641    984
23.9741   1025
23.9841   1041
23.9941   1067
24.0041    999
24.0141   1029
24.0241   1000
24.0341   1034
24.0441    993
24.0541    975
24.0641    957
24.0741    942
24.0841    916
24.0941   1017
24.1041   1027
24.1141    990
24.1241   1015
24.1341    962
24.1441   1032
24.1541    959
24.1641    971
24.1741   1002
24.1841    988
24.1941   1018
24.2041   1029
24.2141    994
24.2241    939
24.2341    997
24.2441    976
24.2541    912
24.2641    952
24.2741   1036
24.2841   1000
24.2941   1018
24.3041    971
24.3141    991
24.3241    996
24.3341    980
24.3441    960
24.3541    980
24.3641    915
24.3741    953
24.3841    947
24.3941   1038
24.4041    953
24.4141    934
24.4241    970
24.4341    978
24.4441    953
24.4541    988
24.4641    985
24.4741    990
24.4841    988
24.4941    939
24.5041    920
24.5141    967
24.5241    911
24.5341    897
24.5441    914
24.5541    922
24.5641    936
24.5741    915
24.5841   1019
24.5941    940
24.6041    962
24.6141    950
24.6241    937
24.6341    941
24.6441    943
24.6541    947
24.6641    966
24.6741    920
24.6841    956
24.6941    957
24.7041    921
24.7141    939
24.7241    944
24.7341    886
24.7441    927
24.7541    934
24.7641    947
24.7741    926
24.7841    898
24.7941    931
24.8041    906
24.8141    914
24.8241    936
24.8341    944
24.8441    932
24.8541    958
24.8641    928
24.8741    924
24.8841    912
24.8941    933
24.9041    900
24.9141    960
24.9241    895
24.9341    898
24.9441    874
24.9541    931
24.9641    907
24.9741    965
24.9841    948
24.9941    935
25.0041    972
25.0141    969
25.0241    922
25.0341    901
25.0441    932
25.0541    897
25.0641    944
25.0741    921
25.0841    932
25.0941    862
25.1041    907
25.1141    920
25.1241    922
25.1341    937
25.1441    974
25.1541    921
25.1641    897
25.1741    889
25.1841    958
25.1941    928
25.2041    898
25.2141    953
25.2241    906
25.2341    967
25.2441    885
25.2541    944
25.2641    907
25.2741    865
25.2841    943
25.2941    946
25.3041    872
25.3141    894
25.3241    923
25.3341    971
25.3441    940
25.3541    935
25.3641    902
25.3741    933
25.3841    926
25.3941    873
25.4041    920
25.4141    884
25.4241    923
25.4341    908
25.4441    905
25.4541    876
25.4641    867
25.4741    837
25.4841    867
25.4941    882
25.5041    895
25.5141    914
25.5241    859
25.5341    866
25.5441    837
25.5541    925
25.5641    877
25.5741    858
25.5841    854
25.5941    870
25.6041    912
25.6141    857
25.6241    881
25.6341    829
25.6441    883
25.6541    865
25.6641    828
25.6741    868
25.6841    830
25.6941    840
25.7041    848
25.7141    922
25.7241    841
25.7341    821
25.7441    798
25.7541    850
25.7641    875
25.7741    856
25.7841    802
25.7941    841
25.8041    877
25.8141    861
25.8241    876
25.8341    866
25.8441    788
25.8541    823
25.8641    824
25.8741    844
25.8841    837
25.8941    812
25.9041    864
25.9141    829
25.9241    801
25.9341    867
25.9441    874
25.9541    854
25.9641    825
25.9741    822
25.9841    826
25.9941    834
26.0041    814
26.0141    872
26.0241    836
26.0341    860
26.0441    859
26.0541    823
26.0641    825
26.0741    798
26.0841    818
26.0941    837
26.1041    783
26.1141    841
26.1241    831
26.1341    801
26.1441    824
26.1541    833
26.1641    787
26.1741    783
26.1841    772
26.1941    794
26.2041    832
26.2141    840
26.2241    796
26.2341    792
26.2441    837
26.2541    847
26.2641    820
26.2741    812
26.2841    766
26.2941    856
26.3041    769
26.3141    823
26.3241    795
26.3341    803
26.3441    824
26.3541    828
26.3641    828
26.3741    860
26.3841    810
26.3941    833
26.4041    755
26.4141    786
26.4241    808
26.4341    811
26.4441    766
26.4541    802
26.4641    774
26.4741    758
26.4841    808
26.4941    801
26.5041    781
26.5141    774
26.5241    780
26.5341    771
26.5441    760
26.5541    795
26.5641    756
26.5741    794
26.5841    766
26.5941    811
26.6041    761
26.6141    834
26.6241    783
26.6341    790
26.6441    788
26.6541    851
26.6641    779
26.6741    771
26.6841    791
26.6941    783
26.7041    790
26.7141    749
26.7241    747
26.7341    800
26.7441    780
26.7541    737
26.7641    783
26.7741    783
26.7841    753
26.7941    757
26.8041    725
26.8141    759
26.8241    763
26.8341    758
26.8441    772
26.8541    770
26.8641    781
26.8741    748
26.8841    738
26.8941    754
26.9041    746
26.9141    725
26.9241    792
26.9341    786
26.9441    717
26.9541    740
26.9641    747
26.9741    725
26.9841    702
26.9941    726
27.0041    769
27.0141    739
27.0241    744
27.0341    737
27.0441    753
27.0541    744
27.0641    768
27.0741    661
27.0841    752
27.0941    665
27.1041    707
27.1141    743
27.1241    726
27.1341    758
27.1441    745
27.1541    761
27.1641    757
27.1741    721
27.1841    753
27.1941    729
27.2041    693
27.2141    719
27.2241    708
27.2341    733
27.2441    748
27.2541    737
27.2641    732
27.2741    757
27.2841    763
27.2941    733
27.3041    697
27.3141    715
27.3241    741
27.3341    780
27.3441    742
27.3541    743
27.3641    682
27.3741    697
27.3841    719
27.3941    709
27.4041    714
27.4141    717
27.4241    682
27.4341    726
27.4441    717
27.4541    691
27.4641    716
27.4741    713
27.4841    719
27.4941    727
27.5041    691
27.5141    709
27.5241    694
27.5341    723
27.5441    699
27.5541    767
27.5641    702
27.5741    723
27.5841    712
27.5941    683
27.6041    689
27.6141    670
27.6241    699
27.6341    692
27.6441    710
27.6541    668
27.6641    703
27.6741    649
27.6841    694
27.6941    692
27.7041    677
27.7141    704
27.7241    734
27.7341    691
27.7441    665
27.7541    682
27.7641    650
27.7741    630
27.7841    635
27.7941    697
27.8041    707
27.8141    696
27.8241    659
27.8341    664
27.8441    713
27.8541    679
27.8641    656
27.8741    658
27.8841    698
27.8941    677
27.9041    667
27.9141    676
27.9241    690
27.9341    660
27.9441    636
27.9541    690
27.9641    627
27.9741    665
27.9841    679
27.9941    671
28.0041    694
28.0141    652
28.0241    668
28.0341    676
28.0441    649
28.0541    710
28.0641    665
28.0741    626
28.0841    660
28.0941    681
28.1041    620
28.1141    683
28.1241    662
28.1341    646
28.1441    637
28.1541    638
28.1641    640
28.1741    640
28.1841    660
28.1941    659
28.2041    651
28.2141    659
28.2241    619
28.2341    661
28.2441    659
28.2541    697
28.2641    654
28.2741    619
28.2841    625
28.2941    618
28.3041    642
28.3141    620
28.3241    679
28.3341    682
28.3441    616
28.3541    660
28.3641    676
28.3741    647
28.3841    615
28.3941    590
28.4041    638
28.4141    651
28.4241    619
28.4341    630
28.4441    658
28.4541    658
28.4641    643
28.4741    635
28.4841    597
28.4941    661
28.5041    624
28.5141    595
28.5241    627
28.5341    595
28.5441    627
28.5541    626
28.5641    603
28.5741    605
28.5841    599
28.5941    597
28.6041    603
28.6141    562
28.6241    547
28.6341    601
28.6441    641
28.6541    605
28.6641    629
28.6741    614
28.6841    598
28.6941    658
28.7041    598
28.7141    604
28.7241    585
28.7341    604
28.7441    618
28.7541    605
28.7641    586
28.7741    624
28.7841    605
28.7941    558
28.8041    593
28.8141    612
28.8241    581
28.8341    617
28.8441    546
28.8541    603
28.8641    580
28.8741    607
28.8841    621
28.8941    559
28.9041    538
28.9141    597
28.9241    557
28.9341    576
28.9441    593
28.9541    591
28.9641    581
28.9741    541
28.9841    537
28.9941    573
29.0041    540
29.0141    565
29.0241    587
29.0341    553
29.0441    595
29.0541    591
29.0641    521
29.0741    595
29.0841    586
29.0941    581
29.1041    578
29.1141    538
29.1241    530
29.1341    560
29.1441    547
29.1541    542
29.1641    540
29.1741    559
29.1841    564
29.1941    577
29.2041    574
29.2141    574
29.2241    551
29.2341    568
29.2441    573
29.2541    581
29.2641    570
29.2741    551
29.2841    513
29.2941    540
29.3041    580
29.3141    500
29.3241    542
29.3341    583
29.3441    563
29.3541    531
29.3641    552
29.3741    566
29.3841    585
29.3941    567
29.4041    544
29.4141    571
29.4241    564
29.4341    570
29.4441    556
29.4541    581
29.4641    603
29.4741    574
29.4841    517
29.4941    519
29.5041    523
29.5141    564
29.5241    536
29.5341    547
29.5441    560
29.5541    541
29.5641    519
29.5741    534
29.5841    542
29.5941    553
29.6041    504
29.6141    540
29.6241    562
29.6341    519
29.6441    510
29.6541    540
29.6641    500
29.6741    500
29.6841    525
29.6941    525
29.7041    504
29.7141    543
29.7241    510
29.7341    559
29.7441    532
29.7541    503
29.7641    520
29.7741    529
29.7841    558
29.7941    538
29.8041    521
29.8141    542
29.8241    548
29.8341    527
29.8441    498
29.8541    555
29.8641    534
29.8741    519
29.8841    507
29.8941    533
29.9041    544
29.9141    519
29.9241    502
29.9341    558
29.9441    521
29.9541    488
29.9641    525
29.9741    479
29.9841    483
29.9941    541
30.0041    500
30.0141    466
30.0241    545
30.0341    553
30.0441    509
30.0541    471
30.0641    515
30.0741    544
30.0841    500
30.0941    511
30.1041    489
30.1141    507
30.1241    506
30.1341    490
30.1441    509
30.1541    504
30.1641    465
30.1741    486
30.1841    519
30.1941    506
30.2041    454
30.2141    496
30.2241    508
30.2341    512
30.2441    478
30.2541    492
30.2641    517
30.2741    485
30.2841    493
30.2941    498
30.3041    507
30.3141    468
30.3241    472
30.3341    484
30.3441    480
30.3541    412
30.3641    436
30.3741    414
30.3841    442
30.3941    468
30.4041    488
30.4141    494
30.4241    439
30.4341    471
30.4441    447
30.4541    466
30.4641    500
30.4741    441
30.4841    481
30.4941    460
30.5041    422
30.5141    430
30.5241    460
30.5341    464
30.5441    441
30.5541    469
30.5641    473
30.5741    447
30.5841    448
30.5941    463
30.6041    445
30.6141    450
30.6241    471
30.6341    438
30.6441    477
30.6541    433
30.6641    468
30.6741    483
30.6841    485
30.6941    443
30.7041    495
30.7141    443
30.7241    468
30.7341    449
30.7441    431
30.7541    449
30.7641    475
30.7741    449
30.7841    436
30.7941    444
30.8041    434
30.8141    429
30.8241    440
30.8341    401
30.8441    433
30.8541    455
30.8641    465
30.8741    474
30.8841    421
30.8941    464
30.9041    453
30.9141    474
30.9241    425
30.9341    465
30.9441    483
30.9541    433
30.9641    431
30.9741    446
30.9841    430
30.9941    455
31.0041    438
31.0141    465
31.0241    422
31.0341    424
31.0441    429
31.0541    409
31.0641    454
31.0741    437
31.0841    456
31.0941    443
31.1041    435
31.1141    463
31.1241    426
31.1341    424
31.1441    450
31.1541    428
31.1641    445
31.1741    433
31.1841    426
31.1941    430
31.2041    438
31.2141    409
31.2241    416
31.2341    445
31.2441    421
31.2541    408
31.2641    430
31.2741    404
31.2841    418
31.2941    387
31.3041    435
31.3141    432
31.3241    397
31.3341    399
31.3441    419
31.3541    389
31.3641    418
31.3741    392
31.3841    429
31.3941    396
31.4041    433
31.4141    401
31.4241    368
31.4341    396
31.4441    401
31.4541    389
31.4641    429
31.4741    405
31.4841    387
31.4941    423
31.5041    396
31.5141    385
31.5241    397
31.5341    393
31.5441    392
31.5541    400
31.5641    362
31.5741    392
31.5841    420
31.5941    395
31.6041    373
31.6141    409
31.6241    400
31.6341    396
31.6441    425
31.6541    395
31.6641    389
31.6741    373
31.6841    350
31.6941    369
31.7041    406
31.7141    389
31.7241    393
31.7341    411
31.7441    396
31.7541    391
31.7641    402
31.7741    404
31.7841    370
31.7941    400
31.8041    386
31.8141    374
31.8241    407
31.8341    371
31.8441    404
31.8541    412
31.8641    388
31.8741    353
31.8841    389
31.8941    399
31.9041    382
31.9141    369
31.9241    369
31.9341    376
31.9441    368
31.9541    413
31.9641    385
31.9741    374
31.9841    366
31.9941    359
32.0041    368
32.0141    388
32.0241    364
32.0341    393
32.0441    370
32.0541    367
32.0641    337
32.0741    320
32.0841    394
32.0941    377
32.1041    380
32.1141    352
32.1241    353
32.1341    363
32.1441    340
32.1541    397
32.1641    368
32.1741    373
32.1841    341
32.1941    372
32.2041    394
32.2141    361
32.2241    364
32.2341    382
32.2441    343
32.2541    353
32.2641    328
32.2741    385
32.2841    359
32.2941    329
32.3041    345
32.3141    363
32.3241    384
32.3341    322
32.3441    351
32.3541    355
32.3641    327
32.3741    321
32.3841    340
32.3941    339
32.4041    331
32.4141    397
32.4241    352
32.4341    373
32.4441    355
32.4541    334
32.4641    337
32.4741    339
32.4841    331
32.4941    316
32.5041    325
32.5141    316
32.5241    314
32.5341    362
32.5441    336
32.5541    348
32.5641    347
32.5741    320
32.5841    352
32.5941    324
32.6041    303
32.6141    319
32.6241    304
32.6341    313
32.6441    330
32.6541    324
32.6641    329
32.6741    335
32.6841    324
32.6941    325
32.7041    309
32.7141    337
32.7241    305
32.7341    364
32.7441    350
32.7541    330
32.7641    320
32.7741    324
32.7841    310
32.7941    317
32.8041    279
32.8141    298
32.8241    329
32.8341    289
32.8441    319
32.8541    315
32.8641    326
32.8741    325
32.8841    327
32.8941    313
32.9041    323
32.9141    318
32.9241    300
32.9341    304
32.9441    313
32.9541    322
32.9641    328
32.9741    314
32.9841    306
32.9941    310
33.0041    316
33.0141    311
33.0241    312
33.0341    308
33.0441    331
33.0541    344
33.0641    317
33.0741    301
33.0841    321
33.0941    313
33.1041    284
33.1141    317
33.1241    337
33.1341    316
33.1441    288
33.1541    309
33.1641    310
33.1741    303
33.1841    284
33.1941    275
33.2041    320
33.2141    293
33.2241    305
33.2341    305
33.2441    308
33.2541    337
33.2641    295
33.2741    283
33.2841    286
33.2941    306
33.3041    291
33.3141    312
33.3241    309
33.3341    265
33.3441    303
33.3541    281
33.3641    262
33.3741    274
33.3841    299
33.3941    289
33.4041    285
33.4141    274
33.4241    277
33.4341    310
33.4441    310
33.4541    288
33.4641    248
33.4741    256
33.4841    283
33.4941    299
33.5041    252
33.5141    289
33.5241    324
33.5341    289
33.5441    272
33.5541    277
33.5641    302
33.5741    279
33.5841    275
33.5941    267
33.6041    294
33.6141    255
33.6241    273
33.6341    269
33.6441    305
33.6541    274
33.6641    266
33.6741    267
33.6841    260
33.6941    244
33.7041    265
33.7141    264
33.7241    282
33.7341    290
33.7441    277
33.7541    288
33.7641    274
33.7741    271
33.7841    287
33.7941    260
33.8041    274
33.8141    255
33.8241    236
33.8341    253
33.8441    257
33.8541    247
33.8641    264
33.8741    254
33.8841    275
33.8941    258
33.9041    277
33.9141    245
33.9241    267
33.9341    257
33.9441    275
33.9541    265
33.9641    259
33.9741    272
33.9841    259
33.9941    266
34.0041    248
34.0141    262
34.0241    255
34.0341    234
34.0441    249
34.0541    266
34.0641    281
34.0741    264
34.0841    253
34.0941    265
34.1041    261
34.1141    271
34.1241    270
34.1341    242
34.1441    258
34.1541    221
34.1641    271
34.1741    270
34.1841    220
34.1941    250
34.2041    242
34.2141    261
34.2241    247
34.2341    242
34.2441    256
34.2541    237
34.2641    239
34.2741    237
34.2841    269
34.2941    245
34.3041    231
34.3141    280
34.3241    248
34.3341    241
34.3441    227
34.3541    237
34.3641    259
34.3741    239
34.3841    246
34.3941    256
34.4041    246
34.4141    229
34.4241    237
34.4341    231
34.4441    246
34.4541    245
34.4641    237
34.4741    209
34.4841    229
34.4941    238
34.5041    264
34.5141    231
34.5241    208
34.5341    245
34.5441    252
34.5541    227
34.5641    212
34.5741    262
34.5841    212
34.5941    249
34.6041    246
34.6141    224
34.6241    203
34.6341    213
34.6441    232
34.6541    218
34.6641    219
34.6741    220
34.6841    239
34.6941    207
34.7041    214
34.7141    232
34.7241    207
34.7341    251
34.7441    216
34.7541    213
34.7641    218
34.7741    227
34.7841    192
34.7941    223
34.8041    218
34.8141    219
34.8241    219
34.8341    214
34.8441    211
34.8541    219
34.8641    226
34.8741    208
34.8841    227
34.8941    235
34.9041    212
34.9141    203
34.9241    207
34.9341    214
34.9441    202
34.9541    229
34.9641    227
34.9741    183
34.9841    220
34.9941    209
35.0041    204
35.0141    216
35.0241    216
35.0341    207
35.0441    206
35.0541    247
35.0641    212
35.0741    216
35.0841    213
35.0941    221
35.1041    217
35.1141    195
35.1241    199
35.1341    196
35.1441    209
35.1541    211
35.1641    195
35.1741    208
35.1841    218
35.1941    186
35.2041    204
35.2141    211
35.2241    216
35.2341    208
35.2441    193
35.2541    218
35.2641    179
35.2741    215
35.2841    194
35.2941    194
35.3041    204
35.3141    210
35.3241    195
35.3341    214
35.3441    186
35.3541    201
35.3641    207
35.3741    208
35.3841    192
35.3941    192
35.4041    203
35.4141    193
35.4241    210
35.4341    189
35.4441    181
35.4541    206
35.4641    193
35.4741    195
35.4841    191
35.4941    189
35.5041    177
35.5141    200
35.5241    172
35.5341    188
35.5441    193
35.5541    215
35.5641    185
35.5741    196
35.5841    179
35.5941    180
35.6041    217
35.6141    186
35.6241    178
35.6341    195
35.6441    164
35.6541    153
35.6641    189
35.6741    183
35.6841    189
35.6941    195
35.7041    181
35.7141    152
35.7241    198
35.7341    179
35.7441    152
35.7541    173
35.7641    197
35.7741    192
35.7841    175
35.7941    181
35.8041    149
35.8141    202
35.8241    177
35.8341    168
35.8441    176
35.8541    174
35.8641    155
35.8741    191
35.8841    215
35.8941    171
35.9041    174
35.9141    196
35.9241    157
35.9341    184
35.9441    201
35.9541    152
35.9641    174
35.9741    173
35.9841    183
35.9941    158
36.0041    183
36.0141    152
36.0241    160
36.0341    155
36.0441    197
36.0541    187
36.0641    158
36.0741    155
36.0841    198
36.0941    176
36.1041    161
36.1141    148
36.1241    166
36.1341    177
36.1441    155
36.1541    161
36.1641    159
36.1741    163
36.1841    163
36.1941    187
36.2041    173
36.2141    171
36.2241    164
36.2341    162
36.2441    163
36.2541    177
36.2641    130
36.2741    181
36.2841    156
36.2941    167
36.3041    152
36.3141    172
36.3241    176
36.3341    166
36.3441    167
36.3541    157
36.3641    148
36.3741    155
36.3841    171
36.3941    160
36.4041    155
36.4141    150
36.4241    158
36.4341    159
36.4441    157
36.4541    153
36.4641    153
36.4741    139
36.4841    157
36.4941    142
36.5041    157
36.5141    159
36.5241    148
36.5341    155
36.5441    152
36.5541    143
36.5641    151
36.5741    163
36.5841    150
36.5941    160
36.6041    154
36.6141    147
36.6241    131
36.6341    146
36.6441    152
36.6541    141
36.6641    147
36.6741    133
36.6841    159
36.6941    123
36.7041    140
36.7141    130
36.7241    154
36.7341    148
36.7441    138
36.7541    152
36.7641    173
36.7741    161
36.7841    160
36.7941    155
36.8041    171
36.8141    141
36.8241    144
36.8341    154
36.8441    147
36.8541    143
36.8641    146
36.8741    164
36.8841    142
36.8941    136
36.9041    144
36.9141    138
36.9241    133
36.9341    142
36.9441    116
36.9541    146
36.9641    152
36.9741    137
36.9841    148
36.9941    121
37.0041    130
37.0141    147
37.0241    134
37.0341    140
37.0441    112
37.0541    115
37.0641    156
37.0741    125
37.0841    142
37.0941    153
37.1041    120
37.1141    141
37.1241    115
37.1341    134
37.1441    132
37.1541    114
37.1641    129
37.1741    132
37.1841    119
37.1941    134
37.2041    122
37.2141    138
37.2241    114
37.2341    117
37.2441    112
37.2541    132
37.2641    141
37.2741    129
37.2841    123
37.2941    137
37.3041    124
37.3141    113
37.3241    137
37.3341    129
37.3441    123
37.3541    131
37.3641    140
37.3741    122
37.3841    142
37.3941    130
37.4041    116
37.4141    128
37.4241    118
37.4341    127
37.4441    115
37.4541    128
37.4641    121
37.4741    108
37.4841    123
37.4941    139
37.5041    113
37.5141    102
37.5241    134
37.5341    105
37.5441    125
37.5541    115
37.5641    120
37.5741    123
37.5841    123
37.5941    112
37.6041    119
37.6141    134
37.6241    119
37.6341    128
37.6441    134
37.6541    116
37.6641    116
37.6741    106
37.6841    109
37.6941    121
37.7041    113
37.7141    114
37.7241    110
37.7341    101
37.7441    132
37.7541    123
37.7641    114
37.7741    111
37.7841    106
37.7941    129
37.8041    121
37.8141    119
37.8241    112
37.8341    126
37.8441    118
37.8541     93
37.8641    129
37.8741    108
37.8841    104
37.8941     94
37.9041     91
37.9141    111
37.9241    117
37.9341    105
37.9441     98
37.9541     86
37.9641    112
37.9741    114
37.9841    100
37.9941    110
38.0041    115
38.0141    107
38.0241    122
38.0341    115
38.0441     97
38.0541    105
38.0641    109
38.0741    110
38.0841     93
38.0941    112
38.1041     92
38.1141    116
38.1241    100
38.1341     79
38.1441    116
38.1541     89
38.1641    106
38.1741    105
38.1841     91
38.1941     99
38.2041    110
38.2141    101
38.2241     98
38.2341    100
38.2441    103
38.2541    102
38.2641     88
38.2741     98
38.2841    101
38.2941     78
38.3041     85
38.3141    104
38.3241    107
38.3341    109
38.3441     89
38.3541    100
38.3641    115
38.3741     97
38.3841    100
38.3941    113
38.4041     88
38.4141     88
38.4241     88
38.4341    100
38.4441    115
38.4541     94
38.4641     99
38.4741     87
38.4841     86
38.4941     98
38.5041     91
38.5141     88
38.5241    101
38.5341     99
38.5441     94
38.5541     76
38.5641     77
38.5741     92
38.5841    105
38.5941    110
38.6041     94
38.6141     97
38.6241     91
38.6341     93
38.6441     69
38.6541    100
38.6641     88
38.6741     95
38.6841     85
38.6941     83
38.7041     79
38.7141     85
38.7241     81
38.7341     80
38.7441     88
38.7541     87
38.7641     62
38.7741     76
38.7841     98
38.7941     86
38.8041     87
38.8141     69
38.8241     87
38.8341     95
38.8441     87
38.8541     86
38.8641     76
38.8741     80
38.8841     90
38.8941     81
38.9041     94
38.9141     84
38.9241     94
38.9341     80
38.9441     87
38.9541     77
38.9641     83
38.9741     73
38.9841     86
38.9941     88
39.0041     66
39.0141     70
39.0241     91
39.0341     83
39.0441     93
39.0541     73
39.0641     78
39.0741     89
39.0841     74
39.0941     66
39.1041     82
39.1141     86
39.1241     73
39.1341     85
39.1441     78
39.1541     80
39.1641     76
39.1741     78
39.1841     74
39.1941     93
39.2041     68
39.2141     80
39.2241     68
39.2341     72
39.2441     74
39.2541     80
39.2641     77
39.2741     68
39.2841     84
39.2941     72
39.3041     73
39.3141     82
39.3241     64
39.3341     67
39.3441     63
39.3541     55
39.3641     79
39.3741     68
39.3841     75
39.3941     87
39.4041     74
39.4141     60
39.4241     63
39.4341     68
39.4441     65
39.4541     78
39.4641     62
39.4741     60
39.4841     66
39.4941     64
39.5041     64
39.5141     70
39.5241     64
39.5341     77
39.5441     62
39.5541     66
39.5641     77
39.5741     74
39.5841     67
39.5941     82
39.6041     62
39.6141     77
39.6241     78
39.6341     80
39.6441     83
39.6541     70
39.6641     50
39.6741     73
39.6841     76
39.6941     50
39.7041     62
39.7141     77
39.7241     76
39.7341     68
39.7441     60
39.7541     68
39.7641     54
39.7741     68
39.7841     52
39.7941     64
39.8041     55
39.8141     61
39.8241     68
39.8341     56
39.8441     60
39.8541     63
39.8641     70
39.8741     51
39.8841     64
39.8941     63
39.9041     58
39.9141     58
39.9241     54
39.9341     49
39.9441     60
39.9541     51
39.9641     54
39.9741     59
39.9841     48
39.9941     57
