Bruker Nano GmbH Berlin, Germany
Esprit 1.9

Date: 4/21/2021 1:36:40 PM
Real time: 20449
Life time: 19178
Pulse density: 92861


Detector type: XFlash 430
Window type: Custom type
Detector thickness: 0.45
Si dead layer:0.029

Calibration, lin.: 10
Calibration, abs.: -955.9
Mn FWHM: 137.05
Fano factor: 0.121
Channels: 4095

Energy Counts
-0.9559     0
-0.9459     0
-0.9359     0
-0.9259     0
-0.9159     0
-0.9059     0
-0.8959     0
-0.8859     0
-0.8759     0
-0.8659     0
-0.8559     0
-0.8459     0
-0.8359     0
-0.8259     0
-0.8159     0
-0.8059     0
-0.7959     0
-0.7859     0
-0.7759     0
-0.7659     0
-0.7559     0
-0.7459     0
-0.7359     0
-0.7259     0
-0.7159     0
-0.7059     0
-0.6959     0
-0.6859     0
-0.6759     0
-0.6659     0
-0.6559     0
-0.6459     0
-0.6359     0
-0.6259     0
-0.6159     0
-0.6059     0
-0.5959     0
-0.5859     0
-0.5759     0
-0.5659     0
-0.5559     0
-0.5459     0
-0.5359     0
-0.5259     0
-0.5159     0
-0.5059     0
-0.4959     0
-0.4859     0
-0.4759     0
-0.4659     0
-0.4559     0
-0.4459     0
-0.4359     0
-0.4259     0
-0.4159     0
-0.4059     0
-0.3959     0
-0.3859     0
-0.3759     0
-0.3659     0
-0.3559     0
-0.3459     0
-0.3359     0
-0.3259     0
-0.3159     0
-0.3059     0
-0.2959     0
-0.2859     0
-0.2759     0
-0.2659     0
-0.2559     0
-0.2459     0
-0.2359     0
-0.2259     0
-0.2159     0
-0.2059     0
-0.1959     0
-0.1859     0
-0.1759     0
-0.1659     0
-0.1559     0
-0.1459     0
-0.1359     0
-0.1259     1
-0.1159     3
-0.1059    17
-0.0959    59
-0.0859   208
-0.0759   722
-0.0659  2213
-0.0559  5582
-0.0459 12195
-0.0359 22782
-0.0259 36571
-0.0159 50265
-0.0059 59004
 0.0041 59169
 0.0141 50722
 0.0241 37543
 0.0341 23656
 0.0441 12793
 0.0541  5930
 0.0641  2352
 0.0741   807
 0.0841   245
 0.0941    74
 0.1041    19
 0.1141    17
 0.1241     8
 0.1341     6
 0.1441     5
 0.1541     5
 0.1641     4
 0.1741     3
 0.1841   166
 0.1941   280
 0.2041   301
 0.2141   268
 0.2241   302
 0.2341   285
 0.2441   275
 0.2541   264
 0.2641   273
 0.2741   263
 0.2841   274
 0.2941   292
 0.3041   279
 0.3141   295
 0.3241   257
 0.3341   270
 0.3441   265
 0.3541   282
 0.3641   252
 0.3741   256
 0.3841   257
 0.3941   260
 0.4041   253
 0.4141   275
 0.4241   255
 0.4341   253
 0.4441   260
 0.4541   253
 0.4641   250
 0.4741   262
 0.4841   257
 0.4941   253
 0.5041   225
 0.5141   224
 0.5241   224
 0.5341   227
 0.5441   215
 0.5541   214
 0.5641   228
 0.5741   225
 0.5841   226
 0.5941   229
 0.6041   214
 0.6141   209
 0.6241   227
 0.6341   227
 0.6441   216
 0.6541   216
 0.6641   219
 0.6741   214
 0.6841   221
 0.6941   229
 0.7041   229
 0.7141   220
 0.7241   206
 0.7341   216
 0.7441   209
 0.7541   200
 0.7641   205
 0.7741   197
 0.7841   198
 0.7941   205
 0.8041   212
 0.8141   208
 0.8241   218
 0.8341   209
 0.8441   204
 0.8541   176
 0.8641   188
 0.8741   204
 0.8841   211
 0.8941   203
 0.9041   206
 0.9141   192
 0.9241   190
 0.9341   207
 0.9441   197
 0.9541   174
 0.9641   194
 0.9741   205
 0.9841   184
 0.9941   182
 1.0041   182
 1.0141   185
 1.0241   196
 1.0341   190
 1.0441   213
 1.0541   199
 1.0641   186
 1.0741   189
 1.0841   180
 1.0941   175
 1.1041   163
 1.1141   175
 1.1241   187
 1.1341   190
 1.1441   190
 1.1541   189
 1.1641   159
 1.1741   164
 1.1841   157
 1.1941   173
 1.2041   160
 1.2141   169
 1.2241   160
 1.2341   151
 1.2441   142
 1.2541   159
 1.2641   183
 1.2741   179
 1.2841   176
 1.2941   159
 1.3041   159
 1.3141   137
 1.3241   157
 1.3341   163
 1.3441   165
 1.3541   167
 1.3641   166
 1.3741   154
 1.3841   150
 1.3941   177
 1.4041   161
 1.4141   146
 1.4241   172
 1.4341   164
 1.4441   166
 1.4541   157
 1.4641   171
 1.4741   178
 1.4841   168
 1.4941   170
 1.5041   160
 1.5141   165
 1.5241   167
 1.5341   162
 1.5441   178
 1.5541   170
 1.5641   158
 1.5741   148
 1.5841   159
 1.5941   173
 1.6041   165
 1.6141   157
 1.6241   161
 1.6341   173
 1.6441   186
 1.6541   206
 1.6641   259
 1.6741   283
 1.6841   364
 1.6941   455
 1.7041   549
 1.7141   635
 1.7241   668
 1.7341   728
 1.7441   761
 1.7541   707
 1.7641   640
 1.7741   555
 1.7841   478
 1.7941   371
 1.8041   309
 1.8141   260
 1.8241   262
 1.8341   211
 1.8441   222
 1.8541   187
 1.8641   196
 1.8741   182
 1.8841   171
 1.8941   168
 1.9041   180
 1.9141   183
 1.9241   175
 1.9341   183
 1.9441   176
 1.9541   178
 1.9641   178
 1.9741   195
 1.9841   195
 1.9941   181
 2.0041   230
 2.0141   216
 2.0241   210
 2.0341   185
 2.0441   177
 2.0541   197
 2.0641   169
 2.0741   179
 2.0841   176
 2.0941   154
 2.1041   163
 2.1141   133
 2.1241   142
 2.1341   158
 2.1441   158
 2.1541   144
 2.1641   140
 2.1741   144
 2.1841   130
 2.1941   164
 2.2041   141
 2.2141   153
 2.2241   146
 2.2341   161
 2.2441   146
 2.2541   150
 2.2641   137
 2.2741   131
 2.2841   145
 2.2941   153
 2.3041   136
 2.3141   146
 2.3241   143
 2.3341   146
 2.3441   150
 2.3541   142
 2.3641   129
 2.3741   158
 2.3841   142
 2.3941   136
 2.4041   139
 2.4141   143
 2.4241   135
 2.4341   115
 2.4441   104
 2.4541   143
 2.4641   136
 2.4741   146
 2.4841   138
 2.4941   124
 2.5041   129
 2.5141   137
 2.5241   142
 2.5341   123
 2.5441   131
 2.5541   132
 2.5641   128
 2.5741   148
 2.5841   145
 2.5941   146
 2.6041   135
 2.6141   141
 2.6241   125
 2.6341   128
 2.6441   146
 2.6541   141
 2.6641   147
 2.6741   124
 2.6841   128
 2.6941   138
 2.7041   116
 2.7141   120
 2.7241   130
 2.7341   128
 2.7441   121
 2.7541   112
 2.7641   123
 2.7741   153
 2.7841   131
 2.7941   126
 2.8041   132
 2.8141   137
 2.8241   119
 2.8341   130
 2.8441   140
 2.8541   139
 2.8641   127
 2.8741   114
 2.8841   125
 2.8941   120
 2.9041   143
 2.9141   106
 2.9241   125
 2.9341   128
 2.9441   135
 2.9541   129
 2.9641   115
 2.9741   126
 2.9841   126
 2.9941   116
 3.0041   127
 3.0141   128
 3.0241   127
 3.0341   131
 3.0441   135
 3.0541   121
 3.0641   120
 3.0741   106
 3.0841   117
 3.0941   105
 3.1041   124
 3.1141   131
 3.1241   124
 3.1341   107
 3.1441   111
 3.1541   101
 3.1641   104
 3.1741   116
 3.1841   117
 3.1941   106
 3.2041   124
 3.2141   136
 3.2241   133
 3.2341   140
 3.2441   175
 3.2541   200
 3.2641   258
 3.2741   245
 3.2841   280
 3.2941   293
 3.3041   302
 3.3141   320
 3.3241   308
 3.3341   296
 3.3441   261
 3.3541   230
 3.3641   212
 3.3741   192
 3.3841   178
 3.3941   128
 3.4041   132
 3.4141   121
 3.4241   127
 3.4341   115
 3.4441   103
 3.4541   100
 3.4641   127
 3.4741    94
 3.4841   100
 3.4941   104
 3.5041   119
 3.5141   117
 3.5241    97
 3.5341   120
 3.5441   139
 3.5541   167
 3.5641   181
 3.5741   215
 3.5841   259
 3.5941   314
 3.6041   419
 3.6141   501
 3.6241   623
 3.6341   781
 3.6441   848
 3.6541   984
 3.6641  1145
 3.6741  1294
 3.6841  1325
 3.6941  1361
 3.7041  1298
 3.7141  1131
 3.7241  1049
 3.7341   902
 3.7441   713
 3.7541   605
 3.7641   444
 3.7741   339
 3.7841   283
 3.7941   196
 3.8041   169
 3.8141   131
 3.8241   119
 3.8341    98
 3.8441    88
 3.8541    91
 3.8641    91
 3.8741   104
 3.8841   111
 3.8941   119
 3.9041   121
 3.9141   118
 3.9241   144
 3.9341   135
 3.9441   146
 3.9541   182
 3.9641   197
 3.9741   213
 3.9841   236
 3.9941   239
 4.0041   279
 4.0141   287
 4.0241   275
 4.0341   249
 4.0441   219
 4.0541   193
 4.0641   194
 4.0741   174
 4.0841   146
 4.0941   132
 4.1041   133
 4.1141   117
 4.1241   105
 4.1341    85
 4.1441    66
 4.1541    74
 4.1641    85
 4.1741    82
 4.1841    84
 4.1941    83
 4.2041    69
 4.2141    72
 4.2241    67
 4.2341    91
 4.2441    64
 4.2541    71
 4.2641    72
 4.2741    75
 4.2841    83
 4.2941    90
 4.3041    80
 4.3141    84
 4.3241    85
 4.3341    87
 4.3441    83
 4.3541   106
 4.3641   114
 4.3741   120
 4.3841   145
 4.3941   148
 4.4041   209
 4.4141   266
 4.4241   325
 4.4341   421
 4.4441   456
 4.4541   547
 4.4641   697
 4.4741   773
 4.4841   838
 4.4941   855
 4.5041   925
 4.5141   906
 4.5241   867
 4.5341   793
 4.5441   731
 4.5541   624
 4.5641   533
 4.5741   445
 4.5841   363
 4.5941   302
 4.6041   224
 4.6141   211
 4.6241   139
 4.6341   125
 4.6441   124
 4.6541   115
 4.6641    93
 4.6741   127
 4.6841    97
 4.6941    92
 4.7041    97
 4.7141    89
 4.7241    88
 4.7341    95
 4.7441   110
 4.7541   110
 4.7641   117
 4.7741   104
 4.7841   125
 4.7941   110
 4.8041   130
 4.8141   131
 4.8241   131
 4.8341   138
 4.8441   146
 4.8541   172
 4.8641   186
 4.8741   187
 4.8841   208
 4.8941   232
 4.9041   237
 4.9141   242
 4.9241   285
 4.9341   253
 4.9441   253
 4.9541   245
 4.9641   219
 4.9741   222
 4.9841   178
 4.9941   175
 5.0041   161
 5.0141   145
 5.0241   129
 5.0341   112
 5.0441   108
 5.0541   100
 5.0641    92
 5.0741   104
 5.0841    87
 5.0941   101
 5.1041    93
 5.1141   106
 5.1241   112
 5.1341    90
 5.1441   111
 5.1541    93
 5.1641   100
 5.1741    77
 5.1841    95
 5.1941    86
 5.2041    93
 5.2141   103
 5.2241    96
 5.2341    88
 5.2441    87
 5.2541   104
 5.2641   101
 5.2741   108
 5.2841   121
 5.2941   104
 5.3041   115
 5.3141   114
 5.3241   110
 5.3341   129
 5.3441   120
 5.3541   141
 5.3641   178
 5.3741   175
 5.3841   158
 5.3941   176
 5.4041   167
 5.4141   168
 5.4241   168
 5.4341   179
 5.4441   162
 5.4541   147
 5.4641   165
 5.4741   173
 5.4841   135
 5.4941   128
 5.5041   113
 5.5141   116
 5.5241   122
 5.5341   138
 5.5441   117
 5.5541   114
 5.5641    90
 5.5741   116
 5.5841   104
 5.5941   111
 5.6041   114
 5.6141   108
 5.6241    98
 5.6341   101
 5.6441    87
 5.6541   105
 5.6641   113
 5.6741   106
 5.6841   111
 5.6941   105
 5.7041   123
 5.7141   115
 5.7241   115
 5.7341   126
 5.7441   132
 5.7541   164
 5.7641   157
 5.7741   198
 5.7841   251
 5.7941   275
 5.8041   344
 5.8141   396
 5.8241   481
 5.8341   579
 5.8441   602
 5.8541   696
 5.8641   800
 5.8741   829
 5.8841   855
 5.8941   839
 5.9041   874
 5.9141   800
 5.9241   747
 5.9341   684
 5.9441   641
 5.9541   571
 5.9641   434
 5.9741   402
 5.9841   358
 5.9941   275
 6.0041   234
 6.0141   209
 6.0241   165
 6.0341   172
 6.0441   184
 6.0541   142
 6.0641   148
 6.0741   138
 6.0841   155
 6.0941   157
 6.1041   156
 6.1141   144
 6.1241   171
 6.1341   174
 6.1441   207
 6.1541   177
 6.1641   200
 6.1741   247
 6.1841   248
 6.1941   319
 6.2041   429
 6.2141   476
 6.2241   679
 6.2341   875
 6.2441  1259
 6.2541  1860
 6.2641  2561
 6.2741  3475
 6.2841  4573
 6.2941  6183
 6.3041  7967
 6.3141 10053
 6.3241 12428
 6.3341 15167
 6.3441 17716
 6.3541 19975
 6.3641 22431
 6.3741 24235
 6.3841 25777
 6.3941 26161
 6.4041 26368
 6.4141 25556
 6.4241 24239
 6.4341 22143
 6.4441 19777
 6.4541 17356
 6.4641 14654
 6.4741 11888
 6.4841  9536
 6.4941  7547
 6.5041  5822
 6.5141  4321
 6.5241  3186
 6.5341  2287
 6.5441  1607
 6.5541  1196
 6.5641   789
 6.5741   591
 6.5841   436
 6.5941   363
 6.6041   251
 6.6141   232
 6.6241   196
 6.6341   184
 6.6441   198
 6.6541   170
 6.6641   159
 6.6741   182
 6.6841   193
 6.6941   163
 6.7041   188
 6.7141   181
 6.7241   180
 6.7341   179
 6.7441   158
 6.7541   194
 6.7641   185
 6.7741   171
 6.7841   199
 6.7941   210
 6.8041   194
 6.8141   208
 6.8241   201
 6.8341   232
 6.8441   270
 6.8541   281
 6.8641   337
 6.8741   370
 6.8841   362
 6.8941   457
 6.9041   559
 6.9141   696
 6.9241   837
 6.9341   984
 6.9441  1266
 6.9541  1550
 6.9641  1845
 6.9741  2198
 6.9841  2618
 6.9941  2994
 7.0041  3399
 7.0141  3583
 7.0241  4163
 7.0341  4312
 7.0441  4408
 7.0541  4448
 7.0641  4366
 7.0741  4318
 7.0841  4069
 7.0941  3563
 7.1041  3270
 7.1141  2811
 7.1241  2559
 7.1341  2092
 7.1441  1800
 7.1541  1407
 7.1641  1111
 7.1741   892
 7.1841   689
 7.1941   541
 7.2041   449
 7.2141   325
 7.2241   289
 7.2341   248
 7.2441   231
 7.2541   198
 7.2641   189
 7.2741   200
 7.2841   214
 7.2941   246
 7.3041   245
 7.3141   244
 7.3241   231
 7.3341   245
 7.3441   276
 7.3541   272
 7.3641   287
 7.3741   292
 7.3841   277
 7.3941   296
 7.4041   311
 7.4141   325
 7.4241   320
 7.4341   373
 7.4441   342
 7.4541   325
 7.4641   335
 7.4741   302
 7.4841   330
 7.4941   323
 7.5041   285
 7.5141   274
 7.5241   265
 7.5341   277
 7.5441   244
 7.5541   235
 7.5641   238
 7.5741   211
 7.5841   211
 7.5941   209
 7.6041   231
 7.6141   188
 7.6241   168
 7.6341   196
 7.6441   219
 7.6541   201
 7.6641   207
 7.6741   193
 7.6841   220
 7.6941   231
 7.7041   230
 7.7141   215
 7.7241   208
 7.7341   211
 7.7441   227
 7.7541   249
 7.7641   243
 7.7741   264
 7.7841   245
 7.7941   256
 7.8041   268
 7.8141   276
 7.8241   277
 7.8341   273
 7.8441   282
 7.8541   277
 7.8641   300
 7.8741   316
 7.8841   303
 7.8941   324
 7.9041   311
 7.9141   313
 7.9241   378
 7.9341   389
 7.9441   442
 7.9541   468
 7.9641   458
 7.9741   462
 7.9841   502
 7.9941   560
 8.0041   593
 8.0141   629
 8.0241   735
 8.0341   752
 8.0441   786
 8.0541   847
 8.0641   962
 8.0741   977
 8.0841   984
 8.0941  1091
 8.1041  1129
 8.1141  1172
 8.1241  1187
 8.1341  1207
 8.1441  1259
 8.1541  1345
 8.1641  1385
 8.1741  1381
 8.1841  1375
 8.1941  1319
 8.2041  1351
 8.2141  1408
 8.2241  1395
 8.2341  1475
 8.2441  1485
 8.2541  1498
 8.2641  1528
 8.2741  1723
 8.2841  1761
 8.2941  1847
 8.3041  1989
 8.3141  2134
 8.3241  2333
 8.3341  2428
 8.3441  2567
 8.3541  2774
 8.3641  2901
 8.3741  2941
 8.3841  2939
 8.3941  2991
 8.4041  2906
 8.4141  2859
 8.4241  2728
 8.4341  2448
 8.4441  2223
 8.4541  2007
 8.4641  1905
 8.4741  1643
 8.4841  1399
 8.4941  1232
 8.5041  1002
 8.5141   924
 8.5241   835
 8.5341   770
 8.5441   694
 8.5541   683
 8.5641   666
 8.5741   644
 8.5841   634
 8.5941   617
 8.6041   635
 8.6141   658
 8.6241   632
 8.6341   666
 8.6441   662
 8.6541   627
 8.6641   588
 8.6741   574
 8.6841   583
 8.6941   571
 8.7041   516
 8.7141   537
 8.7241   497
 8.7341   455
 8.7441   425
 8.7541   424
 8.7641   385
 8.7741   410
 8.7841   378
 8.7941   350
 8.8041   318
 8.8141   353
 8.8241   330
 8.8341   330
 8.8441   321
 8.8541   317
 8.8641   329
 8.8741   323
 8.8841   292
 8.8941   320
 8.9041   319
 8.9141   338
 8.9241   326
 8.9341   349
 8.9441   340
 8.9541   338
 8.9641   333
 8.9741   360
 8.9841   361
 8.9941   332
 9.0041   352
 9.0141   331
 9.0241   371
 9.0341   369
 9.0441   415
 9.0541   388
 9.0641   445
 9.0741   433
 9.0841   441
 9.0941   465
 9.1041   482
 9.1141   516
 9.1241   500
 9.1341   494
 9.1441   536
 9.1541   592
 9.1641   614
 9.1741   624
 9.1841   649
 9.1941   686
 9.2041   720
 9.2141   764
 9.2241   737
 9.2341   780
 9.2441   865
 9.2541   899
 9.2641   972
 9.2741  1003
 9.2841  1071
 9.2941  1063
 9.3041  1041
 9.3141  1144
 9.3241  1150
 9.3341  1182
 9.3441  1277
 9.3541  1291
 9.3641  1305
 9.3741  1334
 9.3841  1316
 9.3941  1348
 9.4041  1318
 9.4141  1358
 9.4241  1405
 9.4341  1395
 9.4441  1407
 9.4541  1425
 9.4641  1515
 9.4741  1482
 9.4841  1551
 9.4941  1608
 9.5041  1631
 9.5141  1727
 9.5241  1705
 9.5341  1802
 9.5441  1877
 9.5541  1863
 9.5641  2035
 9.5741  2187
 9.5841  2214
 9.5941  2370
 9.6041  2469
 9.6141  2530
 9.6241  2733
 9.6341  2789
 9.6441  2871
 9.6541  2842
 9.6641  2827
 9.6741  2862
 9.6841  2801
 9.6941  2729
 9.7041  2598
 9.7141  2516
 9.7241  2343
 9.7341  2165
 9.7441  2026
 9.7541  1825
 9.7641  1718
 9.7741  1639
 9.7841  1502
 9.7941  1377
 9.8041  1302
 9.8141  1233
 9.8241  1225
 9.8341  1193
 9.8441  1090
 9.8541  1118
 9.8641  1127
 9.8741  1110
 9.8841  1152
 9.8941  1165
 9.9041  1184
 9.9141  1218
 9.9241  1218
 9.9341  1251
 9.9441  1269
 9.9541  1248
 9.9641  1198
 9.9741  1184
 9.9841  1152
 9.9941  1079
10.0041  1041
10.0141   982
10.0241   917
10.0341   840
10.0441   742
10.0541   653
10.0641   567
10.0741   507
10.0841   481
10.0941   465
10.1041   398
10.1141   360
10.1241   319
10.1341   290
10.1441   276
10.1541   264
10.1641   255
10.1741   271
10.1841   248
10.1941   239
10.2041   224
10.2141   212
10.2241   198
10.2341   219
10.2441   178
10.2541   184
10.2641   187
10.2741   186
10.2841   180
10.2941   178
10.3041   169
10.3141   159
10.3241   162
10.3341   156
10.3441   170
10.3541   184
10.3641   161
10.3741   161
10.3841   195
10.3941   175
10.4041   159
10.4141   187
10.4241   166
10.4341   152
10.4441   168
10.4541   156
10.4641   171
10.4741   172
10.4841   183
10.4941   184
10.5041   180
10.5141   171
10.5241   178
10.5341   181
10.5441   181
10.5541   188
10.5641   191
10.5741   193
10.5841   185
10.5941   189
10.6041   203
10.6141   185
10.6241   210
10.6341   216
10.6441   218
10.6541   206
10.6641   180
10.6741   178
10.6841   210
10.6941   218
10.7041   212
10.7141   226
10.7241   232
10.7341   243
10.7441   223
10.7541   228
10.7641   236
10.7741   230
10.7841   238
10.7941   267
10.8041   270
10.8141   282
10.8241   268
10.8341   258
10.8441   257
10.8541   251
10.8641   261
10.8741   278
10.8841   291
10.8941   293
10.9041   315
10.9141   324
10.9241   291
10.9341   299
10.9441   326
10.9541   318
10.9641   302
10.9741   271
10.9841   310
10.9941   293
11.0041   283
11.0141   284
11.0241   275
11.0341   286
11.0441   270
11.0541   268
11.0641   246
11.0741   239
11.0841   249
11.0941   256
11.1041   245
11.1141   250
11.1241   258
11.1341   272
11.1441   281
11.1541   262
11.1641   278
11.1741   300
11.1841   309
11.1941   325
11.2041   328
11.2141   336
11.2241   352
11.2341   369
11.2441   382
11.2541   374
11.2641   404
11.2741   396
11.2841   402
11.2941   417
11.3041   394
11.3141   376
11.3241   377
11.3341   371
11.3441   315
11.3541   310
11.3641   301
11.3741   307
11.3841   288
11.3941   292
11.4041   255
11.4141   224
11.4241   239
11.4341   232
11.4441   207
11.4541   186
11.4641   180
11.4741   187
11.4841   195
11.4941   197
11.5041   195
11.5141   208
11.5241   213
11.5341   210
11.5441   180
11.5541   176
11.5641   193
11.5741   214
11.5841   221
11.5941   209
11.6041   218
11.6141   228
11.6241   219
11.6341   222
11.6441   219
11.6541   197
11.6641   201
11.6741   206
11.6841   206
11.6941   201
11.7041   206
11.7141   182
11.7241   191
11.7341   187
11.7441   183
11.7541   161
11.7641   152
11.7741   148
11.7841   156
11.7941   158
11.8041   140
11.8141   144
11.8241   154
11.8341   145
11.8441   137
11.8541   137
11.8641   151
11.8741   133
11.8841   128
11.8941   128
11.9041   138
11.9141   150
11.9241   150
11.9341   157
11.9441   144
11.9541   146
11.9641   155
11.9741   141
11.9841   153
11.9941   139
12.0041   148
12.0141   158
12.0241   151
12.0341   148
12.0441   140
12.0541   149
12.0641   135
12.0741   134
12.0841   144
12.0941   143
12.1041   152
12.1141   167
12.1241   159
12.1341   155
12.1441   137
12.1541   140
12.1641   135
12.1741   142
12.1841   149
12.1941   136
12.2041   137
12.2141   148
12.2241   149
12.2341   148
12.2441   145
12.2541   142
12.2641   157
12.2741   152
12.2841   138
12.2941   132
12.3041   132
12.3141   142
12.3241   139
12.3341   138
12.3441   143
12.3541   138
12.3641   143
12.3741   150
12.3841   155
12.3941   143
12.4041   144
12.4141   164
12.4241   154
12.4341   135
12.4441   145
12.4541   154
12.4641   159
12.4741   147
12.4841   145
12.4941   153
12.5041   149
12.5141   125
12.5241   134
12.5341   159
12.5441   165
12.5541   163
12.5641   152
12.5741   156
12.5841   167
12.5941   164
12.6041   173
12.6141   177
12.6241   176
12.6341   161
12.6441   153
12.6541   158
12.6641   163
12.6741   171
12.6841   177
12.6941   177
12.7041   171
12.7141   159
12.7241   151
12.7341   158
12.7441   167
12.7541   171
12.7641   171
12.7741   162
12.7841   153
12.7941   161
12.8041   168
12.8141   162
12.8241   153
12.8341   152
12.8441   156
12.8541   157
12.8641   155
12.8741   157
12.8841   156
12.8941   153
12.9041   154
12.9141   156
12.9241   155
12.9341   159
12.9441   159
12.9541   151
12.9641   147
12.9741   147
12.9841   142
12.9941   158
13.0041   171
13.0141   160
13.0241   159
13.0341   163
13.0441   176
13.0541   183
13.0641   167
13.0741   159
13.0841   164
13.0941   172
13.1041   168
13.1141   161
13.1241   163
13.1341   159
13.1441   156
13.1541   165
13.1641   165
13.1741   163
13.1841   171
13.1941   175
13.2041   175
13.2141   187
13.2241   186
13.2341   174
13.2441   170
13.2541   174
13.2641   200
13.2741   215
13.2841   209
13.2941   223
13.3041   220
13.3141   212
13.3241   215
13.3341   218
13.3441   228
13.3541   237
13.3641   240
13.3741   233
13.3841   227
13.3941   236
13.4041   246
13.4141   242
13.4241   240
13.4341   243
13.4441   236
13.4541   218
13.4641   210
13.4741   212
13.4841   216
13.4941   213
13.5041   198
13.5141   194
13.5241   201
13.5341   204
13.5441   203
13.5541   198
13.5641   192
13.5741   190
13.5841   187
13.5941   183
13.6041   181
13.6141   184
13.6241   188
13.6341   185
13.6441   176
13.6541   183
13.6641   180
13.6741   175
13.6841   192
13.6941   209
13.7041   208
13.7141   193
13.7241   192
13.7341   192
13.7441   191
13.7541   201
13.7641   203
13.7741   192
13.7841   189
13.7941   190
13.8041   197
13.8141   196
13.8241   189
13.8341   199
13.8441   201
13.8541   213
13.8641   206
13.8741   186
13.8841   196
13.8941   207
13.9041   203
13.9141   197
13.9241   200
13.9341   216
13.9441   238
13.9541   250
13.9641   250
13.9741   251
13.9841   259
13.9941   276
14.0041   291
14.0141   298
14.0241   311
14.0341   334
14.0441   354
14.0541   364
14.0641   381
14.0741   407
14.0841   427
14.0941   441
14.1041   450
14.1141   460
14.1241   477
14.1341   490
14.1441   491
14.1541   493
14.1641   492
14.1741   473
14.1841   450
14.1941   427
14.2041   407
14.2141   405
14.2241   392
14.2341   374
14.2441   374
14.2541   349
14.2641   323
14.2741   311
14.2841   296
14.2941   269
14.3041   258
14.3141   251
14.3241   244
14.3341   246
14.3441   230
14.3541   238
14.3641   243
14.3741   218
14.3841   201
14.3941   212
14.4041   231
14.4141   232
14.4241   233
14.4341   226
14.4441   211
14.4541   228
14.4641   236
14.4741   239
14.4841   212
14.4941   192
14.5041   220
14.5141   219
14.5241   223
14.5341   228
14.5441   214
14.5541   218
14.5641   218
14.5741   216
14.5841   223
14.5941   230
14.6041   229
14.6141   221
14.6241   219
14.6341   223
14.6441   214
14.6541   212
14.6641   223
14.6741   241
14.6841   246
14.6941   214
14.7041   216
14.7141   234
14.7241   237
14.7341   211
14.7441   216
14.7541   245
14.7641   247
14.7741   251
14.7841   265
14.7941   249
14.8041   240
14.8141   280
14.8241   277
14.8341   276
14.8441   288
14.8541   289
14.8641   293
14.8741   284
14.8841   285
14.8941   294
14.9041   322
14.9141   323
14.9241   308
14.9341   302
14.9441   330
14.9541   343
14.9641   294
14.9741   288
14.9841   309
14.9941   304
15.0041   288
15.0141   286
15.0241   294
15.0341   276
15.0441   275
15.0541   286
15.0641   271
15.0741   261
15.0841   253
15.0941   276
15.1041   257
15.1141   220
15.1241   244
15.1341   274
15.1441   250
15.1541   241
15.1641   245
15.1741   241
15.1841   252
15.1941   268
15.2041   260
15.2141   239
15.2241   252
15.2341   259
15.2441   252
15.2541   266
15.2641   271
15.2741   258
15.2841   249
15.2941   255
15.3041   255
15.3141   246
15.3241   250
15.3341   257
15.3441   252
15.3541   246
15.3641   241
15.3741   251
15.3841   254
15.3941   259
15.4041   265
15.4141   264
15.4241   262
15.4341   292
15.4441   296
15.4541   267
15.4641   285
15.4741   306
15.4841   331
15.4941   350
15.5041   360
15.5141   404
15.5241   444
15.5341   491
15.5441   532
15.5541   577
15.5641   641
15.5741   712
15.5841   779
15.5941   883
15.6041   979
15.6141  1053
15.6241  1189
15.6341  1319
15.6441  1406
15.6541  1554
15.6641  1707
15.6741  1841
15.6841  1929
15.6941  2005
15.7041  2127
15.7141  2212
15.7241  2234
15.7341  2285
15.7441  2318
15.7541  2319
15.7641  2324
15.7741  2279
15.7841  2169
15.7941  2166
15.8041  2108
15.8141  1981
15.8241  1853
15.8341  1716
15.8441  1627
15.8541  1498
15.8641  1355
15.8741  1237
15.8841  1141
15.8941  1025
15.9041   910
15.9141   782
15.9241   697
15.9341   642
15.9441   560
15.9541   486
15.9641   454
15.9741   419
15.9841   398
15.9941   390
16.0041   340
16.0141   329
16.0241   328
16.0341   303
16.0441   288
16.0541   272
16.0641   283
16.0741   291
16.0841   279
16.0941   290
16.1041   261
16.1141   273
16.1241   285
16.1341   258
16.1441   256
16.1541   279
16.1641   272
16.1741   263
16.1841   262
16.1941   261
16.2041   270
16.2141   287
16.2241   284
16.2341   276
16.2441   276
16.2541   278
16.2641   274
16.2741   292
16.2841   287
16.2941   288
16.3041   273
16.3141   248
16.3241   256
16.3341   265
16.3441   280
16.3541   304
16.3641   280
16.3741   251
16.3841   270
16.3941   271
16.4041   255
16.4141   271
16.4241   294
16.4341   293
16.4441   269
16.4541   289
16.4641   288
16.4741   287
16.4841   293
16.4941   292
16.5041   272
16.5141   278
16.5241   291
16.5341   291
16.5441   281
16.5541   271
16.5641   276
16.5741   296
16.5841   324
16.5941   306
16.6041   301
16.6141   299
16.6241   299
16.6341   300
16.6441   308
16.6541   311
16.6641   326
16.6741   323
16.6841   280
16.6941   293
16.7041   349
16.7141   334
16.7241   304
16.7341   307
16.7441   309
16.7541   305
16.7641   299
16.7741   305
16.7841   295
16.7941   294
16.8041   306
16.8141   301
16.8241   271
16.8341   284
16.8441   302
16.8541   328
16.8641   334
16.8741   313
16.8841   320
16.8941   311
16.9041   295
16.9141   285
16.9241   301
16.9341   321
16.9441   288
16.9541   291
16.9641   288
16.9741   302
16.9841   283
16.9941   288
17.0041   307
17.0141   331
17.0241   334
17.0341   337
17.0441   316
17.0541   312
17.0641   293
17.0741   306
17.0841   331
17.0941   312
17.1041   323
17.1141   304
17.1241   289
17.1341   303
17.1441   321
17.1541   330
17.1641   331
17.1741   315
17.1841   327
17.1941   312
17.2041   290
17.2141   306
17.2241   309
17.2341   334
17.2441   312
17.2541   315
17.2641   300
17.2741   331
17.2841   342
17.2941   321
17.3041   346
17.3141   314
17.3241   314
17.3341   306
17.3441   313
17.3541   336
17.3641   320
17.3741   335
17.3841   351
17.3941   362
17.4041   345
17.4141   349
17.4241   336
17.4341   365
17.4441   353
17.4541   370
17.4641   350
17.4741   387
17.4841   392
17.4941   402
17.5041   425
17.5141   429
17.5241   448
17.5341   475
17.5441   486
17.5541   505
17.5641   505
17.5741   548
17.5841   562
17.5941   585
17.6041   628
17.6141   647
17.6241   609
17.6341   653
17.6441   671
17.6541   727
17.6641   698
17.6741   675
17.6841   674
17.6941   659
17.7041   642
17.7141   644
17.7241   633
17.7341   590
17.7441   585
17.7541   585
17.7641   572
17.7741   529
17.7841   462
17.7941   494
17.8041   481
17.8141   439
17.8241   458
17.8341   429
17.8441   424
17.8541   413
17.8641   396
17.8741   416
17.8841   390
17.8941   407
17.9041   391
17.9141   381
17.9241   379
17.9341   407
17.9441   389
17.9541   401
17.9641   402
17.9741   392
17.9841   405
17.9941   402
18.0041   407
18.0141   393
18.0241   397
18.0341   412
18.0441   376
18.0541   397
18.0641   375
18.0741   362
18.0841   374
18.0941   357
18.1041   387
18.1141   374
18.1241   361
18.1341   368
18.1441   359
18.1541   337
18.1641   350
18.1741   330
18.1841   341
18.1941   346
18.2041   372
18.2141   341
18.2241   339
18.2341   369
18.2441   364
18.2541   373
18.2641   356
18.2741   343
18.2841   343
18.2941   353
18.3041   348
18.3141   368
18.3241   366
18.3341   361
18.3441   354
18.3541   327
18.3641   356
18.3741   374
18.3841   353
18.3941   366
18.4041   353
18.4141   345
18.4241   358
18.4341   348
18.4441   339
18.4541   342
18.4641   344
18.4741   328
18.4841   361
18.4941   388
18.5041   360
18.5141   337
18.5241   352
18.5341   369
18.5441   373
18.5541   378
18.5641   364
18.5741   365
18.5841   372
18.5941   370
18.6041   391
18.6141   359
18.6241   344
18.6341   382
18.6441   373
18.6541   392
18.6641   347
18.6741   366
18.6841   385
18.6941   382
18.7041   380
18.7141   375
18.7241   365
18.7341   348
18.7441   364
18.7541   381
18.7641   370
18.7741   351
18.7841   368
18.7941   406
18.8041   382
18.8141   361
18.8241   362
18.8341   351
18.8441   384
18.8541   368
18.8641   369
18.8741   356
18.8841   376
18.8941   393
18.9041   383
18.9141   364
18.9241   383
18.9341   386
18.9441   378
18.9541   363
18.9641   367
18.9741   372
18.9841   370
18.9941   374
19.0041   380
19.0141   377
19.0241   371
19.0341   377
19.0441   384
19.0541   386
19.0641   397
19.0741   369
19.0841   404
19.0941   389
19.1041   380
19.1141   390
19.1241   394
19.1341   392
19.1441   386
19.1541   386
19.1641   390
19.1741   401
19.1841   410
19.1941   378
19.2041   383
19.2141   392
19.2241   387
19.2341   372
19.2441   366
19.2541   374
19.2641   357
19.2741   400
19.2841   424
19.2941   386
19.3041   368
19.3141   406
19.3241   394
19.3341   400
19.3441   393
19.3541   421
19.3641   420
19.3741   395
19.3841   404
19.3941   372
19.4041   398
19.4141   403
19.4241   401
19.4341   396
19.4441   377
19.4541   409
19.4641   421
19.4741   400
19.4841   396
19.4941   373
19.5041   398
19.5141   398
19.5241   390
19.5341   409
19.5441   413
19.5541   401
19.5641   386
19.5741   429
19.5841   405
19.5941   408
19.6041   389
19.6141   432
19.6241   413
19.6341   397
19.6441   451
19.6541   437
19.6641   400
19.6741   402
19.6841   427
19.6941   377
19.7041   387
19.7141   373
19.7241   406
19.7341   410
19.7441   387
19.7541   410
19.7641   407
19.7741   400
19.7841   419
19.7941   414
19.8041   374
19.8141   416
19.8241   422
19.8341   382
19.8441   406
19.8541   424
19.8641   395
19.8741   415
19.8841   425
19.8941   447
19.9041   409
19.9141   428
19.9241   418
19.9341   377
19.9441   405
19.9541   395
19.9641   386
19.9741   444
19.9841   414
19.9941   420
20.0041   433
20.0141   446
20.0241   412
20.0341   399
20.0441   400
20.0541   412
20.0641   397
20.0741   458
20.0841   416
20.0941   376
20.1041   434
20.1141   453
20.1241   388
20.1341   427
20.1441   412
20.1541   417
20.1641   431
20.1741   396
20.1841   413
20.1941   414
20.2041   422
20.2141   415
20.2241   422
20.2341   425
20.2441   400
20.2541   403
20.2641   426
20.2741   427
20.2841   419
20.2941   399
20.3041   402
20.3141   420
20.3241   422
20.3341   454
20.3441   426
20.3541   404
20.3641   447
20.3741   441
20.3841   453
20.3941   417
20.4041   393
20.4141   435
20.4241   442
20.4341   405
20.4441   432
20.4541   416
20.4641   460
20.4741   421
20.4841   421
20.4941   387
20.5041   400
20.5141   414
20.5241   435
20.5341   431
20.5441   419
20.5541   424
20.5641   432
20.5741   415
20.5841   421
20.5941   436
20.6041   437
20.6141   431
20.6241   438
20.6341   436
20.6441   436
20.6541   421
20.6641   411
20.6741   435
20.6841   424
20.6941   442
20.7041   420
20.7141   455
20.7241   451
20.7341   425
20.7441   427
20.7541   444
20.7641   431
20.7741   431
20.7841   434
20.7941   460
20.8041   475
20.8141   425
20.8241   501
20.8341   467
20.8441   453
20.8541   505
20.8641   485
20.8741   512
20.8841   523
20.8941   536
20.9041   512
20.9141   559
20.9241   516
20.9341   554
20.9441   560
20.9541   572
20.9641   566
20.9741   547
20.9841   641
20.9941   637
21.0041   626
21.0141   629
21.0241   688
21.0341   662
21.0441   641
21.0541   697
21.0641   691
21.0741   665
21.0841   688
21.0941   748
21.1041   696
21.1141   708
21.1241   730
21.1341   736
21.1441   736
21.1541   741
21.1641   715
21.1741   731
21.1841   760
21.1941   711
21.2041   716
21.2141   728
21.2241   634
21.2341   674
21.2441   602
21.2541   640
21.2641   644
21.2741   601
21.2841   536
21.2941   565
21.3041   549
21.3141   537
21.3241   490
21.3341   492
21.3441   523
21.3541   460
21.3641   435
21.3741   450
21.3841   467
21.3941   485
21.4041   452
21.4141   452
21.4241   446
21.4341   397
21.4441   435
21.4541   459
21.4641   453
21.4741   444
21.4841   448
21.4941   411
21.5041   437
21.5141   435
21.5241   452
21.5341   416
21.5441   433
21.5541   447
21.5641   450
21.5741   440
21.5841   453
21.5941   440
21.6041   481
21.6141   474
21.6241   474
21.6341   449
21.6441   449
21.6541   428
21.6641   443
21.6741   429
21.6841   475
21.6941   459
21.7041   471
21.7141   438
21.7241   448
21.7341   432
21.7441   460
21.7541   446
21.7641   458
21.7741   441
21.7841   425
21.7941   451
21.8041   456
21.8141   447
21.8241   423
21.8341   458
21.8441   451
21.8541   512
21.8641   461
21.8741   446
21.8841   436
21.8941   453
21.9041   470
21.9141   460
21.9241   478
21.9341   448
21.9441   413
21.9541   409
21.9641   433
21.9741   470
21.9841   470
21.9941   457
22.0041   518
22.0141   417
22.0241   469
22.0341   468
22.0441   432
22.0541   448
22.0641   429
22.0741   455
22.0841   451
22.0941   418
22.1041   468
22.1141   471
22.1241   434
22.1341   441
22.1441   472
22.1541   483
22.1641   449
22.1741   438
22.1841   490
22.1941   455
22.2041   458
22.2141   425
22.2241   465
22.2341   440
22.2441   460
22.2541   443
22.2641   473
22.2741   425
22.2841   473
22.2941   447
22.3041   462
22.3141   451
22.3241   428
22.3341   448
22.3441   439
22.3541   467
22.3641   459
22.3741   455
22.3841   444
22.3941   447
22.4041   442
22.4141   456
22.4241   447
22.4341   423
22.4441   458
22.4541   460
22.4641   431
22.4741   471
22.4841   452
22.4941   454
22.5041   415
22.5141   482
22.5241   436
22.5341   451
22.5441   465
22.5541   425
22.5641   478
22.5741   464
22.5841   476
22.5941   489
22.6041   420
22.6141   428
22.6241   428
22.6341   401
22.6441   466
22.6541   435
22.6641   457
22.6741   469
22.6841   467
22.6941   465
22.7041   465
22.7141   459
22.7241   467
22.7341   464
22.7441   450
22.7541   420
22.7641   412
22.7741   425
22.7841   429
22.7941   437
22.8041   446
22.8141   494
22.8241   449
22.8341   428
22.8441   443
22.8541   438
22.8641   499
22.8741   455
22.8841   400
22.8941   461
22.9041   446
22.9141   443
22.9241   458
22.9341   448
22.9441   489
22.9541   461
22.9641   497
22.9741   434
22.9841   446
22.9941   411
23.0041   429
23.0141   485
23.0241   446
23.0341   479
23.0441   439
23.0541   425
23.0641   447
23.0741   454
23.0841   434
23.0941   453
23.1041   476
23.1141   473
23.1241   463
23.1341   443
23.1441   423
23.1541   434
23.1641   458
23.1741   427
23.1841   476
23.1941   460
23.2041   450
23.2141   456
23.2241   446
23.2341   450
23.2441   435
23.2541   424
23.2641   460
23.2741   489
23.2841   500
23.2941   424
23.3041   416
23.3141   433
23.3241   435
23.3341   403
23.3441   480
23.3541   465
23.3641   438
23.3741   460
23.3841   436
23.3941   457
23.4041   455
23.4141   475
23.4241   461
23.4341   451
23.4441   461
23.4541   460
23.4641   449
23.4741   464
23.4841   430
23.4941   444
23.5041   459
23.5141   438
23.5241   424
23.5341   440
23.5441   434
23.5541   443
23.5641   452
23.5741   509
23.5841   437
23.5941   491
23.6041   453
23.6141   502
23.6241   423
23.6341   456
23.6441   510
23.6541   503
23.6641   466
23.6741   503
23.6841   450
23.6941   510
23.7041   463
23.7141   479
23.7241   470
23.7341   474
23.7441   472
23.7541   463
23.7641   491
23.7741   466
23.7841   483
23.7941   474
23.8041   485
23.8141   522
23.8241   506
23.8341   477
23.8441   461
23.8541   489
23.8641   541
23.8741   461
23.8841   502
23.8941   479
23.9041   496
23.9141   493
23.9241   445
23.9341   462
23.9441   486
23.9541   455
23.9641   471
23.9741   458
23.9841   429
23.9941   435
24.0041   469
24.0141   466
24.0241   435
24.0341   436
24.0441   462
24.0541   462
24.0641   455
24.0741   455
24.0841   477
24.0941   468
24.1041   472
24.1141   446
24.1241   420
24.1341   400
24.1441   439
24.1541   451
24.1641   457
24.1741   441
24.1841   433
24.1941   412
24.2041   422
24.2141   461
24.2241   479
24.2341   474
24.2441   465
24.2541   445
24.2641   465
24.2741   489
24.2841   446
24.2941   456
24.3041   489
24.3141   463
24.3241   438
24.3341   473
24.3441   452
24.3541   441
24.3641   454
24.3741   412
24.3841   434
24.3941   465
24.4041   461
24.4141   446
24.4241   463
24.4341   439
24.4441   417
24.4541   441
24.4641   419
24.4741   433
24.4841   450
24.4941   403
24.5041   494
24.5141   434
24.5241   431
24.5341   398
24.5441   422
24.5541   420
24.5641   417
24.5741   430
24.5841   442
24.5941   425
24.6041   441
24.6141   439
24.6241   446
24.6341   415
24.6441   446
24.6541   457
24.6641   467
24.6741   456
24.6841   448
24.6941   418
24.7041   455
24.7141   453
24.7241   412
24.7341   434
24.7441   434
24.7541   424
24.7641   428
24.7741   441
24.7841   453
24.7941   429
24.8041   433
24.8141   413
24.8241   416
24.8341   443
24.8441   417
24.8541   442
24.8641   444
24.8741   458
24.8841   423
24.8941   430
24.9041   429
24.9141   430
24.9241   459
24.9341   428
24.9441   426
24.9541   423
24.9641   416
24.9741   411
24.9841   429
24.9941   452
25.0041   445
25.0141   428
25.0241   464
25.0341   426
25.0441   471
25.0541   431
25.0641   455
25.0741   429
25.0841   415
25.0941   420
25.1041   442
25.1141   435
25.1241   439
25.1341   422
25.1441   467
25.1541   433
25.1641   448
25.1741   455
25.1841   453
25.1941   426
25.2041   456
25.2141   446
25.2241   452
25.2341   441
25.2441   461
25.2541   451
25.2641   452
25.2741   425
25.2841   431
25.2941   433
25.3041   461
25.3141   452
25.3241   441
25.3341   437
25.3441   418
25.3541   437
25.3641   418
25.3741   421
25.3841   435
25.3941   428
25.4041   440
25.4141   441
25.4241   452
25.4341   409
25.4441   423
25.4541   393
25.4641   414
25.4741   425
25.4841   443
25.4941   451
25.5041   431
25.5141   437
25.5241   403
25.5341   398
25.5441   425
25.5541   415
25.5641   454
25.5741   410
25.5841   409
25.5941   392
25.6041   405
25.6141   403
25.6241   437
25.6341   395
25.6441   422
25.6541   382
25.6641   409
25.6741   423
25.6841   435
25.6941   396
25.7041   440
25.7141   418
25.7241   377
25.7341   417
25.7441   377
25.7541   426
25.7641   403
25.7741   408
25.7841   417
25.7941   433
25.8041   424
25.8141   414
25.8241   409
25.8341   407
25.8441   391
25.8541   407
25.8641   382
25.8741   401
25.8841   367
25.8941   400
25.9041   381
25.9141   391
25.9241   419
25.9341   393
25.9441   423
25.9541   407
25.9641   385
25.9741   384
25.9841   420
25.9941   428
26.0041   419
26.0141   399
26.0241   377
26.0341   404
26.0441   405
26.0541   394
26.0641   393
26.0741   423
26.0841   425
26.0941   393
26.1041   407
26.1141   402
26.1241   397
26.1341   377
26.1441   412
26.1541   400
26.1641   392
26.1741   403
26.1841   402
26.1941   405
26.2041   404
26.2141   388
26.2241   395
26.2341   413
26.2441   391
26.2541   422
26.2641   399
26.2741   373
26.2841   371
26.2941   387
26.3041   398
26.3141   393
26.3241   377
26.3341   414
26.3441   427
26.3541   386
26.3641   373
26.3741   399
26.3841   426
26.3941   423
26.4041   409
26.4141   392
26.4241   387
26.4341   390
26.4441   408
26.4541   431
26.4641   361
26.4741   381
26.4841   382
26.4941   373
26.5041   375
26.5141   384
26.5241   378
26.5341   355
26.5441   399
26.5541   413
26.5641   394
26.5741   395
26.5841   397
26.5941   375
26.6041   387
26.6141   401
26.6241   362
26.6341   389
26.6441   376
26.6541   384
26.6641   377
26.6741   394
26.6841   399
26.6941   403
26.7041   434
26.7141   406
26.7241   402
26.7341   412
26.7441   367
26.7541   362
26.7641   381
26.7741   382
26.7841   400
26.7941   398
26.8041   358
26.8141   405
26.8241   382
26.8341   393
26.8441   394
26.8541   393
26.8641   384
26.8741   371
26.8841   377
26.8941   407
26.9041   378
26.9141   392
26.9241   381
26.9341   389
26.9441   371
26.9541   389
26.9641   389
26.9741   365
26.9841   376
26.9941   383
27.0041   391
27.0141   378
27.0241   384
27.0341   417
27.0441   369
27.0541   364
27.0641   383
27.0741   364
27.0841   360
27.0941   387
27.1041   378
27.1141   370
27.1241   375
27.1341   391
27.1441   349
27.1541   350
27.1641   368
27.1741   358
27.1841   364
27.1941   392
27.2041   347
27.2141   370
27.2241   360
27.2341   359
27.2441   357
27.2541   404
27.2641   364
27.2741   385
27.2841   386
27.2941   385
27.3041   358
27.3141   367
27.3241   375
27.3341   388
27.3441   363
27.3541   369
27.3641   352
27.3741   374
27.3841   346
27.3941   388
27.4041   392
27.4141   400
27.4241   405
27.4341   345
27.4441   356
27.4541   340
27.4641   381
27.4741   373
27.4841   342
27.4941   359
27.5041   383
27.5141   373
27.5241   371
27.5341   374
27.5441   371
27.5541   372
27.5641   360
27.5741   367
27.5841   378
27.5941   361
27.6041   367
27.6141   346
27.6241   345
27.6341   361
27.6441   367
27.6541   363
27.6641   369
27.6741   352
27.6841   373
27.6941   376
27.7041   353
27.7141   340
27.7241   350
27.7341   378
27.7441   313
27.7541   342
27.7641   399
27.7741   349
27.7841   338
27.7941   343
27.8041   331
27.8141   352
27.8241   341
27.8341   353
27.8441   331
27.8541   332
27.8641   375
27.8741   355
27.8841   360
27.8941   358
27.9041   341
27.9141   329
27.9241   338
27.9341   330
27.9441   349
27.9541   359
27.9641   336
27.9741   318
27.9841   339
27.9941   353
28.0041   353
28.0141   356
28.0241   326
28.0341   326
28.0441   344
28.0541   317
28.0641   333
28.0741   334
28.0841   347
28.0941   347
28.1041   344
28.1141   356
28.1241   367
28.1341   314
28.1441   342
28.1541   343
28.1641   349
28.1741   353
28.1841   375
28.1941   374
28.2041   321
28.2141   347
28.2241   331
28.2341   357
28.2441   339
28.2541   363
28.2641   351
28.2741   334
28.2841   343
28.2941   336
28.3041   325
28.3141   302
28.3241   326
28.3341   332
28.3441   304
28.3541   342
28.3641   329
28.3741   335
28.3841   346
28.3941   344
28.4041   330
28.4141   338
28.4241   303
28.4341   322
28.4441   310
28.4541   307
28.4641   357
28.4741   344
28.4841   371
28.4941   338
28.5041   326
28.5141   332
28.5241   333
28.5341   323
28.5441   357
28.5541   317
28.5641   364
28.5741   315
28.5841   366
28.5941   321
28.6041   319
28.6141   343
28.6241   335
28.6341   340
28.6441   359
28.6541   317
28.6641   314
28.6741   296
28.6841   334
28.6941   329
28.7041   314
28.7141   306
28.7241   341
28.7341   346
28.7441   334
28.7541   327
28.7641   313
28.7741   303
28.7841   294
28.7941   325
28.8041   314
28.8141   294
28.8241   313
28.8341   321
28.8441   295
28.8541   308
28.8641   307
28.8741   286
28.8841   337
28.8941   336
28.9041   319
28.9141   316
28.9241   306
28.9341   324
28.9441   293
28.9541   313
28.9641   333
28.9741   282
28.9841   291
28.9941   321
29.0041   312
29.0141   303
29.0241   297
29.0341   315
29.0441   321
29.0541   321
29.0641   316
29.0741   315
29.0841   312
29.0941   293
29.1041   291
29.1141   320
29.1241   273
29.1341   315
29.1441   305
29.1541   289
29.1641   322
29.1741   311
29.1841   278
29.1941   282
29.2041   289
29.2141   318
29.2241   298
29.2341   301
29.2441   287
29.2541   314
29.2641   288
29.2741   289
29.2841   331
29.2941   284
29.3041   294
29.3141   301
29.3241   302
29.3341   266
29.3441   283
29.3541   290
29.3641   303
29.3741   295
29.3841   312
29.3941   291
29.4041   293
29.4141   294
29.4241   301
29.4341   320
29.4441   317
29.4541   305
29.4641   266
29.4741   289
29.4841   286
29.4941   285
29.5041   320
29.5141   286
29.5241   276
29.5341   296
29.5441   286
29.5541   275
29.5641   282
29.5741   293
29.5841   268
29.5941   271
29.6041   278
29.6141   268
29.6241   263
29.6341   276
29.6441   308
29.6541   302
29.6641   304
29.6741   322
29.6841   313
29.6941   313
29.7041   287
29.7141   287
29.7241   300
29.7341   336
29.7441   290
29.7541   295
29.7641   267
29.7741   276
29.7841   262
29.7941   301
29.8041   278
29.8141   271
29.8241   278
29.8341   284
29.8441   298
29.8541   286
29.8641   272
29.8741   286
29.8841   286
29.8941   259
29.9041   265
29.9141   303
29.9241   262
29.9341   285
29.9441   258
29.9541   262
29.9641   305
29.9741   256
29.9841   279
29.9941   251
30.0041   260
30.0141   262
30.0241   272
30.0341   288
30.0441   262
30.0541   285
30.0641   250
30.0741   274
30.0841   257
30.0941   269
30.1041   254
30.1141   295
30.1241   260
30.1341   262
30.1441   266
30.1541   256
30.1641   279
30.1741   273
30.1841   277
30.1941   268
30.2041   264
30.2141   271
30.2241   250
30.2341   250
30.2441   286
30.2541   285
30.2641   267
30.2741   296
30.2841   272
30.2941   281
30.3041   278
30.3141   297
30.3241   251
30.3341   274
30.3441   272
30.3541   262
30.3641   248
30.3741   269
30.3841   267
30.3941   263
30.4041   293
30.4141   253
30.4241   269
30.4341   279
30.4441   313
30.4541   260
30.4641   273
30.4741   258
30.4841   274
30.4941   272
30.5041   265
30.5141   264
30.5241   266
30.5341   274
30.5441   261
30.5541   241
30.5641   249
30.5741   271
30.5841   245
30.5941   247
30.6041   256
30.6141   271
30.6241   270
30.6341   243
30.6441   237
30.6541   275
30.6641   276
30.6741   267
30.6841   275
30.6941   246
30.7041   275
30.7141   229
30.7241   250
30.7341   246
30.7441   235
30.7541   241
30.7641   245
30.7741   248
30.7841   243
30.7941   250
30.8041   252
30.8141   247
30.8241   248
30.8341   247
30.8441   257
30.8541   254
30.8641   262
30.8741   261
30.8841   243
30.8941   261
30.9041   237
30.9141   253
30.9241   259
30.9341   240
30.9441   244
30.9541   256
30.9641   274
30.9741   250
30.9841   227
30.9941   246
31.0041   240
31.0141   263
31.0241   240
31.0341   241
31.0441   233
31.0541   260
31.0641   240
31.0741   214
31.0841   232
31.0941   229
31.1041   221
31.1141   256
31.1241   248
31.1341   216
31.1441   221
31.1541   218
31.1641   250
31.1741   231
31.1841   220
31.1941   253
31.2041   236
31.2141   239
31.2241   256
31.2341   217
31.2441   240
31.2541   246
31.2641   238
31.2741   240
31.2841   242
31.2941   225
31.3041   233
31.3141   220
31.3241   238
31.3341   192
31.3441   228
31.3541   246
31.3641   239
31.3741   239
31.3841   246
31.3941   240
31.4041   219
31.4141   249
31.4241   212
31.4341   244
31.4441   229
31.4541   236
31.4641   246
31.4741   235
31.4841   245
31.4941   260
31.5041   253
31.5141   235
31.5241   197
31.5341   219
31.5441   216
31.5541   217
31.5641   219
31.5741   245
31.5841   227
31.5941   219
31.6041   234
31.6141   235
31.6241   223
31.6341   237
31.6441   230
31.6541   243
31.6641   200
31.6741   208
31.6841   225
31.6941   248
31.7041   253
31.7141   226
31.7241   220
31.7341   234
31.7441   239
31.7541   223
31.7641   223
31.7741   205
31.7841   226
31.7941   227
31.8041   218
31.8141   248
31.8241   254
31.8341   214
31.8441   220
31.8541   204
31.8641   236
31.8741   203
31.8841   201
31.8941   238
31.9041   223
31.9141   220
31.9241   219
31.9341   230
31.9441   261
31.9541   245
31.9641   225
31.9741   224
31.9841   218
31.9941   189
32.0041   215
32.0141   224
32.0241   211
32.0341   218
32.0441   225
32.0541   235
32.0641   211
32.0741   236
32.0841   196
32.0941   177
32.1041   209
32.1141   210
32.1241   252
32.1341   207
32.1441   217
32.1541   240
32.1641   241
32.1741   206
32.1841   231
32.1941   216
32.2041   213
32.2141   223
32.2241   205
32.2341   217
32.2441   239
32.2541   203
32.2641   225
32.2741   228
32.2841   238
32.2941   210
32.3041   216
32.3141   191
32.3241   201
32.3341   214
32.3441   209
32.3541   221
32.3641   216
32.3741   195
32.3841   201
32.3941   193
32.4041   215
32.4141   214
32.4241   206
32.4341   207
32.4441   189
32.4541   201
32.4641   212
32.4741   206
32.4841   213
32.4941   187
32.5041   219
32.5141   214
32.5241   192
32.5341   195
32.5441   197
32.5541   200
32.5641   197
32.5741   179
32.5841   185
32.5941   189
32.6041   173
32.6141   186
32.6241   208
32.6341   169
32.6441   183
32.6541   179
32.6641   191
32.6741   191
32.6841   173
32.6941   206
32.7041   190
32.7141   190
32.7241   186
32.7341   197
32.7441   176
32.7541   182
32.7641   191
32.7741   198
32.7841   188
32.7941   195
32.8041   176
32.8141   197
32.8241   189
32.8341   194
32.8441   199
32.8541   187
32.8641   183
32.8741   194
32.8841   186
32.8941   198
32.9041   176
32.9141   191
32.9241   178
32.9341   175
32.9441   189
32.9541   182
32.9641   193
32.9741   173
32.9841   168
32.9941   175
33.0041   173
33.0141   211
33.0241   164
33.0341   157
33.0441   170
33.0541   192
33.0641   175
33.0741   182
33.0841   167
33.0941   151
33.1041   169
33.1141   221
33.1241   180
33.1341   181
33.1441   162
33.1541   178
33.1641   176
33.1741   170
33.1841   166
33.1941   170
33.2041   193
33.2141   167
33.2241   176
33.2341   169
33.2441   151
33.2541   155
33.2641   178
33.2741   199
33.2841   182
33.2941   181
33.3041   191
33.3141   161
33.3241   175
33.3341   152
33.3441   160
33.3541   174
33.3641   176
33.3741   170
33.3841   193
33.3941   156
33.4041   166
33.4141   163
33.4241   188
33.4341   159
33.4441   195
33.4541   168
33.4641   186
33.4741   156
33.4841   163
33.4941   194
33.5041   143
33.5141   171
33.5241   192
33.5341   162
33.5441   171
33.5541   181
33.5641   174
33.5741   166
33.5841   161
33.5941   167
33.6041   150
33.6141   180
33.6241   162
33.6341   149
33.6441   177
33.6541   168
33.6641   161
33.6741   157
33.6841   153
33.6941   162
33.7041   144
33.7141   145
33.7241   163
33.7341   167
33.7441   150
33.7541   163
33.7641   162
33.7741   155
33.7841   144
33.7941   154
33.8041   155
33.8141   159
33.8241   153
33.8341   164
33.8441   161
33.8541   153
33.8641   143
33.8741   160
33.8841   136
33.8941   152
33.9041   134
33.9141   146
33.9241   171
33.9341   176
33.9441   159
33.9541   146
33.9641   160
33.9741   189
33.9841   132
33.9941   138
34.0041   147
34.0141   146
34.0241   141
34.0341   162
34.0441   157
34.0541   137
34.0641   151
34.0741   140
34.0841   140
34.0941   135
34.1041   161
34.1141   145
34.1241   147
34.1341   151
34.1441   134
34.1541   137
34.1641   158
34.1741   142
34.1841   136
34.1941   158
34.2041   156
34.2141   158
34.2241   144
34.2341   154
34.2441   147
34.2541   143
34.2641   153
34.2741   137
34.2841   137
34.2941   161
34.3041   146
34.3141   156
34.3241   150
34.3341   146
34.3441   124
34.3541   145
34.3641   155
34.3741   140
34.3841   143
34.3941   137
34.4041   123
34.4141   155
34.4241   140
34.4341   151
34.4441   160
34.4541   143
34.4641   133
34.4741   155
34.4841   139
34.4941   129
34.5041   141
34.5141   142
34.5241   152
34.5341   149
34.5441   129
34.5541   138
34.5641   154
34.5741   155
34.5841   127
34.5941   133
34.6041   150
34.6141   139
34.6241   153
34.6341   149
34.6441   150
34.6541   135
34.6641   124
34.6741   137
34.6841   124
34.6941   116
34.7041   116
34.7141   138
34.7241   133
34.7341   124
34.7441   116
34.7541   122
34.7641   150
34.7741   138
34.7841   120
34.7941   147
34.8041   146
34.8141   139
34.8241   132
34.8341   143
34.8441   137
34.8541    99
34.8641   112
34.8741   122
34.8841   151
34.8941   132
34.9041   128
34.9141   130
34.9241   117
34.9341   120
34.9441   121
34.9541   107
34.9641   125
34.9741   121
34.9841   118
34.9941   114
35.0041   117
35.0141   132
35.0241   132
35.0341   156
35.0441   126
35.0541   119
35.0641   132
35.0741   119
35.0841   121
35.0941   128
35.1041   114
35.1141   124
35.1241   123
35.1341   131
35.1441   121
35.1541   122
35.1641   125
35.1741   124
35.1841   116
35.1941   106
35.2041   129
35.2141   113
35.2241   141
35.2341   118
35.2441   110
35.2541   112
35.2641   125
35.2741   108
35.2841   107
35.2941   129
35.3041   127
35.3141   122
35.3241   136
35.3341   123
35.3441   108
35.3541   104
35.3641   125
35.3741   115
35.3841   110
35.3941   115
35.4041   120
35.4141   124
35.4241   117
35.4341   118
35.4441   128
35.4541    88
35.4641    92
35.4741   114
35.4841   100
35.4941   121
35.5041   136
35.5141   128
35.5241   111
35.5341   126
35.5441   108
35.5541    96
35.5641    88
35.5741   124
35.5841   123
35.5941   103
35.6041    90
35.6141   120
35.6241   117
35.6341   117
35.6441   116
35.6541   112
35.6641   118
35.6741   112
35.6841    94
35.6941   115
35.7041   118
35.7141    97
35.7241    84
35.7341   106
35.7441    93
35.7541   124
35.7641   108
35.7741   115
35.7841    84
35.7941   111
35.8041    98
35.8141   119
35.8241   103
35.8341   101
35.8441    96
35.8541    99
35.8641    85
35.8741   101
35.8841   104
35.8941   104
35.9041   120
35.9141   103
35.9241   123
35.9341   116
35.9441   100
35.9541   104
35.9641   102
35.9741    99
35.9841   102
35.9941    94
36.0041   100
36.0141   109
36.0241   102
36.0341    89
36.0441    93
36.0541   100
36.0641    91
36.0741   100
36.0841   100
36.0941    97
36.1041   103
36.1141   101
36.1241    92
36.1341    91
36.1441    95
36.1541   101
36.1641    88
36.1741    97
36.1841   111
36.1941   104
36.2041    97
36.2141    97
36.2241    98
36.2341    97
36.2441   105
36.2541   100
36.2641   100
36.2741   106
36.2841   103
36.2941    91
36.3041    91
36.3141   113
36.3241   105
36.3341   120
36.3441   110
36.3541    96
36.3641   100
36.3741    89
36.3841   102
36.3941   104
36.4041   107
36.4141    91
36.4241    93
36.4341    97
36.4441    82
36.4541    90
36.4641   104
36.4741    92
36.4841    97
36.4941   103
36.5041    92
36.5141    74
36.5241    85
36.5341    95
36.5441    99
36.5541    86
36.5641    83
36.5741    82
36.5841    92
36.5941   100
36.6041    90
36.6141    87
36.6241    93
36.6341    82
36.6441    88
36.6541    90
36.6641    95
36.6741    97
36.6841   107
36.6941    92
36.7041    83
36.7141    98
36.7241    77
36.7341    77
36.7441    91
36.7541    77
36.7641    80
36.7741    94
36.7841    90
36.7941    91
36.8041    94
36.8141   101
36.8241    88
36.8341    90
36.8441    94
36.8541    84
36.8641    81
36.8741    90
36.8841    90
36.8941    74
36.9041    87
36.9141    88
36.9241    83
36.9341    87
36.9441    88
36.9541    80
36.9641    78
36.9741    87
36.9841    71
36.9941    84
37.0041    83
37.0141    79
37.0241    79
37.0341   100
37.0441    89
37.0541    83
37.0641    79
37.0741    79
37.0841    70
37.0941    75
37.1041    77
37.1141    90
37.1241    69
37.1341    90
37.1441    87
37.1541    88
37.1641    80
37.1741    81
37.1841    75
37.1941    77
37.2041    79
37.2141    72
37.2241    76
37.2341    67
37.2441    74
37.2541    82
37.2641    89
37.2741    71
37.2841    79
37.2941    76
37.3041    74
37.3141    57
37.3241    81
37.3341    73
37.3441    91
37.3541    85
37.3641    85
37.3741    71
37.3841    71
37.3941    86
37.4041    97
37.4141    75
37.4241    62
37.4341    81
37.4441    70
37.4541    79
37.4641    63
37.4741    75
37.4841    74
37.4941    74
37.5041    65
37.5141    78
37.5241    81
37.5341    60
37.5441    59
37.5541    69
37.5641    74
37.5741    69
37.5841    79
37.5941    62
37.6041    70
37.6141    68
37.6241    68
37.6341    78
37.6441    74
37.6541    72
37.6641    80
37.6741    55
37.6841    74
37.6941    79
37.7041    63
37.7141    81
37.7241    56
37.7341    62
37.7441    62
37.7541    67
37.7641    83
37.7741    62
37.7841    70
37.7941    75
37.8041    69
37.8141    79
37.8241    64
37.8341    66
37.8441    77
37.8541    62
37.8641    59
37.8741    71
37.8841    63
37.8941    80
37.9041    56
37.9141    62
37.9241    65
37.9341    63
37.9441    62
37.9541    55
37.9641    56
37.9741    67
37.9841    84
37.9941    75
38.0041    75
38.0141    58
38.0241    60
38.0341    59
38.0441    58
38.0541    60
38.0641    61
38.0741    50
38.0841    51
38.0941    68
38.1041    72
38.1141    66
38.1241    56
38.1341    56
38.1441    67
38.1541    73
38.1641    60
38.1741    71
38.1841    53
38.1941    65
38.2041    61
38.2141    64
38.2241    48
38.2341    46
38.2441    48
38.2541    49
38.2641    72
38.2741    72
38.2841    64
38.2941    55
38.3041    52
38.3141    70
38.3241    60
38.3341    64
38.3441    61
38.3541    52
38.3641    69
38.3741    66
38.3841    52
38.3941    62
38.4041    54
38.4141    53
38.4241    53
38.4341    56
38.4441    60
38.4541    62
38.4641    56
38.4741    62
38.4841    64
38.4941    52
38.5041    48
38.5141    44
38.5241    55
38.5341    45
38.5441    59
38.5541    43
38.5641    49
38.5741    58
38.5841    43
38.5941    53
38.6041    54
38.6141    55
38.6241    50
38.6341    54
38.6441    66
38.6541    67
38.6641    42
38.6741    59
38.6841    59
38.6941    47
38.7041    51
38.7141    46
38.7241    48
38.7341    54
38.7441    58
38.7541    48
38.7641    62
38.7741    63
38.7841    52
38.7941    39
38.8041    43
38.8141    53
38.8241    42
38.8341    46
38.8441    48
38.8541    42
38.8641    51
38.8741    57
38.8841    43
38.8941    56
38.9041    53
38.9141    50
38.9241    64
38.9341    47
38.9441    45
38.9541    36
38.9641    34
38.9741    46
38.9841    50
38.9941    59
39.0041    50
39.0141    61
39.0241    38
39.0341    51
39.0441    53
39.0541    42
39.0641    49
39.0741    62
39.0841    38
39.0941    38
39.1041    47
39.1141    35
39.1241    51
39.1341    41
39.1441    37
39.1541    42
39.1641    38
39.1741    44
39.1841    45
39.1941    53
39.2041    42
39.2141    56
39.2241    44
39.2341    45
39.2441    57
39.2541    63
39.2641    42
39.2741    51
39.2841    48
39.2941    37
39.3041    43
39.3141    48
39.3241    43
39.3341    43
39.3441    45
39.3541    36
39.3641    38
39.3741    44
39.3841    53
39.3941    37
39.4041    39
39.4141    32
39.4241    45
39.4341    40
39.4441    38
39.4541    45
39.4641    42
39.4741    30
39.4841    41
39.4941    45
39.5041    30
39.5141    40
39.5241    39
39.5341    35
39.5441    36
39.5541    42
39.5641    37
39.5741    44
39.5841    42
39.5941    41
39.6041    44
39.6141    47
39.6241    42
39.6341    44
39.6441    46
39.6541    33
39.6641    40
39.6741    38
39.6841    43
39.6941    36
39.7041    32
39.7141    40
39.7241    27
39.7341    35
39.7441    46
39.7541    34
39.7641    35
39.7741    38
39.7841    36
39.7941    44
39.8041    45
39.8141    27
39.8241    45
39.8341    28
39.8441    28
39.8541    32
39.8641    33
39.8741    38
39.8841    29
39.8941    28
39.9041    39
39.9141    36
39.9241    22
39.9341    33
39.9441    43
39.9541    39
39.9641    27
39.9741    32
39.9841    41
