Bruker Nano GmbH Berlin, Germany
Esprit 1.9

Date: 4/1/2021 4:17:12 PM
Real time: 18617
Life time: 17360
Pulse density: 100863


Detector type: XFlash 430
Window type: Custom type
Detector thickness: 0.45
Si dead layer:0.029

Calibration, lin.: 10
Calibration, abs.: -955.9
Mn FWHM: 137.05
Fano factor: 0.121
Channels: 4095

Energy Counts
-0.9559     0
-0.9459     0
-0.9359     0
-0.9259     0
-0.9159     0
-0.9059     0
-0.8959     0
-0.8859     0
-0.8759     0
-0.8659     0
-0.8559     0
-0.8459     0
-0.8359     0
-0.8259     0
-0.8159     0
-0.8059     0
-0.7959     0
-0.7859     0
-0.7759     0
-0.7659     0
-0.7559     0
-0.7459     0
-0.7359     0
-0.7259     0
-0.7159     0
-0.7059     0
-0.6959     0
-0.6859     0
-0.6759     0
-0.6659     0
-0.6559     0
-0.6459     0
-0.6359     0
-0.6259     0
-0.6159     0
-0.6059     0
-0.5959     0
-0.5859     0
-0.5759     0
-0.5659     0
-0.5559     0
-0.5459     0
-0.5359     0
-0.5259     0
-0.5159     0
-0.5059     0
-0.4959     0
-0.4859     0
-0.4759     0
-0.4659     0
-0.4559     0
-0.4459     0
-0.4359     0
-0.4259     0
-0.4159     0
-0.4059     0
-0.3959     0
-0.3859     0
-0.3759     0
-0.3659     0
-0.3559     0
-0.3459     0
-0.3359     0
-0.3259     0
-0.3159     0
-0.3059     0
-0.2959     0
-0.2859     0
-0.2759     0
-0.2659     0
-0.2559     0
-0.2459     0
-0.2359     0
-0.2259     0
-0.2159     0
-0.2059     0
-0.1959     0
-0.1859     0
-0.1759     0
-0.1659     0
-0.1559     0
-0.1459     0
-0.1359     0
-0.1259     1
-0.1159     4
-0.1059     7
-0.0959    41
-0.0859   223
-0.0759   699
-0.0659  1900
-0.0559  5042
-0.0459 11035
-0.0359 20511
-0.0259 32890
-0.0159 45453
-0.0059 53281
 0.0041 53542
 0.0141 46202
 0.0241 33976
 0.0341 21600
 0.0441 11739
 0.0541  5318
 0.0641  2283
 0.0741   765
 0.0841   225
 0.0941    66
 0.1041    26
 0.1141     5
 0.1241    11
 0.1341    10
 0.1441    10
 0.1541     2
 0.1641     0
 0.1741    15
 0.1841   153
 0.1941   311
 0.2041   279
 0.2141   285
 0.2241   286
 0.2341   289
 0.2441   283
 0.2541   268
 0.2641   301
 0.2741   278
 0.2841   277
 0.2941   261
 0.3041   288
 0.3141   270
 0.3241   272
 0.3341   249
 0.3441   246
 0.3541   259
 0.3641   258
 0.3741   275
 0.3841   273
 0.3941   245
 0.4041   241
 0.4141   255
 0.4241   245
 0.4341   231
 0.4441   237
 0.4541   261
 0.4641   238
 0.4741   229
 0.4841   230
 0.4941   230
 0.5041   232
 0.5141   233
 0.5241   235
 0.5341   241
 0.5441   251
 0.5541   244
 0.5641   224
 0.5741   224
 0.5841   230
 0.5941   218
 0.6041   236
 0.6141   223
 0.6241   204
 0.6341   212
 0.6441   230
 0.6541   227
 0.6641   216
 0.6741   214
 0.6841   225
 0.6941   229
 0.7041   208
 0.7141   198
 0.7241   207
 0.7341   200
 0.7441   208
 0.7541   216
 0.7641   212
 0.7741   205
 0.7841   191
 0.7941   199
 0.8041   214
 0.8141   206
 0.8241   199
 0.8341   189
 0.8441   186
 0.8541   191
 0.8641   205
 0.8741   199
 0.8841   198
 0.8941   184
 0.9041   184
 0.9141   183
 0.9241   197
 0.9341   197
 0.9441   207
 0.9541   203
 0.9641   187
 0.9741   201
 0.9841   169
 0.9941   194
 1.0041   194
 1.0141   186
 1.0241   198
 1.0341   178
 1.0441   173
 1.0541   165
 1.0641   187
 1.0741   178
 1.0841   180
 1.0941   184
 1.1041   190
 1.1141   167
 1.1241   181
 1.1341   184
 1.1441   166
 1.1541   173
 1.1641   155
 1.1741   166
 1.1841   161
 1.1941   195
 1.2041   195
 1.2141   162
 1.2241   177
 1.2341   161
 1.2441   183
 1.2541   179
 1.2641   165
 1.2741   171
 1.2841   164
 1.2941   159
 1.3041   163
 1.3141   166
 1.3241   191
 1.3341   182
 1.3441   158
 1.3541   157
 1.3641   180
 1.3741   172
 1.3841   158
 1.3941   166
 1.4041   164
 1.4141   171
 1.4241   169
 1.4341   159
 1.4441   156
 1.4541   153
 1.4641   174
 1.4741   186
 1.4841   174
 1.4941   194
 1.5041   155
 1.5141   176
 1.5241   171
 1.5341   171
 1.5441   165
 1.5541   172
 1.5641   155
 1.5741   144
 1.5841   158
 1.5941   173
 1.6041   162
 1.6141   151
 1.6241   173
 1.6341   167
 1.6441   169
 1.6541   214
 1.6641   243
 1.6741   272
 1.6841   337
 1.6941   388
 1.7041   508
 1.7141   583
 1.7241   632
 1.7341   659
 1.7441   649
 1.7541   653
 1.7641   594
 1.7741   521
 1.7841   424
 1.7941   358
 1.8041   295
 1.8141   248
 1.8241   237
 1.8341   226
 1.8441   196
 1.8541   190
 1.8641   213
 1.8741   187
 1.8841   177
 1.8941   194
 1.9041   180
 1.9141   157
 1.9241   154
 1.9341   168
 1.9441   166
 1.9541   182
 1.9641   160
 1.9741   176
 1.9841   189
 1.9941   179
 2.0041   201
 2.0141   227
 2.0241   197
 2.0341   218
 2.0441   204
 2.0541   169
 2.0641   178
 2.0741   165
 2.0841   156
 2.0941   143
 2.1041   153
 2.1141   164
 2.1241   140
 2.1341   161
 2.1441   173
 2.1541   141
 2.1641   167
 2.1741   158
 2.1841   153
 2.1941   150
 2.2041   144
 2.2141   125
 2.2241   140
 2.2341   134
 2.2441   142
 2.2541   157
 2.2641   161
 2.2741   149
 2.2841   164
 2.2941   164
 2.3041   155
 2.3141   150
 2.3241   131
 2.3341   131
 2.3441   125
 2.3541   150
 2.3641   125
 2.3741   142
 2.3841   137
 2.3941   126
 2.4041   138
 2.4141   158
 2.4241   160
 2.4341   124
 2.4441   140
 2.4541   137
 2.4641   134
 2.4741   135
 2.4841   129
 2.4941   138
 2.5041   122
 2.5141   135
 2.5241   138
 2.5341   135
 2.5441   109
 2.5541   130
 2.5641   109
 2.5741   128
 2.5841   107
 2.5941   135
 2.6041   133
 2.6141   112
 2.6241   138
 2.6341   111
 2.6441   137
 2.6541   136
 2.6641   121
 2.6741   149
 2.6841   123
 2.6941   106
 2.7041   136
 2.7141   110
 2.7241   135
 2.7341   134
 2.7441   130
 2.7541   133
 2.7641   124
 2.7741   129
 2.7841   147
 2.7941   157
 2.8041   130
 2.8141   142
 2.8241   129
 2.8341   114
 2.8441   139
 2.8541   134
 2.8641   153
 2.8741   125
 2.8841   117
 2.8941   128
 2.9041   124
 2.9141   110
 2.9241   117
 2.9341   113
 2.9441   140
 2.9541   122
 2.9641   122
 2.9741   116
 2.9841   121
 2.9941   120
 3.0041   108
 3.0141   108
 3.0241   106
 3.0341   107
 3.0441    95
 3.0541   130
 3.0641   119
 3.0741   108
 3.0841    94
 3.0941   110
 3.1041   112
 3.1141   108
 3.1241   109
 3.1341   105
 3.1441   111
 3.1541   113
 3.1641   102
 3.1741    81
 3.1841   112
 3.1941    89
 3.2041   125
 3.2141   117
 3.2241   113
 3.2341   129
 3.2441   142
 3.2541   146
 3.2641   151
 3.2741   162
 3.2841   168
 3.2941   187
 3.3041   194
 3.3141   211
 3.3241   181
 3.3341   195
 3.3441   190
 3.3541   170
 3.3641   158
 3.3741   116
 3.3841   127
 3.3941   116
 3.4041   120
 3.4141    96
 3.4241   107
 3.4341   112
 3.4441    93
 3.4541    93
 3.4641   104
 3.4741    87
 3.4841   102
 3.4941   102
 3.5041   115
 3.5141   121
 3.5241   128
 3.5341   120
 3.5441   130
 3.5541   163
 3.5641   160
 3.5741   221
 3.5841   253
 3.5941   318
 3.6041   416
 3.6141   536
 3.6241   676
 3.6341   823
 3.6441   986
 3.6541  1108
 3.6641  1323
 3.6741  1450
 3.6841  1505
 3.6941  1458
 3.7041  1374
 3.7141  1316
 3.7241  1182
 3.7341   983
 3.7441   774
 3.7541   639
 3.7641   491
 3.7741   368
 3.7841   277
 3.7941   202
 3.8041   154
 3.8141   100
 3.8241   111
 3.8341   103
 3.8441    99
 3.8541    98
 3.8641    69
 3.8741    90
 3.8841   110
 3.8941   107
 3.9041    92
 3.9141   111
 3.9241   140
 3.9341   162
 3.9441   162
 3.9541   180
 3.9641   221
 3.9741   238
 3.9841   279
 3.9941   292
 4.0041   316
 4.0141   315
 4.0241   295
 4.0341   286
 4.0441   259
 4.0541   226
 4.0641   175
 4.0741   178
 4.0841   156
 4.0941   138
 4.1041   109
 4.1141   114
 4.1241   101
 4.1341    89
 4.1441    84
 4.1541    83
 4.1641    90
 4.1741    84
 4.1841    66
 4.1941    84
 4.2041    66
 4.2141    67
 4.2241    75
 4.2341    71
 4.2441    59
 4.2541    83
 4.2641    71
 4.2741    72
 4.2841    69
 4.2941    81
 4.3041    76
 4.3141    72
 4.3241    71
 4.3341    89
 4.3441    89
 4.3541    86
 4.3641    73
 4.3741    93
 4.3841   119
 4.3941   136
 4.4041   168
 4.4141   214
 4.4241   250
 4.4341   299
 4.4441   373
 4.4541   391
 4.4641   466
 4.4741   555
 4.4841   582
 4.4941   607
 4.5041   705
 4.5141   633
 4.5241   577
 4.5341   540
 4.5441   510
 4.5541   431
 4.5641   421
 4.5741   324
 4.5841   273
 4.5941   227
 4.6041   189
 4.6141   173
 4.6241   120
 4.6341    72
 4.6441    92
 4.6541   100
 4.6641   108
 4.6741   101
 4.6841    79
 4.6941    57
 4.7041    95
 4.7141    84
 4.7241    96
 4.7341    84
 4.7441    94
 4.7541    82
 4.7641    77
 4.7741    90
 4.7841    91
 4.7941    99
 4.8041   109
 4.8141   112
 4.8241   116
 4.8341   133
 4.8441   133
 4.8541   137
 4.8641   156
 4.8741   164
 4.8841   187
 4.8941   190
 4.9041   219
 4.9141   194
 4.9241   218
 4.9341   210
 4.9441   231
 4.9541   194
 4.9641   202
 4.9741   187
 4.9841   152
 4.9941   143
 5.0041   138
 5.0141   134
 5.0241   139
 5.0341   121
 5.0441    96
 5.0541   102
 5.0641    82
 5.0741    87
 5.0841    89
 5.0941    84
 5.1041    94
 5.1141   105
 5.1241    87
 5.1341    92
 5.1441    83
 5.1541    82
 5.1641    96
 5.1741   113
 5.1841    86
 5.1941    86
 5.2041    77
 5.2141    94
 5.2241    92
 5.2341    88
 5.2441    89
 5.2541    95
 5.2641    83
 5.2741    97
 5.2841    88
 5.2941    82
 5.3041   103
 5.3141    99
 5.3241    98
 5.3341   109
 5.3441   104
 5.3541   104
 5.3641   108
 5.3741   111
 5.3841   110
 5.3941    95
 5.4041   114
 5.4141   116
 5.4241   116
 5.4341   143
 5.4441   130
 5.4541   119
 5.4641   107
 5.4741   118
 5.4841   100
 5.4941   102
 5.5041    86
 5.5141    92
 5.5241   114
 5.5341    79
 5.5441   107
 5.5541   100
 5.5641   113
 5.5741   106
 5.5841   109
 5.5941   107
 5.6041   101
 5.6141   107
 5.6241    87
 5.6341    89
 5.6441   103
 5.6541   102
 5.6641    96
 5.6741    80
 5.6841    82
 5.6941   110
 5.7041   104
 5.7141   107
 5.7241   113
 5.7341   100
 5.7441   110
 5.7541   145
 5.7641   149
 5.7741   177
 5.7841   173
 5.7941   210
 5.8041   257
 5.8141   313
 5.8241   358
 5.8341   382
 5.8441   434
 5.8541   503
 5.8641   568
 5.8741   627
 5.8841   601
 5.8941   612
 5.9041   644
 5.9141   600
 5.9241   589
 5.9341   499
 5.9441   476
 5.9541   416
 5.9641   357
 5.9741   287
 5.9841   266
 5.9941   221
 6.0041   217
 6.0141   181
 6.0241   156
 6.0341   155
 6.0441   141
 6.0541   133
 6.0641   151
 6.0741   132
 6.0841   133
 6.0941   122
 6.1041   131
 6.1141   138
 6.1241   152
 6.1341   175
 6.1441   178
 6.1541   167
 6.1641   205
 6.1741   248
 6.1841   255
 6.1941   330
 6.2041   403
 6.2141   554
 6.2241   737
 6.2341  1035
 6.2441  1311
 6.2541  2030
 6.2641  2805
 6.2741  3805
 6.2841  5179
 6.2941  6726
 6.3041  8730
 6.3141 11042
 6.3241 13727
 6.3341 16756
 6.3441 19443
 6.3541 22190
 6.3641 24301
 6.3741 26431
 6.3841 27561
 6.3941 28435
 6.4041 28421
 6.4141 27649
 6.4241 25802
 6.4341 23793
 6.4441 21084
 6.4541 18385
 6.4641 15442
 6.4741 12738
 6.4841 10256
 6.4941  7846
 6.5041  5967
 6.5141  4447
 6.5241  3148
 6.5341  2361
 6.5441  1628
 6.5541  1089
 6.5641   790
 6.5741   521
 6.5841   426
 6.5941   322
 6.6041   279
 6.6141   217
 6.6241   162
 6.6341   166
 6.6441   173
 6.6541   181
 6.6641   166
 6.6741   151
 6.6841   173
 6.6941   143
 6.7041   180
 6.7141   175
 6.7241   166
 6.7341   187
 6.7441   164
 6.7541   174
 6.7641   188
 6.7741   181
 6.7841   203
 6.7941   211
 6.8041   191
 6.8141   199
 6.8241   242
 6.8341   258
 6.8441   288
 6.8541   272
 6.8641   322
 6.8741   376
 6.8841   454
 6.8941   504
 6.9041   559
 6.9141   642
 6.9241   851
 6.9341  1143
 6.9441  1384
 6.9541  1582
 6.9641  1967
 6.9741  2463
 6.9841  2794
 6.9941  3205
 7.0041  3693
 7.0141  3886
 7.0241  4411
 7.0341  4578
 7.0441  4746
 7.0541  4786
 7.0641  4693
 7.0741  4542
 7.0841  4216
 7.0941  3885
 7.1041  3538
 7.1141  3121
 7.1241  2617
 7.1341  2089
 7.1441  1807
 7.1541  1465
 7.1641  1119
 7.1741   902
 7.1841   724
 7.1941   523
 7.2041   425
 7.2141   335
 7.2241   267
 7.2341   265
 7.2441   238
 7.2541   206
 7.2641   183
 7.2741   194
 7.2841   173
 7.2941   179
 7.3041   211
 7.3141   229
 7.3241   212
 7.3341   197
 7.3441   203
 7.3541   242
 7.3641   229
 7.3741   250
 7.3841   269
 7.3941   230
 7.4041   280
 7.4141   253
 7.4241   239
 7.4341   225
 7.4441   236
 7.4541   238
 7.4641   252
 7.4741   257
 7.4841   233
 7.4941   258
 7.5041   211
 7.5141   182
 7.5241   203
 7.5341   199
 7.5441   196
 7.5541   199
 7.5641   188
 7.5741   195
 7.5841   185
 7.5941   161
 7.6041   190
 7.6141   195
 7.6241   189
 7.6341   184
 7.6441   184
 7.6541   187
 7.6641   195
 7.6741   193
 7.6841   201
 7.6941   188
 7.7041   201
 7.7141   198
 7.7241   201
 7.7341   183
 7.7441   218
 7.7541   222
 7.7641   203
 7.7741   212
 7.7841   208
 7.7941   230
 7.8041   240
 7.8141   231
 7.8241   235
 7.8341   225
 7.8441   259
 7.8541   273
 7.8641   284
 7.8741   263
 7.8841   294
 7.8941   285
 7.9041   290
 7.9141   325
 7.9241   355
 7.9341   377
 7.9441   373
 7.9541   418
 7.9641   421
 7.9741   427
 7.9841   453
 7.9941   491
 8.0041   518
 8.0141   548
 8.0241   635
 8.0341   664
 8.0441   664
 8.0541   726
 8.0641   814
 8.0741   859
 8.0841   908
 8.0941   931
 8.1041   965
 8.1141  1028
 8.1241  1059
 8.1341  1002
 8.1441  1099
 8.1541  1162
 8.1641  1167
 8.1741  1203
 8.1841  1218
 8.1941  1277
 8.2041  1262
 8.2141  1268
 8.2241  1296
 8.2341  1271
 8.2441  1324
 8.2541  1407
 8.2641  1503
 8.2741  1535
 8.2841  1603
 8.2941  1807
 8.3041  1818
 8.3141  2033
 8.3241  2179
 8.3341  2382
 8.3441  2471
 8.3541  2610
 8.3641  2639
 8.3741  2738
 8.3841  2733
 8.3941  2743
 8.4041  2597
 8.4141  2557
 8.4241  2373
 8.4341  2317
 8.4441  2107
 8.4541  1832
 8.4641  1659
 8.4741  1471
 8.4841  1296
 8.4941  1048
 8.5041   955
 8.5141   831
 8.5241   685
 8.5341   637
 8.5441   565
 8.5541   497
 8.5641   478
 8.5741   490
 8.5841   481
 8.5941   479
 8.6041   447
 8.6141   471
 8.6241   492
 8.6341   480
 8.6441   467
 8.6541   465
 8.6641   438
 8.6741   427
 8.6841   442
 8.6941   391
 8.7041   407
 8.7141   389
 8.7241   374
 8.7341   339
 8.7441   339
 8.7541   318
 8.7641   322
 8.7741   304
 8.7841   292
 8.7941   281
 8.8041   267
 8.8141   265
 8.8241   294
 8.8341   286
 8.8441   276
 8.8541   275
 8.8641   269
 8.8741   261
 8.8841   277
 8.8941   258
 8.9041   301
 8.9141   309
 8.9241   297
 8.9341   296
 8.9441   288
 8.9541   317
 8.9641   323
 8.9741   307
 8.9841   307
 8.9941   313
 9.0041   320
 9.0141   322
 9.0241   323
 9.0341   351
 9.0441   359
 9.0541   373
 9.0641   370
 9.0741   365
 9.0841   385
 9.0941   409
 9.1041   418
 9.1141   431
 9.1241   437
 9.1341   483
 9.1441   526
 9.1541   524
 9.1641   496
 9.1741   527
 9.1841   595
 9.1941   601
 9.2041   631
 9.2141   662
 9.2241   717
 9.2341   711
 9.2441   740
 9.2541   825
 9.2641   845
 9.2741   869
 9.2841   901
 9.2941   929
 9.3041   958
 9.3141   982
 9.3241  1025
 9.3341  1008
 9.3441  1093
 9.3541  1075
 9.3641  1106
 9.3741  1132
 9.3841  1170
 9.3941  1164
 9.4041  1222
 9.4141  1200
 9.4241  1253
 9.4341  1256
 9.4441  1266
 9.4541  1270
 9.4641  1332
 9.4741  1295
 9.4841  1320
 9.4941  1370
 9.5041  1438
 9.5141  1480
 9.5241  1498
 9.5341  1568
 9.5441  1634
 9.5541  1710
 9.5641  1800
 9.5741  1889
 9.5841  1976
 9.5941  2113
 9.6041  2260
 9.6141  2372
 9.6241  2382
 9.6341  2511
 9.6441  2574
 9.6541  2575
 9.6641  2656
 9.6741  2671
 9.6841  2595
 9.6941  2506
 9.7041  2366
 9.7141  2272
 9.7241  2101
 9.7341  1974
 9.7441  1864
 9.7541  1677
 9.7641  1586
 9.7741  1489
 9.7841  1347
 9.7941  1237
 9.8041  1183
 9.8141  1129
 9.8241  1036
 9.8341  1038
 9.8441   988
 9.8541  1026
 9.8641   996
 9.8741   998
 9.8841  1039
 9.8941  1072
 9.9041  1040
 9.9141  1049
 9.9241  1115
 9.9341  1172
 9.9441  1127
 9.9541  1116
 9.9641  1071
 9.9741  1061
 9.9841  1046
 9.9941   975
10.0041   897
10.0141   838
10.0241   775
10.0341   703
10.0441   618
10.0541   575
10.0641   510
10.0741   459
10.0841   442
10.0941   422
10.1041   355
10.1141   299
10.1241   283
10.1341   268
10.1441   262
10.1541   233
10.1641   248
10.1741   250
10.1841   223
10.1941   194
10.2041   183
10.2141   188
10.2241   191
10.2341   182
10.2441   169
10.2541   171
10.2641   158
10.2741   155
10.2841   145
10.2941   158
10.3041   156
10.3141   148
10.3241   148
10.3341   143
10.3441   144
10.3541   142
10.3641   138
10.3741   136
10.3841   135
10.3941   160
10.4041   159
10.4141   146
10.4241   149
10.4341   169
10.4441   162
10.4541   180
10.4641   160
10.4741   164
10.4841   143
10.4941   155
10.5041   171
10.5141   165
10.5241   190
10.5341   163
10.5441   187
10.5541   182
10.5641   185
10.5741   184
10.5841   187
10.5941   190
10.6041   178
10.6141   194
10.6241   178
10.6341   186
10.6441   169
10.6541   165
10.6641   178
10.6741   191
10.6841   174
10.6941   183
10.7041   185
10.7141   195
10.7241   184
10.7341   218
10.7441   214
10.7541   219
10.7641   214
10.7741   213
10.7841   219
10.7941   235
10.8041   247
10.8141   232
10.8241   241
10.8341   241
10.8441   250
10.8541   248
10.8641   260
10.8741   249
10.8841   240
10.8941   258
10.9041   274
10.9141   266
10.9241   262
10.9341   265
10.9441   275
10.9541   280
10.9641   290
10.9741   248
10.9841   240
10.9941   247
11.0041   273
11.0141   251
11.0241   239
11.0341   230
11.0441   237
11.0541   234
11.0641   232
11.0741   228
11.0841   233
11.0941   236
11.1041   231
11.1141   228
11.1241   218
11.1341   231
11.1441   255
11.1541   267
11.1641   273
11.1741   293
11.1841   282
11.1941   279
11.2041   307
11.2141   338
11.2241   330
11.2341   339
11.2441   344
11.2541   367
11.2641   355
11.2741   355
11.2841   367
11.2941   369
11.3041   369
11.3141   347
11.3241   351
11.3341   337
11.3441   344
11.3541   304
11.3641   274
11.3741   246
11.3841   249
11.3941   265
11.4041   247
11.4141   232
11.4241   217
11.4341   218
11.4441   214
11.4541   192
11.4641   183
11.4741   188
11.4841   183
11.4941   204
11.5041   198
11.5141   194
11.5241   192
11.5341   197
11.5441   192
11.5541   188
11.5641   183
11.5741   200
11.5841   205
11.5941   211
11.6041   202
11.6141   190
11.6241   194
11.6341   201
11.6441   208
11.6541   204
11.6641   201
11.6741   196
11.6841   190
11.6941   172
11.7041   180
11.7141   178
11.7241   179
11.7341   154
11.7441   148
11.7541   166
11.7641   157
11.7741   151
11.7841   171
11.7941   151
11.8041   132
11.8141   137
11.8241   135
11.8341   141
11.8441   136
11.8541   139
11.8641   142
11.8741   135
11.8841   134
11.8941   145
11.9041   144
11.9141   127
11.9241   138
11.9341   135
11.9441   138
11.9541   135
11.9641   142
11.9741   148
11.9841   144
11.9941   139
12.0041   154
12.0141   143
12.0241   137
12.0341   124
12.0441   134
12.0541   145
12.0641   144
12.0741   131
12.0841   133
12.0941   144
12.1041   137
12.1141   131
12.1241   138
12.1341   134
12.1441   128
12.1541   140
12.1641   143
12.1741   128
12.1841   137
12.1941   140
12.2041   136
12.2141   138
12.2241   128
12.2341   124
12.2441   129
12.2541   128
12.2641   130
12.2741   132
12.2841   136
12.2941   134
12.3041   138
12.3141   143
12.3241   143
12.3341   131
12.3441   127
12.3541   127
12.3641   132
12.3741   136
12.3841   127
12.3941   145
12.4041   158
12.4141   149
12.4241   146
12.4341   143
12.4441   129
12.4541   131
12.4641   135
12.4741   136
12.4841   138
12.4941   134
12.5041   144
12.5141   148
12.5241   140
12.5341   140
12.5441   152
12.5541   157
12.5641   148
12.5741   155
12.5841   155
12.5941   133
12.6041   138
12.6141   148
12.6241   146
12.6341   133
12.6441   151
12.6541   152
12.6641   136
12.6741   134
12.6841   136
12.6941   138
12.7041   140
12.7141   139
12.7241   138
12.7341   141
12.7441   139
12.7541   132
12.7641   130
12.7741   139
12.7841   153
12.7941   158
12.8041   153
12.8141   153
12.8241   156
12.8341   152
12.8441   146
12.8541   148
12.8641   149
12.8741   144
12.8841   147
12.8941   155
12.9041   165
12.9141   168
12.9241   161
12.9341   152
12.9441   150
12.9541   155
12.9641   167
12.9741   172
12.9841   164
12.9941   157
13.0041   156
13.0141   150
13.0241   152
13.0341   154
13.0441   150
13.0541   140
13.0641   151
13.0741   157
13.0841   157
13.0941   154
13.1041   165
13.1141   151
13.1241   161
13.1341   176
13.1441   162
13.1541   157
13.1641   162
13.1741   164
13.1841   169
13.1941   150
13.2041   160
13.2141   191
13.2241   197
13.2341   191
13.2441   193
13.2541   218
13.2641   224
13.2741   226
13.2841   218
13.2941   224
13.3041   256
13.3141   263
13.3241   253
13.3341   253
13.3441   252
13.3541   250
13.3641   259
13.3741   270
13.3841   272
13.3941   271
13.4041   270
13.4141   275
13.4241   277
13.4341   273
13.4441   266
13.4541   254
13.4641   243
13.4741   234
13.4841   219
13.4941   205
13.5041   207
13.5141   216
13.5241   213
13.5341   203
13.5441   197
13.5541   193
13.5641   187
13.5741   182
13.5841   181
13.5941   184
13.6041   184
13.6141   180
13.6241   179
13.6341   170
13.6441   173
13.6541   180
13.6641   193
13.6741   194
13.6841   177
13.6941   175
13.7041   185
13.7141   192
13.7241   182
13.7341   190
13.7441   188
13.7541   171
13.7641   165
13.7741   178
13.7841   190
13.7941   183
13.8041   178
13.8141   178
13.8241   189
13.8341   190
13.8441   191
13.8541   197
13.8641   209
13.8741   212
13.8841   201
13.8941   214
13.9041   232
13.9141   236
13.9241   254
13.9341   271
13.9441   282
13.9541   303
13.9641   331
13.9741   361
13.9841   388
13.9941   414
14.0041   440
14.0141   467
14.0241   503
14.0341   558
14.0441   614
14.0541   666
14.0641   721
14.0741   762
14.0841   789
14.0941   820
14.1041   850
14.1141   882
14.1241   927
14.1341   958
14.1441   955
14.1541   944
14.1641   935
14.1741   914
14.1841   868
14.1941   833
14.2041   803
14.2141   766
14.2241   726
14.2341   641
14.2441   586
14.2541   541
14.2641   507
14.2741   494
14.2841   425
14.2941   366
14.3041   335
14.3141   318
14.3241   294
14.3341   275
14.3441   257
14.3541   237
14.3641   233
14.3741   230
14.3841   231
14.3941   228
14.4041   205
14.4141   203
14.4241   205
14.4341   210
14.4441   214
14.4541   216
14.4641   218
14.4741   197
14.4841   188
14.4941   204
14.5041   206
14.5141   193
14.5241   215
14.5341   219
14.5441   216
14.5541   226
14.5641   218
14.5741   197
14.5841   198
14.5941   202
14.6041   194
14.6141   199
14.6241   200
14.6341   206
14.6441   216
14.6541   210
14.6641   202
14.6741   203
14.6841   212
14.6941   215
14.7041   213
14.7141   206
14.7241   216
14.7341   234
14.7441   219
14.7541   228
14.7641   220
14.7741   213
14.7841   222
14.7941   223
14.8041   227
14.8141   214
14.8241   217
14.8341   226
14.8441   244
14.8541   254
14.8641   233
14.8741   223
14.8841   235
14.8941   243
14.9041   254
14.9141   266
14.9241   273
14.9341   262
14.9441   265
14.9541   266
14.9641   252
14.9741   264
14.9841   258
14.9941   250
15.0041   254
15.0141   261
15.0241   263
15.0341   242
15.0441   248
15.0541   252
15.0641   259
15.0741   249
15.0841   240
15.0941   256
15.1041   254
15.1141   254
15.1241   246
15.1341   232
15.1441   241
15.1541   247
15.1641   235
15.1741   243
15.1841   246
15.1941   233
15.2041   219
15.2141   235
15.2241   248
15.2341   237
15.2441   225
15.2541   233
15.2641   244
15.2741   236
15.2841   236
15.2941   234
15.3041   252
15.3141   243
15.3241   227
15.3341   238
15.3441   233
15.3541   227
15.3641   227
15.3741   233
15.3841   237
15.3941   242
15.4041   246
15.4141   244
15.4241   259
15.4341   260
15.4441   243
15.4541   239
15.4641   268
15.4741   267
15.4841   233
15.4941   231
15.5041   249
15.5141   266
15.5241   282
15.5341   273
15.5441   269
15.5541   267
15.5641   258
15.5741   297
15.5841   314
15.5941   308
15.6041   319
15.6141   360
15.6241   356
15.6341   351
15.6441   365
15.6541   386
15.6641   411
15.6741   435
15.6841   428
15.6941   445
15.7041   458
15.7141   453
15.7241   450
15.7341   481
15.7441   503
15.7541   498
15.7641   515
15.7741   524
15.7841   509
15.7941   527
15.8041   530
15.8141   518
15.8241   494
15.8341   493
15.8441   480
15.8541   496
15.8641   463
15.8741   437
15.8841   420
15.8941   398
15.9041   405
15.9141   378
15.9241   372
15.9341   348
15.9441   335
15.9541   337
15.9641   320
15.9741   314
15.9841   315
15.9941   295
16.0041   290
16.0141   314
16.0241   306
16.0341   284
16.0441   300
16.0541   292
16.0641   286
16.0741   287
16.0841   278
16.0941   281
16.1041   298
16.1141   285
16.1241   293
16.1341   283
16.1441   287
16.1541   300
16.1641   285
16.1741   275
16.1841   268
16.1941   276
16.2041   298
16.2141   285
16.2241   277
16.2341   289
16.2441   298
16.2541   286
16.2641   290
16.2741   286
16.2841   263
16.2941   271
16.3041   272
16.3141   270
16.3241   267
16.3341   274
16.3441   264
16.3541   296
16.3641   288
16.3741   255
16.3841   294
16.3941   294
16.4041   301
16.4141   308
16.4241   286
16.4341   296
16.4441   314
16.4541   304
16.4641   300
16.4741   301
16.4841   297
16.4941   299
16.5041   303
16.5141   288
16.5241   293
16.5341   312
16.5441   313
16.5541   322
16.5641   309
16.5741   292
16.5841   310
16.5941   286
16.6041   285
16.6141   304
16.6241   316
16.6341   313
16.6441   291
16.6541   312
16.6641   301
16.6741   294
16.6841   287
16.6941   303
16.7041   315
16.7141   310
16.7241   316
16.7341   315
16.7441   313
16.7541   302
16.7641   319
16.7741   330
16.7841   307
16.7941   305
16.8041   310
16.8141   312
16.8241   317
16.8341   316
16.8441   312
16.8541   306
16.8641   294
16.8741   298
16.8841   316
16.8941   299
16.9041   308
16.9141   304
16.9241   314
16.9341   305
16.9441   329
16.9541   293
16.9641   312
16.9741   304
16.9841   310
16.9941   293
17.0041   296
17.0141   324
17.0241   323
17.0341   337
17.0441   330
17.0541   317
17.0641   304
17.0741   324
17.0841   320
17.0941   341
17.1041   334
17.1141   329
17.1241   335
17.1341   312
17.1441   318
17.1541   328
17.1641   311
17.1741   344
17.1841   353
17.1941   302
17.2041   306
17.2141   326
17.2241   321
17.2341   330
17.2441   315
17.2541   341
17.2641   335
17.2741   326
17.2841   335
17.2941   329
17.3041   327
17.3141   314
17.3241   310
17.3341   334
17.3441   325
17.3541   334
17.3641   327
17.3741   321
17.3841   317
17.3941   344
17.4041   336
17.4141   340
17.4241   348
17.4341   336
17.4441   348
17.4541   362
17.4641   347
17.4741   329
17.4841   339
17.4941   337
17.5041   353
17.5141   323
17.5241   344
17.5341   351
17.5441   358
17.5541   359
17.5641   356
17.5741   362
17.5841   338
17.5941   374
17.6041   373
17.6141   362
17.6241   370
17.6341   367
17.6441   362
17.6541   357
17.6641   391
17.6741   374
17.6841   362
17.6941   381
17.7041   406
17.7141   383
17.7241   385
17.7341   388
17.7441   379
17.7541   355
17.7641   356
17.7741   346
17.7841   371
17.7941   373
17.8041   373
17.8141   367
17.8241   354
17.8341   364
17.8441   374
17.8541   379
17.8641   379
17.8741   371
17.8841   363
17.8941   348
17.9041   359
17.9141   358
17.9241   395
17.9341   394
17.9441   346
17.9541   339
17.9641   370
17.9741   380
17.9841   386
17.9941   359
18.0041   368
18.0141   397
18.0241   389
18.0341   387
18.0441   383
18.0541   367
18.0641   389
18.0741   375
18.0841   353
18.0941   372
18.1041   369
18.1141   339
18.1241   335
18.1341   350
18.1441   357
18.1541   368
18.1641   386
18.1741   374
18.1841   357
18.1941   372
18.2041   372
18.2141   404
18.2241   392
18.2341   369
18.2441   362
18.2541   388
18.2641   388
18.2741   386
18.2841   398
18.2941   387
18.3041   394
18.3141   399
18.3241   359
18.3341   378
18.3441   383
18.3541   390
18.3641   412
18.3741   383
18.3841   398
18.3941   359
18.4041   367
18.4141   374
18.4241   399
18.4341   386
18.4441   405
18.4541   407
18.4641   415
18.4741   385
18.4841   403
18.4941   416
18.5041   441
18.5141   384
18.5241   370
18.5341   373
18.5441   384
18.5541   391
18.5641   421
18.5741   401
18.5841   407
18.5941   406
18.6041   408
18.6141   379
18.6241   362
18.6341   372
18.6441   378
18.6541   396
18.6641   404
18.6741   406
18.6841   373
18.6941   403
18.7041   428
18.7141   402
18.7241   390
18.7341   379
18.7441   408
18.7541   424
18.7641   418
18.7741   384
18.7841   406
18.7941   427
18.8041   441
18.8141   396
18.8241   397
18.8341   398
18.8441   396
18.8541   401
18.8641   399
18.8741   425
18.8841   442
18.8941   413
18.9041   451
18.9141   395
18.9241   412
18.9341   412
18.9441   429
18.9541   420
18.9641   384
18.9741   427
18.9841   424
18.9941   395
19.0041   410
19.0141   444
19.0241   426
19.0341   404
19.0441   424
19.0541   428
19.0641   421
19.0741   427
19.0841   451
19.0941   430
19.1041   424
19.1141   434
19.1241   420
19.1341   387
19.1441   425
19.1541   429
19.1641   412
19.1741   409
19.1841   435
19.1941   459
19.2041   424
19.2141   425
19.2241   422
19.2341   428
19.2441   420
19.2541   433
19.2641   417
19.2741   418
19.2841   440
19.2941   459
19.3041   424
19.3141   434
19.3241   442
19.3341   413
19.3441   424
19.3541   433
19.3641   433
19.3741   431
19.3841   421
19.3941   446
19.4041   434
19.4141   428
19.4241   436
19.4341   413
19.4441   426
19.4541   443
19.4641   434
19.4741   467
19.4841   455
19.4941   419
19.5041   419
19.5141   442
19.5241   420
19.5341   413
19.5441   405
19.5541   446
19.5641   422
19.5741   417
19.5841   449
19.5941   433
19.6041   450
19.6141   411
19.6241   437
19.6341   439
19.6441   460
19.6541   464
19.6641   424
19.6741   454
19.6841   437
19.6941   436
19.7041   427
19.7141   445
19.7241   455
19.7341   447
19.7441   461
19.7541   457
19.7641   460
19.7741   418
19.7841   426
19.7941   429
19.8041   433
19.8141   457
19.8241   461
19.8341   447
19.8441   398
19.8541   436
19.8641   444
19.8741   455
19.8841   425
19.8941   405
19.9041   429
19.9141   447
19.9241   443
19.9341   444
19.9441   415
19.9541   458
19.9641   453
19.9741   455
19.9841   470
19.9941   466
20.0041   440
20.0141   439
20.0241   438
20.0341   426
20.0441   423
20.0541   436
20.0641   435
20.0741   464
20.0841   488
20.0941   423
20.1041   446
20.1141   490
20.1241   470
20.1341   450
20.1441   434
20.1541   496
20.1641   444
20.1741   436
20.1841   483
20.1941   474
20.2041   453
20.2141   427
20.2241   460
20.2341   454
20.2441   429
20.2541   451
20.2641   474
20.2741   461
20.2841   465
20.2941   479
20.3041   452
20.3141   440
20.3241   461
20.3341   452
20.3441   462
20.3541   496
20.3641   491
20.3741   435
20.3841   465
20.3941   502
20.4041   476
20.4141   483
20.4241   450
20.4341   433
20.4441   432
20.4541   428
20.4641   440
20.4741   442
20.4841   439
20.4941   475
20.5041   464
20.5141   444
20.5241   458
20.5341   463
20.5441   435
20.5541   449
20.5641   500
20.5741   509
20.5841   464
20.5941   463
20.6041   468
20.6141   510
20.6241   495
20.6341   431
20.6441   454
20.6541   475
20.6641   463
20.6741   478
20.6841   464
20.6941   445
20.7041   459
20.7141   459
20.7241   502
20.7341   502
20.7441   485
20.7541   470
20.7641   521
20.7741   497
20.7841   430
20.7941   478
20.8041   494
20.8141   494
20.8241   488
20.8341   496
20.8441   505
20.8541   529
20.8641   501
20.8741   490
20.8841   524
20.8941   571
20.9041   586
20.9141   632
20.9241   603
20.9341   620
20.9441   591
20.9541   605
20.9641   603
20.9741   609
20.9841   634
20.9941   655
21.0041   663
21.0141   692
21.0241   683
21.0341   708
21.0441   717
21.0541   708
21.0641   767
21.0741   754
21.0841   745
21.0941   768
21.1041   777
21.1141   754
21.1241   739
21.1341   779
21.1441   757
21.1541   738
21.1641   727
21.1741   766
21.1841   689
21.1941   694
21.2041   689
21.2141   714
21.2241   695
21.2341   662
21.2441   652
21.2541   647
21.2641   659
21.2741   654
21.2841   609
21.2941   566
21.3041   567
21.3141   509
21.3241   531
21.3341   546
21.3441   571
21.3541   549
21.3641   517
21.3741   498
21.3841   526
21.3941   505
21.4041   470
21.4141   474
21.4241   483
21.4341   507
21.4441   506
21.4541   489
21.4641   486
21.4741   484
21.4841   463
21.4941   467
21.5041   491
21.5141   485
21.5241   481
21.5341   489
21.5441   508
21.5541   483
21.5641   482
21.5741   477
21.5841   532
21.5941   519
21.6041   477
21.6141   477
21.6241   441
21.6341   478
21.6441   491
21.6541   489
21.6641   515
21.6741   484
21.6841   520
21.6941   468
21.7041   462
21.7141   508
21.7241   498
21.7341   473
21.7441   461
21.7541   495
21.7641   483
21.7741   493
21.7841   488
21.7941   496
21.8041   495
21.8141   468
21.8241   454
21.8341   513
21.8441   476
21.8541   442
21.8641   485
21.8741   473
21.8841   459
21.8941   471
21.9041   500
21.9141   475
21.9241   508
21.9341   477
21.9441   505
21.9541   465
21.9641   481
21.9741   471
21.9841   484
21.9941   514
22.0041   501
22.0141   485
22.0241   487
22.0341   481
22.0441   497
22.0541   476
22.0641   513
22.0741   461
22.0841   453
22.0941   485
22.1041   519
22.1141   509
22.1241   501
22.1341   466
22.1441   492
22.1541   466
22.1641   499
22.1741   502
22.1841   466
22.1941   489
22.2041   472
22.2141   516
22.2241   532
22.2341   491
22.2441   518
22.2541   548
22.2641   508
22.2741   477
22.2841   473
22.2941   498
22.3041   467
22.3141   479
22.3241   469
22.3341   510
22.3441   498
22.3541   478
22.3641   513
22.3741   519
22.3841   457
22.3941   478
22.4041   524
22.4141   486
22.4241   483
22.4341   462
22.4441   480
22.4541   492
22.4641   500
22.4741   515
22.4841   500
22.4941   478
22.5041   464
22.5141   489
22.5241   491
22.5341   528
22.5441   476
22.5541   469
22.5641   469
22.5741   487
22.5841   495
22.5941   497
22.6041   523
22.6141   523
22.6241   460
22.6341   468
22.6441   471
22.6541   477
22.6641   502
22.6741   510
22.6841   480
22.6941   479
22.7041   514
22.7141   475
22.7241   473
22.7341   503
22.7441   476
22.7541   478
22.7641   478
22.7741   483
22.7841   495
22.7941   473
22.8041   490
22.8141   492
22.8241   465
22.8341   457
22.8441   447
22.8541   496
22.8641   504
22.8741   456
22.8841   487
22.8941   506
22.9041   490
22.9141   500
22.9241   507
22.9341   517
22.9441   529
22.9541   484
22.9641   448
22.9741   496
22.9841   493
22.9941   468
23.0041   479
23.0141   435
23.0241   525
23.0341   474
23.0441   514
23.0541   517
23.0641   476
23.0741   523
23.0841   484
23.0941   504
23.1041   462
23.1141   447
23.1241   490
23.1341   489
23.1441   470
23.1541   522
23.1641   503
23.1741   481
23.1841   474
23.1941   488
23.2041   502
23.2141   501
23.2241   483
23.2341   479
23.2441   471
23.2541   477
23.2641   448
23.2741   481
23.2841   495
23.2941   477
23.3041   479
23.3141   514
23.3241   491
23.3341   511
23.3441   465
23.3541   495
23.3641   469
23.3741   511
23.3841   475
23.3941   480
23.4041   480
23.4141   478
23.4241   513
23.4341   452
23.4441   491
23.4541   479
23.4641   455
23.4741   459
23.4841   442
23.4941   481
23.5041   494
23.5141   498
23.5241   492
23.5341   517
23.5441   484
23.5541   505
23.5641   489
23.5741   515
23.5841   485
23.5941   458
23.6041   493
23.6141   467
23.6241   484
23.6341   517
23.6441   490
23.6541   515
23.6641   474
23.6741   498
23.6841   460
23.6941   511
23.7041   491
23.7141   544
23.7241   559
23.7341   495
23.7441   469
23.7541   552
23.7641   553
23.7741   545
23.7841   532
23.7941   547
23.8041   521
23.8141   514
23.8241   536
23.8341   503
23.8441   516
23.8541   524
23.8641   522
23.8741   501
23.8841   551
23.8941   521
23.9041   519
23.9141   517
23.9241   507
23.9341   455
23.9441   514
23.9541   491
23.9641   493
23.9741   458
23.9841   492
23.9941   451
24.0041   516
24.0141   445
24.0241   476
24.0341   477
24.0441   513
24.0541   468
24.0641   466
24.0741   471
24.0841   450
24.0941   468
24.1041   437
24.1141   444
24.1241   461
24.1341   484
24.1441   521
24.1541   468
24.1641   499
24.1741   471
24.1841   457
24.1941   484
24.2041   470
24.2141   477
24.2241   473
24.2341   460
24.2441   431
24.2541   430
24.2641   470
24.2741   450
24.2841   468
24.2941   451
24.3041   435
24.3141   473
24.3241   436
24.3341   516
24.3441   481
24.3541   504
24.3641   489
24.3741   498
24.3841   443
24.3941   498
24.4041   482
24.4141   506
24.4241   428
24.4341   458
24.4441   502
24.4541   477
24.4641   482
24.4741   430
24.4841   428
24.4941   433
24.5041   466
24.5141   479
24.5241   439
24.5341   459
24.5441   465
24.5541   421
24.5641   468
24.5741   441
24.5841   449
24.5941   456
24.6041   457
24.6141   487
24.6241   467
24.6341   460
24.6441   475
24.6541   476
24.6641   448
24.6741   454
24.6841   461
24.6941   457
24.7041   456
24.7141   437
24.7241   443
24.7341   457
24.7441   452
24.7541   478
24.7641   465
24.7741   428
24.7841   476
24.7941   438
24.8041   457
24.8141   448
24.8241   436
24.8341   488
24.8441   464
24.8541   447
24.8641   468
24.8741   490
24.8841   470
24.8941   483
24.9041   404
24.9141   458
24.9241   438
24.9341   439
24.9441   439
24.9541   464
24.9641   444
24.9741   465
24.9841   465
24.9941   461
25.0041   461
25.0141   479
25.0241   465
25.0341   438
25.0441   452
25.0541   469
25.0641   452
25.0741   463
25.0841   464
25.0941   452
25.1041   477
25.1141   500
25.1241   462
25.1341   459
25.1441   451
25.1541   465
25.1641   458
25.1741   483
25.1841   435
25.1941   491
25.2041   448
25.2141   467
25.2241   459
25.2341   481
25.2441   483
25.2541   453
25.2641   462
25.2741   427
25.2841   446
25.2941   449
25.3041   465
25.3141   445
25.3241   432
25.3341   465
25.3441   431
25.3541   436
25.3641   458
25.3741   455
25.3841   459
25.3941   461
25.4041   434
25.4141   468
25.4241   484
25.4341   479
25.4441   469
25.4541   493
25.4641   447
25.4741   423
25.4841   435
25.4941   424
25.5041   478
25.5141   427
25.5241   445
25.5341   421
25.5441   427
25.5541   416
25.5641   429
25.5741   422
25.5841   441
25.5941   419
25.6041   455
25.6141   438
25.6241   433
25.6341   418
25.6441   411
25.6541   469
25.6641   410
25.6741   410
25.6841   425
25.6941   450
25.7041   411
25.7141   432
25.7241   471
25.7341   420
25.7441   419
25.7541   448
25.7641   395
25.7741   445
25.7841   432
25.7941   429
25.8041   429
25.8141   398
25.8241   425
25.8341   429
25.8441   430
25.8541   394
25.8641   402
25.8741   464
25.8841   415
25.8941   434
25.9041   387
25.9141   434
25.9241   414
25.9341   418
25.9441   426
25.9541   466
25.9641   432
25.9741   425
25.9841   431
25.9941   424
26.0041   418
26.0141   399
26.0241   388
26.0341   431
26.0441   396
26.0541   403
26.0641   416
26.0741   420
26.0841   427
26.0941   414
26.1041   400
26.1141   415
26.1241   413
26.1341   394
26.1441   406
26.1541   421
26.1641   391
26.1741   417
26.1841   444
26.1941   435
26.2041   406
26.2141   422
26.2241   406
26.2341   411
26.2441   427
26.2541   425
26.2641   370
26.2741   406
26.2841   424
26.2941   426
26.3041   426
26.3141   409
26.3241   406
26.3341   387
26.3441   414
26.3541   394
26.3641   445
26.3741   414
26.3841   404
26.3941   441
26.4041   410
26.4141   421
26.4241   411
26.4341   408
26.4441   386
26.4541   408
26.4641   399
26.4741   373
26.4841   384
26.4941   402
26.5041   415
26.5141   392
26.5241   414
26.5341   416
26.5441   403
26.5541   402
26.5641   391
26.5741   383
26.5841   399
26.5941   397
26.6041   381
26.6141   355
26.6241   366
26.6341   398
26.6441   378
26.6541   407
26.6641   421
26.6741   434
26.6841   409
26.6941   386
26.7041   360
26.7141   396
26.7241   384
26.7341   403
26.7441   425
26.7541   373
26.7641   395
26.7741   401
26.7841   379
26.7941   390
26.8041   387
26.8141   383
26.8241   410
26.8341   386
26.8441   369
26.8541   389
26.8641   387
26.8741   384
26.8841   405
26.8941   386
26.9041   380
26.9141   386
26.9241   397
26.9341   394
26.9441   380
26.9541   396
26.9641   358
26.9741   373
26.9841   405
26.9941   403
27.0041   388
27.0141   376
27.0241   399
27.0341   376
27.0441   373
27.0541   398
27.0641   394
27.0741   359
27.0841   367
27.0941   366
27.1041   372
27.1141   400
27.1241   393
27.1341   418
27.1441   376
27.1541   405
27.1641   394
27.1741   378
27.1841   375
27.1941   368
27.2041   391
27.2141   403
27.2241   358
27.2341   367
27.2441   386
27.2541   370
27.2641   378
27.2741   359
27.2841   376
27.2941   361
27.3041   365
27.3141   375
27.3241   358
27.3341   368
27.3441   398
27.3541   403
27.3641   386
27.3741   352
27.3841   364
27.3941   399
27.4041   366
27.4141   353
27.4241   373
27.4341   377
27.4441   367
27.4541   376
27.4641   382
27.4741   359
27.4841   363
27.4941   347
27.5041   386
27.5141   391
27.5241   332
27.5341   349
27.5441   415
27.5541   384
27.5641   425
27.5741   358
27.5841   371
27.5941   355
27.6041   346
27.6141   368
27.6241   376
27.6341   375
27.6441   360
27.6541   391
27.6641   362
27.6741   354
27.6841   349
27.6941   406
27.7041   337
27.7141   362
27.7241   369
27.7341   356
27.7441   362
27.7541   384
27.7641   360
27.7741   332
27.7841   354
27.7941   365
27.8041   358
27.8141   360
27.8241   369
27.8341   362
27.8441   352
27.8541   342
27.8641   346
27.8741   363
27.8841   352
27.8941   347
27.9041   351
27.9141   351
27.9241   334
27.9341   351
27.9441   319
27.9541   349
27.9641   360
27.9741   339
27.9841   371
27.9941   347
28.0041   344
28.0141   366
28.0241   359
28.0341   352
28.0441   369
28.0541   326
28.0641   345
28.0741   327
28.0841   335
28.0941   337
28.1041   320
28.1141   383
28.1241   353
28.1341   321
28.1441   339
28.1541   322
28.1641   327
28.1741   339
28.1841   341
28.1941   311
28.2041   322
28.2141   323
28.2241   336
28.2341   367
28.2441   327
28.2541   367
28.2641   332
28.2741   336
28.2841   331
28.2941   342
28.3041   326
28.3141   331
28.3241   326
28.3341   359
28.3441   351
28.3541   330
28.3641   348
28.3741   332
28.3841   341
28.3941   327
28.4041   345
28.4141   341
28.4241   311
28.4341   323
28.4441   369
28.4541   360
28.4641   347
28.4741   330
28.4841   342
28.4941   341
28.5041   338
28.5141   375
28.5241   328
28.5341   332
28.5441   353
28.5541   321
28.5641   336
28.5741   330
28.5841   321
28.5941   350
28.6041   322
28.6141   340
28.6241   325
28.6341   342
28.6441   346
28.6541   300
28.6641   346
28.6741   348
28.6841   341
28.6941   323
28.7041   351
28.7141   327
28.7241   332
28.7341   317
28.7441   324
28.7541   332
28.7641   331
28.7741   301
28.7841   307
28.7941   325
28.8041   332
28.8141   323
28.8241   339
28.8341   332
28.8441   338
28.8541   312
28.8641   323
28.8741   339
28.8841   359
28.8941   351
28.9041   297
28.9141   285
28.9241   323
28.9341   313
28.9441   340
28.9541   304
28.9641   324
28.9741   309
28.9841   311
28.9941   308
29.0041   318
29.0141   277
29.0241   305
29.0341   288
29.0441   305
29.0541   306
29.0641   305
29.0741   315
29.0841   320
29.0941   322
29.1041   279
29.1141   289
29.1241   295
29.1341   288
29.1441   291
29.1541   323
29.1641   309
29.1741   310
29.1841   310
29.1941   303
29.2041   299
29.2141   303
29.2241   276
29.2341   313
29.2441   308
29.2541   289
29.2641   317
29.2741   282
29.2841   277
29.2941   322
29.3041   280
29.3141   287
29.3241   295
29.3341   277
29.3441   281
29.3541   308
29.3641   288
29.3741   287
29.3841   262
29.3941   293
29.4041   304
29.4141   288
29.4241   280
29.4341   282
29.4441   280
29.4541   291
29.4641   308
29.4741   270
29.4841   299
29.4941   267
29.5041   276
29.5141   293
29.5241   279
29.5341   279
29.5441   282
29.5541   291
29.5641   295
29.5741   313
29.5841   296
29.5941   305
29.6041   288
29.6141   275
29.6241   302
29.6341   312
29.6441   290
29.6541   289
29.6641   271
29.6741   269
29.6841   280
29.6941   261
29.7041   295
29.7141   294
29.7241   304
29.7341   280
29.7441   294
29.7541   289
29.7641   271
29.7741   294
29.7841   297
29.7941   283
29.8041   288
29.8141   295
29.8241   259
29.8341   302
29.8441   286
29.8541   277
29.8641   247
29.8741   251
29.8841   268
29.8941   259
29.9041   294
29.9141   267
29.9241   279
29.9341   313
29.9441   284
29.9541   265
29.9641   262
29.9741   273
29.9841   289
29.9941   255
30.0041   262
30.0141   288
30.0241   264
30.0341   255
30.0441   272
30.0541   269
30.0641   272
30.0741   272
30.0841   279
30.0941   253
30.1041   259
30.1141   273
30.1241   277
30.1341   285
30.1441   244
30.1541   278
30.1641   255
30.1741   258
30.1841   275
30.1941   269
30.2041   236
30.2141   252
30.2241   276
30.2341   267
30.2441   253
30.2541   289
30.2641   260
30.2741   284
30.2841   267
30.2941   261
30.3041   261
30.3141   275
30.3241   256
30.3341   272
30.3441   258
30.3541   268
30.3641   273
30.3741   256
30.3841   264
30.3941   255
30.4041   266
30.4141   259
30.4241   255
30.4341   261
30.4441   258
30.4541   255
30.4641   253
30.4741   270
30.4841   250
30.4941   255
30.5041   258
30.5141   251
30.5241   209
30.5341   263
30.5441   254
30.5541   274
30.5641   236
30.5741   254
30.5841   264
30.5941   234
30.6041   251
30.6141   280
30.6241   254
30.6341   235
30.6441   265
30.6541   264
30.6641   247
30.6741   253
30.6841   246
30.6941   245
30.7041   250
30.7141   249
30.7241   271
30.7341   255
30.7441   275
30.7541   241
30.7641   265
30.7741   249
30.7841   258
30.7941   250
30.8041   248
30.8141   230
30.8241   244
30.8341   230
30.8441   222
30.8541   249
30.8641   231
30.8741   284
30.8841   250
30.8941   248
30.9041   221
30.9141   260
30.9241   227
30.9341   228
30.9441   255
30.9541   258
30.9641   212
30.9741   240
30.9841   221
30.9941   252
31.0041   245
31.0141   235
31.0241   258
31.0341   229
31.0441   235
31.0541   224
31.0641   232
31.0741   263
31.0841   219
31.0941   238
31.1041   233
31.1141   249
31.1241   244
31.1341   228
31.1441   237
31.1541   239
31.1641   240
31.1741   241
31.1841   226
31.1941   226
31.2041   234
31.2141   231
31.2241   223
31.2341   265
31.2441   238
31.2541   226
31.2641   218
31.2741   254
31.2841   230
31.2941   230
31.3041   218
31.3141   235
31.3241   226
31.3341   187
31.3441   237
31.3541   232
31.3641   220
31.3741   227
31.3841   244
31.3941   237
31.4041   235
31.4141   215
31.4241   207
31.4341   234
31.4441   224
31.4541   214
31.4641   213
31.4741   237
31.4841   248
31.4941   207
31.5041   216
31.5141   217
31.5241   238
31.5341   234
31.5441   224
31.5541   225
31.5641   231
31.5741   219
31.5841   197
31.5941   213
31.6041   243
31.6141   218
31.6241   227
31.6341   224
31.6441   216
31.6541   224
31.6641   239
31.6741   232
31.6841   250
31.6941   234
31.7041   244
31.7141   230
31.7241   237
31.7341   204
31.7441   217
31.7541   247
31.7641   240
31.7741   229
31.7841   197
31.7941   209
31.8041   224
31.8141   214
31.8241   207
31.8341   223
31.8441   232
31.8541   199
31.8641   211
31.8741   228
31.8841   219
31.8941   232
31.9041   238
31.9141   227
31.9241   190
31.9341   226
31.9441   226
31.9541   230
31.9641   185
31.9741   206
31.9841   233
31.9941   219
32.0041   186
32.0141   214
32.0241   245
32.0341   201
32.0441   213
32.0541   215
32.0641   206
32.0741   224
32.0841   226
32.0941   221
32.1041   253
32.1141   237
32.1241   216
32.1341   228
32.1441   215
32.1541   221
32.1641   232
32.1741   226
32.1841   222
32.1941   216
32.2041   211
32.2141   239
32.2241   200
32.2341   205
32.2441   231
32.2541   219
32.2641   228
32.2741   228
32.2841   218
32.2941   212
32.3041   213
32.3141   224
32.3241   231
32.3341   202
32.3441   193
32.3541   210
32.3641   221
32.3741   202
32.3841   195
32.3941   214
32.4041   206
32.4141   199
32.4241   213
32.4341   188
32.4441   190
32.4541   219
32.4641   183
32.4741   188
32.4841   213
32.4941   188
32.5041   181
32.5141   184
32.5241   180
32.5341   187
32.5441   195
32.5541   203
32.5641   185
32.5741   187
32.5841   185
32.5941   192
32.6041   204
32.6141   183
32.6241   169
32.6341   208
32.6441   197
32.6541   182
32.6641   207
32.6741   199
32.6841   206
32.6941   174
32.7041   192
32.7141   182
32.7241   180
32.7341   186
32.7441   202
32.7541   201
32.7641   182
32.7741   168
32.7841   182
32.7941   175
32.8041   185
32.8141   184
32.8241   181
32.8341   187
32.8441   165
32.8541   179
32.8641   171
32.8741   177
32.8841   189
32.8941   178
32.9041   195
32.9141   197
32.9241   188
32.9341   180
32.9441   186
32.9541   174
32.9641   176
32.9741   190
32.9841   185
32.9941   177
33.0041   166
33.0141   182
33.0241   189
33.0341   184
33.0441   178
33.0541   146
33.0641   165
33.0741   174
33.0841   155
33.0941   162
33.1041   186
33.1141   164
33.1241   160
33.1341   183
33.1441   172
33.1541   153
33.1641   180
33.1741   164
33.1841   179
33.1941   163
33.2041   180
33.2141   202
33.2241   148
33.2341   152
33.2441   183
33.2541   173
33.2641   152
33.2741   155
33.2841   149
33.2941   151
33.3041   178
33.3141   179
33.3241   175
33.3341   141
33.3441   177
33.3541   173
33.3641   179
33.3741   169
33.3841   147
33.3941   167
33.4041   159
33.4141   139
33.4241   168
33.4341   169
33.4441   157
33.4541   169
33.4641   154
33.4741   161
33.4841   163
33.4941   145
33.5041   154
33.5141   158
33.5241   149
33.5341   153
33.5441   180
33.5541   153
33.5641   155
33.5741   157
33.5841   157
33.5941   147
33.6041   151
33.6141   160
33.6241   156
33.6341   161
33.6441   166
33.6541   170
33.6641   148
33.6741   149
33.6841   160
33.6941   161
33.7041   143
33.7141   165
33.7241   162
33.7341   168
33.7441   160
33.7541   148
33.7641   165
33.7741   147
33.7841   148
33.7941   160
33.8041   183
33.8141   144
33.8241   137
33.8341   149
33.8441   139
33.8541   178
33.8641   164
33.8741   118
33.8841   139
33.8941   156
33.9041   129
33.9141   152
33.9241   156
33.9341   156
33.9441   143
33.9541   150
33.9641   146
33.9741   156
33.9841   141
33.9941   130
34.0041   155
34.0141   157
34.0241   132
34.0341   145
34.0441   157
34.0541   152
34.0641   165
34.0741   143
34.0841   137
34.0941   153
34.1041   164
34.1141   145
34.1241   163
34.1341   149
34.1441   140
34.1541   142
34.1641   152
34.1741   129
34.1841   141
34.1941   144
34.2041   121
34.2141   124
34.2241   161
34.2341   142
34.2441   143
34.2541   118
34.2641   142
34.2741   152
34.2841   134
34.2941   158
34.3041   136
34.3141   129
34.3241   158
34.3341   130
34.3441   157
34.3541   147
34.3641   147
34.3741   132
34.3841   155
34.3941   123
34.4041   147
34.4141   147
34.4241   139
34.4341   134
34.4441   153
34.4541   153
34.4641   131
34.4741   122
34.4841   152
34.4941   138
34.5041   142
34.5141   138
34.5241   148
34.5341   143
34.5441   138
34.5541   132
34.5641   122
34.5741   124
34.5841   141
34.5941   125
34.6041   133
34.6141   138
34.6241   122
34.6341   139
34.6441   130
34.6541   122
34.6641   134
34.6741   137
34.6841   139
34.6941   121
34.7041   129
34.7141   145
34.7241   142
34.7341   137
34.7441   124
34.7541   126
34.7641   138
34.7741   140
34.7841   116
34.7941   127
34.8041   128
34.8141   132
34.8241   138
34.8341   120
34.8441   147
34.8541   134
34.8641   127
34.8741   127
34.8841    99
34.8941   103
34.9041   118
34.9141   140
34.9241   124
34.9341   131
34.9441   109
34.9541   109
34.9641   120
34.9741   135
34.9841   117
34.9941   109
35.0041   134
35.0141   110
35.0241   126
35.0341   121
35.0441   126
35.0541   141
35.0641   123
35.0741   112
35.0841   107
35.0941   104
35.1041   125
35.1141   131
35.1241   102
35.1341   121
35.1441   109
35.1541   120
35.1641   121
35.1741   106
35.1841   114
35.1941   117
35.2041   122
35.2141   132
35.2241   105
35.2341   108
35.2441   107
35.2541   106
35.2641   119
35.2741   110
35.2841   124
35.2941   107
35.3041   112
35.3141   127
35.3241   118
35.3341   109
35.3441   117
35.3541   101
35.3641   118
35.3741   117
35.3841   107
35.3941   103
35.4041   101
35.4141   125
35.4241   118
35.4341   111
35.4441   109
35.4541   104
35.4641   112
35.4741   107
35.4841   105
35.4941   117
35.5041   125
35.5141   106
35.5241   102
35.5341   112
35.5441   109
35.5541   109
35.5641    98
35.5741   111
35.5841   114
35.5941   126
35.6041   117
35.6141   111
35.6241   103
35.6341    99
35.6441   106
35.6541   124
35.6641    92
35.6741   104
35.6841   106
35.6941   119
35.7041   111
35.7141   112
35.7241    91
35.7341    93
35.7441   108
35.7541    98
35.7641   100
35.7741   111
35.7841   103
35.7941    99
35.8041   106
35.8141    88
35.8241   109
35.8341   104
35.8441   108
35.8541   103
35.8641   105
35.8741    93
35.8841   106
35.8941    87
35.9041   102
35.9141    96
35.9241    93
35.9341    76
35.9441   106
35.9541   101
35.9641   103
35.9741    89
35.9841    96
35.9941   106
36.0041   106
36.0141    86
36.0241    97
36.0341   111
36.0441    93
36.0541    90
36.0641   106
36.0741    96
36.0841   105
36.0941    88
36.1041   113
36.1141    96
36.1241    99
36.1341    96
36.1441   100
36.1541    86
36.1641    73
36.1741    84
36.1841   116
36.1941    94
36.2041   109
36.2141    98
36.2241    94
36.2341    89
36.2441    98
36.2541    96
36.2641   101
36.2741    91
36.2841    89
36.2941    90
36.3041    94
36.3141    93
36.3241    86
36.3341    79
36.3441    91
36.3541   102
36.3641    80
36.3741    92
36.3841    90
36.3941   109
36.4041    92
36.4141    84
36.4241    98
36.4341   104
36.4441    89
36.4541   105
36.4641    99
36.4741    80
36.4841    89
36.4941    75
36.5041   101
36.5141    81
36.5241    85
36.5341    87
36.5441    86
36.5541    85
36.5641    86
36.5741    95
36.5841    87
36.5941   103
36.6041   105
36.6141    82
36.6241   101
36.6341    79
36.6441    76
36.6541   103
36.6641    78
36.6741    79
36.6841    87
36.6941    98
36.7041    82
36.7141    91
36.7241    82
36.7341    80
36.7441    95
36.7541    79
36.7641    86
36.7741    92
36.7841    95
36.7941    81
36.8041    65
36.8141    78
36.8241    98
36.8341    82
36.8441    85
36.8541    97
36.8641    98
36.8741    82
36.8841    74
36.8941    97
36.9041    75
36.9141    74
36.9241    81
36.9341    70
36.9441    69
36.9541    72
36.9641    90
36.9741    71
36.9841    76
36.9941    72
37.0041    61
37.0141    76
37.0241    79
37.0341    78
37.0441    75
37.0541    79
37.0641    89
37.0741    68
37.0841    65
37.0941    78
37.1041    67
37.1141    74
37.1241    64
37.1341    65
37.1441    69
37.1541    80
37.1641    70
37.1741    75
37.1841    80
37.1941    78
37.2041    64
37.2141    72
37.2241    77
37.2341    89
37.2441    72
37.2541    75
37.2641    83
37.2741    77
37.2841    83
37.2941    73
37.3041    73
37.3141    72
37.3241    69
37.3341    76
37.3441    71
37.3541    66
37.3641    62
37.3741    63
37.3841    86
37.3941    92
37.4041    71
37.4141    63
37.4241    73
37.4341    77
37.4441    62
37.4541    78
37.4641    68
37.4741    74
37.4841    75
37.4941    57
37.5041    69
37.5141    71
37.5241    59
37.5341    67
37.5441    66
37.5541    72
37.5641    68
37.5741    64
37.5841    85
37.5941    71
37.6041    60
37.6141    73
37.6241    66
37.6341    49
37.6441    72
37.6541    68
37.6641    70
37.6741    66
37.6841    74
37.6941    82
37.7041    65
37.7141    60
37.7241    55
37.7341    64
37.7441    62
37.7541    54
37.7641    54
37.7741    54
37.7841    72
37.7941    67
37.8041    55
37.8141    67
37.8241    56
37.8341    58
37.8441    54
37.8541    58
37.8641    61
37.8741    60
37.8841    48
37.8941    58
37.9041    70
37.9141    76
37.9241    70
37.9341    44
37.9441    61
37.9541    73
37.9641    72
37.9741    56
37.9841    70
37.9941    63
38.0041    55
38.0141    61
38.0241    64
38.0341    67
38.0441    60
38.0541    52
38.0641    54
38.0741    73
38.0841    69
38.0941    60
38.1041    60
38.1141    61
38.1241    66
38.1341    67
38.1441    65
38.1541    61
38.1641    58
38.1741    59
38.1841    61
38.1941    63
38.2041    58
38.2141    59
38.2241    55
38.2341    47
38.2441    51
38.2541    49
38.2641    44
38.2741    59
38.2841    58
38.2941    60
38.3041    52
38.3141    60
38.3241    53
38.3341    57
38.3441    55
38.3541    50
38.3641    50
38.3741    63
38.3841    52
38.3941    58
38.4041    51
38.4141    58
38.4241    54
38.4341    52
38.4441    45
38.4541    50
38.4641    52
38.4741    49
38.4841    54
38.4941    41
38.5041    48
38.5141    58
38.5241    49
38.5341    48
38.5441    63
38.5541    60
38.5641    51
38.5741    43
38.5841    58
38.5941    42
38.6041    55
38.6141    45
38.6241    47
38.6341    58
38.6441    52
38.6541    46
38.6641    49
38.6741    59
38.6841    38
38.6941    49
38.7041    45
38.7141    59
38.7241    57
38.7341    45
38.7441    48
38.7541    56
38.7641    40
38.7741    41
38.7841    47
38.7941    46
38.8041    49
38.8141    41
38.8241    37
38.8341    56
38.8441    52
38.8541    41
38.8641    49
38.8741    48
38.8841    43
38.8941    53
38.9041    38
38.9141    35
38.9241    47
38.9341    48
38.9441    56
38.9541    49
38.9641    35
38.9741    36
38.9841    44
38.9941    41
39.0041    47
39.0141    45
39.0241    43
39.0341    46
39.0441    50
39.0541    51
39.0641    60
39.0741    38
39.0841    38
39.0941    34
39.1041    46
39.1141    48
39.1241    41
39.1341    39
39.1441    34
39.1541    38
39.1641    35
39.1741    39
39.1841    48
39.1941    44
39.2041    46
39.2141    40
39.2241    46
39.2341    27
39.2441    32
39.2541    38
39.2641    35
39.2741    36
39.2841    36
39.2941    43
39.3041    41
39.3141    43
39.3241    45
39.3341    48
39.3441    39
39.3541    43
39.3641    40
39.3741    35
39.3841    38
39.3941    33
39.4041    42
39.4141    32
39.4241    43
39.4341    29
39.4441    39
39.4541    29
39.4641    32
39.4741    52
39.4841    38
39.4941    35
39.5041    40
39.5141    38
39.5241    35
39.5341    50
39.5441    35
39.5541    34
39.5641    40
39.5741    35
39.5841    48
39.5941    27
39.6041    29
39.6141    39
39.6241    45
39.6341    36
39.6441    39
39.6541    36
39.6641    31
39.6741    31
39.6841    40
39.6941    25
39.7041    37
39.7141    35
39.7241    27
39.7341    35
39.7441    40
39.7541    31
39.7641    37
39.7741    22
39.7841    27
39.7941    27
39.8041    30
39.8141    34
39.8241    31
39.8341    28
39.8441    46
39.8541    38
39.8641    32
39.8741    35
39.8841    25
39.8941    32
39.9041    23
39.9141    39
39.9241    29
39.9341    32
39.9441    25
39.9541    37
39.9641    23
39.9741    30
39.9841    29
