Bruker Nano GmbH Berlin, Germany
Esprit 1.9

Date: 5/14/2021 1:28:01 PM
Real time: 21144
Life time: 19868
Pulse density: 86455


Detector type: XFlash 430
Window type: Custom type
Detector thickness: 0.45
Si dead layer:0.029

Calibration, lin.: 10
Calibration, abs.: -955.9
Mn FWHM: 137.05
Fano factor: 0.121
Channels: 4096

Energy Counts
-0.9559     0
-0.9459     0
-0.9359     0
-0.9259     0
-0.9159     0
-0.9059     0
-0.8959     0
-0.8859     0
-0.8759     0
-0.8659     0
-0.8559     0
-0.8459     0
-0.8359     0
-0.8259     0
-0.8159     0
-0.8059     0
-0.7959     0
-0.7859     0
-0.7759     0
-0.7659     0
-0.7559     0
-0.7459     0
-0.7359     0
-0.7259     0
-0.7159     0
-0.7059     0
-0.6959     0
-0.6859     0
-0.6759     0
-0.6659     0
-0.6559     0
-0.6459     0
-0.6359     0
-0.6259     0
-0.6159     0
-0.6059     0
-0.5959     0
-0.5859     0
-0.5759     0
-0.5659     0
-0.5559     0
-0.5459     0
-0.5359     0
-0.5259     0
-0.5159     0
-0.5059     0
-0.4959     0
-0.4859     0
-0.4759     0
-0.4659     0
-0.4559     0
-0.4459     0
-0.4359     0
-0.4259     0
-0.4159     0
-0.4059     0
-0.3959     0
-0.3859     0
-0.3759     0
-0.3659     0
-0.3559     0
-0.3459     0
-0.3359     0
-0.3259     0
-0.3159     0
-0.3059     0
-0.2959     0
-0.2859     0
-0.2759     0
-0.2659     0
-0.2559     0
-0.2459     0
-0.2359     0
-0.2259     0
-0.2159     0
-0.2059     0
-0.1959     0
-0.1859     0
-0.1759     0
-0.1659     0
-0.1559     0
-0.1459     0
-0.1359     0
-0.1259     2
-0.1159     2
-0.1059    19
-0.0959    57
-0.0859   210
-0.0759   814
-0.0659  2263
-0.0559  5906
-0.0459 12652
-0.0359 23694
-0.0259 37702
-0.0159 51882
-0.0059 60950
 0.0041 61235
 0.0141 52603
 0.0241 39121
 0.0341 24400
 0.0441 13378
 0.0541  6196
 0.0641  2514
 0.0741   849
 0.0841   272
 0.0941    72
 0.1041    18
 0.1141     7
 0.1241    10
 0.1341     5
 0.1441     5
 0.1541     3
 0.1641     7
 0.1741     3
 0.1841   206
 0.1941   394
 0.2041   354
 0.2141   330
 0.2241   352
 0.2341   350
 0.2441   357
 0.2541   332
 0.2641   363
 0.2741   347
 0.2841   348
 0.2941   340
 0.3041   347
 0.3141   353
 0.3241   307
 0.3341   324
 0.3441   359
 0.3541   322
 0.3641   314
 0.3741   308
 0.3841   299
 0.3941   306
 0.4041   287
 0.4141   306
 0.4241   301
 0.4341   310
 0.4441   312
 0.4541   306
 0.4641   278
 0.4741   298
 0.4841   283
 0.4941   287
 0.5041   283
 0.5141   287
 0.5241   285
 0.5341   268
 0.5441   295
 0.5541   284
 0.5641   270
 0.5741   271
 0.5841   264
 0.5941   272
 0.6041   274
 0.6141   276
 0.6241   279
 0.6341   272
 0.6441   261
 0.6541   270
 0.6641   260
 0.6741   259
 0.6841   265
 0.6941   262
 0.7041   256
 0.7141   265
 0.7241   256
 0.7341   248
 0.7441   268
 0.7541   264
 0.7641   243
 0.7741   237
 0.7841   249
 0.7941   256
 0.8041   241
 0.8141   242
 0.8241   234
 0.8341   219
 0.8441   235
 0.8541   229
 0.8641   222
 0.8741   233
 0.8841   240
 0.8941   240
 0.9041   237
 0.9141   236
 0.9241   240
 0.9341   246
 0.9441   251
 0.9541   236
 0.9641   241
 0.9741   225
 0.9841   247
 0.9941   242
 1.0041   261
 1.0141   237
 1.0241   247
 1.0341   243
 1.0441   237
 1.0541   241
 1.0641   228
 1.0741   208
 1.0841   237
 1.0941   215
 1.1041   219
 1.1141   203
 1.1241   237
 1.1341   203
 1.1441   200
 1.1541   230
 1.1641   215
 1.1741   214
 1.1841   226
 1.1941   231
 1.2041   200
 1.2141   214
 1.2241   231
 1.2341   208
 1.2441   210
 1.2541   227
 1.2641   234
 1.2741   227
 1.2841   211
 1.2941   215
 1.3041   196
 1.3141   192
 1.3241   203
 1.3341   217
 1.3441   200
 1.3541   215
 1.3641   223
 1.3741   216
 1.3841   199
 1.3941   205
 1.4041   214
 1.4141   218
 1.4241   191
 1.4341   202
 1.4441   208
 1.4541   190
 1.4641   197
 1.4741   203
 1.4841   227
 1.4941   205
 1.5041   216
 1.5141   194
 1.5241   188
 1.5341   195
 1.5441   183
 1.5541   202
 1.5641   205
 1.5741   221
 1.5841   214
 1.5941   174
 1.6041   206
 1.6141   177
 1.6241   193
 1.6341   212
 1.6441   224
 1.6541   244
 1.6641   265
 1.6741   318
 1.6841   443
 1.6941   513
 1.7041   602
 1.7141   682
 1.7241   740
 1.7341   780
 1.7441   802
 1.7541   775
 1.7641   678
 1.7741   614
 1.7841   561
 1.7941   430
 1.8041   340
 1.8141   290
 1.8241   319
 1.8341   238
 1.8441   231
 1.8541   231
 1.8641   229
 1.8741   222
 1.8841   192
 1.8941   187
 1.9041   197
 1.9141   184
 1.9241   179
 1.9341   203
 1.9441   217
 1.9541   211
 1.9641   199
 1.9741   223
 1.9841   225
 1.9941   232
 2.0041   228
 2.0141   241
 2.0241   231
 2.0341   219
 2.0441   232
 2.0541   220
 2.0641   227
 2.0741   161
 2.0841   180
 2.0941   198
 2.1041   187
 2.1141   198
 2.1241   177
 2.1341   194
 2.1441   204
 2.1541   205
 2.1641   197
 2.1741   178
 2.1841   163
 2.1941   172
 2.2041   174
 2.2141   155
 2.2241   179
 2.2341   171
 2.2441   172
 2.2541   189
 2.2641   161
 2.2741   165
 2.2841   148
 2.2941   168
 2.3041   183
 2.3141   189
 2.3241   166
 2.3341   169
 2.3441   153
 2.3541   172
 2.3641   166
 2.3741   166
 2.3841   176
 2.3941   179
 2.4041   166
 2.4141   154
 2.4241   173
 2.4341   169
 2.4441   158
 2.4541   166
 2.4641   160
 2.4741   175
 2.4841   165
 2.4941   144
 2.5041   154
 2.5141   141
 2.5241   139
 2.5341   144
 2.5441   148
 2.5541   157
 2.5641   159
 2.5741   148
 2.5841   157
 2.5941   165
 2.6041   141
 2.6141   161
 2.6241   161
 2.6341   157
 2.6441   165
 2.6541   134
 2.6641   120
 2.6741   122
 2.6841   143
 2.6941   130
 2.7041   136
 2.7141   112
 2.7241   129
 2.7341   136
 2.7441   157
 2.7541   166
 2.7641   155
 2.7741   151
 2.7841   128
 2.7941   154
 2.8041   165
 2.8141   150
 2.8241   154
 2.8341   150
 2.8441   138
 2.8541   130
 2.8641   138
 2.8741   164
 2.8841   142
 2.8941   137
 2.9041   114
 2.9141   139
 2.9241   146
 2.9341   131
 2.9441   138
 2.9541   135
 2.9641   124
 2.9741   124
 2.9841   140
 2.9941   127
 3.0041   133
 3.0141   147
 3.0241   124
 3.0341   148
 3.0441   135
 3.0541   127
 3.0641   137
 3.0741   129
 3.0841   115
 3.0941   107
 3.1041   123
 3.1141   130
 3.1241   109
 3.1341   131
 3.1441   121
 3.1541   116
 3.1641   119
 3.1741   119
 3.1841   119
 3.1941   136
 3.2041   116
 3.2141    97
 3.2241   119
 3.2341   122
 3.2441   133
 3.2541   145
 3.2641   161
 3.2741   159
 3.2841   154
 3.2941   183
 3.3041   181
 3.3141   169
 3.3241   185
 3.3341   183
 3.3441   156
 3.3541   166
 3.3641   142
 3.3741   133
 3.3841   122
 3.3941   108
 3.4041   122
 3.4141   125
 3.4241   129
 3.4341   108
 3.4441   114
 3.4541   102
 3.4641   111
 3.4741   116
 3.4841   101
 3.4941   106
 3.5041   112
 3.5141   111
 3.5241   118
 3.5341   124
 3.5441   133
 3.5541   152
 3.5641   154
 3.5741   163
 3.5841   209
 3.5941   258
 3.6041   285
 3.6141   359
 3.6241   495
 3.6341   580
 3.6441   683
 3.6541   789
 3.6641   890
 3.6741  1003
 3.6841   978
 3.6941   930
 3.7041   993
 3.7141   966
 3.7241   845
 3.7341   642
 3.7441   553
 3.7541   480
 3.7641   393
 3.7741   319
 3.7841   231
 3.7941   189
 3.8041   161
 3.8141   126
 3.8241   111
 3.8341   108
 3.8441    96
 3.8541    87
 3.8641    94
 3.8741    89
 3.8841   112
 3.8941    85
 3.9041   111
 3.9141   114
 3.9241   133
 3.9341   135
 3.9441   136
 3.9541   155
 3.9641   151
 3.9741   162
 3.9841   215
 3.9941   192
 4.0041   206
 4.0141   180
 4.0241   203
 4.0341   201
 4.0441   165
 4.0541   170
 4.0641   169
 4.0741   149
 4.0841   146
 4.0941   119
 4.1041   107
 4.1141    90
 4.1241   101
 4.1341    85
 4.1441    90
 4.1541    81
 4.1641    72
 4.1741    78
 4.1841    97
 4.1941    78
 4.2041   103
 4.2141    87
 4.2241    71
 4.2341    76
 4.2441    79
 4.2541    71
 4.2641    88
 4.2741    88
 4.2841    84
 4.2941    74
 4.3041    84
 4.3141    80
 4.3241    86
 4.3341    83
 4.3441    98
 4.3541    91
 4.3641    82
 4.3741    93
 4.3841   108
 4.3941    99
 4.4041   107
 4.4141   126
 4.4241   146
 4.4341   130
 4.4441   177
 4.4541   167
 4.4641   190
 4.4741   212
 4.4841   202
 4.4941   233
 4.5041   254
 4.5141   227
 4.5241   217
 4.5341   207
 4.5441   196
 4.5541   187
 4.5641   155
 4.5741   151
 4.5841   120
 4.5941   123
 4.6041   110
 4.6141    86
 4.6241    95
 4.6341    89
 4.6441    88
 4.6541    89
 4.6641    86
 4.6741    85
 4.6841    96
 4.6941    83
 4.7041    74
 4.7141    97
 4.7241    86
 4.7341    99
 4.7441    79
 4.7541    85
 4.7641    86
 4.7741    89
 4.7841    75
 4.7941    97
 4.8041   112
 4.8141    95
 4.8241   100
 4.8341   104
 4.8441    97
 4.8541   111
 4.8641   100
 4.8741   104
 4.8841   115
 4.8941   109
 4.9041   108
 4.9141   119
 4.9241   111
 4.9341   129
 4.9441   124
 4.9541   113
 4.9641   103
 4.9741    89
 4.9841   119
 4.9941   118
 5.0041   122
 5.0141   100
 5.0241    92
 5.0341   117
 5.0441    99
 5.0541    83
 5.0641    84
 5.0741    95
 5.0841    86
 5.0941   100
 5.1041   101
 5.1141   110
 5.1241   100
 5.1341    83
 5.1441    78
 5.1541    92
 5.1641    89
 5.1741    76
 5.1841    85
 5.1941   113
 5.2041    65
 5.2141    84
 5.2241    75
 5.2341    79
 5.2441    98
 5.2541    78
 5.2641    93
 5.2741    90
 5.2841    77
 5.2941    83
 5.3041    76
 5.3141    88
 5.3241    95
 5.3341   116
 5.3441    99
 5.3541   101
 5.3641    96
 5.3741    99
 5.3841   114
 5.3941   103
 5.4041   100
 5.4141   120
 5.4241   113
 5.4341   111
 5.4441   136
 5.4541    98
 5.4641   112
 5.4741   129
 5.4841   105
 5.4941    82
 5.5041    94
 5.5141    93
 5.5241   103
 5.5341    98
 5.5441   106
 5.5541    99
 5.5641    91
 5.5741    73
 5.5841    95
 5.5941    88
 5.6041    86
 5.6141    88
 5.6241   106
 5.6341    98
 5.6441   107
 5.6541    84
 5.6641    99
 5.6741   100
 5.6841    89
 5.6941   103
 5.7041   103
 5.7141    93
 5.7241   102
 5.7341   106
 5.7441   109
 5.7541   112
 5.7641   116
 5.7741   125
 5.7841   128
 5.7941   131
 5.8041   132
 5.8141   149
 5.8241   175
 5.8341   161
 5.8441   166
 5.8541   178
 5.8641   196
 5.8741   179
 5.8841   200
 5.8941   181
 5.9041   198
 5.9141   198
 5.9241   199
 5.9341   161
 5.9441   155
 5.9541   161
 5.9641   147
 5.9741   148
 5.9841   143
 5.9941   129
 6.0041   111
 6.0141   116
 6.0241   121
 6.0341   124
 6.0441   119
 6.0541   113
 6.0641   119
 6.0741   108
 6.0841   110
 6.0941   126
 6.1041   117
 6.1141   114
 6.1241   130
 6.1341    96
 6.1441   124
 6.1541   140
 6.1641   149
 6.1741   135
 6.1841   134
 6.1941   183
 6.2041   171
 6.2141   215
 6.2241   290
 6.2341   377
 6.2441   544
 6.2541   681
 6.2641   941
 6.2741  1191
 6.2841  1732
 6.2941  2248
 6.3041  2980
 6.3141  3417
 6.3241  4386
 6.3341  5333
 6.3441  5997
 6.3541  6851
 6.3641  7607
 6.3741  8258
 6.3841  9044
 6.3941  8982
 6.4041  8888
 6.4141  8630
 6.4241  8234
 6.4341  7447
 6.4441  6698
 6.4541  5982
 6.4641  4918
 6.4741  4034
 6.4841  3335
 6.4941  2521
 6.5041  2005
 6.5141  1513
 6.5241  1102
 6.5341   816
 6.5441   630
 6.5541   459
 6.5641   334
 6.5741   273
 6.5841   234
 6.5941   188
 6.6041   169
 6.6141   167
 6.6241   173
 6.6341   137
 6.6441   153
 6.6541   161
 6.6641   131
 6.6741   138
 6.6841   155
 6.6941   128
 6.7041   141
 6.7141   165
 6.7241   144
 6.7341   142
 6.7441   145
 6.7541   128
 6.7641   153
 6.7741   152
 6.7841   129
 6.7941   163
 6.8041   163
 6.8141   189
 6.8241   189
 6.8341   170
 6.8441   185
 6.8541   183
 6.8641   206
 6.8741   217
 6.8841   221
 6.8941   261
 6.9041   297
 6.9141   352
 6.9241   396
 6.9341   432
 6.9441   508
 6.9541   657
 6.9641   744
 6.9741   779
 6.9841   983
 6.9941  1084
 7.0041  1221
 7.0141  1332
 7.0241  1432
 7.0341  1550
 7.0441  1617
 7.0541  1579
 7.0641  1560
 7.0741  1507
 7.0841  1423
 7.0941  1334
 7.1041  1218
 7.1141  1057
 7.1241   914
 7.1341   784
 7.1441   679
 7.1541   538
 7.1641   486
 7.1741   430
 7.1841   358
 7.1941   308
 7.2041   277
 7.2141   280
 7.2241   246
 7.2341   213
 7.2441   233
 7.2541   218
 7.2641   204
 7.2741   213
 7.2841   206
 7.2941   229
 7.3041   216
 7.3141   264
 7.3241   233
 7.3341   252
 7.3441   268
 7.3541   261
 7.3641   249
 7.3741   294
 7.3841   285
 7.3941   284
 7.4041   283
 7.4141   300
 7.4241   270
 7.4341   273
 7.4441   262
 7.4541   245
 7.4641   257
 7.4741   219
 7.4841   223
 7.4941   216
 7.5041   227
 7.5141   192
 7.5241   206
 7.5341   216
 7.5441   188
 7.5541   183
 7.5641   215
 7.5741   174
 7.5841   195
 7.5941   193
 7.6041   207
 7.6141   216
 7.6241   205
 7.6341   228
 7.6441   194
 7.6541   230
 7.6641   225
 7.6741   228
 7.6841   227
 7.6941   231
 7.7041   257
 7.7141   230
 7.7241   222
 7.7341   209
 7.7441   253
 7.7541   276
 7.7641   284
 7.7741   262
 7.7841   280
 7.7941   278
 7.8041   304
 7.8141   282
 7.8241   285
 7.8341   294
 7.8441   306
 7.8541   329
 7.8641   338
 7.8741   352
 7.8841   332
 7.8941   360
 7.9041   379
 7.9141   417
 7.9241   419
 7.9341   414
 7.9441   450
 7.9541   474
 7.9641   514
 7.9741   530
 7.9841   603
 7.9941   605
 8.0041   703
 8.0141   814
 8.0241   798
 8.0341   811
 8.0441   856
 8.0541   922
 8.0641  1027
 8.0741  1110
 8.0841  1131
 8.0941  1212
 8.1041  1246
 8.1141  1232
 8.1241  1351
 8.1341  1396
 8.1441  1447
 8.1541  1402
 8.1641  1444
 8.1741  1534
 8.1841  1567
 8.1941  1478
 8.2041  1509
 8.2141  1571
 8.2241  1579
 8.2341  1611
 8.2441  1557
 8.2541  1710
 8.2641  1843
 8.2741  1960
 8.2841  1981
 8.2941  2231
 8.3041  2404
 8.3141  2580
 8.3241  2793
 8.3341  3037
 8.3441  3156
 8.3541  3419
 8.3641  3575
 8.3741  3718
 8.3841  3886
 8.3941  3775
 8.4041  3789
 8.4141  3666
 8.4241  3456
 8.4341  3145
 8.4441  2845
 8.4541  2654
 8.4641  2373
 8.4741  2013
 8.4841  1756
 8.4941  1476
 8.5041  1241
 8.5141  1023
 8.5241   877
 8.5341   770
 8.5441   652
 8.5541   550
 8.5641   490
 8.5741   490
 8.5841   451
 8.5941   411
 8.6041   400
 8.6141   386
 8.6241   388
 8.6341   418
 8.6441   392
 8.6541   391
 8.6641   408
 8.6741   418
 8.6841   400
 8.6941   394
 8.7041   411
 8.7141   376
 8.7241   377
 8.7341   385
 8.7441   415
 8.7541   377
 8.7641   368
 8.7741   354
 8.7841   371
 8.7941   343
 8.8041   357
 8.8141   401
 8.8241   343
 8.8341   351
 8.8441   362
 8.8541   370
 8.8641   364
 8.8741   341
 8.8841   345
 8.8941   383
 8.9041   387
 8.9141   372
 8.9241   391
 8.9341   385
 8.9441   379
 8.9541   404
 8.9641   393
 8.9741   383
 8.9841   388
 8.9941   415
 9.0041   437
 9.0141   433
 9.0241   412
 9.0341   452
 9.0441   468
 9.0541   451
 9.0641   535
 9.0741   508
 9.0841   510
 9.0941   515
 9.1041   552
 9.1141   597
 9.1241   604
 9.1341   606
 9.1441   634
 9.1541   656
 9.1641   674
 9.1741   734
 9.1841   763
 9.1941   814
 9.2041   867
 9.2141   915
 9.2241   961
 9.2341   937
 9.2441  1043
 9.2541  1091
 9.2641  1127
 9.2741  1219
 9.2841  1196
 9.2941  1241
 9.3041  1255
 9.3141  1310
 9.3241  1368
 9.3341  1374
 9.3441  1389
 9.3541  1407
 9.3641  1458
 9.3741  1544
 9.3841  1551
 9.3941  1522
 9.4041  1590
 9.4141  1621
 9.4241  1650
 9.4341  1658
 9.4441  1634
 9.4541  1608
 9.4641  1654
 9.4741  1684
 9.4841  1618
 9.4941  1681
 9.5041  1716
 9.5141  1722
 9.5241  1857
 9.5341  1953
 9.5441  2024
 9.5541  2103
 9.5641  2274
 9.5741  2386
 9.5841  2560
 9.5941  2686
 9.6041  2813
 9.6141  3046
 9.6241  3231
 9.6341  3317
 9.6441  3343
 9.6541  3442
 9.6641  3576
 9.6741  3515
 9.6841  3437
 9.6941  3412
 9.7041  3255
 9.7141  3117
 9.7241  2877
 9.7341  2784
 9.7441  2469
 9.7541  2366
 9.7641  2187
 9.7741  2057
 9.7841  1853
 9.7941  1711
 9.8041  1647
 9.8141  1550
 9.8241  1449
 9.8341  1464
 9.8441  1416
 9.8541  1428
 9.8641  1357
 9.8741  1379
 9.8841  1389
 9.8941  1461
 9.9041  1528
 9.9141  1524
 9.9241  1501
 9.9341  1531
 9.9441  1529
 9.9541  1623
 9.9641  1541
 9.9741  1503
 9.9841  1486
 9.9941  1360
10.0041  1348
10.0141  1225
10.0241  1136
10.0341  1032
10.0441   929
10.0541   813
10.0641   762
10.0741   665
10.0841   603
10.0941   567
10.1041   530
10.1141   476
10.1241   435
10.1341   405
10.1441   356
10.1541   323
10.1641   318
10.1741   317
10.1841   295
10.1941   298
10.2041   288
10.2141   260
10.2241   268
10.2341   235
10.2441   237
10.2541   239
10.2641   250
10.2741   238
10.2841   231
10.2941   217
10.3041   211
10.3141   216
10.3241   220
10.3341   199
10.3441   209
10.3541   215
10.3641   211
10.3741   202
10.3841   178
10.3941   191
10.4041   204
10.4141   201
10.4241   186
10.4341   212
10.4441   212
10.4541   213
10.4641   206
10.4741   209
10.4841   198
10.4941   216
10.5041   216
10.5141   202
10.5241   215
10.5341   218
10.5441   214
10.5541   220
10.5641   233
10.5741   210
10.5841   227
10.5941   218
10.6041   219
10.6141   236
10.6241   222
10.6341   217
10.6441   208
10.6541   256
10.6641   229
10.6741   230
10.6841   252
10.6941   266
10.7041   233
10.7141   264
10.7241   273
10.7341   293
10.7441   294
10.7541   308
10.7641   299
10.7741   294
10.7841   293
10.7941   332
10.8041   334
10.8141   348
10.8241   340
10.8341   322
10.8441   334
10.8541   351
10.8641   352
10.8741   363
10.8841   344
10.8941   329
10.9041   340
10.9141   350
10.9241   333
10.9341   335
10.9441   341
10.9541   340
10.9641   352
10.9741   365
10.9841   314
10.9941   325
11.0041   328
11.0141   308
11.0241   311
11.0341   293
11.0441   297
11.0541   299
11.0641   309
11.0741   296
11.0841   293
11.0941   301
11.1041   306
11.1141   292
11.1241   295
11.1341   307
11.1441   328
11.1541   330
11.1641   349
11.1741   351
11.1841   371
11.1941   375
11.2041   409
11.2141   413
11.2241   424
11.2341   455
11.2441   434
11.2541   465
11.2641   462
11.2741   468
11.2841   467
11.2941   481
11.3041   485
11.3141   469
11.3241   433
11.3341   413
11.3441   410
11.3541   377
11.3641   395
11.3741   377
11.3841   334
11.3941   322
11.4041   350
11.4141   316
11.4241   297
11.4341   266
11.4441   271
11.4541   284
11.4641   256
11.4741   238
11.4841   238
11.4941   237
11.5041   252
11.5141   269
11.5241   255
11.5341   243
11.5441   268
11.5541   275
11.5641   238
11.5741   244
11.5841   243
11.5941   264
11.6041   286
11.6141   254
11.6241   270
11.6341   257
11.6441   251
11.6541   268
11.6641   274
11.6741   264
11.6841   252
11.6941   243
11.7041   253
11.7141   264
11.7241   250
11.7341   222
11.7441   218
11.7541   213
11.7641   192
11.7741   192
11.7841   214
11.7941   201
11.8041   184
11.8141   206
11.8241   196
11.8341   194
11.8441   179
11.8541   173
11.8641   187
11.8741   184
11.8841   168
11.8941   170
11.9041   187
11.9141   182
11.9241   200
11.9341   186
11.9441   194
11.9541   209
11.9641   195
11.9741   202
11.9841   191
11.9941   177
12.0041   199
12.0141   196
12.0241   196
12.0341   191
12.0441   202
12.0541   197
12.0641   190
12.0741   188
12.0841   193
12.0941   195
12.1041   195
12.1141   190
12.1241   180
12.1341   190
12.1441   189
12.1541   195
12.1641   199
12.1741   195
12.1841   166
12.1941   172
12.2041   193
12.2141   168
12.2241   177
12.2341   186
12.2441   181
12.2541   173
12.2641   170
12.2741   181
12.2841   178
12.2941   174
12.3041   180
12.3141   177
12.3241   168
12.3341   173
12.3441   174
12.3541   182
12.3641   176
12.3741   175
12.3841   191
12.3941   199
12.4041   199
12.4141   192
12.4241   184
12.4341   182
12.4441   171
12.4541   201
12.4641   197
12.4741   192
12.4841   194
12.4941   190
12.5041   192
12.5141   185
12.5241   177
12.5341   200
12.5441   196
12.5541   189
12.5641   196
12.5741   199
12.5841   213
12.5941   206
12.6041   188
12.6141   194
12.6241   201
12.6341   210
12.6441   208
12.6541   195
12.6641   200
12.6741   211
12.6841   190
12.6941   183
12.7041   205
12.7141   202
12.7241   194
12.7341   194
12.7441   194
12.7541   206
12.7641   216
12.7741   213
12.7841   217
12.7941   201
12.8041   212
12.8141   230
12.8241   223
12.8341   215
12.8441   202
12.8541   210
12.8641   216
12.8741   195
12.8841   185
12.8941   184
12.9041   193
12.9141   224
12.9241   242
12.9341   224
12.9441   216
12.9541   205
12.9641   202
12.9741   217
12.9841   209
12.9941   204
13.0041   216
13.0141   220
13.0241   223
13.0341   223
13.0441   220
13.0541   216
13.0641   209
13.0741   215
13.0841   224
13.0941   223
13.1041   209
13.1141   219
13.1241   240
13.1341   241
13.1441   243
13.1541   240
13.1641   240
13.1741   237
13.1841   232
13.1941   230
13.2041   239
13.2141   238
13.2241   242
13.2341   255
13.2441   258
13.2541   253
13.2641   250
13.2741   257
13.2841   256
13.2941   253
13.3041   250
13.3141   267
13.3241   291
13.3341   275
13.3441   251
13.3541   270
13.3641   279
13.3741   282
13.3841   266
13.3941   245
13.4041   287
13.4141   299
13.4241   278
13.4341   273
13.4441   277
13.4541   268
13.4641   264
13.4741   268
13.4841   266
13.4941   259
13.5041   252
13.5141   255
13.5241   258
13.5341   271
13.5441   253
13.5541   254
13.5641   261
13.5741   250
13.5841   258
13.5941   264
13.6041   241
13.6141   240
13.6241   266
13.6341   278
13.6441   274
13.6541   256
13.6641   264
13.6741   272
13.6841   260
13.6941   268
13.7041   280
13.7141   284
13.7241   258
13.7341   240
13.7441   255
13.7541   259
13.7641   257
13.7741   272
13.7841   276
13.7941   253
13.8041   258
13.8141   260
13.8241   272
13.8341   290
13.8441   270
13.8541   257
13.8641   258
13.8741   279
13.8841   300
13.8941   297
13.9041   289
13.9141   285
13.9241   293
13.9341   294
13.9441   278
13.9541   290
13.9641   300
13.9741   306
13.9841   309
13.9941   303
14.0041   308
14.0141   296
14.0241   293
14.0341   300
14.0441   303
14.0541   319
14.0641   320
14.0741   318
14.0841   339
14.0941   345
14.1041   339
14.1141   347
14.1241   346
14.1341   352
14.1441   378
14.1541   352
14.1641   331
14.1741   345
14.1841   363
14.1941   357
14.2041   353
14.2141   365
14.2241   346
14.2341   330
14.2441   317
14.2541   328
14.2641   339
14.2741   307
14.2841   309
14.2941   320
14.3041   311
14.3141   302
14.3241   294
14.3341   306
14.3441   305
14.3541   287
14.3641   292
14.3741   321
14.3841   313
14.3941   293
14.4041   296
14.4141   323
14.4241   347
14.4341   318
14.4441   300
14.4541   299
14.4641   296
14.4741   295
14.4841   310
14.4941   335
14.5041   336
14.5141   326
14.5241   323
14.5341   299
14.5441   284
14.5541   294
14.5641   308
14.5741   321
14.5841   306
14.5941   291
14.6041   317
14.6141   309
14.6241   306
14.6341   308
14.6441   314
14.6541   328
14.6641   327
14.6741   320
14.6841   304
14.6941   297
14.7041   310
14.7141   334
14.7241   346
14.7341   329
14.7441   319
14.7541   325
14.7641   326
14.7741   318
14.7841   319
14.7941   323
14.8041   341
14.8141   341
14.8241   327
14.8341   323
14.8441   316
14.8541   326
14.8641   341
14.8741   346
14.8841   333
14.8941   342
14.9041   359
14.9141   373
14.9241   378
14.9341   364
14.9441   345
14.9541   346
14.9641   362
14.9741   329
14.9841   319
14.9941   358
15.0041   373
15.0141   353
15.0241   358
15.0341   348
15.0441   353
15.0541   343
15.0641   338
15.0741   354
15.0841   372
15.0941   372
15.1041   349
15.1141   335
15.1241   344
15.1341   345
15.1441   350
15.1541   354
15.1641   355
15.1741   352
15.1841   348
15.1941   356
15.2041   351
15.2141   350
15.2241   347
15.2341   363
15.2441   361
15.2541   341
15.2641   340
15.2741   361
15.2841   365
15.2941   340
15.3041   347
15.3141   362
15.3241   378
15.3341   395
15.3441   373
15.3541   353
15.3641   379
15.3741   383
15.3841   377
15.3941   364
15.4041   392
15.4141   399
15.4241   367
15.4341   333
15.4441   359
15.4541   388
15.4641   388
15.4741   398
15.4841   389
15.4941   383
15.5041   417
15.5141   430
15.5241   405
15.5341   396
15.5441   438
15.5541   453
15.5641   467
15.5741   468
15.5841   465
15.5941   486
15.6041   513
15.6141   553
15.6241   585
15.6341   556
15.6441   592
15.6541   616
15.6641   616
15.6741   657
15.6841   675
15.6941   742
15.7041   755
15.7141   736
15.7241   736
15.7341   757
15.7441   764
15.7541   794
15.7641   793
15.7741   752
15.7841   723
15.7941   725
15.8041   742
15.8141   717
15.8241   691
15.8341   649
15.8441   634
15.8541   623
15.8641   596
15.8741   567
15.8841   534
15.8941   531
15.9041   522
15.9141   513
15.9241   510
15.9341   495
15.9441   478
15.9541   463
15.9641   451
15.9741   446
15.9841   418
15.9941   447
16.0041   423
16.0141   430
16.0241   425
16.0341   421
16.0441   428
16.0541   426
16.0641   407
16.0741   423
16.0841   401
16.0941   417
16.1041   463
16.1141   451
16.1241   440
16.1341   416
16.1441   460
16.1541   444
16.1641   415
16.1741   409
16.1841   457
16.1941   436
16.2041   410
16.2141   393
16.2241   435
16.2341   443
16.2441   433
16.2541   440
16.2641   444
16.2741   436
16.2841   439
16.2941   432
16.3041   420
16.3141   434
16.3241   444
16.3341   442
16.3441   439
16.3541   410
16.3641   402
16.3741   437
16.3841   427
16.3941   434
16.4041   443
16.4141   450
16.4241   456
16.4341   457
16.4441   443
16.4541   449
16.4641   473
16.4741   447
16.4841   443
16.4941   445
16.5041   439
16.5141   432
16.5241   439
16.5341   453
16.5441   445
16.5541   455
16.5641   442
16.5741   467
16.5841   464
16.5941   460
16.6041   464
16.6141   437
16.6241   452
16.6341   439
16.6441   432
16.6541   441
16.6641   457
16.6741   474
16.6841   485
16.6941   478
16.7041   462
16.7141   495
16.7241   502
16.7341   449
16.7441   462
16.7541   447
16.7641   473
16.7741   499
16.7841   481
16.7941   500
16.8041   485
16.8141   467
16.8241   475
16.8341   467
16.8441   479
16.8541   493
16.8641   491
16.8741   495
16.8841   476
16.8941   469
16.9041   463
16.9141   476
16.9241   486
16.9341   486
16.9441   485
16.9541   463
16.9641   453
16.9741   471
16.9841   506
16.9941   507
17.0041   478
17.0141   465
17.0241   501
17.0341   519
17.0441   500
17.0541   488
17.0641   501
17.0741   482
17.0841   483
17.0941   482
17.1041   516
17.1141   513
17.1241   524
17.1341   515
17.1441   511
17.1541   495
17.1641   507
17.1741   515
17.1841   497
17.1941   497
17.2041   525
17.2141   515
17.2241   505
17.2341   516
17.2441   481
17.2541   521
17.2641   523
17.2741   507
17.2841   511
17.2941   538
17.3041   517
17.3141   504
17.3241   530
17.3341   525
17.3441   512
17.3541   496
17.3641   501
17.3741   502
17.3841   555
17.3941   522
17.4041   514
17.4141   535
17.4241   485
17.4341   488
17.4441   533
17.4541   523
17.4641   532
17.4741   560
17.4841   554
17.4941   558
17.5041   553
17.5141   536
17.5241   523
17.5341   508
17.5441   519
17.5541   530
17.5641   585
17.5741   580
17.5841   567
17.5941   567
17.6041   575
17.6141   589
17.6241   591
17.6341   594
17.6441   580
17.6541   594
17.6641   605
17.6741   613
17.6841   627
17.6941   612
17.7041   584
17.7141   572
17.7241   601
17.7341   596
17.7441   601
17.7541   596
17.7641   593
17.7741   590
17.7841   613
17.7941   588
17.8041   571
17.8141   563
17.8241   606
17.8341   595
17.8441   565
17.8541   563
17.8641   567
17.8741   613
17.8841   548
17.8941   543
17.9041   528
17.9141   558
17.9241   573
17.9341   609
17.9441   601
17.9541   564
17.9641   560
17.9741   594
17.9841   580
17.9941   553
18.0041   537
18.0141   577
18.0241   606
18.0341   589
18.0441   585
18.0541   596
18.0641   586
18.0741   589
18.0841   591
18.0941   600
18.1041   576
18.1141   577
18.1241   558
18.1341   555
18.1441   579
18.1541   588
18.1641   572
18.1741   573
18.1841   566
18.1941   606
18.2041   577
18.2141   547
18.2241   576
18.2341   541
18.2441   576
18.2541   565
18.2641   576
18.2741   581
18.2841   571
18.2941   601
18.3041   584
18.3141   583
18.3241   577
18.3341   570
18.3441   557
18.3541   590
18.3641   604
18.3741   553
18.3841   554
18.3941   569
18.4041   577
18.4141   578
18.4241   604
18.4341   586
18.4441   605
18.4541   569
18.4641   584
18.4741   563
18.4841   554
18.4941   550
18.5041   582
18.5141   579
18.5241   606
18.5341   619
18.5441   606
18.5541   576
18.5641   571
18.5741   558
18.5841   590
18.5941   581
18.6041   604
18.6141   603
18.6241   597
18.6341   597
18.6441   582
18.6541   601
18.6641   616
18.6741   625
18.6841   586
18.6941   583
18.7041   579
18.7141   588
18.7241   618
18.7341   624
18.7441   598
18.7541   600
18.7641   603
18.7741   582
18.7841   574
18.7941   584
18.8041   616
18.8141   600
18.8241   597
18.8341   615
18.8441   582
18.8541   617
18.8641   617
18.8741   605
18.8841   606
18.8941   612
18.9041   633
18.9141   625
18.9241   618
18.9341   644
18.9441   631
18.9541   600
18.9641   599
18.9741   606
18.9841   606
18.9941   599
19.0041   607
19.0141   630
19.0241   624
19.0341   609
19.0441   583
19.0541   585
19.0641   628
19.0741   609
19.0841   624
19.0941   621
19.1041   629
19.1141   629
19.1241   616
19.1341   577
19.1441   624
19.1541   616
19.1641   622
19.1741   611
19.1841   636
19.1941   633
19.2041   604
19.2141   599
19.2241   585
19.2341   618
19.2441   620
19.2541   671
19.2641   606
19.2741   635
19.2841   602
19.2941   601
19.3041   649
19.3141   642
19.3241   673
19.3341   608
19.3441   626
19.3541   604
19.3641   624
19.3741   646
19.3841   585
19.3941   619
19.4041   636
19.4141   612
19.4241   628
19.4341   683
19.4441   670
19.4541   698
19.4641   662
19.4741   623
19.4841   638
19.4941   628
19.5041   650
19.5141   642
19.5241   627
19.5341   637
19.5441   630
19.5541   627
19.5641   576
19.5741   646
19.5841   628
19.5941   627
19.6041   603
19.6141   620
19.6241   618
19.6341   616
19.6441   599
19.6541   634
19.6641   642
19.6741   630
19.6841   652
19.6941   630
19.7041   649
19.7141   603
19.7241   660
19.7341   629
19.7441   665
19.7541   620
19.7641   600
19.7741   674
19.7841   651
19.7941   639
19.8041   663
19.8141   577
19.8241   639
19.8341   620
19.8441   636
19.8541   669
19.8641   650
19.8741   637
19.8841   630
19.8941   607
19.9041   629
19.9141   650
19.9241   642
19.9341   631
19.9441   586
19.9541   593
19.9641   631
19.9741   664
19.9841   634
19.9941   662
20.0041   627
20.0141   679
20.0241   679
20.0341   660
20.0441   646
20.0541   622
20.0641   650
20.0741   664
20.0841   667
20.0941   659
20.1041   652
20.1141   654
20.1241   665
20.1341   640
20.1441   634
20.1541   643
20.1641   647
20.1741   618
20.1841   614
20.1941   661
20.2041   686
20.2141   668
20.2241   669
20.2341   648
20.2441   630
20.2541   642
20.2641   665
20.2741   648
20.2841   627
20.2941   609
20.3041   627
20.3141   679
20.3241   705
20.3341   637
20.3441   678
20.3541   626
20.3641   647
20.3741   652
20.3841   676
20.3941   612
20.4041   658
20.4141   664
20.4241   670
20.4341   644
20.4441   679
20.4541   661
20.4641   636
20.4741   667
20.4841   672
20.4941   640
20.5041   625
20.5141   662
20.5241   655
20.5341   687
20.5441   650
20.5541   639
20.5641   647
20.5741   702
20.5841   659
20.5941   684
20.6041   679
20.6141   650
20.6241   681
20.6341   671
20.6441   689
20.6541   695
20.6641   697
20.6741   671
20.6841   678
20.6941   705
20.7041   661
20.7141   651
20.7241   678
20.7341   704
20.7441   636
20.7541   645
20.7641   659
20.7741   705
20.7841   705
20.7941   640
20.8041   724
20.8141   695
20.8241   694
20.8341   678
20.8441   696
20.8541   682
20.8641   706
20.8741   737
20.8841   701
20.8941   747
20.9041   759
20.9141   736
20.9241   796
20.9341   841
20.9441   823
20.9541   864
20.9641   880
20.9741   849
20.9841   875
20.9941   839
21.0041   895
21.0141   905
21.0241   904
21.0341   899
21.0441   896
21.0541   938
21.0641   912
21.0741   976
21.0841   957
21.0941   937
21.1041   983
21.1141   974
21.1241   961
21.1341  1045
21.1441  1015
21.1541   946
21.1641  1012
21.1741   981
21.1841   959
21.1941   955
21.2041   971
21.2141   937
21.2241   909
21.2341   941
21.2441   873
21.2541   861
21.2641   875
21.2741   842
21.2841   819
21.2941   813
21.3041   747
21.3141   756
21.3241   762
21.3341   713
21.3441   767
21.3541   761
21.3641   706
21.3741   704
21.3841   684
21.3941   733
21.4041   715
21.4141   668
21.4241   650
21.4341   691
21.4441   649
21.4541   685
21.4641   671
21.4741   642
21.4841   634
21.4941   671
21.5041   656
21.5141   642
21.5241   653
21.5341   681
21.5441   607
21.5541   635
21.5641   678
21.5741   690
21.5841   684
21.5941   655
21.6041   675
21.6141   668
21.6241   685
21.6341   660
21.6441   687
21.6541   634
21.6641   685
21.6741   647
21.6841   676
21.6941   657
21.7041   667
21.7141   648
21.7241   679
21.7341   653
21.7441   643
21.7541   650
21.7641   700
21.7741   680
21.7841   638
21.7941   663
21.8041   674
21.8141   624
21.8241   633
21.8341   669
21.8441   652
21.8541   638
21.8641   664
21.8741   692
21.8841   660
21.8941   682
21.9041   641
21.9141   598
21.9241   690
21.9341   610
21.9441   644
21.9541   643
21.9641   656
21.9741   658
21.9841   665
21.9941   621
22.0041   648
22.0141   662
22.0241   669
22.0341   672
22.0441   670
22.0541   667
22.0641   656
22.0741   688
22.0841   655
22.0941   708
22.1041   648
22.1141   677
22.1241   654
22.1341   655
22.1441   676
22.1541   665
22.1641   665
22.1741   661
22.1841   660
22.1941   645
22.2041   676
22.2141   652
22.2241   657
22.2341   647
22.2441   614
22.2541   682
22.2641   678
22.2741   653
22.2841   669
22.2941   652
22.3041   646
22.3141   646
22.3241   647
22.3341   668
22.3441   696
22.3541   693
22.3641   688
22.3741   678
22.3841   633
22.3941   633
22.4041   645
22.4141   628
22.4241   631
22.4341   644
22.4441   637
22.4541   627
22.4641   628
22.4741   675
22.4841   646
22.4941   625
22.5041   642
22.5141   624
22.5241   680
22.5341   620
22.5441   662
22.5541   666
22.5641   666
22.5741   646
22.5841   687
22.5941   651
22.6041   646
22.6141   633
22.6241   653
22.6341   648
22.6441   652
22.6541   668
22.6641   710
22.6741   655
22.6841   698
22.6941   706
22.7041   653
22.7141   657
22.7241   635
22.7341   658
22.7441   627
22.7541   660
22.7641   687
22.7741   632
22.7841   643
22.7941   656
22.8041   599
22.8141   696
22.8241   656
22.8341   629
22.8441   672
22.8541   670
22.8641   648
22.8741   648
22.8841   643
22.8941   653
22.9041   651
22.9141   705
22.9241   665
22.9341   631
22.9441   695
22.9541   652
22.9641   583
22.9741   648
22.9841   639
22.9941   647
23.0041   600
23.0141   600
23.0241   638
23.0341   648
23.0441   658
23.0541   625
23.0641   617
23.0741   640
23.0841   659
23.0941   679
23.1041   684
23.1141   649
23.1241   589
23.1341   628
23.1441   670
23.1541   586
23.1641   619
23.1741   627
23.1841   601
23.1941   671
23.2041   603
23.2141   608
23.2241   641
23.2341   624
23.2441   630
23.2541   670
23.2641   646
23.2741   687
23.2841   632
23.2941   598
23.3041   639
23.3141   617
23.3241   618
23.3341   624
23.3441   687
23.3541   598
23.3641   624
23.3741   592
23.3841   645
23.3941   642
23.4041   620
23.4141   617
23.4241   657
23.4341   587
23.4441   621
23.4541   672
23.4641   604
23.4741   639
23.4841   646
23.4941   587
23.5041   596
23.5141   623
23.5241   638
23.5341   598
23.5441   639
23.5541   631
23.5641   611
23.5741   630
23.5841   664
23.5941   604
23.6041   642
23.6141   620
23.6241   641
23.6341   666
23.6441   679
23.6541   680
23.6641   721
23.6741   646
23.6841   686
23.6941   665
23.7041   650
23.7141   644
23.7241   692
23.7341   702
23.7441   705
23.7541   667
23.7641   689
23.7741   662
23.7841   703
23.7941   680
23.8041   687
23.8141   721
23.8241   654
23.8341   667
23.8441   633
23.8541   672
23.8641   737
23.8741   634
23.8841   700
23.8941   644
23.9041   657
23.9141   655
23.9241   616
23.9341   650
23.9441   637
23.9541   631
23.9641   600
23.9741   657
23.9841   643
23.9941   581
24.0041   654
24.0141   597
24.0241   634
24.0341   612
24.0441   627
24.0541   620
24.0641   585
24.0741   614
24.0841   622
24.0941   642
24.1041   630
24.1141   613
24.1241   614
24.1341   636
24.1441   625
24.1541   643
24.1641   601
24.1741   620
24.1841   636
24.1941   585
24.2041   602
24.2141   628
24.2241   605
24.2341   561
24.2441   576
24.2541   591
24.2641   624
24.2741   609
24.2841   614
24.2941   615
24.3041   645
24.3141   595
24.3241   614
24.3341   556
24.3441   584
24.3541   628
24.3641   577
24.3741   619
24.3841   591
24.3941   623
24.4041   579
24.4141   621
24.4241   562
24.4341   580
24.4441   603
24.4541   576
24.4641   619
24.4741   604
24.4841   600
24.4941   631
24.5041   593
24.5141   597
24.5241   604
24.5341   605
24.5441   592
24.5541   588
24.5641   592
24.5741   578
24.5841   616
24.5941   573
24.6041   569
24.6141   590
24.6241   606
24.6341   573
24.6441   593
24.6541   621
24.6641   575
24.6741   575
24.6841   567
24.6941   583
24.7041   544
24.7141   597
24.7241   579
24.7341   585
24.7441   557
24.7541   596
24.7641   576
24.7741   539
24.7841   603
24.7941   561
24.8041   591
24.8141   610
24.8241   580
24.8341   590
24.8441   594
24.8541   546
24.8641   587
24.8741   542
24.8841   586
24.8941   612
24.9041   587
24.9141   571
24.9241   557
24.9341   582
24.9441   566
24.9541   578
24.9641   562
24.9741   569
24.9841   568
24.9941   563
25.0041   567
25.0141   582
25.0241   598
25.0341   587
25.0441   579
25.0541   546
25.0641   577
25.0741   599
25.0841   595
25.0941   579
25.1041   598
25.1141   605
25.1241   556
25.1341   539
25.1441   544
25.1541   591
25.1641   543
25.1741   584
25.1841   577
25.1941   580
25.2041   584
25.2141   582
25.2241   594
25.2341   588
25.2441   580
25.2541   582
25.2641   602
25.2741   572
25.2841   584
25.2941   597
25.3041   576
25.3141   580
25.3241   531
25.3341   555
25.3441   592
25.3541   559
25.3641   574
25.3741   589
25.3841   587
25.3941   545
25.4041   553
25.4141   556
25.4241   536
25.4341   530
25.4441   523
25.4541   574
25.4641   568
25.4741   575
25.4841   602
25.4941   543
25.5041   587
25.5141   560
25.5241   587
25.5341   518
25.5441   557
25.5541   543
25.5641   556
25.5741   563
25.5841   539
25.5941   558
25.6041   531
25.6141   568
25.6241   552
25.6341   562
25.6441   528
25.6541   560
25.6641   560
25.6741   574
25.6841   544
25.6941   537
25.7041   571
25.7141   548
25.7241   537
25.7341   570
25.7441   591
25.7541   535
25.7641   527
25.7741   522
25.7841   559
25.7941   553
25.8041   549
25.8141   556
25.8241   530
25.8341   561
25.8441   504
25.8541   499
25.8641   539
25.8741   500
25.8841   559
25.8941   568
25.9041   544
25.9141   567
25.9241   541
25.9341   516
25.9441   523
25.9541   537
25.9641   535
25.9741   524
25.9841   554
25.9941   499
26.0041   537
26.0141   516
26.0241   525
26.0341   511
26.0441   525
26.0541   530
26.0641   489
26.0741   545
26.0841   529
26.0941   516
26.1041   523
26.1141   492
26.1241   500
26.1341   533
26.1441   532
26.1541   503
26.1641   497
26.1741   475
26.1841   516
26.1941   519
26.2041   549
26.2141   502
26.2241   506
26.2341   530
26.2441   471
26.2541   497
26.2641   541
26.2741   506
26.2841   501
26.2941   543
26.3041   554
26.3141   494
26.3241   514
26.3341   512
26.3441   470
26.3541   521
26.3641   514
26.3741   541
26.3841   520
26.3941   527
26.4041   529
26.4141   468
26.4241   490
26.4341   524
26.4441   502
26.4541   492
26.4641   494
26.4741   510
26.4841   488
26.4941   526
26.5041   507
26.5141   486
26.5241   519
26.5341   485
26.5441   514
26.5541   504
26.5641   485
26.5741   508
26.5841   495
26.5941   518
26.6041   496
26.6141   494
26.6241   515
26.6341   529
26.6441   482
26.6541   515
26.6641   529
26.6741   486
26.6841   478
26.6941   474
26.7041   486
26.7141   496
26.7241   435
26.7341   476
26.7441   524
26.7541   515
26.7641   480
26.7741   514
26.7841   511
26.7941   450
26.8041   497
26.8141   530
26.8241   486
26.8341   473
26.8441   459
26.8541   479
26.8641   492
26.8741   488
26.8841   498
26.8941   511
26.9041   525
26.9141   491
26.9241   491
26.9341   458
26.9441   476
26.9541   474
26.9641   480
26.9741   466
26.9841   471
26.9941   481
27.0041   490
27.0141   450
27.0241   482
27.0341   484
27.0441   500
27.0541   449
27.0641   479
27.0741   469
27.0841   518
27.0941   459
27.1041   488
27.1141   444
27.1241   475
27.1341   461
27.1441   474
27.1541   515
27.1641   478
27.1741   489
27.1841   497
27.1941   498
27.2041   487
27.2141   492
27.2241   467
27.2341   454
27.2441   489
27.2541   471
27.2641   449
27.2741   473
27.2841   462
27.2941   456
27.3041   458
27.3141   499
27.3241   470
27.3341   481
27.3441   488
27.3541   450
27.3641   456
27.3741   470
27.3841   478
27.3941   502
27.4041   514
27.4141   490
27.4241   429
27.4341   428
27.4441   434
27.4541   480
27.4641   449
27.4741   402
27.4841   473
27.4941   446
27.5041   448
27.5141   474
27.5241   466
27.5341   462
27.5441   462
27.5541   441
27.5641   446
27.5741   444
27.5841   463
27.5941   479
27.6041   435
27.6141   455
27.6241   446
27.6341   457
27.6441   434
27.6541   462
27.6641   449
27.6741   452
27.6841   439
27.6941   413
27.7041   397
27.7141   460
27.7241   435
27.7341   455
27.7441   434
27.7541   406
27.7641   445
27.7741   422
27.7841   421
27.7941   453
27.8041   415
27.8141   440
27.8241   431
27.8341   447
27.8441   428
27.8541   452
27.8641   431
27.8741   482
27.8841   442
27.8941   437
27.9041   413
27.9141   417
27.9241   428
27.9341   452
27.9441   417
27.9541   437
27.9641   384
27.9741   429
27.9841   419
27.9941   408
28.0041   420
28.0141   414
28.0241   420
28.0341   426
28.0441   436
28.0541   444
28.0641   403
28.0741   401
28.0841   426
28.0941   448
28.1041   395
28.1141   421
28.1241   419
28.1341   434
28.1441   410
28.1541   419
28.1641   414
28.1741   420
28.1841   426
28.1941   441
28.2041   424
28.2141   392
28.2241   422
28.2341   398
28.2441   399
28.2541   428
28.2641   393
28.2741   406
28.2841   407
28.2941   427
28.3041   417
28.3141   390
28.3241   386
28.3341   411
28.3441   400
28.3541   387
28.3641   422
28.3741   422
28.3841   422
28.3941   444
28.4041   412
28.4141   396
28.4241   395
28.4341   392
28.4441   396
28.4541   421
28.4641   398
28.4741   406
28.4841   422
28.4941   395
28.5041   371
28.5141   397
28.5241   403
28.5341   390
28.5441   367
28.5541   390
28.5641   370
28.5741   410
28.5841   436
28.5941   444
28.6041   370
28.6141   412
28.6241   378
28.6341   381
28.6441   408
28.6541   376
28.6641   401
28.6741   390
28.6841   417
28.6941   388
28.7041   424
28.7141   436
28.7241   396
28.7341   402
28.7441   388
28.7541   401
28.7641   372
28.7741   384
28.7841   369
28.7941   398
28.8041   385
28.8141   385
28.8241   408
28.8341   372
28.8441   367
28.8541   352
28.8641   373
28.8741   392
28.8841   407
28.8941   379
28.9041   365
28.9141   346
28.9241   375
28.9341   380
28.9441   362
28.9541   395
28.9641   393
28.9741   399
28.9841   379
28.9941   358
29.0041   355
29.0141   407
29.0241   354
29.0341   345
29.0441   358
29.0541   397
29.0641   384
29.0741   369
29.0841   384
29.0941   377
29.1041   372
29.1141   366
29.1241   376
29.1341   373
29.1441   371
29.1541   346
29.1641   384
29.1741   372
29.1841   344
29.1941   392
29.2041   379
29.2141   361
29.2241   397
29.2341   357
29.2441   349
29.2541   366
29.2641   336
29.2741   408
29.2841   344
29.2941   378
29.3041   354
29.3141   364
29.3241   352
29.3341   378
29.3441   378
29.3541   341
29.3641   364
29.3741   378
29.3841   338
29.3941   349
29.4041   340
29.4141   332
29.4241   375
29.4341   359
29.4441   362
29.4541   346
29.4641   353
29.4741   379
29.4841   348
29.4941   351
29.5041   373
29.5141   345
29.5241   347
29.5341   343
29.5441   349
29.5541   361
29.5641   354
29.5741   359
29.5841   338
29.5941   365
29.6041   368
29.6141   387
29.6241   373
29.6341   345
29.6441   346
29.6541   364
29.6641   341
29.6741   334
29.6841   375
29.6941   357
29.7041   351
29.7141   356
29.7241   370
29.7341   358
29.7441   375
29.7541   352
29.7641   333
29.7741   356
29.7841   354
29.7941   341
29.8041   322
29.8141   315
29.8241   322
29.8341   332
29.8441   374
29.8541   360
29.8641   337
29.8741   327
29.8841   312
29.8941   335
29.9041   329
29.9141   346
29.9241   334
29.9341   332
29.9441   340
29.9541   366
29.9641   334
29.9741   336
29.9841   334
29.9941   320
30.0041   335
30.0141   365
30.0241   329
30.0341   337
30.0441   346
30.0541   323
30.0641   317
30.0741   341
30.0841   358
30.0941   328
30.1041   315
30.1141   317
30.1241   307
30.1341   347
30.1441   329
30.1541   306
30.1641   321
30.1741   304
30.1841   338
30.1941   342
30.2041   313
30.2141   329
30.2241   309
30.2341   317
30.2441   334
30.2541   282
30.2641   291
30.2741   325
30.2841   343
30.2941   295
30.3041   285
30.3141   304
30.3241   274
30.3341   329
30.3441   316
30.3541   315
30.3641   350
30.3741   316
30.3841   323
30.3941   283
30.4041   347
30.4141   312
30.4241   308
30.4341   326
30.4441   329
30.4541   292
30.4641   305
30.4741   324
30.4841   312
30.4941   307
30.5041   293
30.5141   289
30.5241   320
30.5341   283
30.5441   277
30.5541   299
30.5641   303
30.5741   289
30.5841   295
30.5941   313
30.6041   333
30.6141   280
30.6241   308
30.6341   306
30.6441   310
30.6541   304
30.6641   296
30.6741   291
30.6841   321
30.6941   299
30.7041   299
30.7141   278
30.7241   294
30.7341   264
30.7441   321
30.7541   283
30.7641   292
30.7741   296
30.7841   290
30.7941   301
30.8041   292
30.8141   274
30.8241   271
30.8341   285
30.8441   269
30.8541   299
30.8641   304
30.8741   316
30.8841   288
30.8941   301
30.9041   291
30.9141   297
30.9241   257
30.9341   277
30.9441   265
30.9541   311
30.9641   287
30.9741   291
30.9841   309
30.9941   316
31.0041   301
31.0141   288
31.0241   295
31.0341   267
31.0441   300
31.0541   282
31.0641   287
31.0741   303
31.0841   278
31.0941   254
31.1041   284
31.1141   281
31.1241   271
31.1341   261
31.1441   301
31.1541   260
31.1641   291
31.1741   278
31.1841   285
31.1941   299
31.2041   296
31.2141   267
31.2241   311
31.2341   290
31.2441   271
31.2541   276
31.2641   273
31.2741   268
31.2841   280
31.2941   288
31.3041   284
31.3141   276
31.3241   283
31.3341   258
31.3441   264
31.3541   262
31.3641   282
31.3741   302
31.3841   276
31.3941   256
31.4041   267
31.4141   270
31.4241   284
31.4341   255
31.4441   262
31.4541   252
31.4641   240
31.4741   280
31.4841   252
31.4941   270
31.5041   255
31.5141   273
31.5241   289
31.5341   253
31.5441   270
31.5541   268
31.5641   250
31.5741   284
31.5841   279
31.5941   261
31.6041   260
31.6141   263
31.6241   252
31.6341   266
31.6441   287
31.6541   278
31.6641   243
31.6741   237
31.6841   244
31.6941   273
31.7041   258
31.7141   280
31.7241   275
31.7341   253
31.7441   258
31.7541   279
31.7641   254
31.7741   264
31.7841   255
31.7941   285
31.8041   233
31.8141   230
31.8241   240
31.8341   292
31.8441   249
31.8541   261
31.8641   271
31.8741   272
31.8841   252
31.8941   254
31.9041   239
31.9141   240
31.9241   252
31.9341   269
31.9441   224
31.9541   251
31.9641   248
31.9741   247
31.9841   257
31.9941   267
32.0041   242
32.0141   268
32.0241   252
32.0341   230
32.0441   238
32.0541   242
32.0641   262
32.0741   248
32.0841   247
32.0941   264
32.1041   234
32.1141   261
32.1241   250
32.1341   240
32.1441   260
32.1541   257
32.1641   256
32.1741   212
32.1841   247
32.1941   227
32.2041   248
32.2141   230
32.2241   236
32.2341   205
32.2441   218
32.2541   253
32.2641   233
32.2741   244
32.2841   223
32.2941   234
32.3041   245
32.3141   241
32.3241   247
32.3341   240
32.3441   236
32.3541   252
32.3641   222
32.3741   228
32.3841   240
32.3941   204
32.4041   227
32.4141   214
32.4241   216
32.4341   227
32.4441   245
32.4541   238
32.4641   207
32.4741   204
32.4841   235
32.4941   214
32.5041   198
32.5141   256
32.5241   227
32.5341   222
32.5441   216
32.5541   226
32.5641   239
32.5741   217
32.5841   214
32.5941   247
32.6041   212
32.6141   222
32.6241   225
32.6341   230
32.6441   230
32.6541   213
32.6641   226
32.6741   219
32.6841   205
32.6941   215
32.7041   217
32.7141   195
32.7241   231
32.7341   202
32.7441   200
32.7541   213
32.7641   222
32.7741   203
32.7841   223
32.7941   220
32.8041   223
32.8141   200
32.8241   202
32.8341   206
32.8441   217
32.8541   206
32.8641   199
32.8741   208
32.8841   193
32.8941   221
32.9041   196
32.9141   179
32.9241   219
32.9341   196
32.9441   204
32.9541   223
32.9641   208
32.9741   207
32.9841   195
32.9941   207
33.0041   208
33.0141   210
33.0241   202
33.0341   205
33.0441   198
33.0541   232
33.0641   193
33.0741   198
33.0841   230
33.0941   211
33.1041   203
33.1141   209
33.1241   207
33.1341   200
33.1441   237
33.1541   191
33.1641   181
33.1741   198
33.1841   198
33.1941   210
33.2041   207
33.2141   201
33.2241   211
33.2341   190
33.2441   197
33.2541   185
33.2641   176
33.2741   176
33.2841   175
33.2941   196
33.3041   208
33.3141   178
33.3241   207
33.3341   210
33.3441   209
33.3541   206
33.3641   195
33.3741   188
33.3841   193
33.3941   176
33.4041   196
33.4141   151
33.4241   184
33.4341   180
33.4441   170
33.4541   171
33.4641   185
33.4741   188
33.4841   171
33.4941   168
33.5041   181
33.5141   169
33.5241   179
33.5341   185
33.5441   207
33.5541   174
33.5641   198
33.5741   185
33.5841   175
33.5941   192
33.6041   188
33.6141   188
33.6241   193
33.6341   177
33.6441   172
33.6541   199
33.6641   189
33.6741   178
33.6841   172
33.6941   160
33.7041   204
33.7141   179
33.7241   175
33.7341   171
33.7441   177
33.7541   127
33.7641   175
33.7741   179
33.7841   175
33.7941   167
33.8041   189
33.8141   192
33.8241   175
33.8341   175
33.8441   157
33.8541   162
33.8641   149
33.8741   179
33.8841   206
33.8941   160
33.9041   169
33.9141   174
33.9241   168
33.9341   157
33.9441   176
33.9541   153
33.9641   162
33.9741   187
33.9841   187
33.9941   165
34.0041   147
34.0141   179
34.0241   183
34.0341   160
34.0441   166
34.0541   189
34.0641   184
34.0741   195
34.0841   181
34.0941   167
34.1041   146
34.1141   184
34.1241   157
34.1341   182
34.1441   142
34.1541   169
34.1641   158
34.1741   171
34.1841   170
34.1941   138
34.2041   158
34.2141   135
34.2241   180
34.2341   170
34.2441   148
34.2541   155
34.2641   164
34.2741   163
34.2841   163
34.2941   160
34.3041   180
34.3141   176
34.3241   170
34.3341   174
34.3441   152
34.3541   163
34.3641   158
34.3741   158
34.3841   169
34.3941   155
34.4041   148
34.4141   171
34.4241   152
34.4341   155
34.4441   157
34.4541   184
34.4641   168
34.4741   167
34.4841   158
34.4941   149
34.5041   165
34.5141   167
34.5241   134
34.5341   161
34.5441   147
34.5541   163
34.5641   152
34.5741   157
34.5841   164
34.5941   147
34.6041   141
34.6141   158
34.6241   163
34.6341   142
34.6441   156
34.6541   165
34.6641   148
34.6741   133
34.6841   156
34.6941   155
34.7041   151
34.7141   149
34.7241   151
34.7341   157
34.7441   148
34.7541   155
34.7641   144
34.7741   153
34.7841   140
34.7941   157
34.8041   142
34.8141   150
34.8241   143
34.8341   148
34.8441   124
34.8541   151
34.8641   132
34.8741   153
34.8841   153
34.8941   126
34.9041   160
34.9141   145
34.9241   150
34.9341   166
34.9441   153
34.9541   145
34.9641   153
34.9741   150
34.9841   145
34.9941   162
35.0041   133
35.0141   145
35.0241   141
35.0341   152
35.0441   125
35.0541   127
35.0641   143
35.0741   139
35.0841   133
35.0941   147
35.1041   134
35.1141   135
35.1241   141
35.1341   136
35.1441   142
35.1541   152
35.1641   155
35.1741   130
35.1841   143
35.1941   122
35.2041   131
35.2141   147
35.2241   130
35.2341   135
35.2441   126
35.2541   134
35.2641   135
35.2741   140
35.2841   133
35.2941   158
35.3041   148
35.3141   125
35.3241   122
35.3341   121
35.3441   138
35.3541   139
35.3641   128
35.3741   137
35.3841   137
35.3941   123
35.4041   124
35.4141   130
35.4241   164
35.4341   131
35.4441   121
35.4541   129
35.4641   118
35.4741   126
35.4841   130
35.4941   154
35.5041   144
35.5141   112
35.5241   123
35.5341   120
35.5441   136
35.5541   137
35.5641   131
35.5741   124
35.5841   136
35.5941   139
35.6041   117
35.6141   114
35.6241   110
35.6341   111
35.6441   124
35.6541   101
35.6641   120
35.6741   122
35.6841   121
35.6941   114
35.7041   113
35.7141   116
35.7241   125
35.7341   119
35.7441   116
35.7541   114
35.7641   111
35.7741   108
35.7841   108
35.7941   114
35.8041    94
35.8141   120
35.8241   123
35.8341   133
35.8441   121
35.8541   127
35.8641   136
35.8741   112
35.8841    96
35.8941   111
35.9041   128
35.9141   150
35.9241   117
35.9341   110
35.9441   120
35.9541   120
35.9641   146
35.9741   113
35.9841    88
35.9941   119
36.0041   113
36.0141   122
36.0241   116
36.0341   117
36.0441   123
36.0541   123
36.0641   117
36.0741   130
36.0841   113
36.0941   117
36.1041    98
36.1141   103
36.1241   106
36.1341   110
36.1441   102
36.1541   108
36.1641    86
36.1741   119
36.1841   123
36.1941   122
36.2041   106
36.2141   115
36.2241   124
36.2341    97
36.2441   111
36.2541   115
36.2641   108
36.2741   106
36.2841   122
36.2941   111
36.3041   106
36.3141   101
36.3241   117
36.3341   103
36.3441   126
36.3541   106
36.3641   102
36.3741    94
36.3841   100
36.3941   111
36.4041    91
36.4141   103
36.4241   105
36.4341   100
36.4441   109
36.4541   115
36.4641    96
36.4741    92
36.4841   103
36.4941   110
36.5041   127
36.5141   117
36.5241   102
36.5341   100
36.5441   100
36.5541    89
36.5641    97
36.5741    82
36.5841   108
36.5941   147
36.6041   104
36.6141    93
36.6241   100
36.6341    85
36.6441    91
36.6541    96
36.6641   105
36.6741   116
36.6841   105
36.6941    98
36.7041   104
36.7141    85
36.7241    92
36.7341    92
36.7441    87
36.7541    82
36.7641    79
36.7741   116
36.7841   105
36.7941   104
36.8041    98
36.8141    94
36.8241    87
36.8341    95
36.8441   107
36.8541    94
36.8641    99
36.8741    80
36.8841    84
36.8941   105
36.9041    96
36.9141    93
36.9241   108
36.9341    84
36.9441    82
36.9541    79
36.9641   101
36.9741    87
36.9841    84
36.9941    93
37.0041    93
37.0141    92
37.0241    84
37.0341    93
37.0441   101
37.0541   103
37.0641    88
37.0741    73
37.0841    92
37.0941    92
37.1041    91
37.1141    96
37.1241    85
37.1341    90
37.1441    85
37.1541    90
37.1641    89
37.1741    88
37.1841    94
37.1941    87
37.2041    80
37.2141    99
37.2241    90
37.2341    96
37.2441    93
37.2541    83
37.2641    88
37.2741    94
37.2841    77
37.2941    72
37.3041    70
37.3141   100
37.3241    99
37.3341    83
37.3441    85
37.3541   112
37.3641    72
37.3741    75
37.3841    69
37.3941    83
37.4041    80
37.4141    86
37.4241    87
37.4341    95
37.4441    77
37.4541    88
37.4641    63
37.4741    71
37.4841    90
37.4941    75
37.5041    85
37.5141    81
37.5241    83
37.5341    73
37.5441    82
37.5541    80
37.5641    81
37.5741    74
37.5841    66
37.5941    81
37.6041    81
37.6141    76
37.6241    77
37.6341    80
37.6441    88
37.6541    75
37.6641    86
37.6741    80
37.6841    71
37.6941    70
37.7041    75
37.7141    69
37.7241    73
37.7341    67
37.7441    61
37.7541    73
37.7641    72
37.7741    72
37.7841    69
37.7941    74
37.8041    73
37.8141    81
37.8241    92
37.8341    93
37.8441    68
37.8541    78
37.8641    64
37.8741    77
37.8841    83
37.8941    66
37.9041    71
37.9141    76
37.9241    76
37.9341    66
37.9441    82
37.9541    70
37.9641    66
37.9741    77
37.9841    85
37.9941    68
38.0041    70
38.0141    71
38.0241    79
38.0341    82
38.0441    49
38.0541    63
38.0641    74
38.0741    75
38.0841    71
38.0941    73
38.1041    52
38.1141    76
38.1241    77
38.1341    60
38.1441    72
38.1541    72
38.1641    62
38.1741    74
38.1841    67
38.1941    63
38.2041    73
38.2141    57
38.2241    86
38.2341    70
38.2441    81
38.2541    62
38.2641    69
38.2741    57
38.2841    64
38.2941    63
38.3041    69
38.3141    69
38.3241    68
38.3341    72
38.3441    69
38.3541    57
38.3641    60
38.3741    64
38.3841    62
38.3941    62
38.4041    73
38.4141    50
38.4241    58
38.4341    60
38.4441    69
38.4541    61
38.4641    44
38.4741    76
38.4841    63
38.4941    62
38.5041    62
38.5141    52
38.5241    52
38.5341    74
38.5441    58
38.5541    42
38.5641    51
38.5741    50
38.5841    62
38.5941    50
38.6041    73
38.6141    50
38.6241    63
38.6341    55
38.6441    40
38.6541    57
38.6641    52
38.6741    77
38.6841    60
38.6941    64
38.7041    59
38.7141    56
38.7241    61
38.7341    49
38.7441    44
38.7541    63
38.7641    55
38.7741    48
38.7841    59
38.7941    56
38.8041    54
38.8141    51
38.8241    53
38.8341    55
38.8441    54
38.8541    58
38.8641    48
38.8741    62
38.8841    33
38.8941    44
38.9041    54
38.9141    63
38.9241    62
38.9341    61
38.9441    40
38.9541    57
38.9641    51
38.9741    60
38.9841    60
38.9941    47
39.0041    57
39.0141    59
39.0241    51
39.0341    53
39.0441    54
39.0541    49
39.0641    50
39.0741    58
39.0841    66
39.0941    49
39.1041    48
39.1141    51
39.1241    53
39.1341    62
39.1441    42
39.1541    53
39.1641    52
39.1741    44
39.1841    57
39.1941    52
39.2041    47
39.2141    59
39.2241    61
39.2341    54
39.2441    54
39.2541    45
39.2641    57
39.2741    43
39.2841    37
39.2941    45
39.3041    57
39.3141    46
39.3241    60
39.3341    58
39.3441    51
39.3541    48
39.3641    58
39.3741    36
39.3841    41
39.3941    53
39.4041    37
39.4141    52
39.4241    52
39.4341    62
39.4441    42
39.4541    49
39.4641    39
39.4741    43
39.4841    56
39.4941    33
39.5041    41
39.5141    42
39.5241    35
39.5341    43
39.5441    45
39.5541    39
39.5641    51
39.5741    35
39.5841    43
39.5941    52
39.6041    36
39.6141    36
39.6241    40
39.6341    38
39.6441    37
39.6541    43
39.6641    38
39.6741    42
39.6841    51
39.6941    33
39.7041    41
39.7141    38
39.7241    51
39.7341    40
39.7441    31
39.7541    36
39.7641    34
39.7741    34
39.7841    41
39.7941    37
39.8041    46
39.8141    35
39.8241    37
39.8341    33
39.8441    35
39.8541    28
39.8641    38
39.8741    32
39.8841    22
39.8941    34
39.9041    39
39.9141    28
39.9241    41
39.9341    31
39.9441    34
39.9541    41
39.9641    36
39.9741    35
39.9841    39
39.9941    30
