Bruker Nano GmbH Berlin, Germany
Esprit 1.9

Date: 4/1/2021 5:00:59 PM
Real time: 20278
Life time: 18814
Pulse density: 106937


Detector type: XFlash 430
Window type: Custom type
Detector thickness: 0.45
Si dead layer:0.029

Calibration, lin.: 10
Calibration, abs.: -955.9
Mn FWHM: 137.05
Fano factor: 0.121
Channels: 4096

Energy Counts
-0.9559     0
-0.9459     0
-0.9359     0
-0.9259     0
-0.9159     0
-0.9059     0
-0.8959     0
-0.8859     0
-0.8759     0
-0.8659     0
-0.8559     0
-0.8459     0
-0.8359     0
-0.8259     0
-0.8159     0
-0.8059     0
-0.7959     0
-0.7859     0
-0.7759     0
-0.7659     0
-0.7559     0
-0.7459     0
-0.7359     0
-0.7259     0
-0.7159     0
-0.7059     0
-0.6959     0
-0.6859     0
-0.6759     0
-0.6659     0
-0.6559     0
-0.6459     0
-0.6359     0
-0.6259     0
-0.6159     0
-0.6059     0
-0.5959     0
-0.5859     0
-0.5759     0
-0.5659     0
-0.5559     0
-0.5459     0
-0.5359     0
-0.5259     0
-0.5159     0
-0.5059     0
-0.4959     0
-0.4859     0
-0.4759     0
-0.4659     0
-0.4559     0
-0.4459     0
-0.4359     0
-0.4259     0
-0.4159     0
-0.4059     0
-0.3959     0
-0.3859     0
-0.3759     0
-0.3659     0
-0.3559     0
-0.3459     0
-0.3359     0
-0.3259     0
-0.3159     0
-0.3059     0
-0.2959     0
-0.2859     0
-0.2759     0
-0.2659     0
-0.2559     0
-0.2459     0
-0.2359     0
-0.2259     0
-0.2159     0
-0.2059     0
-0.1959     0
-0.1859     0
-0.1759     0
-0.1659     0
-0.1559     0
-0.1459     0
-0.1359     1
-0.1259     0
-0.1159     2
-0.1059    15
-0.0959    42
-0.0859   206
-0.0759   724
-0.0659  2165
-0.0559  5420
-0.0459 12038
-0.0359 22490
-0.0259 35912
-0.0159 49083
-0.0059 57459
 0.0041 58169
 0.0141 49669
 0.0241 36658
 0.0341 23575
 0.0441 12574
 0.0541  6028
 0.0641  2318
 0.0741   813
 0.0841   251
 0.0941    82
 0.1041    23
 0.1141     8
 0.1241     7
 0.1341     6
 0.1441    10
 0.1541     5
 0.1641     1
 0.1741    18
 0.1841   176
 0.1941   356
 0.2041   303
 0.2141   289
 0.2241   338
 0.2341   313
 0.2441   295
 0.2541   325
 0.2641   303
 0.2741   304
 0.2841   311
 0.2941   307
 0.3041   287
 0.3141   276
 0.3241   309
 0.3341   312
 0.3441   305
 0.3541   286
 0.3641   278
 0.3741   263
 0.3841   297
 0.3941   275
 0.4041   278
 0.4141   262
 0.4241   294
 0.4341   277
 0.4441   267
 0.4541   282
 0.4641   276
 0.4741   280
 0.4841   281
 0.4941   278
 0.5041   255
 0.5141   269
 0.5241   285
 0.5341   278
 0.5441   267
 0.5541   266
 0.5641   256
 0.5741   253
 0.5841   255
 0.5941   263
 0.6041   259
 0.6141   240
 0.6241   245
 0.6341   244
 0.6441   224
 0.6541   225
 0.6641   235
 0.6741   265
 0.6841   252
 0.6941   248
 0.7041   238
 0.7141   225
 0.7241   227
 0.7341   221
 0.7441   219
 0.7541   235
 0.7641   228
 0.7741   236
 0.7841   238
 0.7941   233
 0.8041   249
 0.8141   235
 0.8241   229
 0.8341   218
 0.8441   214
 0.8541   211
 0.8641   207
 0.8741   204
 0.8841   193
 0.8941   207
 0.9041   206
 0.9141   192
 0.9241   206
 0.9341   197
 0.9441   220
 0.9541   211
 0.9641   200
 0.9741   187
 0.9841   194
 0.9941   210
 1.0041   203
 1.0141   234
 1.0241   176
 1.0341   184
 1.0441   205
 1.0541   217
 1.0641   229
 1.0741   216
 1.0841   201
 1.0941   209
 1.1041   204
 1.1141   189
 1.1241   169
 1.1341   174
 1.1441   202
 1.1541   197
 1.1641   191
 1.1741   198
 1.1841   197
 1.1941   215
 1.2041   196
 1.2141   205
 1.2241   168
 1.2341   183
 1.2441   176
 1.2541   177
 1.2641   176
 1.2741   186
 1.2841   172
 1.2941   189
 1.3041   180
 1.3141   189
 1.3241   180
 1.3341   205
 1.3441   180
 1.3541   189
 1.3641   204
 1.3741   184
 1.3841   180
 1.3941   201
 1.4041   176
 1.4141   170
 1.4241   172
 1.4341   189
 1.4441   189
 1.4541   174
 1.4641   191
 1.4741   177
 1.4841   169
 1.4941   176
 1.5041   165
 1.5141   172
 1.5241   167
 1.5341   179
 1.5441   179
 1.5541   168
 1.5641   161
 1.5741   137
 1.5841   149
 1.5941   167
 1.6041   188
 1.6141   184
 1.6241   175
 1.6341   176
 1.6441   203
 1.6541   231
 1.6641   252
 1.6741   290
 1.6841   369
 1.6941   468
 1.7041   578
 1.7141   664
 1.7241   688
 1.7341   697
 1.7441   761
 1.7541   771
 1.7641   668
 1.7741   557
 1.7841   457
 1.7941   396
 1.8041   326
 1.8141   274
 1.8241   279
 1.8341   234
 1.8441   212
 1.8541   234
 1.8641   204
 1.8741   193
 1.8841   182
 1.8941   180
 1.9041   186
 1.9141   181
 1.9241   151
 1.9341   180
 1.9441   179
 1.9541   179
 1.9641   179
 1.9741   198
 1.9841   202
 1.9941   206
 2.0041   202
 2.0141   194
 2.0241   189
 2.0341   207
 2.0441   177
 2.0541   176
 2.0641   176
 2.0741   145
 2.0841   166
 2.0941   167
 2.1041   151
 2.1141   176
 2.1241   179
 2.1341   186
 2.1441   148
 2.1541   131
 2.1641   141
 2.1741   146
 2.1841   158
 2.1941   151
 2.2041   143
 2.2141   155
 2.2241   142
 2.2341   123
 2.2441   139
 2.2541   152
 2.2641   150
 2.2741   170
 2.2841   140
 2.2941   158
 2.3041   130
 2.3141   138
 2.3241   131
 2.3341   129
 2.3441   122
 2.3541   139
 2.3641   117
 2.3741   118
 2.3841   133
 2.3941   127
 2.4041   126
 2.4141   153
 2.4241   135
 2.4341   158
 2.4441   115
 2.4541   140
 2.4641   146
 2.4741   131
 2.4841   146
 2.4941   124
 2.5041   134
 2.5141   141
 2.5241   153
 2.5341   135
 2.5441   111
 2.5541   125
 2.5641   159
 2.5741   151
 2.5841   113
 2.5941   128
 2.6041   138
 2.6141   145
 2.6241   138
 2.6341   135
 2.6441   118
 2.6541   120
 2.6641   136
 2.6741   143
 2.6841   126
 2.6941   111
 2.7041   131
 2.7141   117
 2.7241   124
 2.7341   111
 2.7441   123
 2.7541   115
 2.7641   103
 2.7741   135
 2.7841   105
 2.7941   129
 2.8041   147
 2.8141   136
 2.8241   108
 2.8341   132
 2.8441   140
 2.8541   120
 2.8641   121
 2.8741   119
 2.8841   131
 2.8941   127
 2.9041    97
 2.9141   117
 2.9241   108
 2.9341   102
 2.9441   106
 2.9541   100
 2.9641   125
 2.9741   111
 2.9841   122
 2.9941   124
 3.0041    99
 3.0141   106
 3.0241   110
 3.0341   118
 3.0441   129
 3.0541   122
 3.0641   102
 3.0741    81
 3.0841   101
 3.0941   101
 3.1041    83
 3.1141    93
 3.1241   107
 3.1341   105
 3.1441   104
 3.1541   103
 3.1641   110
 3.1741   100
 3.1841   106
 3.1941    93
 3.2041    94
 3.2141   118
 3.2241    99
 3.2341   109
 3.2441    97
 3.2541   125
 3.2641   101
 3.2741   127
 3.2841   117
 3.2941   113
 3.3041   154
 3.3141   124
 3.3241   122
 3.3341   123
 3.3441   133
 3.3541    94
 3.3641   105
 3.3741   110
 3.3841   109
 3.3941    93
 3.4041    84
 3.4141    97
 3.4241    95
 3.4341    87
 3.4441    97
 3.4541    95
 3.4641    97
 3.4741   104
 3.4841    92
 3.4941    84
 3.5041    97
 3.5141    98
 3.5241   110
 3.5341   113
 3.5441   145
 3.5541   173
 3.5641   212
 3.5741   265
 3.5841   336
 3.5941   480
 3.6041   649
 3.6141   818
 3.6241  1108
 3.6341  1366
 3.6441  1697
 3.6541  2065
 3.6641  2293
 3.6741  2475
 3.6841  2629
 3.6941  2605
 3.7041  2560
 3.7141  2378
 3.7241  2063
 3.7341  1743
 3.7441  1403
 3.7541  1132
 3.7641   861
 3.7741   640
 3.7841   459
 3.7941   310
 3.8041   232
 3.8141   185
 3.8241   139
 3.8341   123
 3.8441   112
 3.8541   115
 3.8641   107
 3.8741   115
 3.8841   132
 3.8941   132
 3.9041   154
 3.9141   170
 3.9241   198
 3.9341   218
 3.9441   295
 3.9541   333
 3.9641   389
 3.9741   433
 3.9841   470
 3.9941   499
 4.0041   552
 4.0141   583
 4.0241   544
 4.0341   536
 4.0441   470
 4.0541   447
 4.0641   379
 4.0741   277
 4.0841   273
 4.0941   201
 4.1041   178
 4.1141   125
 4.1241   114
 4.1341    98
 4.1441    95
 4.1541    90
 4.1641    92
 4.1741    70
 4.1841    69
 4.1941    80
 4.2041    73
 4.2141    63
 4.2241    59
 4.2341    78
 4.2441    86
 4.2541    69
 4.2641    55
 4.2741    74
 4.2841    71
 4.2941    71
 4.3041    77
 4.3141    79
 4.3241    72
 4.3341    64
 4.3441    64
 4.3541    72
 4.3641    73
 4.3741    87
 4.3841    69
 4.3941    79
 4.4041   101
 4.4141    91
 4.4241   109
 4.4341   126
 4.4441   133
 4.4541   137
 4.4641   162
 4.4741   163
 4.4841   174
 4.4941   167
 4.5041   184
 4.5141   207
 4.5241   195
 4.5341   156
 4.5441   149
 4.5541   154
 4.5641   123
 4.5741   151
 4.5841   111
 4.5941   100
 4.6041    89
 4.6141    87
 4.6241   104
 4.6341    94
 4.6441   112
 4.6541   105
 4.6641   105
 4.6741    82
 4.6841    89
 4.6941    75
 4.7041    78
 4.7141    79
 4.7241    85
 4.7341    80
 4.7441    86
 4.7541    97
 4.7641    73
 4.7741    78
 4.7841    75
 4.7941    69
 4.8041    78
 4.8141    77
 4.8241    72
 4.8341    99
 4.8441    74
 4.8541    89
 4.8641    93
 4.8741    89
 4.8841    85
 4.8941    88
 4.9041   103
 4.9141   120
 4.9241   103
 4.9341    97
 4.9441   111
 4.9541    94
 4.9641   101
 4.9741    90
 4.9841    74
 4.9941    81
 5.0041    99
 5.0141    91
 5.0241    98
 5.0341    86
 5.0441    80
 5.0541   100
 5.0641    96
 5.0741   104
 5.0841    80
 5.0941    85
 5.1041    81
 5.1141    81
 5.1241    73
 5.1341    83
 5.1441    91
 5.1541   102
 5.1641   106
 5.1741    86
 5.1841    82
 5.1941    88
 5.2041    88
 5.2141    75
 5.2241    88
 5.2341    93
 5.2441    75
 5.2541    95
 5.2641    90
 5.2741    82
 5.2841    99
 5.2941    85
 5.3041   107
 5.3141   117
 5.3241   116
 5.3341   149
 5.3441   158
 5.3541   171
 5.3641   184
 5.3741   199
 5.3841   185
 5.3941   201
 5.4041   215
 5.4141   210
 5.4241   204
 5.4341   197
 5.4441   173
 5.4541   176
 5.4641   181
 5.4741   169
 5.4841   148
 5.4941   144
 5.5041    97
 5.5141   106
 5.5241    93
 5.5341   114
 5.5441   109
 5.5541   109
 5.5641   110
 5.5741    85
 5.5841    82
 5.5941    94
 5.6041    99
 5.6141    99
 5.6241    98
 5.6341   104
 5.6441    93
 5.6541    90
 5.6641   105
 5.6741    93
 5.6841   118
 5.6941   116
 5.7041   105
 5.7141   109
 5.7241    90
 5.7341    87
 5.7441   112
 5.7541   117
 5.7641   117
 5.7741   111
 5.7841   148
 5.7941   162
 5.8041   153
 5.8141   189
 5.8241   230
 5.8341   281
 5.8441   255
 5.8541   311
 5.8641   348
 5.8741   319
 5.8841   348
 5.8941   336
 5.9041   345
 5.9141   302
 5.9241   298
 5.9341   287
 5.9441   285
 5.9541   276
 5.9641   225
 5.9741   197
 5.9841   206
 5.9941   176
 6.0041   190
 6.0141   160
 6.0241   147
 6.0341   136
 6.0441   143
 6.0541   120
 6.0641   138
 6.0741   131
 6.0841   155
 6.0941   140
 6.1041   143
 6.1141   137
 6.1241   131
 6.1341   163
 6.1441   163
 6.1541   160
 6.1641   142
 6.1741   203
 6.1841   187
 6.1941   219
 6.2041   248
 6.2141   323
 6.2241   381
 6.2341   525
 6.2441   755
 6.2541   991
 6.2641  1346
 6.2741  1736
 6.2841  2292
 6.2941  2988
 6.3041  3835
 6.3141  4848
 6.3241  5978
 6.3341  7161
 6.3441  8387
 6.3541  9493
 6.3641 10764
 6.3741 11597
 6.3841 12059
 6.3941 12373
 6.4041 12284
 6.4141 12012
 6.4241 11268
 6.4341 10455
 6.4441  9163
 6.4541  8046
 6.4641  6752
 6.4741  5478
 6.4841  4540
 6.4941  3566
 6.5041  2722
 6.5141  2132
 6.5241  1524
 6.5341  1113
 6.5441   828
 6.5541   559
 6.5641   458
 6.5741   360
 6.5841   256
 6.5941   222
 6.6041   218
 6.6141   198
 6.6241   168
 6.6341   157
 6.6441   189
 6.6541   179
 6.6641   151
 6.6741   161
 6.6841   173
 6.6941   187
 6.7041   178
 6.7141   175
 6.7241   167
 6.7341   192
 6.7441   176
 6.7541   162
 6.7641   208
 6.7741   183
 6.7841   225
 6.7941   181
 6.8041   209
 6.8141   199
 6.8241   199
 6.8341   223
 6.8441   222
 6.8541   219
 6.8641   233
 6.8741   284
 6.8841   278
 6.8941   339
 6.9041   362
 6.9141   455
 6.9241   547
 6.9341   600
 6.9441   708
 6.9541   840
 6.9641  1010
 6.9741  1138
 6.9841  1403
 6.9941  1546
 7.0041  1746
 7.0141  1887
 7.0241  2082
 7.0341  2178
 7.0441  2118
 7.0541  2233
 7.0641  2277
 7.0741  2079
 7.0841  2003
 7.0941  1902
 7.1041  1707
 7.1141  1474
 7.1241  1352
 7.1341  1143
 7.1441   978
 7.1541   806
 7.1641   685
 7.1741   514
 7.1841   453
 7.1941   433
 7.2041   360
 7.2141   333
 7.2241   326
 7.2341   301
 7.2441   294
 7.2541   260
 7.2641   283
 7.2741   283
 7.2841   269
 7.2941   282
 7.3041   297
 7.3141   312
 7.3241   338
 7.3341   332
 7.3441   339
 7.3541   347
 7.3641   427
 7.3741   388
 7.3841   444
 7.3941   419
 7.4041   464
 7.4141   473
 7.4241   490
 7.4341   493
 7.4441   488
 7.4541   515
 7.4641   510
 7.4741   500
 7.4841   509
 7.4941   453
 7.5041   442
 7.5141   437
 7.5241   408
 7.5341   404
 7.5441   359
 7.5541   345
 7.5641   351
 7.5741   303
 7.5841   313
 7.5941   328
 7.6041   290
 7.6141   285
 7.6241   295
 7.6341   312
 7.6441   297
 7.6541   319
 7.6641   279
 7.6741   286
 7.6841   285
 7.6941   282
 7.7041   304
 7.7141   297
 7.7241   306
 7.7341   303
 7.7441   342
 7.7541   341
 7.7641   347
 7.7741   357
 7.7841   359
 7.7941   357
 7.8041   363
 7.8141   384
 7.8241   416
 7.8341   385
 7.8441   403
 7.8541   451
 7.8641   418
 7.8741   427
 7.8841   448
 7.8941   493
 7.9041   510
 7.9141   537
 7.9241   568
 7.9341   616
 7.9441   639
 7.9541   690
 7.9641   781
 7.9741   779
 7.9841   810
 7.9941   942
 8.0041   977
 8.0141  1098
 8.0241  1177
 8.0341  1185
 8.0441  1372
 8.0541  1444
 8.0641  1568
 8.0741  1694
 8.0841  1704
 8.0941  1930
 8.1041  2141
 8.1141  2138
 8.1241  2044
 8.1341  2225
 8.1441  2237
 8.1541  2314
 8.1641  2428
 8.1741  2424
 8.1841  2424
 8.1941  2457
 8.2041  2424
 8.2141  2373
 8.2241  2447
 8.2341  2524
 8.2441  2475
 8.2541  2483
 8.2641  2584
 8.2741  2586
 8.2841  2727
 8.2941  2823
 8.3041  2964
 8.3141  3175
 8.3241  3305
 8.3341  3495
 8.3441  3591
 8.3541  3722
 8.3641  3841
 8.3741  3962
 8.3841  3944
 8.3941  3852
 8.4041  3854
 8.4141  3646
 8.4241  3472
 8.4341  3191
 8.4441  2894
 8.4541  2614
 8.4641  2351
 8.4741  2019
 8.4841  1767
 8.4941  1510
 8.5041  1288
 8.5141  1100
 8.5241   920
 8.5341   805
 8.5441   654
 8.5541   659
 8.5641   597
 8.5741   543
 8.5841   513
 8.5941   499
 8.6041   524
 8.6141   492
 8.6241   453
 8.6341   463
 8.6441   463
 8.6541   450
 8.6641   463
 8.6741   425
 8.6841   458
 8.6941   469
 8.7041   474
 8.7141   447
 8.7241   481
 8.7341   453
 8.7441   451
 8.7541   500
 8.7641   441
 8.7741   451
 8.7841   450
 8.7941   448
 8.8041   431
 8.8141   426
 8.8241   470
 8.8341   453
 8.8441   429
 8.8541   447
 8.8641   480
 8.8741   458
 8.8841   462
 8.8941   447
 8.9041   453
 8.9141   469
 8.9241   480
 8.9341   488
 8.9441   527
 8.9541   539
 8.9641   513
 8.9741   519
 8.9841   535
 8.9941   551
 9.0041   575
 9.0141   587
 9.0241   586
 9.0341   592
 9.0441   615
 9.0541   664
 9.0641   679
 9.0741   710
 9.0841   717
 9.0941   693
 9.1041   776
 9.1141   826
 9.1241   878
 9.1341   883
 9.1441   922
 9.1541   989
 9.1641  1041
 9.1741  1078
 9.1841  1132
 9.1941  1130
 9.2041  1210
 9.2141  1271
 9.2241  1414
 9.2341  1473
 9.2441  1574
 9.2541  1667
 9.2641  1802
 9.2741  1836
 9.2841  1885
 9.2941  2044
 9.3041  2098
 9.3141  2120
 9.3241  2140
 9.3341  2278
 9.3441  2358
 9.3541  2317
 9.3641  2466
 9.3741  2473
 9.3841  2485
 9.3941  2598
 9.4041  2511
 9.4141  2638
 9.4241  2592
 9.4341  2521
 9.4441  2597
 9.4541  2614
 9.4641  2619
 9.4741  2676
 9.4841  2578
 9.4941  2600
 9.5041  2571
 9.5141  2661
 9.5241  2684
 9.5341  2845
 9.5441  2870
 9.5541  2888
 9.5641  3068
 9.5741  3124
 9.5841  3267
 9.5941  3478
 9.6041  3592
 9.6141  3701
 9.6241  3798
 9.6341  3886
 9.6441  4101
 9.6541  4050
 9.6641  4077
 9.6741  4073
 9.6841  4079
 9.6941  3874
 9.7041  3714
 9.7141  3608
 9.7241  3384
 9.7341  3084
 9.7441  2846
 9.7541  2684
 9.7641  2440
 9.7741  2288
 9.7841  2143
 9.7941  1982
 9.8041  1906
 9.8141  1795
 9.8241  1683
 9.8341  1652
 9.8441  1614
 9.8541  1588
 9.8641  1556
 9.8741  1571
 9.8841  1599
 9.8941  1604
 9.9041  1591
 9.9141  1662
 9.9241  1678
 9.9341  1669
 9.9441  1691
 9.9541  1637
 9.9641  1652
 9.9741  1582
 9.9841  1485
 9.9941  1429
10.0041  1309
10.0141  1247
10.0241  1171
10.0341  1059
10.0441  1005
10.0541   927
10.0641   802
10.0741   721
10.0841   649
10.0941   571
10.1041   537
10.1141   500
10.1241   455
10.1341   456
10.1441   432
10.1541   388
10.1641   370
10.1741   369
10.1841   357
10.1941   331
10.2041   336
10.2141   320
10.2241   311
10.2341   329
10.2441   300
10.2541   311
10.2641   300
10.2741   277
10.2841   302
10.2941   293
10.3041   295
10.3141   282
10.3241   256
10.3341   282
10.3441   280
10.3541   283
10.3641   277
10.3741   271
10.3841   265
10.3941   268
10.4041   304
10.4141   270
10.4241   297
10.4341   280
10.4441   299
10.4541   297
10.4641   269
10.4741   277
10.4841   294
10.4941   286
10.5041   324
10.5141   313
10.5241   311
10.5341   310
10.5441   314
10.5541   310
10.5641   297
10.5741   306
10.5841   329
10.5941   345
10.6041   344
10.6141   345
10.6241   335
10.6341   325
10.6441   344
10.6541   362
10.6641   360
10.6741   359
10.6841   399
10.6941   422
10.7041   391
10.7141   363
10.7241   403
10.7341   431
10.7441   452
10.7541   477
10.7641   467
10.7741   447
10.7841   465
10.7941   516
10.8041   518
10.8141   509
10.8241   527
10.8341   527
10.8441   545
10.8541   548
10.8641   571
10.8741   548
10.8841   578
10.8941   583
10.9041   603
10.9141   618
10.9241   546
10.9341   569
10.9441   569
10.9541   564
10.9641   572
10.9741   566
10.9841   577
10.9941   562
11.0041   572
11.0141   561
11.0241   493
11.0341   518
11.0441   477
11.0541   466
11.0641   471
11.0741   466
11.0841   443
11.0941   482
11.1041   492
11.1141   460
11.1241   455
11.1341   498
11.1441   506
11.1541   510
11.1641   526
11.1741   546
11.1841   536
11.1941   566
11.2041   603
11.2141   617
11.2241   635
11.2341   654
11.2441   656
11.2541   655
11.2641   644
11.2741   661
11.2841   637
11.2941   628
11.3041   667
11.3141   614
11.3241   611
11.3341   581
11.3441   603
11.3541   568
11.3641   510
11.3741   491
11.3841   485
11.3941   440
11.4041   431
11.4141   430
11.4241   422
11.4341   405
11.4441   423
11.4541   386
11.4641   368
11.4741   382
11.4841   346
11.4941   346
11.5041   342
11.5141   351
11.5241   356
11.5341   364
11.5441   377
11.5541   382
11.5641   375
11.5741   376
11.5841   360
11.5941   349
11.6041   361
11.6141   358
11.6241   370
11.6341   383
11.6441   406
11.6541   387
11.6641   392
11.6741   398
11.6841   407
11.6941   410
11.7041   393
11.7141   417
11.7241   418
11.7341   447
11.7441   475
11.7541   491
11.7641   510
11.7741   571
11.7841   617
11.7941   673
11.8041   747
11.8141   774
11.8241   821
11.8341   908
11.8441   989
11.8541  1032
11.8641  1067
11.8741  1103
11.8841  1157
11.8941  1211
11.9041  1249
11.9141  1244
11.9241  1190
11.9341  1141
11.9441  1122
11.9541  1079
11.9641  1000
11.9741   954
11.9841   926
11.9941   859
12.0041   764
12.0141   687
12.0241   644
12.0341   614
12.0441   534
12.0541   468
12.0641   427
12.0741   407
12.0841   372
12.0941   371
12.1041   350
12.1141   342
12.1241   326
12.1341   307
12.1441   291
12.1541   288
12.1641   297
12.1741   295
12.1841   271
12.1941   263
12.2041   276
12.2141   298
12.2241   294
12.2341   290
12.2441   280
12.2541   272
12.2641   270
12.2741   285
12.2841   288
12.2941   287
12.3041   301
12.3141   290
12.3241   284
12.3341   289
12.3441   306
12.3541   315
12.3641   306
12.3741   281
12.3841   289
12.3941   288
12.4041   297
12.4141   304
12.4241   287
12.4341   294
12.4441   287
12.4541   281
12.4641   290
12.4741   288
12.4841   303
12.4941   288
12.5041   279
12.5141   299
12.5241   307
12.5341   291
12.5441   277
12.5541   293
12.5641   310
12.5741   299
12.5841   296
12.5941   301
12.6041   321
12.6141   328
12.6241   307
12.6341   316
12.6441   326
12.6541   315
12.6641   326
12.6741   323
12.6841   323
12.6941   323
12.7041   338
12.7141   337
12.7241   307
12.7341   291
12.7441   330
12.7541   327
12.7641   332
12.7741   341
12.7841   326
12.7941   317
12.8041   318
12.8141   325
12.8241   324
12.8341   335
12.8441   333
12.8541   338
12.8641   349
12.8741   357
12.8841   358
12.8941   349
12.9041   341
12.9141   338
12.9241   324
12.9341   330
12.9441   340
12.9541   331
12.9641   336
12.9741   336
12.9841   337
12.9941   340
13.0041   364
13.0141   363
13.0241   347
13.0341   371
13.0441   362
13.0541   343
13.0641   366
13.0741   370
13.0841   356
13.0941   363
13.1041   363
13.1141   377
13.1241   398
13.1341   401
13.1441   381
13.1541   378
13.1641   401
13.1741   419
13.1841   417
13.1941   426
13.2041   444
13.2141   461
13.2241   495
13.2341   498
13.2441   491
13.2541   506
13.2641   518
13.2741   500
13.2841   484
13.2941   498
13.3041   507
13.3141   504
13.3241   500
13.3341   513
13.3441   535
13.3541   510
13.3641   486
13.3741   498
13.3841   484
13.3941   454
13.4041   471
13.4141   467
13.4241   447
13.4341   438
13.4441   427
13.4541   442
13.4641   457
13.4741   443
13.4841   411
13.4941   422
13.5041   421
13.5141   400
13.5241   414
13.5341   417
13.5441   416
13.5541   415
13.5641   409
13.5741   412
13.5841   412
13.5941   421
13.6041   403
13.6141   383
13.6241   432
13.6341   416
13.6441   390
13.6541   389
13.6641   392
13.6741   415
13.6841   421
13.6941   416
13.7041   408
13.7141   418
13.7241   411
13.7341   418
13.7441   429
13.7541   424
13.7641   438
13.7741   436
13.7841   423
13.7941   409
13.8041   407
13.8141   429
13.8241   420
13.8341   419
13.8441   444
13.8541   456
13.8641   452
13.8741   454
13.8841   454
13.8941   453
13.9041   451
13.9141   461
13.9241   452
13.9341   457
13.9441   477
13.9541   468
13.9641   502
13.9741   535
13.9841   526
13.9941   510
14.0041   541
14.0141   590
14.0241   613
14.0341   632
14.0441   636
14.0541   654
14.0641   666
14.0741   667
14.0841   705
14.0941   739
14.1041   738
14.1141   723
14.1241   734
14.1341   753
14.1441   766
14.1541   747
14.1641   728
14.1741   729
14.1841   729
14.1941   743
14.2041   722
14.2141   705
14.2241   662
14.2341   626
14.2441   617
14.2541   590
14.2641   587
14.2741   595
14.2841   585
14.2941   564
14.3041   530
14.3141   507
14.3241   514
14.3341   518
14.3441   520
14.3541   536
14.3641   512
14.3741   467
14.3841   465
14.3941   464
14.4041   464
14.4141   468
14.4241   487
14.4341   508
14.4441   520
14.4541   499
14.4641   494
14.4741   504
14.4841   501
14.4941   496
14.5041   493
14.5141   502
14.5241   490
14.5341   487
14.5441   495
14.5541   509
14.5641   499
14.5741   498
14.5841   537
14.5941   536
14.6041   528
14.6141   504
14.6241   496
14.6341   511
14.6441   494
14.6541   526
14.6641   547
14.6741   536
14.6841   515
14.6941   523
14.7041   506
14.7141   511
14.7241   530
14.7341   517
14.7441   504
14.7541   509
14.7641   513
14.7741   529
14.7841   556
14.7941   544
14.8041   517
14.8141   539
14.8241   541
14.8341   539
14.8441   543
14.8541   526
14.8641   558
14.8741   587
14.8841   569
14.8941   538
14.9041   532
14.9141   539
14.9241   562
14.9341   557
14.9441   539
14.9541   563
14.9641   562
14.9741   530
14.9841   513
14.9941   541
15.0041   549
15.0141   550
15.0241   553
15.0341   564
15.0441   579
15.0541   582
15.0641   560
15.0741   537
15.0841   551
15.0941   525
15.1041   508
15.1141   539
15.1241   555
15.1341   561
15.1441   572
15.1541   579
15.1641   577
15.1741   569
15.1841   572
15.1941   576
15.2041   596
15.2141   592
15.2241   564
15.2341   543
15.2441   563
15.2541   563
15.2641   556
15.2741   575
15.2841   573
15.2941   568
15.3041   567
15.3141   589
15.3241   584
15.3341   550
15.3441   551
15.3541   568
15.3641   558
15.3741   560
15.3841   565
15.3941   578
15.4041   562
15.4141   569
15.4241   594
15.4341   596
15.4441   613
15.4541   601
15.4641   589
15.4741   610
15.4841   621
15.4941   615
15.5041   627
15.5141   595
15.5241   586
15.5341   621
15.5441   611
15.5541   609
15.5641   623
15.5741   614
15.5841   611
15.5941   591
15.6041   603
15.6141   626
15.6241   632
15.6341   600
15.6441   610
15.6541   630
15.6641   635
15.6741   637
15.6841   648
15.6941   642
15.7041   651
15.7141   658
15.7241   686
15.7341   669
15.7441   661
15.7541   652
15.7641   671
15.7741   686
15.7841   711
15.7941   731
15.8041   740
15.8141   710
15.8241   696
15.8341   709
15.8441   708
15.8541   685
15.8641   668
15.8741   685
15.8841   673
15.8941   628
15.9041   666
15.9141   670
15.9241   657
15.9341   673
15.9441   674
15.9541   669
15.9641   641
15.9741   650
15.9841   669
15.9941   665
16.0041   660
16.0141   648
16.0241   654
16.0341   645
16.0441   631
16.0541   648
16.0641   679
16.0741   669
16.0841   675
16.0941   650
16.1041   662
16.1141   679
16.1241   663
16.1341   692
16.1441   702
16.1541   671
16.1641   648
16.1741   645
16.1841   658
16.1941   660
16.2041   663
16.2141   618
16.2241   603
16.2341   620
16.2441   641
16.2541   645
16.2641   622
16.2741   655
16.2841   640
16.2941   644
16.3041   659
16.3141   652
16.3241   665
16.3341   653
16.3441   635
16.3541   670
16.3641   707
16.3741   713
16.3841   707
16.3941   675
16.4041   675
16.4141   677
16.4241   645
16.4341   685
16.4441   689
16.4541   653
16.4641   645
16.4741   656
16.4841   700
16.4941   687
16.5041   675
16.5141   664
16.5241   698
16.5341   698
16.5441   663
16.5541   685
16.5641   684
16.5741   655
16.5841   656
16.5941   673
16.6041   715
16.6141   705
16.6241   679
16.6341   679
16.6441   686
16.6541   679
16.6641   703
16.6741   693
16.6841   682
16.6941   682
16.7041   673
16.7141   672
16.7241   692
16.7341   699
16.7441   707
16.7541   699
16.7641   720
16.7741   699
16.7841   687
16.7941   687
16.8041   716
16.8141   727
16.8241   704
16.8341   699
16.8441   665
16.8541   696
16.8641   683
16.8741   673
16.8841   694
16.8941   705
16.9041   691
16.9141   672
16.9241   675
16.9341   723
16.9441   726
16.9541   685
16.9641   689
16.9741   717
16.9841   703
16.9941   686
17.0041   721
17.0141   715
17.0241   700
17.0341   705
17.0441   668
17.0541   688
17.0641   723
17.0741   697
17.0841   684
17.0941   735
17.1041   740
17.1141   710
17.1241   664
17.1341   707
17.1441   740
17.1541   754
17.1641   726
17.1741   672
17.1841   726
17.1941   740
17.2041   724
17.2141   685
17.2241   701
17.2341   734
17.2441   699
17.2541   707
17.2641   703
17.2741   729
17.2841   735
17.2941   758
17.3041   740
17.3141   722
17.3241   718
17.3341   735
17.3441   752
17.3541   759
17.3641   761
17.3741   728
17.3841   748
17.3941   735
17.4041   691
17.4141   719
17.4241   738
17.4341   705
17.4441   709
17.4541   721
17.4641   745
17.4741   728
17.4841   776
17.4941   763
17.5041   717
17.5141   753
17.5241   782
17.5341   758
17.5441   762
17.5541   735
17.5641   754
17.5741   744
17.5841   737
17.5941   781
17.6041   719
17.6141   736
17.6241   742
17.6341   746
17.6441   763
17.6541   769
17.6641   772
17.6741   768
17.6841   768
17.6941   741
17.7041   722
17.7141   752
17.7241   754
17.7341   745
17.7441   738
17.7541   766
17.7641   741
17.7741   724
17.7841   743
17.7941   711
17.8041   730
17.8141   784
17.8241   746
17.8341   766
17.8441   750
17.8541   727
17.8641   733
17.8741   728
17.8841   765
17.8941   797
17.9041   768
17.9141   781
17.9241   757
17.9341   761
17.9441   770
17.9541   763
17.9641   761
17.9741   718
17.9841   768
17.9941   757
18.0041   765
18.0141   795
18.0241   756
18.0341   796
18.0441   797
18.0541   776
18.0641   774
18.0741   796
18.0841   775
18.0941   741
18.1041   772
18.1141   725
18.1241   766
18.1341   745
18.1441   745
18.1541   750
18.1641   746
18.1741   724
18.1841   702
18.1941   780
18.2041   788
18.2141   777
18.2241   740
18.2341   780
18.2441   761
18.2541   759
18.2641   754
18.2741   753
18.2841   772
18.2941   807
18.3041   781
18.3141   737
18.3241   769
18.3341   763
18.3441   739
18.3541   769
18.3641   752
18.3741   771
18.3841   766
18.3941   755
18.4041   785
18.4141   785
18.4241   743
18.4341   750
18.4441   786
18.4541   756
18.4641   755
18.4741   767
18.4841   757
18.4941   765
18.5041   773
18.5141   748
18.5241   779
18.5341   805
18.5441   767
18.5541   741
18.5641   740
18.5741   792
18.5841   775
18.5941   756
18.6041   731
18.6141   724
18.6241   801
18.6341   810
18.6441   771
18.6541   794
18.6641   780
18.6741   770
18.6841   726
18.6941   732
18.7041   779
18.7141   802
18.7241   764
18.7341   751
18.7441   760
18.7541   740
18.7641   759
18.7741   795
18.7841   779
18.7941   798
18.8041   795
18.8141   772
18.8241   771
18.8341   775
18.8441   793
18.8541   740
18.8641   735
18.8741   799
18.8841   796
18.8941   760
18.9041   779
18.9141   752
18.9241   797
18.9341   757
18.9441   762
18.9541   781
18.9641   762
18.9741   758
18.9841   728
18.9941   744
19.0041   746
19.0141   775
19.0241   792
19.0341   810
19.0441   761
19.0541   740
19.0641   770
19.0741   783
19.0841   796
19.0941   828
19.1041   778
19.1141   838
19.1241   807
19.1341   770
19.1441   769
19.1541   792
19.1641   776
19.1741   806
19.1841   748
19.1941   757
19.2041   772
19.2141   790
19.2241   820
19.2341   829
19.2441   797
19.2541   738
19.2641   812
19.2741   798
19.2841   783
19.2941   826
19.3041   789
19.3141   812
19.3241   762
19.3341   734
19.3441   788
19.3541   829
19.3641   769
19.3741   751
19.3841   807
19.3941   793
19.4041   762
19.4141   750
19.4241   784
19.4341   822
19.4441   761
19.4541   756
19.4641   770
19.4741   760
19.4841   757
19.4941   765
19.5041   767
19.5141   791
19.5241   793
19.5341   777
19.5441   803
19.5541   776
19.5641   763
19.5741   790
19.5841   794
19.5941   781
19.6041   791
19.6141   775
19.6241   762
19.6341   766
19.6441   758
19.6541   815
19.6641   761
19.6741   750
19.6841   765
19.6941   771
19.7041   770
19.7141   751
19.7241   790
19.7341   799
19.7441   755
19.7541   767
19.7641   776
19.7741   763
19.7841   769
19.7941   746
19.8041   793
19.8141   789
19.8241   760
19.8341   754
19.8441   762
19.8541   795
19.8641   794
19.8741   768
19.8841   742
19.8941   824
19.9041   801
19.9141   768
19.9241   782
19.9341   766
19.9441   779
19.9541   751
19.9641   743
19.9741   771
19.9841   758
19.9941   729
20.0041   743
20.0141   786
20.0241   761
20.0341   765
20.0441   723
20.0541   759
20.0641   750
20.0741   795
20.0841   792
20.0941   727
20.1041   744
20.1141   761
20.1241   779
20.1341   786
20.1441   751
20.1541   741
20.1641   764
20.1741   761
20.1841   745
20.1941   801
20.2041   767
20.2141   742
20.2241   755
20.2341   741
20.2441   733
20.2541   749
20.2641   775
20.2741   750
20.2841   784
20.2941   752
20.3041   779
20.3141   770
20.3241   734
20.3341   771
20.3441   741
20.3541   719
20.3641   775
20.3741   762
20.3841   740
20.3941   779
20.4041   750
20.4141   742
20.4241   783
20.4341   798
20.4441   730
20.4541   761
20.4641   719
20.4741   758
20.4841   738
20.4941   751
20.5041   773
20.5141   734
20.5241   765
20.5341   761
20.5441   731
20.5541   751
20.5641   754
20.5741   760
20.5841   764
20.5941   760
20.6041   787
20.6141   764
20.6241   744
20.6341   742
20.6441   708
20.6541   768
20.6641   785
20.6741   770
20.6841   748
20.6941   731
20.7041   746
20.7141   756
20.7241   727
20.7341   704
20.7441   751
20.7541   699
20.7641   781
20.7741   813
20.7841   776
20.7941   771
20.8041   702
20.8141   752
20.8241   787
20.8341   736
20.8441   770
20.8541   760
20.8641   770
20.8741   790
20.8841   790
20.8941   815
20.9041   759
20.9141   865
20.9241   827
20.9341   860
20.9441   824
20.9541   870
20.9641   849
20.9741   877
20.9841   884
20.9941   901
21.0041   921
21.0141   930
21.0241   950
21.0341   914
21.0441   964
21.0541   921
21.0641   921
21.0741   957
21.0841   986
21.0941   998
21.1041   983
21.1141   967
21.1241   987
21.1341  1009
21.1441  1000
21.1541   948
21.1641  1001
21.1741   964
21.1841   964
21.1941   939
21.2041   930
21.2141   952
21.2241   948
21.2341   961
21.2441   941
21.2541   936
21.2641   895
21.2741   864
21.2841   772
21.2941   818
21.3041   827
21.3141   767
21.3241   810
21.3341   773
21.3441   796
21.3541   780
21.3641   775
21.3741   760
21.3841   788
21.3941   739
21.4041   787
21.4141   714
21.4241   762
21.4341   761
21.4441   736
21.4541   716
21.4641   727
21.4741   699
21.4841   687
21.4941   736
21.5041   726
21.5141   740
21.5241   746
21.5341   729
21.5441   704
21.5541   733
21.5641   760
21.5741   689
21.5841   690
21.5941   677
21.6041   729
21.6141   725
21.6241   755
21.6341   679
21.6441   728
21.6541   721
21.6641   700
21.6741   710
21.6841   717
21.6941   713
21.7041   714
21.7141   699
21.7241   687
21.7341   673
21.7441   735
21.7541   724
21.7641   739
21.7741   672
21.7841   720
21.7941   705
21.8041   720
21.8141   666
21.8241   682
21.8341   702
21.8441   699
21.8541   715
21.8641   708
21.8741   718
21.8841   653
21.8941   714
21.9041   667
21.9141   668
21.9241   739
21.9341   714
21.9441   729
21.9541   698
21.9641   681
21.9741   721
21.9841   711
21.9941   717
22.0041   751
22.0141   728
22.0241   743
22.0341   692
22.0441   718
22.0541   665
22.0641   665
22.0741   715
22.0841   677
22.0941   671
22.1041   666
22.1141   685
22.1241   645
22.1341   720
22.1441   736
22.1541   704
22.1641   705
22.1741   666
22.1841   676
22.1941   728
22.2041   728
22.2141   679
22.2241   679
22.2341   675
22.2441   648
22.2541   673
22.2641   701
22.2741   666
22.2841   718
22.2941   714
22.3041   695
22.3141   695
22.3241   644
22.3341   618
22.3441   648
22.3541   697
22.3641   645
22.3741   684
22.3841   673
22.3941   676
22.4041   715
22.4141   650
22.4241   713
22.4341   676
22.4441   683
22.4541   703
22.4641   685
22.4741   682
22.4841   674
22.4941   657
22.5041   720
22.5141   648
22.5241   640
22.5341   637
22.5441   645
22.5541   672
22.5641   668
22.5741   666
22.5841   674
22.5941   656
22.6041   652
22.6141   642
22.6241   631
22.6341   712
22.6441   700
22.6541   656
22.6641   655
22.6741   659
22.6841   653
22.6941   683
22.7041   656
22.7141   703
22.7241   624
22.7341   663
22.7441   682
22.7541   662
22.7641   678
22.7741   669
22.7841   647
22.7941   591
22.8041   651
22.8141   640
22.8241   664
22.8341   625
22.8441   577
22.8541   620
22.8641   665
22.8741   642
22.8841   630
22.8941   649
22.9041   673
22.9141   633
22.9241   666
22.9341   676
22.9441   644
22.9541   626
22.9641   680
22.9741   664
22.9841   689
22.9941   618
23.0041   665
23.0141   622
23.0241   673
23.0341   653
23.0441   592
23.0541   657
23.0641   579
23.0741   622
23.0841   630
23.0941   577
23.1041   601
23.1141   683
23.1241   610
23.1341   643
23.1441   629
23.1541   605
23.1641   668
23.1741   641
23.1841   627
23.1941   576
23.2041   582
23.2141   634
23.2241   642
23.2341   648
23.2441   647
23.2541   619
23.2641   646
23.2741   626
23.2841   580
23.2941   633
23.3041   618
23.3141   644
23.3241   678
23.3341   651
23.3441   664
23.3541   599
23.3641   584
23.3741   619
23.3841   574
23.3941   625
23.4041   601
23.4141   599
23.4241   613
23.4341   637
23.4441   642
23.4541   613
23.4641   649
23.4741   602
23.4841   577
23.4941   603
23.5041   588
23.5141   638
23.5241   632
23.5341   638
23.5441   619
23.5541   664
23.5641   600
23.5741   560
23.5841   611
23.5941   614
23.6041   601
23.6141   558
23.6241   607
23.6341   622
23.6441   626
23.6541   603
23.6641   614
23.6741   591
23.6841   631
23.6941   693
23.7041   675
23.7141   641
23.7241   610
23.7341   619
23.7441   631
23.7541   603
23.7641   655
23.7741   664
23.7841   647
23.7941   643
23.8041   607
23.8141   623
23.8241   619
23.8341   635
23.8441   652
23.8541   611
23.8641   621
23.8741   626
23.8841   636
23.8941   653
23.9041   640
23.9141   669
23.9241   621
23.9341   604
23.9441   598
23.9541   562
23.9641   651
23.9741   587
23.9841   621
23.9941   610
24.0041   603
24.0141   545
24.0241   567
24.0341   581
24.0441   556
24.0541   621
24.0641   628
24.0741   627
24.0841   626
24.0941   597
24.1041   586
24.1141   594
24.1241   572
24.1341   584
24.1441   607
24.1541   615
24.1641   573
24.1741   557
24.1841   549
24.1941   577
24.2041   564
24.2141   611
24.2241   599
24.2341   584
24.2441   569
24.2541   585
24.2641   564
24.2741   559
24.2841   589
24.2941   532
24.3041   602
24.3141   583
24.3241   539
24.3341   576
24.3441   559
24.3541   547
24.3641   641
24.3741   578
24.3841   585
24.3941   602
24.4041   572
24.4141   571
24.4241   573
24.4341   546
24.4441   577
24.4541   573
24.4641   538
24.4741   557
24.4841   534
24.4941   560
24.5041   545
24.5141   552
24.5241   527
24.5341   525
24.5441   532
24.5541   610
24.5641   568
24.5741   536
24.5841   556
24.5941   539
24.6041   523
24.6141   516
24.6241   506
24.6341   580
24.6441   585
24.6541   599
24.6641   551
24.6741   518
24.6841   528
24.6941   556
24.7041   578
24.7141   583
24.7241   548
24.7341   564
24.7441   539
24.7541   528
24.7641   540
24.7741   524
24.7841   507
24.7941   507
24.8041   552
24.8141   567
24.8241   562
24.8341   526
24.8441   569
24.8541   551
24.8641   582
24.8741   539
24.8841   547
24.8941   559
24.9041   517
24.9141   537
24.9241   476
24.9341   518
24.9441   547
24.9541   531
24.9641   515
24.9741   540
24.9841   521
24.9941   516
25.0041   544
25.0141   573
25.0241   498
25.0341   494
25.0441   526
25.0541   524
25.0641   485
25.0741   530
25.0841   539
25.0941   533
25.1041   563
25.1141   512
25.1241   527
25.1341   533
25.1441   543
25.1541   538
25.1641   510
25.1741   501
25.1841   532
25.1941   577
25.2041   542
25.2141   510
25.2241   534
25.2341   547
25.2441   541
25.2541   560
25.2641   546
25.2741   556
25.2841   540
25.2941   529
25.3041   490
25.3141   520
25.3241   530
25.3341   488
25.3441   524
25.3541   511
25.3641   537
25.3741   538
25.3841   539
25.3941   511
25.4041   517
25.4141   528
25.4241   480
25.4341   480
25.4441   501
25.4541   505
25.4641   487
25.4741   482
25.4841   460
25.4941   493
25.5041   504
25.5141   467
25.5241   500
25.5341   523
25.5441   486
25.5541   483
25.5641   486
25.5741   509
25.5841   488
25.5941   481
25.6041   488
25.6141   509
25.6241   510
25.6341   511
25.6441   478
25.6541   490
25.6641   463
25.6741   475
25.6841   462
25.6941   475
25.7041   460
25.7141   464
25.7241   490
25.7341   528
25.7441   469
25.7541   472
25.7641   488
25.7741   510
25.7841   507
25.7941   475
25.8041   468
25.8141   454
25.8241   502
25.8341   480
25.8441   483
25.8541   451
25.8641   473
25.8741   471
25.8841   482
25.8941   487
25.9041   462
25.9141   507
25.9241   442
25.9341   419
25.9441   493
25.9541   458
25.9641   473
25.9741   456
25.9841   492
25.9941   438
26.0041   457
26.0141   465
26.0241   472
26.0341   421
26.0441   466
26.0541   476
26.0641   472
26.0741   449
26.0841   460
26.0941   429
26.1041   418
26.1141   487
26.1241   475
26.1341   451
26.1441   432
26.1541   436
26.1641   444
26.1741   442
26.1841   448
26.1941   458
26.2041   456
26.2141   447
26.2241   472
26.2341   437
26.2441   476
26.2541   437
26.2641   498
26.2741   473
26.2841   427
26.2941   440
26.3041   460
26.3141   437
26.3241   431
26.3341   416
26.3441   447
26.3541   453
26.3641   456
26.3741   430
26.3841   472
26.3941   424
26.4041   434
26.4141   404
26.4241   425
26.4341   479
26.4441   491
26.4541   432
26.4641   454
26.4741   452
26.4841   450
26.4941   432
26.5041   426
26.5141   442
26.5241   430
26.5341   432
26.5441   422
26.5541   441
26.5641   430
26.5741   403
26.5841   421
26.5941   458
26.6041   444
26.6141   457
26.6241   431
26.6341   425
26.6441   439
26.6541   433
26.6641   454
26.6741   434
26.6841   432
26.6941   433
26.7041   450
26.7141   426
26.7241   441
26.7341   450
26.7441   425
26.7541   427
26.7641   467
26.7741   479
26.7841   431
26.7941   416
26.8041   423
26.8141   378
26.8241   422
26.8341   435
26.8441   398
26.8541   416
26.8641   427
26.8741   393
26.8841   398
26.8941   405
26.9041   427
26.9141   396
26.9241   361
26.9341   430
26.9441   403
26.9541   398
26.9641   424
26.9741   391
26.9841   429
26.9941   428
27.0041   433
27.0141   412
27.0241   408
27.0341   397
27.0441   405
27.0541   401
27.0641   389
27.0741   418
27.0841   411
27.0941   392
27.1041   390
27.1141   385
27.1241   411
27.1341   387
27.1441   397
27.1541   398
27.1641   411
27.1741   396
27.1841   417
27.1941   396
27.2041   402
27.2141   401
27.2241   421
27.2341   407
27.2441   429
27.2541   412
27.2641   406
27.2741   418
27.2841   393
27.2941   367
27.3041   362
27.3141   445
27.3241   385
27.3341   395
27.3441   416
27.3541   382
27.3641   404
27.3741   398
27.3841   391
27.3941   387
27.4041   449
27.4141   370
27.4241   401
27.4341   388
27.4441   424
27.4541   380
27.4641   367
27.4741   364
27.4841   375
27.4941   372
27.5041   368
27.5141   378
27.5241   372
27.5341   386
27.5441   398
27.5541   355
27.5641   387
27.5741   399
27.5841   383
27.5941   391
27.6041   365
27.6141   402
27.6241   388
27.6341   413
27.6441   374
27.6541   359
27.6641   408
27.6741   374
27.6841   365
27.6941   355
27.7041   342
27.7141   359
27.7241   343
27.7341   376
27.7441   384
27.7541   356
27.7641   360
27.7741   388
27.7841   385
27.7941   340
27.8041   367
27.8141   389
27.8241   383
27.8341   385
27.8441   383
27.8541   379
27.8641   383
27.8741   392
27.8841   348
27.8941   356
27.9041   359
27.9141   355
27.9241   361
27.9341   356
27.9441   334
27.9541   365
27.9641   363
27.9741   361
27.9841   372
27.9941   350
28.0041   375
28.0141   350
28.0241   333
28.0341   345
28.0441   335
28.0541   361
28.0641   358
28.0741   351
28.0841   324
28.0941   367
28.1041   341
28.1141   365
28.1241   341
28.1341   353
28.1441   369
28.1541   343
28.1641   329
28.1741   341
28.1841   348
28.1941   328
28.2041   347
28.2141   349
28.2241   352
28.2341   369
28.2441   371
28.2541   357
28.2641   369
28.2741   385
28.2841   353
28.2941   329
28.3041   327
28.3141   344
28.3241   330
28.3341   355
28.3441   379
28.3541   367
28.3641   340
28.3741   352
28.3841   326
28.3941   338
28.4041   322
28.4141   375
28.4241   320
28.4341   317
28.4441   318
28.4541   347
28.4641   332
28.4741   325
28.4841   354
28.4941   349
28.5041   344
28.5141   312
28.5241   335
28.5341   334
28.5441   341
28.5541   339
28.5641   303
28.5741   318
28.5841   319
28.5941   334
28.6041   312
28.6141   335
28.6241   341
28.6341   347
28.6441   317
28.6541   337
28.6641   323
28.6741   330
28.6841   317
28.6941   309
28.7041   323
28.7141   323
28.7241   311
28.7341   311
28.7441   372
28.7541   310
28.7641   304
28.7741   318
28.7841   337
28.7941   313
28.8041   318
28.8141   326
28.8241   313
28.8341   308
28.8441   321
28.8541   286
28.8641   291
28.8741   311
28.8841   340
28.8941   327
28.9041   323
28.9141   295
28.9241   293
28.9341   306
28.9441   306
28.9541   341
28.9641   305
28.9741   315
28.9841   302
28.9941   287
29.0041   314
29.0141   301
29.0241   330
29.0341   295
29.0441   299
29.0541   305
29.0641   288
29.0741   293
29.0841   277
29.0941   299
29.1041   297
29.1141   306
29.1241   288
29.1341   301
29.1441   291
29.1541   319
29.1641   304
29.1741   298
29.1841   291
29.1941   278
29.2041   274
29.2141   322
29.2241   285
29.2341   283
29.2441   312
29.2541   284
29.2641   296
29.2741   304
29.2841   287
29.2941   321
29.3041   293
29.3141   287
29.3241   294
29.3341   310
29.3441   301
29.3541   262
29.3641   310
29.3741   274
29.3841   290
29.3941   260
29.4041   282
29.4141   271
29.4241   296
29.4341   284
29.4441   318
29.4541   261
29.4641   272
29.4741   275
29.4841   313
29.4941   303
29.5041   281
29.5141   268
29.5241   272
29.5341   302
29.5441   243
29.5541   307
29.5641   274
29.5741   279
29.5841   286
29.5941   270
29.6041   277
29.6141   304
29.6241   280
29.6341   290
29.6441   268
29.6541   254
29.6641   265
29.6741   301
29.6841   278
29.6941   262
29.7041   276
29.7141   296
29.7241   272
29.7341   281
29.7441   290
29.7541   310
29.7641   310
29.7741   280
29.7841   261
29.7941   289
29.8041   288
29.8141   265
29.8241   287
29.8341   248
29.8441   247
29.8541   265
29.8641   272
29.8741   234
29.8841   261
29.8941   239
29.9041   228
29.9141   267
29.9241   275
29.9341   244
29.9441   274
29.9541   253
29.9641   262
29.9741   284
29.9841   250
29.9941   291
30.0041   261
30.0141   248
30.0241   242
30.0341   264
30.0441   233
30.0541   252
30.0641   257
30.0741   259
30.0841   241
30.0941   280
30.1041   253
30.1141   282
30.1241   281
30.1341   262
30.1441   273
30.1541   268
30.1641   247
30.1741   252
30.1841   224
30.1941   247
30.2041   264
30.2141   228
30.2241   251
30.2341   234
30.2441   264
30.2541   278
30.2641   266
30.2741   237
30.2841   234
30.2941   255
30.3041   235
30.3141   244
30.3241   260
30.3341   249
30.3441   251
30.3541   259
30.3641   238
30.3741   243
30.3841   257
30.3941   265
30.4041   247
30.4141   226
30.4241   242
30.4341   247
30.4441   261
30.4541   259
30.4641   263
30.4741   251
30.4841   236
30.4941   236
30.5041   258
30.5141   262
30.5241   229
30.5341   221
30.5441   217
30.5541   238
30.5641   227
30.5741   254
30.5841   240
30.5941   234
30.6041   237
30.6141   236
30.6241   243
30.6341   259
30.6441   244
30.6541   237
30.6641   228
30.6741   255
30.6841   249
30.6941   223
30.7041   236
30.7141   244
30.7241   233
30.7341   236
30.7441   246
30.7541   228
30.7641   221
30.7741   218
30.7841   266
30.7941   232
30.8041   226
30.8141   232
30.8241   208
30.8341   212
30.8441   243
30.8541   207
30.8641   212
30.8741   210
30.8841   245
30.8941   237
30.9041   229
30.9141   216
30.9241   214
30.9341   244
30.9441   244
30.9541   229
30.9641   225
30.9741   215
30.9841   227
30.9941   236
31.0041   220
31.0141   230
31.0241   234
31.0341   226
31.0441   228
31.0541   220
31.0641   229
31.0741   202
31.0841   213
31.0941   218
31.1041   222
31.1141   204
31.1241   230
31.1341   257
31.1441   224
31.1541   215
31.1641   207
31.1741   208
31.1841   225
31.1941   233
31.2041   229
31.2141   225
31.2241   224
31.2341   213
31.2441   195
31.2541   208
31.2641   224
31.2741   204
31.2841   225
31.2941   227
31.3041   194
31.3141   197
31.3241   221
31.3341   216
31.3441   221
31.3541   202
31.3641   230
31.3741   217
31.3841   204
31.3941   218
31.4041   198
31.4141   229
31.4241   191
31.4341   198
31.4441   192
31.4541   200
31.4641   196
31.4741   202
31.4841   189
31.4941   207
31.5041   183
31.5141   214
31.5241   188
31.5341   217
31.5441   200
31.5541   219
31.5641   203
31.5741   224
31.5841   214
31.5941   230
31.6041   204
31.6141   212
31.6241   189
31.6341   170
31.6441   202
31.6541   205
31.6641   177
31.6741   207
31.6841   187
31.6941   193
31.7041   187
31.7141   195
31.7241   191
31.7341   190
31.7441   202
31.7541   184
31.7641   215
31.7741   182
31.7841   190
31.7941   201
31.8041   219
31.8141   196
31.8241   221
31.8341   202
31.8441   229
31.8541   227
31.8641   193
31.8741   204
31.8841   201
31.8941   173
31.9041   218
31.9141   214
31.9241   160
31.9341   189
31.9441   208
31.9541   190
31.9641   163
31.9741   186
31.9841   181
31.9941   191
32.0041   179
32.0141   172
32.0241   184
32.0341   195
32.0441   191
32.0541   178
32.0641   189
32.0741   191
32.0841   175
32.0941   177
32.1041   182
32.1141   179
32.1241   193
32.1341   176
32.1441   207
32.1541   184
32.1641   213
32.1741   179
32.1841   192
32.1941   205
32.2041   197
32.2141   183
32.2241   209
32.2341   162
32.2441   173
32.2541   176
32.2641   164
32.2741   172
32.2841   174
32.2941   170
32.3041   195
32.3141   182
32.3241   157
32.3341   178
32.3441   163
32.3541   175
32.3641   163
32.3741   190
32.3841   172
32.3941   172
32.4041   156
32.4141   178
32.4241   154
32.4341   164
32.4441   195
32.4541   182
32.4641   178
32.4741   176
32.4841   182
32.4941   173
32.5041   184
32.5141   176
32.5241   160
32.5341   159
32.5441   181
32.5541   187
32.5641   191
32.5741   166
32.5841   172
32.5941   174
32.6041   154
32.6141   147
32.6241   155
32.6341   154
32.6441   164
32.6541   177
32.6641   185
32.6741   148
32.6841   164
32.6941   172
32.7041   166
32.7141   135
32.7241   159
32.7341   151
32.7441   171
32.7541   166
32.7641   159
32.7741   158
32.7841   176
32.7941   171
32.8041   158
32.8141   162
32.8241   156
32.8341   151
32.8441   160
32.8541   154
32.8641   156
32.8741   139
32.8841   167
32.8941   171
32.9041   170
32.9141   170
32.9241   195
32.9341   151
32.9441   158
32.9541   163
32.9641   151
32.9741   144
32.9841   149
32.9941   168
33.0041   163
33.0141   152
33.0241   158
33.0341   145
33.0441   167
33.0541   157
33.0641   142
33.0741   143
33.0841   160
33.0941   157
33.1041   142
33.1141   149
33.1241   137
33.1341   165
33.1441   157
33.1541   162
33.1641   153
33.1741   151
33.1841   149
33.1941   136
33.2041   143
33.2141   147
33.2241   156
33.2341   162
33.2441   146
33.2541   147
33.2641   150
33.2741   130
33.2841   132
33.2941   157
33.3041   144
33.3141   154
33.3241   136
33.3341   142
33.3441   152
33.3541   161
33.3641   145
33.3741   141
33.3841   160
33.3941   160
33.4041   129
33.4141   132
33.4241   150
33.4341   147
33.4441   141
33.4541   140
33.4641   133
33.4741   148
33.4841   143
33.4941   150
33.5041   151
33.5141   163
33.5241   142
33.5341   162
33.5441   157
33.5541   138
33.5641   137
33.5741   142
33.5841   141
33.5941   145
33.6041   137
33.6141   130
33.6241   141
33.6341   127
33.6441   128
33.6541   141
33.6641   131
33.6741   126
33.6841   142
33.6941   123
33.7041   112
33.7141   141
33.7241   135
33.7341   139
33.7441   129
33.7541   141
33.7641   137
33.7741   151
33.7841   132
33.7941   123
33.8041   126
33.8141   125
33.8241   146
33.8341   138
33.8441   126
33.8541   128
33.8641   121
33.8741   103
33.8841   126
33.8941   142
33.9041   148
33.9141   127
33.9241   132
33.9341   129
33.9441   123
33.9541   129
33.9641   126
33.9741   123
33.9841   131
33.9941   137
34.0041   116
34.0141   139
34.0241   128
34.0341   141
34.0441   140
34.0541   149
34.0641   134
34.0741   131
34.0841   125
34.0941   126
34.1041   109
34.1141   121
34.1241   131
34.1341   125
34.1441   114
34.1541   130
34.1641   123
34.1741   130
34.1841   127
34.1941    98
34.2041   136
34.2141   136
34.2241   113
34.2341   111
34.2441   128
34.2541   116
34.2641   126
34.2741   138
34.2841   118
34.2941   109
34.3041   132
34.3141   124
34.3241   119
34.3341   146
34.3441   119
34.3541   110
34.3641   123
34.3741   115
34.3841   115
34.3941   126
34.4041   133
34.4141   129
34.4241   109
34.4341    94
34.4441   102
34.4541   127
34.4641   107
34.4741   114
34.4841   115
34.4941   107
34.5041   114
34.5141   111
34.5241   119
34.5341   106
34.5441   116
34.5541   126
34.5641   101
34.5741   138
34.5841   131
34.5941   110
34.6041   114
34.6141   106
34.6241   118
34.6341   117
34.6441   124
34.6541   108
34.6641    95
34.6741   105
34.6841   114
34.6941   118
34.7041   123
34.7141   120
34.7241   109
34.7341   116
34.7441    96
34.7541   112
34.7641    92
34.7741   118
34.7841    93
34.7941   107
34.8041    97
34.8141   101
34.8241   100
34.8341    97
34.8441    98
34.8541    99
34.8641    97
34.8741   123
34.8841    93
34.8941   115
34.9041   117
34.9141   101
34.9241    89
34.9341    96
34.9441    95
34.9541   111
34.9641    98
34.9741   102
34.9841    93
34.9941   109
35.0041   103
35.0141   111
35.0241   111
35.0341    96
35.0441   131
35.0541   119
35.0641    94
35.0741    93
35.0841    96
35.0941    89
35.1041    91
35.1141    96
35.1241    89
35.1341    90
35.1441   112
35.1541   116
35.1641    93
35.1741   102
35.1841   104
35.1941   116
35.2041   100
35.2141    91
35.2241    99
35.2341   100
35.2441    93
35.2541    92
35.2641    85
35.2741    92
35.2841    89
35.2941    96
35.3041   105
35.3141   100
35.3241   102
35.3341    83
35.3441    92
35.3541   106
35.3641   101
35.3741    88
35.3841    98
35.3941   102
35.4041    92
35.4141   112
35.4241   104
35.4341   109
35.4441   105
35.4541    95
35.4641    94
35.4741    86
35.4841    74
35.4941    92
35.5041    94
35.5141   109
35.5241   130
35.5341   109
35.5441    97
35.5541    87
35.5641   104
35.5741    97
35.5841    88
35.5941   113
35.6041   109
35.6141    86
35.6241    94
35.6341    94
35.6441    97
35.6541    78
35.6641   102
35.6741    87
35.6841    99
35.6941    94
35.7041    96
35.7141    94
35.7241    75
35.7341    87
35.7441   103
35.7541    86
35.7641    91
35.7741    88
35.7841    83
35.7941    89
35.8041    72
35.8141    93
35.8241    89
35.8341    83
35.8441    91
35.8541    95
35.8641   106
35.8741    88
35.8841    79
35.8941    92
35.9041    91
35.9141    83
35.9241    88
35.9341    86
35.9441    74
35.9541    69
35.9641    68
35.9741    85
35.9841    81
35.9941    92
36.0041    95
36.0141    80
36.0241    77
36.0341    73
36.0441    71
36.0541    75
36.0641    87
36.0741    79
36.0841    81
36.0941    83
36.1041    92
36.1141    85
36.1241    83
36.1341    69
36.1441    90
36.1541    83
36.1641    80
36.1741    64
36.1841    85
36.1941    73
36.2041    76
36.2141    78
36.2241    65
36.2341    70
36.2441    74
36.2541    69
36.2641    88
36.2741    74
36.2841    93
36.2941    65
36.3041    78
36.3141    71
36.3241    63
36.3341    74
36.3441    67
36.3541    93
36.3641    84
36.3741    78
36.3841    70
36.3941    78
36.4041    72
36.4141    64
36.4241    89
36.4341    73
36.4441    87
36.4541    72
36.4641    88
36.4741    81
36.4841    78
36.4941    78
36.5041    91
36.5141    88
36.5241    81
36.5341    74
36.5441    72
36.5541    82
36.5641    75
36.5741    64
36.5841    72
36.5941    65
36.6041    63
36.6141    82
36.6241    75
36.6341    60
36.6441    63
36.6541    55
36.6641    69
36.6741    62
36.6841    89
36.6941    67
36.7041    63
36.7141    71
36.7241    70
36.7341    61
36.7441    66
36.7541    73
36.7641    74
36.7741    74
36.7841    63
36.7941    76
36.8041    77
36.8141    70
36.8241    58
36.8341    56
36.8441    69
36.8541    66
36.8641    67
36.8741    73
36.8841    69
36.8941    66
36.9041    53
36.9141    73
36.9241    77
36.9341    75
36.9441    80
36.9541    64
36.9641    68
36.9741    73
36.9841    81
36.9941    64
37.0041    54
37.0141    63
37.0241    77
37.0341    64
37.0441    70
37.0541    62
37.0641    67
37.0741    58
37.0841    50
37.0941    61
37.1041    64
37.1141    68
37.1241    66
37.1341    58
37.1441    80
37.1541    72
37.1641    65
37.1741    78
37.1841    68
37.1941    49
37.2041    66
37.2141    77
37.2241    66
37.2341    65
37.2441    73
37.2541    60
37.2641    55
37.2741    57
37.2841    58
37.2941    49
37.3041    68
37.3141    67
37.3241    58
37.3341    62
37.3441    68
37.3541    77
37.3641    69
37.3741    59
37.3841    55
37.3941    78
37.4041    57
37.4141    49
37.4241    61
37.4341    65
37.4441    67
37.4541    50
37.4641    58
37.4741    53
37.4841    54
37.4941    68
37.5041    60
37.5141    58
37.5241    69
37.5341    54
37.5441    59
37.5541    55
37.5641    48
37.5741    72
37.5841    73
37.5941    51
37.6041    61
37.6141    63
37.6241    56
37.6341    63
37.6441    53
37.6541    68
37.6641    55
37.6741    38
37.6841    43
37.6941    50
37.7041    60
37.7141    59
37.7241    49
37.7341    52
37.7441    36
37.7541    48
37.7641    61
37.7741    62
37.7841    58
37.7941    42
37.8041    51
37.8141    54
37.8241    58
37.8341    68
37.8441    68
37.8541    61
37.8641    49
37.8741    49
37.8841    39
37.8941    59
37.9041    48
37.9141    46
37.9241    43
37.9341    42
37.9441    59
37.9541    51
37.9641    56
37.9741    41
37.9841    48
37.9941    47
38.0041    45
38.0141    44
38.0241    49
38.0341    55
38.0441    46
38.0541    56
38.0641    66
38.0741    51
38.0841    59
38.0941    60
38.1041    51
38.1141    52
38.1241    46
38.1341    47
38.1441    48
38.1541    59
38.1641    45
38.1741    52
38.1841    56
38.1941    53
38.2041    47
38.2141    47
38.2241    49
38.2341    52
38.2441    55
38.2541    53
38.2641    50
38.2741    44
38.2841    33
38.2941    45
38.3041    51
38.3141    52
38.3241    50
38.3341    41
38.3441    49
38.3541    48
38.3641    45
38.3741    40
38.3841    41
38.3941    41
38.4041    47
38.4141    57
38.4241    49
38.4341    48
38.4441    45
38.4541    33
38.4641    47
38.4741    58
38.4841    50
38.4941    45
38.5041    44
38.5141    46
38.5241    37
38.5341    48
38.5441    46
38.5541    37
38.5641    36
38.5741    41
38.5841    43
38.5941    50
38.6041    42
38.6141    45
38.6241    57
38.6341    44
38.6441    39
38.6541    46
38.6641    49
38.6741    48
38.6841    38
38.6941    34
38.7041    40
38.7141    42
38.7241    36
38.7341    35
38.7441    36
38.7541    37
38.7641    43
38.7741    38
38.7841    34
38.7941    41
38.8041    39
38.8141    44
38.8241    34
38.8341    51
38.8441    38
38.8541    31
38.8641    38
38.8741    30
38.8841    29
38.8941    41
38.9041    41
38.9141    42
38.9241    44
38.9341    44
38.9441    39
38.9541    30
38.9641    41
38.9741    33
38.9841    38
38.9941    41
39.0041    48
39.0141    50
39.0241    40
39.0341    41
39.0441    37
39.0541    35
39.0641    38
39.0741    39
39.0841    33
39.0941    32
39.1041    32
39.1141    35
39.1241    39
39.1341    38
39.1441    35
39.1541    29
39.1641    39
39.1741    35
39.1841    30
39.1941    33
39.2041    24
39.2141    39
39.2241    29
39.2341    33
39.2441    54
39.2541    39
39.2641    35
39.2741    32
39.2841    35
39.2941    45
39.3041    35
39.3141    27
39.3241    32
39.3341    51
39.3441    35
39.3541    34
39.3641    31
39.3741    43
39.3841    31
39.3941    30
39.4041    29
39.4141    31
39.4241    29
39.4341    37
39.4441    46
39.4541    30
39.4641    42
39.4741    29
39.4841    24
39.4941    30
39.5041    31
39.5141    34
39.5241    23
39.5341    54
39.5441    25
39.5541    31
39.5641    24
39.5741    34
39.5841    33
39.5941    33
39.6041    26
39.6141    31
39.6241    37
39.6341    30
39.6441    28
39.6541    38
39.6641    27
39.6741    26
39.6841    40
39.6941    29
39.7041    32
39.7141    32
39.7241    24
39.7341    31
39.7441    36
39.7541    24
39.7641    21
39.7741    25
39.7841    27
39.7941    28
39.8041    24
39.8141    26
39.8241    39
39.8341    33
39.8441    26
39.8541    28
39.8641    35
39.8741    31
39.8841    20
39.8941    39
39.9041    29
39.9141    33
39.9241    39
39.9341    28
39.9441    19
39.9541    25
39.9641    24
39.9741    23
39.9841    15
39.9941    29
