Bruker Nano GmbH Berlin, Germany
Esprit 1.9

Date: 5/14/2021 3:47:15 PM
Real time: 22759
Life time: 21374
Pulse density: 85184


Detector type: XFlash 430
Window type: Custom type
Detector thickness: 0.45
Si dead layer:0.029

Calibration, lin.: 10
Calibration, abs.: -955.9
Mn FWHM: 137.05
Fano factor: 0.121
Channels: 4096

Energy Counts
-0.9559     0
-0.9459     0
-0.9359     0
-0.9259     0
-0.9159     0
-0.9059     0
-0.8959     0
-0.8859     0
-0.8759     0
-0.8659     0
-0.8559     0
-0.8459     0
-0.8359     0
-0.8259     0
-0.8159     0
-0.8059     0
-0.7959     0
-0.7859     0
-0.7759     0
-0.7659     0
-0.7559     0
-0.7459     0
-0.7359     0
-0.7259     0
-0.7159     0
-0.7059     0
-0.6959     0
-0.6859     0
-0.6759     0
-0.6659     0
-0.6559     0
-0.6459     0
-0.6359     0
-0.6259     0
-0.6159     0
-0.6059     0
-0.5959     0
-0.5859     0
-0.5759     0
-0.5659     0
-0.5559     0
-0.5459     0
-0.5359     0
-0.5259     0
-0.5159     0
-0.5059     0
-0.4959     0
-0.4859     0
-0.4759     0
-0.4659     0
-0.4559     0
-0.4459     0
-0.4359     0
-0.4259     0
-0.4159     0
-0.4059     0
-0.3959     0
-0.3859     0
-0.3759     0
-0.3659     0
-0.3559     0
-0.3459     0
-0.3359     0
-0.3259     0
-0.3159     0
-0.3059     0
-0.2959     0
-0.2859     0
-0.2759     0
-0.2659     0
-0.2559     0
-0.2459     0
-0.2359     0
-0.2259     0
-0.2159     0
-0.2059     0
-0.1959     0
-0.1859     0
-0.1759     0
-0.1659     0
-0.1559     0
-0.1459     0
-0.1359     0
-0.1259     2
-0.1159     6
-0.1059    15
-0.0959    52
-0.0859   254
-0.0759   886
-0.0659  2515
-0.0559  6192
-0.0459 13614
-0.0359 25216
-0.0259 40702
-0.0159 55479
-0.0059 65514
 0.0041 65508
 0.0141 56971
 0.0241 41926
 0.0341 26675
 0.0441 14497
 0.0541  6861
 0.0641  2712
 0.0741   893
 0.0841   311
 0.0941    85
 0.1041    28
 0.1141    15
 0.1241     9
 0.1341     9
 0.1441    11
 0.1541     9
 0.1641     6
 0.1741    27
 0.1841   211
 0.1941   407
 0.2041   402
 0.2141   385
 0.2241   359
 0.2341   412
 0.2441   402
 0.2541   419
 0.2641   388
 0.2741   406
 0.2841   430
 0.2941   382
 0.3041   399
 0.3141   375
 0.3241   355
 0.3341   371
 0.3441   373
 0.3541   360
 0.3641   385
 0.3741   407
 0.3841   341
 0.3941   337
 0.4041   353
 0.4141   374
 0.4241   356
 0.4341   349
 0.4441   336
 0.4541   331
 0.4641   339
 0.4741   339
 0.4841   341
 0.4941   348
 0.5041   343
 0.5141   314
 0.5241   329
 0.5341   337
 0.5441   317
 0.5541   332
 0.5641   334
 0.5741   316
 0.5841   311
 0.5941   323
 0.6041   315
 0.6141   301
 0.6241   311
 0.6341   316
 0.6441   299
 0.6541   306
 0.6641   316
 0.6741   309
 0.6841   321
 0.6941   329
 0.7041   311
 0.7141   298
 0.7241   301
 0.7341   283
 0.7441   268
 0.7541   276
 0.7641   293
 0.7741   287
 0.7841   291
 0.7941   298
 0.8041   298
 0.8141   287
 0.8241   270
 0.8341   259
 0.8441   259
 0.8541   274
 0.8641   274
 0.8741   299
 0.8841   277
 0.8941   273
 0.9041   278
 0.9141   272
 0.9241   266
 0.9341   259
 0.9441   257
 0.9541   254
 0.9641   250
 0.9741   251
 0.9841   242
 0.9941   254
 1.0041   260
 1.0141   252
 1.0241   250
 1.0341   258
 1.0441   239
 1.0541   249
 1.0641   241
 1.0741   255
 1.0841   267
 1.0941   242
 1.1041   255
 1.1141   229
 1.1241   243
 1.1341   244
 1.1441   248
 1.1541   245
 1.1641   235
 1.1741   243
 1.1841   233
 1.1941   229
 1.2041   247
 1.2141   291
 1.2241   268
 1.2341   231
 1.2441   250
 1.2541   261
 1.2641   246
 1.2741   225
 1.2841   227
 1.2941   250
 1.3041   244
 1.3141   226
 1.3241   252
 1.3341   242
 1.3441   227
 1.3541   253
 1.3641   241
 1.3741   224
 1.3841   235
 1.3941   245
 1.4041   222
 1.4141   217
 1.4241   251
 1.4341   249
 1.4441   230
 1.4541   253
 1.4641   229
 1.4741   239
 1.4841   227
 1.4941   241
 1.5041   250
 1.5141   240
 1.5241   221
 1.5341   221
 1.5441   236
 1.5541   197
 1.5641   209
 1.5741   220
 1.5841   212
 1.5941   193
 1.6041   225
 1.6141   223
 1.6241   231
 1.6341   226
 1.6441   244
 1.6541   291
 1.6641   315
 1.6741   354
 1.6841   439
 1.6941   514
 1.7041   669
 1.7141   805
 1.7241   857
 1.7341   946
 1.7441   878
 1.7541   857
 1.7641   811
 1.7741   651
 1.7841   551
 1.7941   416
 1.8041   408
 1.8141   363
 1.8241   336
 1.8341   282
 1.8441   259
 1.8541   263
 1.8641   277
 1.8741   258
 1.8841   224
 1.8941   230
 1.9041   232
 1.9141   237
 1.9241   237
 1.9341   217
 1.9441   234
 1.9541   262
 1.9641   264
 1.9741   282
 1.9841   246
 1.9941   270
 2.0041   254
 2.0141   262
 2.0241   311
 2.0341   248
 2.0441   244
 2.0541   242
 2.0641   217
 2.0741   217
 2.0841   226
 2.0941   223
 2.1041   205
 2.1141   207
 2.1241   218
 2.1341   234
 2.1441   223
 2.1541   186
 2.1641   218
 2.1741   190
 2.1841   194
 2.1941   204
 2.2041   194
 2.2141   177
 2.2241   195
 2.2341   180
 2.2441   192
 2.2541   194
 2.2641   186
 2.2741   203
 2.2841   187
 2.2941   177
 2.3041   183
 2.3141   181
 2.3241   187
 2.3341   173
 2.3441   193
 2.3541   199
 2.3641   191
 2.3741   199
 2.3841   181
 2.3941   202
 2.4041   167
 2.4141   157
 2.4241   162
 2.4341   195
 2.4441   200
 2.4541   177
 2.4641   192
 2.4741   183
 2.4841   180
 2.4941   185
 2.5041   178
 2.5141   186
 2.5241   191
 2.5341   202
 2.5441   197
 2.5541   193
 2.5641   183
 2.5741   181
 2.5841   186
 2.5941   171
 2.6041   159
 2.6141   172
 2.6241   161
 2.6341   203
 2.6441   159
 2.6541   162
 2.6641   163
 2.6741   184
 2.6841   174
 2.6941   165
 2.7041   165
 2.7141   176
 2.7241   193
 2.7341   153
 2.7441   163
 2.7541   165
 2.7641   164
 2.7741   174
 2.7841   169
 2.7941   185
 2.8041   175
 2.8141   161
 2.8241   176
 2.8341   159
 2.8441   147
 2.8541   176
 2.8641   167
 2.8741   165
 2.8841   167
 2.8941   178
 2.9041   146
 2.9141   141
 2.9241   181
 2.9341   158
 2.9441   171
 2.9541   158
 2.9641   172
 2.9741   195
 2.9841   149
 2.9941   144
 3.0041   163
 3.0141   160
 3.0241   141
 3.0341   151
 3.0441   131
 3.0541   139
 3.0641   141
 3.0741   151
 3.0841   140
 3.0941   172
 3.1041   128
 3.1141   148
 3.1241   130
 3.1341   131
 3.1441   136
 3.1541   122
 3.1641   124
 3.1741   131
 3.1841   151
 3.1941   111
 3.2041   119
 3.2141   129
 3.2241   149
 3.2341   145
 3.2441   141
 3.2541   134
 3.2641   135
 3.2741   160
 3.2841   151
 3.2941   148
 3.3041   151
 3.3141   162
 3.3241   146
 3.3341   170
 3.3441   144
 3.3541   148
 3.3641   142
 3.3741   127
 3.3841   145
 3.3941   150
 3.4041   128
 3.4141   132
 3.4241   125
 3.4341   131
 3.4441   135
 3.4541   113
 3.4641   112
 3.4741   129
 3.4841   118
 3.4941   118
 3.5041   132
 3.5141   139
 3.5241   123
 3.5341   143
 3.5441   149
 3.5541   161
 3.5641   166
 3.5741   179
 3.5841   235
 3.5941   262
 3.6041   354
 3.6141   418
 3.6241   553
 3.6341   658
 3.6441   748
 3.6541   906
 3.6641  1013
 3.6741  1052
 3.6841  1165
 3.6941  1133
 3.7041  1075
 3.7141  1028
 3.7241   949
 3.7341   802
 3.7441   676
 3.7541   509
 3.7641   396
 3.7741   308
 3.7841   247
 3.7941   201
 3.8041   183
 3.8141   164
 3.8241   126
 3.8341   123
 3.8441   125
 3.8541   102
 3.8641   120
 3.8741   121
 3.8841   118
 3.8941   111
 3.9041   115
 3.9141   144
 3.9241   156
 3.9341   147
 3.9441   155
 3.9541   183
 3.9641   178
 3.9741   204
 3.9841   215
 3.9941   229
 4.0041   205
 4.0141   223
 4.0241   211
 4.0341   218
 4.0441   230
 4.0541   191
 4.0641   189
 4.0741   165
 4.0841   154
 4.0941   141
 4.1041   115
 4.1141   127
 4.1241   109
 4.1341   105
 4.1441   103
 4.1541   112
 4.1641    95
 4.1741   104
 4.1841   102
 4.1941    96
 4.2041    74
 4.2141    93
 4.2241    99
 4.2341    83
 4.2441    93
 4.2541    89
 4.2641    83
 4.2741    89
 4.2841   111
 4.2941    74
 4.3041    85
 4.3141    95
 4.3241    82
 4.3341    94
 4.3441    99
 4.3541    96
 4.3641   123
 4.3741   119
 4.3841   107
 4.3941   151
 4.4041   176
 4.4141   202
 4.4241   246
 4.4341   286
 4.4441   333
 4.4541   371
 4.4641   421
 4.4741   474
 4.4841   537
 4.4941   559
 4.5041   596
 4.5141   583
 4.5241   511
 4.5341   501
 4.5441   476
 4.5541   406
 4.5641   356
 4.5741   330
 4.5841   268
 4.5941   234
 4.6041   204
 4.6141   165
 4.6241   149
 4.6341   125
 4.6441   121
 4.6541   114
 4.6641   106
 4.6741    86
 4.6841   112
 4.6941    99
 4.7041    91
 4.7141    91
 4.7241    78
 4.7341   101
 4.7441    83
 4.7541    91
 4.7641    86
 4.7741    97
 4.7841   110
 4.7941   116
 4.8041   100
 4.8141    98
 4.8241   118
 4.8341   144
 4.8441   116
 4.8541   124
 4.8641   143
 4.8741   145
 4.8841   156
 4.8941   169
 4.9041   172
 4.9141   204
 4.9241   176
 4.9341   177
 4.9441   168
 4.9541   167
 4.9641   144
 4.9741   176
 4.9841   140
 4.9941   130
 5.0041   133
 5.0141   112
 5.0241   119
 5.0341   116
 5.0441   119
 5.0541    89
 5.0641   104
 5.0741    99
 5.0841   101
 5.0941    93
 5.1041   113
 5.1141   111
 5.1241    96
 5.1341    86
 5.1441   100
 5.1541   117
 5.1641   118
 5.1741    97
 5.1841    95
 5.1941    97
 5.2041   108
 5.2141   104
 5.2241   106
 5.2341    94
 5.2441   101
 5.2541   111
 5.2641   100
 5.2741    97
 5.2841    94
 5.2941   100
 5.3041   104
 5.3141    92
 5.3241   100
 5.3341    85
 5.3441   116
 5.3541   113
 5.3641   117
 5.3741   120
 5.3841   118
 5.3941   125
 5.4041   102
 5.4141   116
 5.4241   119
 5.4341   116
 5.4441   112
 5.4541   118
 5.4641   104
 5.4741    92
 5.4841   108
 5.4941   111
 5.5041   114
 5.5141   100
 5.5241   100
 5.5341    99
 5.5441    96
 5.5541    94
 5.5641   131
 5.5741   109
 5.5841   121
 5.5941   100
 5.6041   122
 5.6141   110
 5.6241   118
 5.6341    98
 5.6441   103
 5.6541   113
 5.6641   119
 5.6741   122
 5.6841   112
 5.6941   109
 5.7041   112
 5.7141   108
 5.7241   117
 5.7341   134
 5.7441   120
 5.7541   117
 5.7641   118
 5.7741   133
 5.7841   145
 5.7941   149
 5.8041   147
 5.8141   157
 5.8241   154
 5.8341   183
 5.8441   209
 5.8541   194
 5.8641   197
 5.8741   213
 5.8841   171
 5.8941   206
 5.9041   205
 5.9141   227
 5.9241   193
 5.9341   175
 5.9441   185
 5.9541   181
 5.9641   203
 5.9741   156
 5.9841   161
 5.9941   206
 6.0041   133
 6.0141   133
 6.0241   150
 6.0341   165
 6.0441   121
 6.0541   154
 6.0641   131
 6.0741   126
 6.0841   119
 6.0941   119
 6.1041   121
 6.1141   142
 6.1241   127
 6.1341   136
 6.1441   143
 6.1541   150
 6.1641   124
 6.1741   144
 6.1841   149
 6.1941   156
 6.2041   172
 6.2141   187
 6.2241   237
 6.2341   282
 6.2441   397
 6.2541   500
 6.2641   652
 6.2741   882
 6.2841  1046
 6.2941  1425
 6.3041  1847
 6.3141  2305
 6.3241  2764
 6.3341  3264
 6.3441  3862
 6.3541  4471
 6.3641  4925
 6.3741  5333
 6.3841  5617
 6.3941  5860
 6.4041  5650
 6.4141  5605
 6.4241  5183
 6.4341  4744
 6.4441  4254
 6.4541  3719
 6.4641  3176
 6.4741  2630
 6.4841  2173
 6.4941  1680
 6.5041  1329
 6.5141  1013
 6.5241   738
 6.5341   550
 6.5441   459
 6.5541   330
 6.5641   262
 6.5741   191
 6.5841   194
 6.5941   193
 6.6041   178
 6.6141   175
 6.6241   182
 6.6341   177
 6.6441   196
 6.6541   167
 6.6641   210
 6.6741   187
 6.6841   185
 6.6941   193
 6.7041   169
 6.7141   198
 6.7241   167
 6.7341   158
 6.7441   177
 6.7541   186
 6.7641   158
 6.7741   187
 6.7841   146
 6.7941   150
 6.8041   178
 6.8141   172
 6.8241   156
 6.8341   175
 6.8441   162
 6.8541   201
 6.8641   185
 6.8741   192
 6.8841   205
 6.8941   213
 6.9041   243
 6.9141   265
 6.9241   287
 6.9341   338
 6.9441   358
 6.9541   471
 6.9641   465
 6.9741   520
 6.9841   628
 6.9941   715
 7.0041   799
 7.0141   838
 7.0241   952
 7.0341   935
 7.0441  1028
 7.0541  1011
 7.0641   964
 7.0741   940
 7.0841   952
 7.0941   810
 7.1041   788
 7.1141   744
 7.1241   641
 7.1341   551
 7.1441   491
 7.1541   408
 7.1641   357
 7.1741   318
 7.1841   299
 7.1941   288
 7.2041   233
 7.2141   238
 7.2241   249
 7.2341   214
 7.2441   209
 7.2541   211
 7.2641   206
 7.2741   239
 7.2841   268
 7.2941   253
 7.3041   283
 7.3141   283
 7.3241   289
 7.3341   343
 7.3441   346
 7.3541   328
 7.3641   359
 7.3741   355
 7.3841   363
 7.3941   416
 7.4041   376
 7.4141   351
 7.4241   362
 7.4341   348
 7.4441   342
 7.4541   323
 7.4641   306
 7.4741   269
 7.4841   278
 7.4941   262
 7.5041   256
 7.5141   237
 7.5241   240
 7.5341   246
 7.5441   239
 7.5541   197
 7.5641   218
 7.5741   220
 7.5841   194
 7.5941   227
 7.6041   234
 7.6141   224
 7.6241   228
 7.6341   220
 7.6441   225
 7.6541   231
 7.6641   234
 7.6741   262
 7.6841   239
 7.6941   228
 7.7041   246
 7.7141   254
 7.7241   249
 7.7341   261
 7.7441   284
 7.7541   273
 7.7641   287
 7.7741   276
 7.7841   275
 7.7941   278
 7.8041   290
 7.8141   306
 7.8241   313
 7.8341   333
 7.8441   323
 7.8541   370
 7.8641   354
 7.8741   347
 7.8841   382
 7.8941   372
 7.9041   436
 7.9141   408
 7.9241   462
 7.9341   450
 7.9441   468
 7.9541   514
 7.9641   527
 7.9741   586
 7.9841   655
 7.9941   626
 8.0041   692
 8.0141   735
 8.0241   817
 8.0341   882
 8.0441   913
 8.0541  1018
 8.0641  1062
 8.0741  1140
 8.0841  1200
 8.0941  1292
 8.1041  1364
 8.1141  1411
 8.1241  1516
 8.1341  1531
 8.1441  1517
 8.1541  1582
 8.1641  1627
 8.1741  1668
 8.1841  1565
 8.1941  1710
 8.2041  1717
 8.2141  1759
 8.2241  1721
 8.2341  1638
 8.2441  1733
 8.2541  1760
 8.2641  1826
 8.2741  1930
 8.2841  2013
 8.2941  2119
 8.3041  2294
 8.3141  2501
 8.3241  2715
 8.3341  2887
 8.3441  3102
 8.3541  3361
 8.3641  3441
 8.3741  3524
 8.3841  3633
 8.3941  3693
 8.4041  3619
 8.4141  3568
 8.4241  3354
 8.4341  3174
 8.4441  2890
 8.4541  2599
 8.4641  2379
 8.4741  2065
 8.4841  1892
 8.4941  1624
 8.5041  1376
 8.5141  1198
 8.5241  1016
 8.5341   872
 8.5441   732
 8.5541   669
 8.5641   627
 8.5741   560
 8.5841   541
 8.5941   530
 8.6041   484
 8.6141   481
 8.6241   471
 8.6341   447
 8.6441   456
 8.6541   441
 8.6641   451
 8.6741   461
 8.6841   436
 8.6941   427
 8.7041   465
 8.7141   415
 8.7241   409
 8.7341   385
 8.7441   427
 8.7541   370
 8.7641   380
 8.7741   374
 8.7841   363
 8.7941   342
 8.8041   357
 8.8141   362
 8.8241   310
 8.8341   332
 8.8441   334
 8.8541   343
 8.8641   369
 8.8741   372
 8.8841   338
 8.8941   365
 8.9041   363
 8.9141   388
 8.9241   370
 8.9341   350
 8.9441   399
 8.9541   372
 8.9641   375
 8.9741   408
 8.9841   429
 8.9941   440
 9.0041   447
 9.0141   439
 9.0241   467
 9.0341   436
 9.0441   456
 9.0541   507
 9.0641   472
 9.0741   513
 9.0841   525
 9.0941   544
 9.1041   591
 9.1141   596
 9.1241   628
 9.1341   632
 9.1441   684
 9.1541   715
 9.1641   733
 9.1741   756
 9.1841   771
 9.1941   790
 9.2041   897
 9.2141   907
 9.2241   971
 9.2341   988
 9.2441  1029
 9.2541  1072
 9.2641  1120
 9.2741  1189
 9.2841  1295
 9.2941  1259
 9.3041  1341
 9.3141  1402
 9.3241  1500
 9.3341  1507
 9.3441  1519
 9.3541  1520
 9.3641  1607
 9.3741  1689
 9.3841  1684
 9.3941  1691
 9.4041  1726
 9.4141  1800
 9.4241  1808
 9.4341  1835
 9.4441  1873
 9.4541  1892
 9.4641  1865
 9.4741  1898
 9.4841  1921
 9.4941  1972
 9.5041  1978
 9.5141  2047
 9.5241  2125
 9.5341  2226
 9.5441  2297
 9.5541  2406
 9.5641  2438
 9.5741  2645
 9.5841  2769
 9.5941  2874
 9.6041  3091
 9.6141  3123
 9.6241  3077
 9.6341  3241
 9.6441  3359
 9.6541  3255
 9.6641  3354
 9.6741  3402
 9.6841  3298
 9.6941  3213
 9.7041  3077
 9.7141  2959
 9.7241  2838
 9.7341  2705
 9.7441  2499
 9.7541  2254
 9.7641  2144
 9.7741  2042
 9.7841  2005
 9.7941  1857
 9.8041  1722
 9.8141  1694
 9.8241  1700
 9.8341  1608
 9.8441  1622
 9.8541  1569
 9.8641  1585
 9.8741  1603
 9.8841  1657
 9.8941  1633
 9.9041  1640
 9.9141  1604
 9.9241  1660
 9.9341  1606
 9.9441  1598
 9.9541  1621
 9.9641  1612
 9.9741  1553
 9.9841  1478
 9.9941  1407
10.0041  1356
10.0141  1262
10.0241  1136
10.0341  1034
10.0441   923
10.0541   863
10.0641   784
10.0741   737
10.0841   672
10.0941   597
10.1041   528
10.1141   485
10.1241   491
10.1341   433
10.1441   414
10.1541   387
10.1641   340
10.1741   368
10.1841   335
10.1941   315
10.2041   308
10.2141   319
10.2241   328
10.2341   295
10.2441   284
10.2541   294
10.2641   262
10.2741   239
10.2841   230
10.2941   217
10.3041   234
10.3141   220
10.3241   218
10.3341   225
10.3441   219
10.3541   199
10.3641   201
10.3741   201
10.3841   207
10.3941   204
10.4041   211
10.4141   218
10.4241   199
10.4341   190
10.4441   204
10.4541   203
10.4641   227
10.4741   228
10.4841   215
10.4941   214
10.5041   205
10.5141   200
10.5241   212
10.5341   243
10.5441   243
10.5541   233
10.5641   260
10.5741   232
10.5841   246
10.5941   254
10.6041   284
10.6141   274
10.6241   278
10.6341   268
10.6441   266
10.6541   274
10.6641   292
10.6741   277
10.6841   266
10.6941   305
10.7041   299
10.7141   296
10.7241   308
10.7341   337
10.7441   316
10.7541   309
10.7641   334
10.7741   331
10.7841   336
10.7941   352
10.8041   337
10.8141   337
10.8241   337
10.8341   364
10.8441   390
10.8541   407
10.8641   372
10.8741   418
10.8841   424
10.8941   413
10.9041   420
10.9141   399
10.9241   378
10.9341   392
10.9441   387
10.9541   380
10.9641   383
10.9741   349
10.9841   373
10.9941   380
11.0041   391
11.0141   333
11.0241   349
11.0341   340
11.0441   346
11.0541   337
11.0641   317
11.0741   332
11.0841   348
11.0941   349
11.1041   331
11.1141   358
11.1241   336
11.1341   335
11.1441   344
11.1541   374
11.1641   376
11.1741   386
11.1841   396
11.1941   411
11.2041   428
11.2141   444
11.2241   494
11.2341   491
11.2441   500
11.2541   521
11.2641   530
11.2741   537
11.2841   524
11.2941   506
11.3041   481
11.3141   500
11.3241   490
11.3341   447
11.3441   457
11.3541   432
11.3641   416
11.3741   385
11.3841   367
11.3941   345
11.4041   328
11.4141   308
11.4241   316
11.4341   317
11.4441   298
11.4541   249
11.4641   272
11.4741   275
11.4841   246
11.4941   238
11.5041   264
11.5141   245
11.5241   238
11.5341   255
11.5441   270
11.5541   277
11.5641   266
11.5741   271
11.5841   257
11.5941   263
11.6041   272
11.6141   268
11.6241   264
11.6341   253
11.6441   269
11.6541   276
11.6641   277
11.6741   265
11.6841   260
11.6941   261
11.7041   267
11.7141   259
11.7241   267
11.7341   244
11.7441   227
11.7541   202
11.7641   202
11.7741   227
11.7841   223
11.7941   207
11.8041   213
11.8141   205
11.8241   200
11.8341   201
11.8441   216
11.8541   210
11.8641   207
11.8741   208
11.8841   212
11.8941   226
11.9041   223
11.9141   217
11.9241   243
11.9341   216
11.9441   202
11.9541   201
11.9641   197
11.9741   196
11.9841   188
11.9941   203
12.0041   198
12.0141   207
12.0241   221
12.0341   216
12.0441   217
12.0541   226
12.0641   227
12.0741   230
12.0841   227
12.0941   214
12.1041   209
12.1141   214
12.1241   223
12.1341   199
12.1441   182
12.1541   191
12.1641   204
12.1741   231
12.1841   229
12.1941   212
12.2041   184
12.2141   196
12.2241   194
12.2341   203
12.2441   215
12.2541   213
12.2641   200
12.2741   205
12.2841   211
12.2941   208
12.3041   219
12.3141   214
12.3241   203
12.3341   195
12.3441   182
12.3541   194
12.3641   213
12.3741   205
12.3841   205
12.3941   214
12.4041   215
12.4141   218
12.4241   202
12.4341   212
12.4441   214
12.4541   211
12.4641   213
12.4741   211
12.4841   207
12.4941   211
12.5041   209
12.5141   211
12.5241   215
12.5341   217
12.5441   202
12.5541   209
12.5641   207
12.5741   213
12.5841   211
12.5941   210
12.6041   218
12.6141   228
12.6241   235
12.6341   218
12.6441   218
12.6541   219
12.6641   209
12.6741   207
12.6841   222
12.6941   240
12.7041   238
12.7141   228
12.7241   229
12.7341   224
12.7441   212
12.7541   211
12.7641   206
12.7741   219
12.7841   231
12.7941   226
12.8041   206
12.8141   184
12.8241   199
12.8341   222
12.8441   239
12.8541   233
12.8641   227
12.8741   238
12.8841   246
12.8941   235
12.9041   232
12.9141   234
12.9241   224
12.9341   222
12.9441   243
12.9541   261
12.9641   235
12.9741   226
12.9841   240
12.9941   242
13.0041   247
13.0141   243
13.0241   246
13.0341   242
13.0441   226
13.0541   244
13.0641   248
13.0741   237
13.0841   237
13.0941   239
13.1041   231
13.1141   241
13.1241   255
13.1341   238
13.1441   249
13.1541   257
13.1641   248
13.1741   235
13.1841   228
13.1941   235
13.2041   254
13.2141   256
13.2241   260
13.2341   247
13.2441   241
13.2541   270
13.2641   271
13.2741   257
13.2841   268
13.2941   281
13.3041   259
13.3141   249
13.3241   282
13.3341   288
13.3441   272
13.3541   263
13.3641   294
13.3741   311
13.3841   296
13.3941   274
13.4041   284
13.4141   310
13.4241   292
13.4341   284
13.4441   290
13.4541   292
13.4641   290
13.4741   287
13.4841   280
13.4941   264
13.5041   261
13.5141   266
13.5241   276
13.5341   272
13.5441   283
13.5541   302
13.5641   286
13.5741   288
13.5841   275
13.5941   280
13.6041   288
13.6141   278
13.6241   293
13.6341   276
13.6441   273
13.6541   289
13.6641   289
13.6741   294
13.6841   293
13.6941   290
13.7041   294
13.7141   290
13.7241   285
13.7341   293
13.7441   287
13.7541   297
13.7641   289
13.7741   263
13.7841   296
13.7941   308
13.8041   285
13.8141   295
13.8241   303
13.8341   310
13.8441   302
13.8541   284
13.8641   296
13.8741   325
13.8841   329
13.8941   304
13.9041   289
13.9141   301
13.9241   316
13.9341   311
13.9441   309
13.9541   328
13.9641   331
13.9741   310
13.9841   289
13.9941   290
14.0041   321
14.0141   335
14.0241   312
14.0341   318
14.0441   341
14.0541   338
14.0641   333
14.0741   329
14.0841   332
14.0941   317
14.1041   300
14.1141   321
14.1241   342
14.1341   334
14.1441   333
14.1541   344
14.1641   344
14.1741   336
14.1841   340
14.1941   341
14.2041   341
14.2141   353
14.2241   355
14.2341   344
14.2441   334
14.2541   328
14.2641   338
14.2741   336
14.2841   330
14.2941   341
14.3041   350
14.3141   354
14.3241   327
14.3341   324
14.3441   363
14.3541   355
14.3641   339
14.3741   363
14.3841   348
14.3941   323
14.4041   338
14.4141   357
14.4241   339
14.4341   328
14.4441   347
14.4541   351
14.4641   338
14.4741   327
14.4841   351
14.4941   352
14.5041   333
14.5141   356
14.5241   351
14.5341   342
14.5441   348
14.5541   352
14.5641   351
14.5741   356
14.5841   356
14.5941   341
14.6041   334
14.6141   341
14.6241   353
14.6341   372
14.6441   356
14.6541   335
14.6641   340
14.6741   337
14.6841   343
14.6941   340
14.7041   340
14.7141   346
14.7241   353
14.7341   365
14.7441   372
14.7541   367
14.7641   333
14.7741   326
14.7841   337
14.7941   347
14.8041   359
14.8141   362
14.8241   351
14.8341   356
14.8441   350
14.8541   341
14.8641   348
14.8741   337
14.8841   351
14.8941   370
14.9041   370
14.9141   362
14.9241   361
14.9341   371
14.9441   379
14.9541   373
14.9641   386
14.9741   365
14.9841   367
14.9941   343
15.0041   344
15.0141   367
15.0241   367
15.0341   378
15.0441   375
15.0541   372
15.0641   370
15.0741   367
15.0841   377
15.0941   368
15.1041   366
15.1141   359
15.1241   349
15.1341   352
15.1441   356
15.1541   390
15.1641   398
15.1741   384
15.1841   370
15.1941   401
15.2041   390
15.2141   376
15.2241   383
15.2341   401
15.2441   391
15.2541   383
15.2641   393
15.2741   378
15.2841   378
15.2941   386
15.3041   377
15.3141   371
15.3241   384
15.3341   400
15.3441   397
15.3541   412
15.3641   413
15.3741   401
15.3841   384
15.3941   380
15.4041   372
15.4141   387
15.4241   380
15.4341   374
15.4441   378
15.4541   384
15.4641   417
15.4741   430
15.4841   420
15.4941   410
15.5041   406
15.5141   391
15.5241   393
15.5341   396
15.5441   425
15.5541   433
15.5641   442
15.5741   445
15.5841   432
15.5941   428
15.6041   447
15.6141   484
15.6241   502
15.6341   507
15.6441   521
15.6541   529
15.6641   510
15.6741   526
15.6841   531
15.6941   536
15.7041   551
15.7141   546
15.7241   554
15.7341   564
15.7441   554
15.7541   529
15.7641   582
15.7741   589
15.7841   585
15.7941   577
15.8041   546
15.8141   521
15.8241   548
15.8341   541
15.8441   531
15.8541   527
15.8641   516
15.8741   510
15.8841   489
15.8941   479
15.9041   452
15.9141   460
15.9241   458
15.9341   462
15.9441   483
15.9541   463
15.9641   473
15.9741   477
15.9841   471
15.9941   449
16.0041   438
16.0141   465
16.0241   467
16.0341   468
16.0441   456
16.0541   455
16.0641   452
16.0741   467
16.0841   441
16.0941   445
16.1041   431
16.1141   438
16.1241   466
16.1341   450
16.1441   450
16.1541   455
16.1641   451
16.1741   446
16.1841   443
16.1941   418
16.2041   442
16.2141   457
16.2241   456
16.2341   466
16.2441   454
16.2541   460
16.2641   465
16.2741   482
16.2841   482
16.2941   471
16.3041   457
16.3141   458
16.3241   446
16.3341   438
16.3441   457
16.3541   468
16.3641   462
16.3741   463
16.3841   474
16.3941   489
16.4041   479
16.4141   449
16.4241   477
16.4341   484
16.4441   460
16.4541   471
16.4641   489
16.4741   489
16.4841   465
16.4941   481
16.5041   502
16.5141   492
16.5241   500
16.5341   502
16.5441   513
16.5541   510
16.5641   485
16.5741   511
16.5841   497
16.5941   449
16.6041   455
16.6141   490
16.6241   506
16.6341   497
16.6441   505
16.6541   507
16.6641   490
16.6741   509
16.6841   521
16.6941   543
16.7041   529
16.7141   536
16.7241   492
16.7341   495
16.7441   506
16.7541   515
16.7641   535
16.7741   513
16.7841   523
16.7941   513
16.8041   527
16.8141   503
16.8241   500
16.8341   517
16.8441   521
16.8541   500
16.8641   482
16.8741   515
16.8841   510
16.8941   531
16.9041   535
16.9141   525
16.9241   500
16.9341   498
16.9441   512
16.9541   506
16.9641   541
16.9741   510
16.9841   502
16.9941   526
17.0041   524
17.0141   510
17.0241   535
17.0341   509
17.0441   511
17.0541   516
17.0641   547
17.0741   524
17.0841   522
17.0941   513
17.1041   510
17.1141   511
17.1241   517
17.1341   530
17.1441   556
17.1541   534
17.1641   529
17.1741   490
17.1841   551
17.1941   524
17.2041   525
17.2141   554
17.2241   552
17.2341   551
17.2441   547
17.2541   547
17.2641   534
17.2741   545
17.2841   559
17.2941   561
17.3041   552
17.3141   566
17.3241   574
17.3341   583
17.3441   566
17.3541   548
17.3641   549
17.3741   549
17.3841   565
17.3941   562
17.4041   563
17.4141   536
17.4241   526
17.4341   574
17.4441   577
17.4541   605
17.4641   588
17.4741   563
17.4841   548
17.4941   556
17.5041   548
17.5141   579
17.5241   598
17.5341   563
17.5441   546
17.5541   560
17.5641   590
17.5741   605
17.5841   610
17.5941   616
17.6041   608
17.6141   601
17.6241   568
17.6341   610
17.6441   597
17.6541   601
17.6641   589
17.6741   623
17.6841   625
17.6941   623
17.7041   597
17.7141   627
17.7241   597
17.7341   583
17.7441   594
17.7541   618
17.7641   644
17.7741   612
17.7841   597
17.7941   598
17.8041   617
17.8141   625
17.8241   606
17.8341   602
17.8441   598
17.8541   605
17.8641   602
17.8741   624
17.8841   647
17.8941   630
17.9041   589
17.9141   589
17.9241   573
17.9341   603
17.9441   605
17.9541   634
17.9641   621
17.9741   616
17.9841   612
17.9941   627
18.0041   650
18.0141   614
18.0241   586
18.0341   601
18.0441   640
18.0541   618
18.0641   609
18.0741   598
18.0841   597
18.0941   611
18.1041   629
18.1141   621
18.1241   604
18.1341   609
18.1441   574
18.1541   626
18.1641   629
18.1741   587
18.1841   581
18.1941   613
18.2041   640
18.2141   614
18.2241   622
18.2341   606
18.2441   618
18.2541   603
18.2641   597
18.2741   601
18.2841   602
18.2941   602
18.3041   591
18.3141   609
18.3241   640
18.3341   630
18.3441   626
18.3541   636
18.3641   621
18.3741   652
18.3841   642
18.3941   646
18.4041   647
18.4141   618
18.4241   609
18.4341   621
18.4441   651
18.4541   588
18.4641   595
18.4741   615
18.4841   644
18.4941   648
18.5041   620
18.5141   637
18.5241   615
18.5341   659
18.5441   657
18.5541   607
18.5641   648
18.5741   658
18.5841   645
18.5941   667
18.6041   620
18.6141   644
18.6241   644
18.6341   644
18.6441   644
18.6541   635
18.6641   660
18.6741   617
18.6841   643
18.6941   645
18.7041   680
18.7141   634
18.7241   697
18.7341   664
18.7441   648
18.7541   663
18.7641   666
18.7741   662
18.7841   656
18.7941   641
18.8041   655
18.8141   649
18.8241   630
18.8341   657
18.8441   645
18.8541   662
18.8641   669
18.8741   680
18.8841   673
18.8941   657
18.9041   655
18.9141   708
18.9241   687
18.9341   661
18.9441   689
18.9541   670
18.9641   677
18.9741   663
18.9841   659
18.9941   665
19.0041   702
19.0141   677
19.0241   642
19.0341   643
19.0441   632
19.0541   672
19.0641   696
19.0741   690
19.0841   634
19.0941   659
19.1041   642
19.1141   658
19.1241   641
19.1341   681
19.1441   690
19.1541   689
19.1641   681
19.1741   699
19.1841   680
19.1941   677
19.2041   698
19.2141   666
19.2241   692
19.2341   658
19.2441   645
19.2541   725
19.2641   693
19.2741   710
19.2841   700
19.2941   735
19.3041   693
19.3141   706
19.3241   713
19.3341   740
19.3441   701
19.3541   687
19.3641   694
19.3741   674
19.3841   703
19.3941   700
19.4041   659
19.4141   696
19.4241   675
19.4341   650
19.4441   698
19.4541   698
19.4641   690
19.4741   659
19.4841   673
19.4941   656
19.5041   659
19.5141   715
19.5241   664
19.5341   668
19.5441   706
19.5541   695
19.5641   680
19.5741   703
19.5841   703
19.5941   708
19.6041   733
19.6141   681
19.6241   706
19.6341   739
19.6441   688
19.6541   682
19.6641   690
19.6741   711
19.6841   682
19.6941   680
19.7041   718
19.7141   672
19.7241   705
19.7341   699
19.7441   665
19.7541   716
19.7641   686
19.7741   700
19.7841   718
19.7941   697
19.8041   721
19.8141   706
19.8241   738
19.8341   754
19.8441   718
19.8541   691
19.8641   729
19.8741   681
19.8841   702
19.8941   711
19.9041   704
19.9141   719
19.9241   712
19.9341   725
19.9441   707
19.9541   762
19.9641   719
19.9741   727
19.9841   723
19.9941   708
20.0041   707
20.0141   739
20.0241   730
20.0341   721
20.0441   721
20.0541   704
20.0641   730
20.0741   740
20.0841   710
20.0941   714
20.1041   717
20.1141   733
20.1241   688
20.1341   745
20.1441   752
20.1541   709
20.1641   725
20.1741   724
20.1841   700
20.1941   704
20.2041   753
20.2141   743
20.2241   714
20.2341   713
20.2441   733
20.2541   754
20.2641   736
20.2741   738
20.2841   737
20.2941   722
20.3041   713
20.3141   719
20.3241   698
20.3341   748
20.3441   726
20.3541   773
20.3641   738
20.3741   724
20.3841   690
20.3941   723
20.4041   711
20.4141   753
20.4241   702
20.4341   716
20.4441   742
20.4541   718
20.4641   717
20.4741   726
20.4841   707
20.4941   735
20.5041   737
20.5141   754
20.5241   764
20.5341   743
20.5441   723
20.5541   724
20.5641   712
20.5741   738
20.5841   703
20.5941   738
20.6041   737
20.6141   729
20.6241   700
20.6341   714
20.6441   702
20.6541   736
20.6641   718
20.6741   702
20.6841   740
20.6941   811
20.7041   768
20.7141   766
20.7241   733
20.7341   746
20.7441   755
20.7541   767
20.7641   734
20.7741   735
20.7841   795
20.7941   778
20.8041   724
20.8141   754
20.8241   782
20.8341   746
20.8441   804
20.8541   760
20.8641   840
20.8741   802
20.8841   838
20.8941   832
20.9041   859
20.9141   879
20.9241   901
20.9341   894
20.9441   850
20.9541   944
20.9641   956
20.9741   940
20.9841   964
20.9941   982
21.0041   961
21.0141   975
21.0241  1018
21.0341  1094
21.0441  1052
21.0541  1115
21.0641  1062
21.0741  1095
21.0841  1142
21.0941  1118
21.1041  1108
21.1141  1185
21.1241  1154
21.1341  1142
21.1441  1137
21.1541  1155
21.1641  1105
21.1741  1078
21.1841  1096
21.1941  1059
21.2041  1081
21.2141  1104
21.2241  1000
21.2341  1027
21.2441   970
21.2541  1064
21.2641  1012
21.2741   928
21.2841   883
21.2941   951
21.3041   847
21.3141   863
21.3241   800
21.3341   834
21.3441   814
21.3541   806
21.3641   817
21.3741   805
21.3841   790
21.3941   759
21.4041   790
21.4141   710
21.4241   730
21.4341   743
21.4441   745
21.4541   756
21.4641   698
21.4741   773
21.4841   707
21.4941   754
21.5041   714
21.5141   782
21.5241   782
21.5341   768
21.5441   703
21.5541   774
21.5641   748
21.5741   767
21.5841   699
21.5941   714
21.6041   767
21.6141   726
21.6241   736
21.6341   755
21.6441   765
21.6541   740
21.6641   724
21.6741   789
21.6841   750
21.6941   766
21.7041   751
21.7141   706
21.7241   673
21.7341   728
21.7441   770
21.7541   745
21.7641   744
21.7741   754
21.7841   754
21.7941   749
21.8041   739
21.8141   707
21.8241   760
21.8341   708
21.8441   743
21.8541   768
21.8641   791
21.8741   722
21.8841   750
21.8941   763
21.9041   749
21.9141   712
21.9241   764
21.9341   732
21.9441   764
21.9541   750
21.9641   764
21.9741   795
21.9841   732
21.9941   732
22.0041   767
22.0141   738
22.0241   724
22.0341   711
22.0441   716
22.0541   746
22.0641   727
22.0741   720
22.0841   746
22.0941   734
22.1041   731
22.1141   756
22.1241   720
22.1341   745
22.1441   726
22.1541   743
22.1641   777
22.1741   723
22.1841   775
22.1941   745
22.2041   716
22.2141   728
22.2241   745
22.2341   750
22.2441   763
22.2541   725
22.2641   725
22.2741   720
22.2841   738
22.2941   724
22.3041   710
22.3141   695
22.3241   733
22.3341   695
22.3441   748
22.3541   748
22.3641   751
22.3741   763
22.3841   716
22.3941   749
22.4041   717
22.4141   775
22.4241   726
22.4341   729
22.4441   753
22.4541   770
22.4641   763
22.4741   765
22.4841   787
22.4941   751
22.5041   753
22.5141   754
22.5241   733
22.5341   757
22.5441   728
22.5541   696
22.5641   743
22.5741   775
22.5841   755
22.5941   739
22.6041   712
22.6141   702
22.6241   719
22.6341   748
22.6441   785
22.6541   765
22.6641   752
22.6741   729
22.6841   759
22.6941   742
22.7041   720
22.7141   739
22.7241   757
22.7341   726
22.7441   700
22.7541   735
22.7641   718
22.7741   708
22.7841   754
22.7941   737
22.8041   737
22.8141   703
22.8241   751
22.8341   738
22.8441   702
22.8541   745
22.8641   720
22.8741   780
22.8841   718
22.8941   716
22.9041   729
22.9141   751
22.9241   730
22.9341   728
22.9441   756
22.9541   748
22.9641   733
22.9741   719
22.9841   711
22.9941   738
23.0041   734
23.0141   751
23.0241   689
23.0341   744
23.0441   694
23.0541   744
23.0641   718
23.0741   738
23.0841   641
23.0941   722
23.1041   687
23.1141   738
23.1241   757
23.1341   731
23.1441   771
23.1541   675
23.1641   742
23.1741   719
23.1841   775
23.1941   669
23.2041   730
23.2141   732
23.2241   748
23.2341   711
23.2441   705
23.2541   738
23.2641   740
23.2741   706
23.2841   671
23.2941   704
23.3041   699
23.3141   723
23.3241   718
23.3341   700
23.3441   739
23.3541   740
23.3641   704
23.3741   755
23.3841   749
23.3941   725
23.4041   719
23.4141   754
23.4241   716
23.4341   689
23.4441   741
23.4541   717
23.4641   742
23.4741   723
23.4841   767
23.4941   678
23.5041   699
23.5141   729
23.5241   734
23.5341   719
23.5441   726
23.5541   705
23.5641   703
23.5741   718
23.5841   756
23.5941   728
23.6041   776
23.6141   726
23.6241   674
23.6341   749
23.6441   718
23.6541   747
23.6641   727
23.6741   762
23.6841   762
23.6941   709
23.7041   718
23.7141   745
23.7241   702
23.7341   797
23.7441   781
23.7541   784
23.7641   810
23.7741   793
23.7841   758
23.7941   766
23.8041   780
23.8141   755
23.8241   787
23.8341   840
23.8441   746
23.8541   747
23.8641   742
23.8741   751
23.8841   748
23.8941   730
23.9041   722
23.9141   734
23.9241   729
23.9341   743
23.9441   778
23.9541   728
23.9641   714
23.9741   735
23.9841   710
23.9941   716
24.0041   728
24.0141   739
24.0241   672
24.0341   700
24.0441   702
24.0541   688
24.0641   682
24.0741   730
24.0841   702
24.0941   718
24.1041   700
24.1141   705
24.1241   702
24.1341   647
24.1441   717
24.1541   700
24.1641   676
24.1741   660
24.1841   652
24.1941   692
24.2041   696
24.2141   704
24.2241   684
24.2341   671
24.2441   717
24.2541   719
24.2641   717
24.2741   707
24.2841   727
24.2941   684
24.3041   698
24.3141   702
24.3241   671
24.3341   689
24.3441   664
24.3541   657
24.3641   693
24.3741   687
24.3841   687
24.3941   706
24.4041   677
24.4141   685
24.4241   680
24.4341   699
24.4441   649
24.4541   680
24.4641   649
24.4741   692
24.4841   668
24.4941   722
24.5041   694
24.5141   670
24.5241   643
24.5341   675
24.5441   647
24.5541   659
24.5641   698
24.5741   679
24.5841   643
24.5941   706
24.6041   701
24.6141   649
24.6241   617
24.6341   646
24.6441   653
24.6541   619
24.6641   671
24.6741   662
24.6841   692
24.6941   631
24.7041   681
24.7141   707
24.7241   648
24.7341   658
24.7441   613
24.7541   651
24.7641   650
24.7741   676
24.7841   649
24.7941   630
24.8041   645
24.8141   656
24.8241   652
24.8341   666
24.8441   690
24.8541   675
24.8641   663
24.8741   656
24.8841   663
24.8941   635
24.9041   662
24.9141   635
24.9241   650
24.9341   641
24.9441   669
24.9541   678
24.9641   654
24.9741   651
24.9841   665
24.9941   617
25.0041   637
25.0141   681
25.0241   671
25.0341   655
25.0441   678
25.0541   690
25.0641   690
25.0741   684
25.0841   658
25.0941   639
25.1041   702
25.1141   657
25.1241   649
25.1341   656
25.1441   656
25.1541   692
25.1641   665
25.1741   654
25.1841   656
25.1941   687
25.2041   672
25.2141   651
25.2241   659
25.2341   671
25.2441   665
25.2541   648
25.2641   622
25.2741   675
25.2841   692
25.2941   688
25.3041   679
25.3141   676
25.3241   708
25.3341   628
25.3441   652
25.3541   638
25.3641   661
25.3741   607
25.3841   683
25.3941   676
25.4041   644
25.4141   674
25.4241   634
25.4341   664
25.4441   652
25.4541   608
25.4641   636
25.4741   613
25.4841   676
25.4941   649
25.5041   638
25.5141   639
25.5241   689
25.5341   609
25.5441   670
25.5541   637
25.5641   657
25.5741   630
25.5841   625
25.5941   630
25.6041   646
25.6141   639
25.6241   591
25.6341   614
25.6441   635
25.6541   629
25.6641   624
25.6741   657
25.6841   603
25.6941   577
25.7041   595
25.7141   617
25.7241   633
25.7341   657
25.7441   656
25.7541   647
25.7641   618
25.7741   673
25.7841   610
25.7941   579
25.8041   649
25.8141   618
25.8241   602
25.8341   635
25.8441   655
25.8541   626
25.8641   624
25.8741   590
25.8841   652
25.8941   596
25.9041   579
25.9141   605
25.9241   621
25.9341   633
25.9441   624
25.9541   598
25.9641   577
25.9741   616
25.9841   568
25.9941   634
26.0041   582
26.0141   584
26.0241   635
26.0341   600
26.0441   602
26.0541   589
26.0641   611
26.0741   609
26.0841   626
26.0941   629
26.1041   540
26.1141   589
26.1241   647
26.1341   616
26.1441   638
26.1541   631
26.1641   630
26.1741   627
26.1841   596
26.1941   609
26.2041   570
26.2141   607
26.2241   623
26.2341   602
26.2441   602
26.2541   600
26.2641   569
26.2741   592
26.2841   590
26.2941   557
26.3041   622
26.3141   593
26.3241   569
26.3341   621
26.3441   599
26.3541   607
26.3641   564
26.3741   604
26.3841   571
26.3941   581
26.4041   583
26.4141   574
26.4241   571
26.4341   570
26.4441   560
26.4541   570
26.4641   610
26.4741   572
26.4841   583
26.4941   598
26.5041   583
26.5141   570
26.5241   593
26.5341   580
26.5441   557
26.5541   554
26.5641   616
26.5741   572
26.5841   574
26.5941   595
26.6041   569
26.6141   556
26.6241   565
26.6341   565
26.6441   579
26.6541   551
26.6641   576
26.6741   536
26.6841   597
26.6941   577
26.7041   578
26.7141   546
26.7241   555
26.7341   576
26.7441   561
26.7541   546
26.7641   561
26.7741   577
26.7841   575
26.7941   575
26.8041   575
26.8141   542
26.8241   561
26.8341   596
26.8441   556
26.8541   557
26.8641   547
26.8741   574
26.8841   550
26.8941   545
26.9041   549
26.9141   538
26.9241   546
26.9341   534
26.9441   550
26.9541   613
26.9641   547
26.9741   527
26.9841   542
26.9941   558
27.0041   522
27.0141   543
27.0241   522
27.0341   564
27.0441   510
27.0541   527
27.0641   507
27.0741   564
27.0841   518
27.0941   556
27.1041   541
27.1141   551
27.1241   520
27.1341   559
27.1441   520
27.1541   575
27.1641   540
27.1741   553
27.1841   510
27.1941   541
27.2041   541
27.2141   562
27.2241   585
27.2341   540
27.2441   460
27.2541   506
27.2641   554
27.2741   505
27.2841   569
27.2941   547
27.3041   527
27.3141   498
27.3241   501
27.3341   545
27.3441   540
27.3541   507
27.3641   527
27.3741   554
27.3841   537
27.3941   543
27.4041   504
27.4141   520
27.4241   510
27.4341   526
27.4441   523
27.4541   525
27.4641   545
27.4741   578
27.4841   522
27.4941   545
27.5041   511
27.5141   546
27.5241   538
27.5341   530
27.5441   485
27.5541   533
27.5641   504
27.5741   528
27.5841   516
27.5941   507
27.6041   503
27.6141   505
27.6241   496
27.6341   541
27.6441   518
27.6541   556
27.6641   567
27.6741   495
27.6841   535
27.6941   537
27.7041   487
27.7141   479
27.7241   456
27.7341   509
27.7441   510
27.7541   471
27.7641   520
27.7741   501
27.7841   527
27.7941   517
27.8041   515
27.8141   470
27.8241   485
27.8341   475
27.8441   519
27.8541   482
27.8641   522
27.8741   531
27.8841   527
27.8941   486
27.9041   516
27.9141   495
27.9241   488
27.9341   475
27.9441   506
27.9541   479
27.9641   477
27.9741   493
27.9841   488
27.9941   465
28.0041   487
28.0141   478
28.0241   483
28.0341   518
28.0441   483
28.0541   485
28.0641   499
28.0741   490
28.0841   513
28.0941   502
28.1041   475
28.1141   495
28.1241   499
28.1341   474
28.1441   476
28.1541   475
28.1641   474
28.1741   484
28.1841   450
28.1941   475
28.2041   475
28.2141   460
28.2241   500
28.2341   444
28.2441   469
28.2541   521
28.2641   470
28.2741   472
28.2841   468
28.2941   452
28.3041   485
28.3141   444
28.3241   446
28.3341   478
28.3441   473
28.3541   499
28.3641   462
28.3741   446
28.3841   482
28.3941   459
28.4041   473
28.4141   471
28.4241   463
28.4341   515
28.4441   500
28.4541   464
28.4641   479
28.4741   485
28.4841   481
28.4941   503
28.5041   469
28.5141   488
28.5241   445
28.5341   431
28.5441   422
28.5541   465
28.5641   458
28.5741   446
28.5841   476
28.5941   470
28.6041   467
28.6141   496
28.6241   462
28.6341   464
28.6441   465
28.6541   463
28.6641   460
28.6741   498
28.6841   450
28.6941   451
28.7041   470
28.7141   469
28.7241   463
28.7341   446
28.7441   459
28.7541   480
28.7641   479
28.7741   454
28.7841   411
28.7941   485
28.8041   454
28.8141   441
28.8241   466
28.8341   441
28.8441   435
28.8541   437
28.8641   446
28.8741   434
28.8841   439
28.8941   407
28.9041   468
28.9141   430
28.9241   423
28.9341   411
28.9441   446
28.9541   420
28.9641   471
28.9741   436
28.9841   450
28.9941   446
29.0041   451
29.0141   444
29.0241   410
29.0341   440
29.0441   444
29.0541   423
29.0641   450
29.0741   448
29.0841   410
29.0941   438
29.1041   437
29.1141   455
29.1241   434
29.1341   439
29.1441   401
29.1541   416
29.1641   414
29.1741   424
29.1841   438
29.1941   434
29.2041   430
29.2141   445
29.2241   468
29.2341   400
29.2441   407
29.2541   399
29.2641   438
29.2741   438
29.2841   423
29.2941   459
29.3041   472
29.3141   422
29.3241   407
29.3341   416
29.3441   393
29.3541   414
29.3641   414
29.3741   401
29.3841   389
29.3941   397
29.4041   388
29.4141   415
29.4241   443
29.4341   424
29.4441   381
29.4541   375
29.4641   389
29.4741   431
29.4841   429
29.4941   390
29.5041   408
29.5141   388
29.5241   417
29.5341   412
29.5441   402
29.5541   409
29.5641   426
29.5741   378
29.5841   421
29.5941   442
29.6041   405
29.6141   395
29.6241   417
29.6341   383
29.6441   421
29.6541   419
29.6641   389
29.6741   416
29.6841   413
29.6941   372
29.7041   408
29.7141   373
29.7241   426
29.7341   415
29.7441   399
29.7541   386
29.7641   388
29.7741   387
29.7841   401
29.7941   383
29.8041   372
29.8141   373
29.8241   392
29.8341   391
29.8441   363
29.8541   354
29.8641   368
29.8741   400
29.8841   418
29.8941   415
29.9041   394
29.9141   353
29.9241   356
29.9341   379
29.9441   405
29.9541   357
29.9641   389
29.9741   395
29.9841   399
29.9941   368
30.0041   374
30.0141   372
30.0241   369
30.0341   391
30.0441   351
30.0541   385
30.0641   354
30.0741   376
30.0841   384
30.0941   371
30.1041   399
30.1141   381
30.1241   361
30.1341   399
30.1441   375
30.1541   379
30.1641   396
30.1741   395
30.1841   368
30.1941   402
30.2041   357
30.2141   373
30.2241   371
30.2341   372
30.2441   373
30.2541   375
30.2641   356
30.2741   396
30.2841   356
30.2941   361
30.3041   374
30.3141   376
30.3241   378
30.3341   349
30.3441   393
30.3541   374
30.3641   353
30.3741   341
30.3841   368
30.3941   365
30.4041   372
30.4141   378
30.4241   339
30.4341   364
30.4441   358
30.4541   345
30.4641   342
30.4741   314
30.4841   347
30.4941   367
30.5041   345
30.5141   377
30.5241   387
30.5341   372
30.5441   409
30.5541   369
30.5641   328
30.5741   324
30.5841   358
30.5941   323
30.6041   316
30.6141   316
30.6241   363
30.6341   350
30.6441   289
30.6541   375
30.6641   325
30.6741   360
30.6841   345
30.6941   349
30.7041   345
30.7141   331
30.7241   337
30.7341   314
30.7441   331
30.7541   365
30.7641   366
30.7741   345
30.7841   373
30.7941   323
30.8041   295
30.8141   332
30.8241   376
30.8341   334
30.8441   359
30.8541   354
30.8641   371
30.8741   369
30.8841   337
30.8941   307
30.9041   333
30.9141   360
30.9241   352
30.9341   335
30.9441   363
30.9541   320
30.9641   329
30.9741   321
30.9841   304
30.9941   302
31.0041   326
31.0141   328
31.0241   317
31.0341   332
31.0441   346
31.0541   354
31.0641   315
31.0741   332
31.0841   312
31.0941   347
31.1041   340
31.1141   350
31.1241   301
31.1341   298
31.1441   340
31.1541   354
31.1641   330
31.1741   321
31.1841   319
31.1941   347
31.2041   320
31.2141   324
31.2241   307
31.2341   322
31.2441   311
31.2541   343
31.2641   304
31.2741   329
31.2841   347
31.2941   322
31.3041   350
31.3141   304
31.3241   320
31.3341   312
31.3441   302
31.3541   330
31.3641   305
31.3741   299
31.3841   302
31.3941   290
31.4041   291
31.4141   311
31.4241   339
31.4341   304
31.4441   296
31.4541   283
31.4641   314
31.4741   322
31.4841   300
31.4941   296
31.5041   270
31.5141   310
31.5241   315
31.5341   276
31.5441   306
31.5541   300
31.5641   332
31.5741   307
31.5841   282
31.5941   287
31.6041   282
31.6141   310
31.6241   304
31.6341   310
31.6441   326
31.6541   326
31.6641   295
31.6741   298
31.6841   258
31.6941   282
31.7041   304
31.7141   305
31.7241   288
31.7341   312
31.7441   295
31.7541   281
31.7641   287
31.7741   300
31.7841   311
31.7941   323
31.8041   284
31.8141   327
31.8241   301
31.8341   319
31.8441   309
31.8541   301
31.8641   301
31.8741   296
31.8841   298
31.8941   312
31.9041   268
31.9141   284
31.9241   285
31.9341   290
31.9441   303
31.9541   299
31.9641   264
31.9741   276
31.9841   273
31.9941   284
32.0041   259
32.0141   265
32.0241   267
32.0341   296
32.0441   287
32.0541   267
32.0641   308
32.0741   285
32.0841   290
32.0941   285
32.1041   271
32.1141   278
32.1241   264
32.1341   298
32.1441   308
32.1541   320
32.1641   271
32.1741   269
32.1841   275
32.1941   275
32.2041   280
32.2141   297
32.2241   285
32.2341   284
32.2441   256
32.2541   264
32.2641   258
32.2741   274
32.2841   240
32.2941   243
32.3041   290
32.3141   265
32.3241   258
32.3341   265
32.3441   255
32.3541   299
32.3641   284
32.3741   261
32.3841   292
32.3941   260
32.4041   234
32.4141   263
32.4241   280
32.4341   266
32.4441   260
32.4541   259
32.4641   250
32.4741   249
32.4841   259
32.4941   257
32.5041   242
32.5141   264
32.5241   266
32.5341   234
32.5441   242
32.5541   248
32.5641   246
32.5741   277
32.5841   273
32.5941   270
32.6041   265
32.6141   295
32.6241   231
32.6341   274
32.6441   270
32.6541   247
32.6641   228
32.6741   246
32.6841   241
32.6941   241
32.7041   262
32.7141   233
32.7241   269
32.7341   279
32.7441   269
32.7541   255
32.7641   237
32.7741   256
32.7841   242
32.7941   252
32.8041   264
32.8141   234
32.8241   256
32.8341   248
32.8441   243
32.8541   241
32.8641   257
32.8741   253
32.8841   228
32.8941   225
32.9041   234
32.9141   236
32.9241   257
32.9341   241
32.9441   230
32.9541   239
32.9641   261
32.9741   237
32.9841   269
32.9941   248
33.0041   249
33.0141   257
33.0241   232
33.0341   251
33.0441   256
33.0541   251
33.0641   234
33.0741   244
33.0841   223
33.0941   226
33.1041   241
33.1141   250
33.1241   217
33.1341   242
33.1441   215
33.1541   240
33.1641   226
33.1741   233
33.1841   221
33.1941   217
33.2041   248
33.2141   240
33.2241   232
33.2341   254
33.2441   247
33.2541   225
33.2641   203
33.2741   224
33.2841   231
33.2941   231
33.3041   213
33.3141   235
33.3241   210
33.3341   220
33.3441   243
33.3541   228
33.3641   221
33.3741   209
33.3841   215
33.3941   211
33.4041   195
33.4141   218
33.4241   219
33.4341   196
33.4441   217
33.4541   223
33.4641   219
33.4741   206
33.4841   221
33.4941   216
33.5041   232
33.5141   222
33.5241   207
33.5341   208
33.5441   222
33.5541   240
33.5641   245
33.5741   223
33.5841   215
33.5941   210
33.6041   204
33.6141   221
33.6241   211
33.6341   232
33.6441   185
33.6541   201
33.6641   206
33.6741   214
33.6841   223
33.6941   229
33.7041   226
33.7141   216
33.7241   214
33.7341   208
33.7441   197
33.7541   205
33.7641   225
33.7741   220
33.7841   239
33.7941   223
33.8041   200
33.8141   201
33.8241   215
33.8341   225
33.8441   217
33.8541   183
33.8641   206
33.8741   212
33.8841   191
33.8941   199
33.9041   207
33.9141   216
33.9241   199
33.9341   207
33.9441   190
33.9541   189
33.9641   233
33.9741   188
33.9841   185
33.9941   193
34.0041   206
34.0141   211
34.0241   205
34.0341   206
34.0441   206
34.0541   185
34.0641   196
34.0741   197
34.0841   195
34.0941   188
34.1041   218
34.1141   203
34.1241   202
34.1341   208
34.1441   188
34.1541   207
34.1641   216
34.1741   202
34.1841   195
34.1941   217
34.2041   193
34.2141   187
34.2241   183
34.2341   178
34.2441   168
34.2541   164
34.2641   188
34.2741   192
34.2841   185
34.2941   194
34.3041   196
34.3141   190
34.3241   207
34.3341   196
34.3441   200
34.3541   186
34.3641   186
34.3741   179
34.3841   170
34.3941   171
34.4041   166
34.4141   195
34.4241   217
34.4341   194
34.4441   177
34.4541   200
34.4641   205
34.4741   169
34.4841   163
34.4941   175
34.5041   168
34.5141   223
34.5241   202
34.5341   198
34.5441   192
34.5541   185
34.5641   191
34.5741   185
34.5841   186
34.5941   180
34.6041   187
34.6141   179
34.6241   190
34.6341   188
34.6441   197
34.6541   175
34.6641   188
34.6741   180
34.6841   168
34.6941   171
34.7041   164
34.7141   188
34.7241   149
34.7341   163
34.7441   199
34.7541   168
34.7641   181
34.7741   168
34.7841   162
34.7941   155
34.8041   162
34.8141   154
34.8241   170
34.8341   186
34.8441   181
34.8541   171
34.8641   161
34.8741   184
34.8841   181
34.8941   174
34.9041   182
34.9141   177
34.9241   166
34.9341   186
34.9441   174
34.9541   180
34.9641   163
34.9741   166
34.9841   162
34.9941   159
35.0041   167
35.0141   157
35.0241   164
35.0341   154
35.0441   188
35.0541   140
35.0641   162
35.0741   173
35.0841   171
35.0941   173
35.1041   145
35.1141   168
35.1241   165
35.1341   156
35.1441   166
35.1541   147
35.1641   144
35.1741   157
35.1841   167
35.1941   176
35.2041   175
35.2141   156
35.2241   154
35.2341   155
35.2441   170
35.2541   171
35.2641   174
35.2741   157
35.2841   133
35.2941   135
35.3041   152
35.3141   165
35.3241   162
35.3341   176
35.3441   161
35.3541   154
35.3641   141
35.3741   168
35.3841   154
35.3941   150
35.4041   168
35.4141   165
35.4241   153
35.4341   131
35.4441   154
35.4541   177
35.4641   149
35.4741   133
35.4841   150
35.4941   143
35.5041   157
35.5141   143
35.5241   156
35.5341   159
35.5441   151
35.5541   160
35.5641   167
35.5741   155
35.5841   145
35.5941   148
35.6041   135
35.6141   149
35.6241   138
35.6341   147
35.6441   139
35.6541   141
35.6641   147
35.6741   127
35.6841   130
35.6941   150
35.7041   153
35.7141   150
35.7241   126
35.7341   150
35.7441   141
35.7541   145
35.7641   138
35.7741   133
35.7841   145
35.7941   146
35.8041   147
35.8141   151
35.8241   144
35.8341   134
35.8441   159
35.8541   148
35.8641   142
35.8741   153
35.8841   153
35.8941   142
35.9041   128
35.9141   122
35.9241   146
35.9341   139
35.9441   131
35.9541   123
35.9641   136
35.9741   137
35.9841   140
35.9941   132
36.0041   122
36.0141   140
36.0241   132
36.0341   140
36.0441   128
36.0541   146
36.0641   142
36.0741   149
36.0841   137
36.0941   115
36.1041   128
36.1141   161
36.1241   131
36.1341   145
36.1441   123
36.1541   150
36.1641   122
36.1741   119
36.1841   126
36.1941   112
36.2041   138
36.2141   135
36.2241   133
36.2341   124
36.2441   131
36.2541   136
36.2641   133
36.2741   126
36.2841   112
36.2941   123
36.3041   139
36.3141   123
36.3241   123
36.3341   139
36.3441   125
36.3541   129
36.3641   120
36.3741   106
36.3841   125
36.3941   130
36.4041   115
36.4141   151
36.4241   116
36.4341   124
36.4441   143
36.4541   119
36.4641   115
36.4741   123
36.4841   106
36.4941   125
36.5041   113
36.5141   126
36.5241   122
36.5341   135
36.5441   129
36.5541   103
36.5641   121
36.5741   127
36.5841   119
36.5941   111
36.6041   142
36.6141   126
36.6241   110
36.6341   118
36.6441   126
36.6541    94
36.6641   101
36.6741    93
36.6841   110
36.6941   115
36.7041   110
36.7141   111
36.7241   121
36.7341   125
36.7441   116
36.7541   103
36.7641   103
36.7741   106
36.7841   116
36.7941   119
36.8041   101
36.8141   112
36.8241    91
36.8341   110
36.8441   115
36.8541   113
36.8641    91
36.8741   103
36.8841   125
36.8941   119
36.9041   113
36.9141    98
36.9241    99
36.9341   103
36.9441   103
36.9541   109
36.9641   107
36.9741   110
36.9841   106
36.9941   108
37.0041   114
37.0141   108
37.0241   105
37.0341   112
37.0441    97
37.0541   106
37.0641   124
37.0741   112
37.0841   110
37.0941   102
37.1041   111
37.1141    96
37.1241   106
37.1341   105
37.1441   112
37.1541    99
37.1641   100
37.1741   107
37.1841    93
37.1941   109
37.2041    91
37.2141    94
37.2241    97
37.2341   132
37.2441   125
37.2541    97
37.2641   109
37.2741   102
37.2841   107
37.2941    87
37.3041    93
37.3141   101
37.3241   106
37.3341    93
37.3441   111
37.3541    99
37.3641    83
37.3741    97
37.3841    91
37.3941   106
37.4041    85
37.4141    97
37.4241    94
37.4341    97
37.4441    92
37.4541   104
37.4641    96
37.4741    89
37.4841   108
37.4941   100
37.5041   107
37.5141    88
37.5241    94
37.5341    92
37.5441   114
37.5541    94
37.5641    93
37.5741    98
37.5841    92
37.5941    87
37.6041    85
37.6141    91
37.6241    81
37.6341   104
37.6441    87
37.6541    99
37.6641    94
37.6741    93
37.6841    82
37.6941    94
37.7041   107
37.7141    90
37.7241    85
37.7341    92
37.7441    98
37.7541    93
37.7641    84
37.7741    92
37.7841    89
37.7941    72
37.8041    76
37.8141    85
37.8241    98
37.8341    94
37.8441    88
37.8541    94
37.8641    92
37.8741    94
37.8841    87
37.8941    79
37.9041    81
37.9141    77
37.9241    78
37.9341    92
37.9441    92
37.9541    91
37.9641    65
37.9741    87
37.9841    92
37.9941    99
38.0041    90
38.0141    73
38.0241    82
38.0341    79
38.0441   103
38.0541    86
38.0641    82
38.0741    83
38.0841    84
38.0941    87
38.1041    90
38.1141    65
38.1241    95
38.1341    82
38.1441    77
38.1541    88
38.1641    97
38.1741    93
38.1841    76
38.1941    76
38.2041    81
38.2141    63
38.2241    64
38.2341    63
38.2441    85
38.2541    79
38.2641    65
38.2741    83
38.2841    69
38.2941    83
38.3041    81
38.3141    71
38.3241    70
38.3341    81
38.3441    67
38.3541    88
38.3641    93
38.3741    74
38.3841    65
38.3941    89
38.4041    64
38.4141    65
38.4241    66
38.4341    81
38.4441    81
38.4541    82
38.4641    75
38.4741    66
38.4841    78
38.4941    72
38.5041    84
38.5141    72
38.5241    75
38.5341    64
38.5441    73
38.5541    66
38.5641    73
38.5741    76
38.5841    61
38.5941    62
38.6041    66
38.6141    64
38.6241    66
38.6341    70
38.6441    57
38.6541    71
38.6641    49
38.6741    75
38.6841    71
38.6941    69
38.7041    53
38.7141    70
38.7241    73
38.7341    63
38.7441    69
38.7541    55
38.7641    63
38.7741    73
38.7841    61
38.7941    62
38.8041    65
38.8141    63
38.8241    71
38.8341    64
38.8441    58
38.8541    66
38.8641    61
38.8741    58
38.8841    66
38.8941    51
38.9041    55
38.9141    59
38.9241    72
38.9341    50
38.9441    54
38.9541    62
38.9641    65
38.9741    57
38.9841    71
38.9941    67
39.0041    69
39.0141    55
39.0241    60
39.0341    67
39.0441    68
39.0541    68
39.0641    59
39.0741    49
39.0841    61
39.0941    57
39.1041    75
39.1141    67
39.1241    51
39.1341    47
39.1441    53
39.1541    55
39.1641    60
39.1741    66
39.1841    63
39.1941    53
39.2041    62
39.2141    64
39.2241    51
39.2341    61
39.2441    49
39.2541    57
39.2641    50
39.2741    53
39.2841    70
39.2941    52
39.3041    46
39.3141    58
39.3241    59
39.3341    66
39.3441    58
39.3541    55
39.3641    53
39.3741    54
39.3841    44
39.3941    60
39.4041    59
39.4141    64
39.4241    63
39.4341    49
39.4441    61
39.4541    57
39.4641    63
39.4741    60
39.4841    43
39.4941    57
39.5041    51
39.5141    56
39.5241    45
39.5341    42
39.5441    56
39.5541    56
39.5641    45
39.5741    59
39.5841    46
39.5941    47
39.6041    38
39.6141    48
39.6241    65
39.6341    43
39.6441    60
39.6541    41
39.6641    43
39.6741    56
39.6841    48
39.6941    50
39.7041    44
39.7141    36
39.7241    47
39.7341    50
39.7441    47
39.7541    61
39.7641    55
39.7741    43
39.7841    41
39.7941    40
39.8041    43
39.8141    45
39.8241    45
39.8341    46
39.8441    49
39.8541    47
39.8641    42
39.8741    44
39.8841    46
39.8941    59
39.9041    42
39.9141    32
39.9241    48
39.9341    44
39.9441    38
39.9541    41
39.9641    47
39.9741    38
39.9841    34
39.9941    46
