Bruker Nano GmbH Berlin, Germany
Esprit 1.9

Date: 4/21/2021 2:33:02 PM
Real time: 26209
Life time: 24638
Pulse density: 86726


Detector type: XFlash 430
Window type: Custom type
Detector thickness: 0.45
Si dead layer:0.029

Calibration, lin.: 10
Calibration, abs.: -955.9
Mn FWHM: 137.05
Fano factor: 0.121
Channels: 4096

Energy Counts
-0.9559     0
-0.9459     0
-0.9359     0
-0.9259     0
-0.9159     0
-0.9059     0
-0.8959     0
-0.8859     0
-0.8759     0
-0.8659     0
-0.8559     0
-0.8459     0
-0.8359     0
-0.8259     0
-0.8159     0
-0.8059     0
-0.7959     0
-0.7859     0
-0.7759     0
-0.7659     0
-0.7559     0
-0.7459     0
-0.7359     0
-0.7259     0
-0.7159     0
-0.7059     0
-0.6959     0
-0.6859     0
-0.6759     0
-0.6659     0
-0.6559     0
-0.6459     0
-0.6359     0
-0.6259     0
-0.6159     0
-0.6059     0
-0.5959     0
-0.5859     0
-0.5759     0
-0.5659     0
-0.5559     0
-0.5459     0
-0.5359     0
-0.5259     0
-0.5159     0
-0.5059     0
-0.4959     0
-0.4859     0
-0.4759     0
-0.4659     0
-0.4559     0
-0.4459     0
-0.4359     0
-0.4259     0
-0.4159     0
-0.4059     0
-0.3959     0
-0.3859     0
-0.3759     0
-0.3659     0
-0.3559     0
-0.3459     0
-0.3359     0
-0.3259     0
-0.3159     0
-0.3059     0
-0.2959     0
-0.2859     0
-0.2759     0
-0.2659     0
-0.2559     0
-0.2459     0
-0.2359     0
-0.2259     0
-0.2159     0
-0.2059     0
-0.1959     0
-0.1859     0
-0.1759     0
-0.1659     0
-0.1559     0
-0.1459     0
-0.1359     1
-0.1259     0
-0.1159     1
-0.1059    15
-0.0959    77
-0.0859   279
-0.0759   978
-0.0659  2783
-0.0559  7026
-0.0459 15634
-0.0359 29273
-0.0259 47100
-0.0159 64598
-0.0059 75430
 0.0041 75831
 0.0141 65509
 0.0241 48174
 0.0341 30606
 0.0441 16486
 0.0541  7667
 0.0641  3069
 0.0741  1082
 0.0841   330
 0.0941    75
 0.1041    22
 0.1141    19
 0.1241     6
 0.1341    12
 0.1441     8
 0.1541     6
 0.1641     9
 0.1741     2
 0.1841   245
 0.1941   439
 0.2041   394
 0.2141   387
 0.2241   390
 0.2341   378
 0.2441   382
 0.2541   384
 0.2641   381
 0.2741   401
 0.2841   364
 0.2941   389
 0.3041   398
 0.3141   395
 0.3241   368
 0.3341   375
 0.3441   387
 0.3541   399
 0.3641   384
 0.3741   389
 0.3841   350
 0.3941   332
 0.4041   348
 0.4141   353
 0.4241   330
 0.4341   335
 0.4441   341
 0.4541   352
 0.4641   354
 0.4741   338
 0.4841   335
 0.4941   334
 0.5041   345
 0.5141   360
 0.5241   338
 0.5341   350
 0.5441   326
 0.5541   312
 0.5641   318
 0.5741   331
 0.5841   319
 0.5941   318
 0.6041   323
 0.6141   321
 0.6241   310
 0.6341   305
 0.6441   305
 0.6541   305
 0.6641   291
 0.6741   286
 0.6841   291
 0.6941   283
 0.7041   281
 0.7141   296
 0.7241   290
 0.7341   269
 0.7441   283
 0.7541   279
 0.7641   273
 0.7741   272
 0.7841   290
 0.7941   304
 0.8041   281
 0.8141   266
 0.8241   290
 0.8341   303
 0.8441   289
 0.8541   285
 0.8641   283
 0.8741   270
 0.8841   275
 0.8941   270
 0.9041   245
 0.9141   273
 0.9241   283
 0.9341   262
 0.9441   273
 0.9541   269
 0.9641   278
 0.9741   258
 0.9841   232
 0.9941   245
 1.0041   271
 1.0141   246
 1.0241   248
 1.0341   265
 1.0441   257
 1.0541   262
 1.0641   254
 1.0741   270
 1.0841   235
 1.0941   233
 1.1041   236
 1.1141   264
 1.1241   227
 1.1341   239
 1.1441   216
 1.1541   233
 1.1641   232
 1.1741   268
 1.1841   252
 1.1941   257
 1.2041   239
 1.2141   227
 1.2241   255
 1.2341   273
 1.2441   247
 1.2541   250
 1.2641   259
 1.2741   236
 1.2841   230
 1.2941   223
 1.3041   239
 1.3141   226
 1.3241   229
 1.3341   220
 1.3441   228
 1.3541   240
 1.3641   229
 1.3741   250
 1.3841   239
 1.3941   236
 1.4041   242
 1.4141   222
 1.4241   240
 1.4341   221
 1.4441   218
 1.4541   261
 1.4641   235
 1.4741   222
 1.4841   214
 1.4941   232
 1.5041   205
 1.5141   241
 1.5241   234
 1.5341   219
 1.5441   223
 1.5541   214
 1.5641   226
 1.5741   219
 1.5841   219
 1.5941   228
 1.6041   237
 1.6141   218
 1.6241   215
 1.6341   232
 1.6441   232
 1.6541   278
 1.6641   312
 1.6741   388
 1.6841   466
 1.6941   559
 1.7041   683
 1.7141   826
 1.7241   844
 1.7341   902
 1.7441   886
 1.7541   845
 1.7641   772
 1.7741   612
 1.7841   548
 1.7941   484
 1.8041   401
 1.8141   377
 1.8241   318
 1.8341   311
 1.8441   285
 1.8541   254
 1.8641   246
 1.8741   267
 1.8841   254
 1.8941   211
 1.9041   254
 1.9141   237
 1.9241   207
 1.9341   226
 1.9441   232
 1.9541   243
 1.9641   265
 1.9741   228
 1.9841   255
 1.9941   266
 2.0041   295
 2.0141   301
 2.0241   304
 2.0341   298
 2.0441   265
 2.0541   261
 2.0641   235
 2.0741   232
 2.0841   250
 2.0941   204
 2.1041   217
 2.1141   205
 2.1241   201
 2.1341   209
 2.1441   205
 2.1541   204
 2.1641   218
 2.1741   183
 2.1841   202
 2.1941   181
 2.2041   188
 2.2141   194
 2.2241   186
 2.2341   188
 2.2441   169
 2.2541   182
 2.2641   183
 2.2741   178
 2.2841   177
 2.2941   203
 2.3041   168
 2.3141   190
 2.3241   187
 2.3341   168
 2.3441   190
 2.3541   180
 2.3641   177
 2.3741   212
 2.3841   189
 2.3941   180
 2.4041   185
 2.4141   200
 2.4241   176
 2.4341   178
 2.4441   185
 2.4541   145
 2.4641   190
 2.4741   187
 2.4841   170
 2.4941   153
 2.5041   190
 2.5141   179
 2.5241   158
 2.5341   168
 2.5441   177
 2.5541   171
 2.5641   167
 2.5741   184
 2.5841   183
 2.5941   167
 2.6041   186
 2.6141   168
 2.6241   162
 2.6341   183
 2.6441   185
 2.6541   172
 2.6641   176
 2.6741   165
 2.6841   185
 2.6941   165
 2.7041   155
 2.7141   168
 2.7241   178
 2.7341   147
 2.7441   172
 2.7541   145
 2.7641   164
 2.7741   155
 2.7841   193
 2.7941   176
 2.8041   170
 2.8141   177
 2.8241   166
 2.8341   176
 2.8441   167
 2.8541   175
 2.8641   152
 2.8741   167
 2.8841   162
 2.8941   162
 2.9041   146
 2.9141   188
 2.9241   161
 2.9341   143
 2.9441   149
 2.9541   139
 2.9641   185
 2.9741   140
 2.9841   142
 2.9941   147
 3.0041   183
 3.0141   137
 3.0241   147
 3.0341   157
 3.0441   157
 3.0541   153
 3.0641   136
 3.0741   150
 3.0841   140
 3.0941   146
 3.1041   139
 3.1141   141
 3.1241   142
 3.1341   155
 3.1441   158
 3.1541   132
 3.1641   141
 3.1741   142
 3.1841   130
 3.1941   143
 3.2041   135
 3.2141   154
 3.2241   176
 3.2341   188
 3.2441   208
 3.2541   244
 3.2641   281
 3.2741   289
 3.2841   325
 3.2941   342
 3.3041   330
 3.3141   348
 3.3241   361
 3.3341   342
 3.3441   319
 3.3541   319
 3.3641   249
 3.3741   223
 3.3841   178
 3.3941   158
 3.4041   146
 3.4141   138
 3.4241   148
 3.4341   126
 3.4441   127
 3.4541   117
 3.4641   133
 3.4741   138
 3.4841   142
 3.4941   143
 3.5041   146
 3.5141   126
 3.5241   180
 3.5341   174
 3.5441   192
 3.5541   220
 3.5641   261
 3.5741   332
 3.5841   380
 3.5941   507
 3.6041   607
 3.6141   783
 3.6241   995
 3.6341  1211
 3.6441  1564
 3.6541  1821
 3.6641  2067
 3.6741  2240
 3.6841  2297
 3.6941  2298
 3.7041  2232
 3.7141  2027
 3.7241  1813
 3.7341  1662
 3.7441  1308
 3.7541  1027
 3.7641   789
 3.7741   585
 3.7841   460
 3.7941   319
 3.8041   235
 3.8141   206
 3.8241   151
 3.8341   146
 3.8441   112
 3.8541   123
 3.8641   130
 3.8741   130
 3.8841   150
 3.8941   151
 3.9041   163
 3.9141   166
 3.9241   192
 3.9341   233
 3.9441   239
 3.9541   295
 3.9641   339
 3.9741   375
 3.9841   395
 3.9941   405
 4.0041   446
 4.0141   459
 4.0241   443
 4.0341   419
 4.0441   388
 4.0541   357
 4.0641   324
 4.0741   294
 4.0841   237
 4.0941   172
 4.1041   168
 4.1141   129
 4.1241   141
 4.1341   115
 4.1441   118
 4.1541   100
 4.1641    89
 4.1741    98
 4.1841   100
 4.1941    80
 4.2041   103
 4.2141    90
 4.2241    91
 4.2341    99
 4.2441    98
 4.2541    76
 4.2641   102
 4.2741    99
 4.2841   103
 4.2941   100
 4.3041    87
 4.3141    94
 4.3241   103
 4.3341   103
 4.3441   103
 4.3541   100
 4.3641   110
 4.3741   117
 4.3841   134
 4.3941   142
 4.4041   164
 4.4141   177
 4.4241   221
 4.4341   233
 4.4441   292
 4.4541   363
 4.4641   385
 4.4741   398
 4.4841   472
 4.4941   502
 4.5041   491
 4.5141   482
 4.5241   457
 4.5341   417
 4.5441   386
 4.5541   345
 4.5641   285
 4.5741   260
 4.5841   199
 4.5941   190
 4.6041   161
 4.6141   173
 4.6241   161
 4.6341   140
 4.6441   113
 4.6541   121
 4.6641   115
 4.6741   116
 4.6841   110
 4.6941   116
 4.7041   112
 4.7141   102
 4.7241   113
 4.7341   115
 4.7441   115
 4.7541   102
 4.7641   116
 4.7741   111
 4.7841   116
 4.7941   119
 4.8041   117
 4.8141   143
 4.8241   155
 4.8341   155
 4.8441   152
 4.8541   150
 4.8641   190
 4.8741   181
 4.8841   178
 4.8941   181
 4.9041   176
 4.9141   184
 4.9241   193
 4.9341   187
 4.9441   159
 4.9541   166
 4.9641   163
 4.9741   158
 4.9841   164
 4.9941   144
 5.0041   165
 5.0141   169
 5.0241   131
 5.0341   125
 5.0441   124
 5.0541   121
 5.0641   115
 5.0741   111
 5.0841   129
 5.0941   124
 5.1041   120
 5.1141   114
 5.1241   122
 5.1341   137
 5.1441    97
 5.1541   116
 5.1641   106
 5.1741   103
 5.1841   109
 5.1941   110
 5.2041   107
 5.2141   115
 5.2241    97
 5.2341   123
 5.2441   112
 5.2541   105
 5.2641   116
 5.2741   116
 5.2841   128
 5.2941   115
 5.3041   119
 5.3141   117
 5.3241   117
 5.3341   141
 5.3441   106
 5.3541   125
 5.3641   134
 5.3741   118
 5.3841   120
 5.3941   129
 5.4041   121
 5.4141   157
 5.4241   144
 5.4341   142
 5.4441   140
 5.4541   132
 5.4641   142
 5.4741   129
 5.4841   137
 5.4941   121
 5.5041   141
 5.5141   118
 5.5241   119
 5.5341   140
 5.5441   119
 5.5541   136
 5.5641   126
 5.5741   105
 5.5841   136
 5.5941   123
 5.6041   128
 5.6141   127
 5.6241   116
 5.6341   124
 5.6441   111
 5.6541   102
 5.6641   107
 5.6741   131
 5.6841   113
 5.6941   145
 5.7041   109
 5.7141   124
 5.7241   122
 5.7341   130
 5.7441   150
 5.7541   123
 5.7641   167
 5.7741   148
 5.7841   186
 5.7941   187
 5.8041   229
 5.8141   261
 5.8241   268
 5.8341   300
 5.8441   302
 5.8541   349
 5.8641   387
 5.8741   386
 5.8841   396
 5.8941   416
 5.9041   413
 5.9141   367
 5.9241   384
 5.9341   362
 5.9441   302
 5.9541   253
 5.9641   238
 5.9741   230
 5.9841   201
 5.9941   197
 6.0041   167
 6.0141   146
 6.0241   159
 6.0341   143
 6.0441   160
 6.0541   140
 6.0641   177
 6.0741   127
 6.0841   161
 6.0941   145
 6.1041   159
 6.1141   165
 6.1241   178
 6.1341   155
 6.1441   155
 6.1541   182
 6.1641   194
 6.1741   195
 6.1841   240
 6.1941   264
 6.2041   285
 6.2141   351
 6.2241   449
 6.2341   617
 6.2441   767
 6.2541  1145
 6.2641  1580
 6.2741  2149
 6.2841  2774
 6.2941  3670
 6.3041  4751
 6.3141  6111
 6.3241  7457
 6.3341  8863
 6.3441 10346
 6.3541 11823
 6.3641 13178
 6.3741 14711
 6.3841 15279
 6.3941 15795
 6.4041 15602
 6.4141 15101
 6.4241 14393
 6.4341 13106
 6.4441 11970
 6.4541 10127
 6.4641  8785
 6.4741  7249
 6.4841  5883
 6.4941  4518
 6.5041  3464
 6.5141  2679
 6.5241  1944
 6.5341  1424
 6.5441   986
 6.5541   763
 6.5641   546
 6.5741   404
 6.5841   299
 6.5941   235
 6.6041   237
 6.6141   203
 6.6241   193
 6.6341   198
 6.6441   175
 6.6541   194
 6.6641   191
 6.6741   184
 6.6841   185
 6.6941   160
 6.7041   185
 6.7141   192
 6.7241   192
 6.7341   199
 6.7441   212
 6.7541   168
 6.7641   193
 6.7741   192
 6.7841   192
 6.7941   220
 6.8041   190
 6.8141   220
 6.8241   240
 6.8341   199
 6.8441   234
 6.8541   250
 6.8641   252
 6.8741   280
 6.8841   304
 6.8941   328
 6.9041   379
 6.9141   549
 6.9241   608
 6.9341   707
 6.9441   852
 6.9541   987
 6.9641  1166
 6.9741  1349
 6.9841  1640
 6.9941  1899
 7.0041  2060
 7.0141  2239
 7.0241  2487
 7.0341  2578
 7.0441  2738
 7.0541  2801
 7.0641  2701
 7.0741  2691
 7.0841  2492
 7.0941  2298
 7.1041  2096
 7.1141  1908
 7.1241  1607
 7.1341  1403
 7.1441  1149
 7.1541   961
 7.1641   811
 7.1741   687
 7.1841   612
 7.1941   464
 7.2041   421
 7.2141   373
 7.2241   320
 7.2341   315
 7.2441   289
 7.2541   261
 7.2641   270
 7.2741   266
 7.2841   269
 7.2941   295
 7.3041   277
 7.3141   309
 7.3241   309
 7.3341   324
 7.3441   318
 7.3541   347
 7.3641   353
 7.3741   319
 7.3841   333
 7.3941   296
 7.4041   321
 7.4141   359
 7.4241   346
 7.4341   344
 7.4441   347
 7.4541   317
 7.4641   326
 7.4741   288
 7.4841   272
 7.4941   298
 7.5041   283
 7.5141   305
 7.5241   275
 7.5341   246
 7.5441   263
 7.5541   266
 7.5641   265
 7.5741   255
 7.5841   228
 7.5941   286
 7.6041   238
 7.6141   251
 7.6241   285
 7.6341   237
 7.6441   279
 7.6541   275
 7.6641   277
 7.6741   282
 7.6841   298
 7.6941   287
 7.7041   280
 7.7141   300
 7.7241   275
 7.7341   289
 7.7441   331
 7.7541   330
 7.7641   327
 7.7741   306
 7.7841   352
 7.7941   368
 7.8041   384
 7.8141   366
 7.8241   368
 7.8341   374
 7.8441   377
 7.8541   342
 7.8641   370
 7.8741   402
 7.8841   405
 7.8941   409
 7.9041   471
 7.9141   507
 7.9241   435
 7.9341   534
 7.9441   530
 7.9541   574
 7.9641   622
 7.9741   636
 7.9841   667
 7.9941   725
 8.0041   758
 8.0141   870
 8.0241   908
 8.0341   995
 8.0441  1010
 8.0541  1115
 8.0641  1118
 8.0741  1240
 8.0841  1294
 8.0941  1409
 8.1041  1483
 8.1141  1518
 8.1241  1533
 8.1341  1637
 8.1441  1698
 8.1541  1701
 8.1641  1826
 8.1741  1856
 8.1841  1887
 8.1941  1880
 8.2041  1841
 8.2141  1870
 8.2241  1919
 8.2341  1925
 8.2441  1994
 8.2541  2082
 8.2641  2177
 8.2741  2182
 8.2841  2428
 8.2941  2547
 8.3041  2787
 8.3141  2890
 8.3241  3215
 8.3341  3427
 8.3441  3726
 8.3541  3772
 8.3641  3912
 8.3741  3967
 8.3841  4042
 8.3941  4122
 8.4041  3911
 8.4141  3840
 8.4241  3619
 8.4341  3329
 8.4441  3116
 8.4541  2888
 8.4641  2439
 8.4741  2210
 8.4841  1875
 8.4941  1572
 8.5041  1348
 8.5141  1150
 8.5241   961
 8.5341   829
 8.5441   728
 8.5541   636
 8.5641   606
 8.5741   511
 8.5841   475
 8.5941   505
 8.6041   485
 8.6141   497
 8.6241   518
 8.6341   463
 8.6441   483
 8.6541   464
 8.6641   482
 8.6741   494
 8.6841   482
 8.6941   451
 8.7041   473
 8.7141   496
 8.7241   454
 8.7341   469
 8.7441   475
 8.7541   465
 8.7641   449
 8.7741   431
 8.7841   432
 8.7941   455
 8.8041   426
 8.8141   365
 8.8241   412
 8.8341   419
 8.8441   429
 8.8541   444
 8.8641   449
 8.8741   436
 8.8841   423
 8.8941   418
 8.9041   443
 8.9141   433
 8.9241   429
 8.9341   431
 8.9441   451
 8.9541   446
 8.9641   478
 8.9741   526
 8.9841   487
 8.9941   510
 9.0041   520
 9.0141   501
 9.0241   509
 9.0341   534
 9.0441   593
 9.0541   591
 9.0641   590
 9.0741   617
 9.0841   598
 9.0941   616
 9.1041   634
 9.1141   636
 9.1241   722
 9.1341   752
 9.1441   762
 9.1541   774
 9.1641   807
 9.1741   831
 9.1841   896
 9.1941   959
 9.2041  1005
 9.2141  1033
 9.2241  1040
 9.2341  1127
 9.2441  1152
 9.2541  1204
 9.2641  1287
 9.2741  1288
 9.2841  1392
 9.2941  1442
 9.3041  1492
 9.3141  1568
 9.3241  1590
 9.3341  1636
 9.3441  1691
 9.3541  1756
 9.3641  1729
 9.3741  1786
 9.3841  1864
 9.3941  1841
 9.4041  1921
 9.4141  1880
 9.4241  1901
 9.4341  1973
 9.4441  1969
 9.4541  1984
 9.4641  2051
 9.4741  2066
 9.4841  2155
 9.4941  2186
 9.5041  2166
 9.5141  2213
 9.5241  2312
 9.5341  2424
 9.5441  2494
 9.5541  2612
 9.5641  2665
 9.5741  2818
 9.5841  3068
 9.5941  3241
 9.6041  3363
 9.6141  3580
 9.6241  3805
 9.6341  3953
 9.6441  3984
 9.6541  4155
 9.6641  4037
 9.6741  4047
 9.6841  4053
 9.6941  3962
 9.7041  3869
 9.7141  3671
 9.7241  3377
 9.7341  3109
 9.7441  2978
 9.7541  2697
 9.7641  2601
 9.7741  2357
 9.7841  2175
 9.7941  2072
 9.8041  1923
 9.8141  1817
 9.8241  1768
 9.8341  1699
 9.8441  1696
 9.8541  1683
 9.8641  1715
 9.8741  1747
 9.8841  1722
 9.8941  1744
 9.9041  1807
 9.9141  1896
 9.9241  1928
 9.9341  1916
 9.9441  1933
 9.9541  1945
 9.9641  1887
 9.9741  1857
 9.9841  1813
 9.9941  1766
10.0041  1609
10.0141  1506
10.0241  1398
10.0341  1279
10.0441  1139
10.0541  1048
10.0641   946
10.0741   825
10.0841   770
10.0941   671
10.1041   594
10.1141   542
10.1241   514
10.1341   490
10.1441   412
10.1541   386
10.1641   395
10.1741   361
10.1841   366
10.1941   347
10.2041   341
10.2141   318
10.2241   299
10.2341   301
10.2441   302
10.2541   296
10.2641   298
10.2741   299
10.2841   293
10.2941   301
10.3041   280
10.3141   252
10.3241   243
10.3341   236
10.3441   226
10.3541   242
10.3641   253
10.3741   266
10.3841   246
10.3941   231
10.4041   243
10.4141   236
10.4241   244
10.4341   259
10.4441   235
10.4541   273
10.4641   255
10.4741   279
10.4841   255
10.4941   285
10.5041   287
10.5141   238
10.5241   248
10.5341   250
10.5441   265
10.5541   274
10.5641   268
10.5741   285
10.5841   269
10.5941   276
10.6041   271
10.6141   292
10.6241   295
10.6341   279
10.6441   282
10.6541   288
10.6641   293
10.6741   299
10.6841   295
10.6941   299
10.7041   299
10.7141   327
10.7241   338
10.7341   312
10.7441   307
10.7541   339
10.7641   338
10.7741   350
10.7841   370
10.7941   399
10.8041   413
10.8141   392
10.8241   396
10.8341   400
10.8441   405
10.8541   392
10.8641   375
10.8741   403
10.8841   418
10.8941   395
10.9041   418
10.9141   452
10.9241   435
10.9341   427
10.9441   449
10.9541   443
10.9641   460
10.9741   441
10.9841   463
10.9941   452
11.0041   418
11.0141   421
11.0241   396
11.0341   395
11.0441   378
11.0541   388
11.0641   381
11.0741   388
11.0841   390
11.0941   373
11.1041   368
11.1141   348
11.1241   362
11.1341   398
11.1441   402
11.1541   416
11.1641   427
11.1741   453
11.1841   461
11.1941   461
11.2041   491
11.2141   513
11.2241   541
11.2341   563
11.2441   589
11.2541   586
11.2641   596
11.2741   598
11.2841   633
11.2941   592
11.3041   586
11.3141   574
11.3241   563
11.3341   547
11.3441   527
11.3541   504
11.3641   459
11.3741   446
11.3841   431
11.3941   399
11.4041   366
11.4141   356
11.4241   344
11.4341   337
11.4441   320
11.4541   325
11.4641   324
11.4741   319
11.4841   281
11.4941   282
11.5041   308
11.5141   296
11.5241   292
11.5341   297
11.5441   302
11.5541   305
11.5641   291
11.5741   283
11.5841   301
11.5941   309
11.6041   308
11.6141   321
11.6241   328
11.6341   323
11.6441   305
11.6541   327
11.6641   323
11.6741   304
11.6841   312
11.6941   286
11.7041   298
11.7141   294
11.7241   277
11.7341   279
11.7441   269
11.7541   286
11.7641   262
11.7741   232
11.7841   240
11.7941   228
11.8041   234
11.8141   234
11.8241   238
11.8341   232
11.8441   216
11.8541   221
11.8641   239
11.8741   243
11.8841   226
11.8941   225
11.9041   211
11.9141   231
11.9241   240
11.9341   210
11.9441   222
11.9541   235
11.9641   227
11.9741   216
11.9841   226
11.9941   234
12.0041   247
12.0141   236
12.0241   224
12.0341   245
12.0441   259
12.0541   228
12.0641   221
12.0741   233
12.0841   235
12.0941   228
12.1041   216
12.1141   230
12.1241   224
12.1341   224
12.1441   224
12.1541   233
12.1641   232
12.1741   218
12.1841   221
12.1941   226
12.2041   215
12.2141   219
12.2241   218
12.2341   215
12.2441   212
12.2541   207
12.2641   207
12.2741   222
12.2841   205
12.2941   193
12.3041   205
12.3141   205
12.3241   230
12.3341   248
12.3441   233
12.3541   223
12.3641   208
12.3741   215
12.3841   231
12.3941   228
12.4041   227
12.4141   231
12.4241   255
12.4341   248
12.4441   233
12.4541   219
12.4641   224
12.4741   255
12.4841   259
12.4941   228
12.5041   226
12.5141   242
12.5241   238
12.5341   245
12.5441   248
12.5541   239
12.5641   236
12.5741   240
12.5841   258
12.5941   254
12.6041   241
12.6141   246
12.6241   243
12.6341   240
12.6441   254
12.6541   249
12.6641   250
12.6741   249
12.6841   241
12.6941   256
12.7041   267
12.7141   247
12.7241   237
12.7341   259
12.7441   254
12.7541   242
12.7641   258
12.7741   258
12.7841   245
12.7941   251
12.8041   249
12.8141   249
12.8241   250
12.8341   255
12.8441   241
12.8541   252
12.8641   264
12.8741   264
12.8841   264
12.8941   254
12.9041   262
12.9141   258
12.9241   255
12.9341   260
12.9441   272
12.9541   281
12.9641   270
12.9741   270
12.9841   260
12.9941   271
13.0041   289
13.0141   278
13.0241   286
13.0341   273
13.0441   260
13.0541   286
13.0641   282
13.0741   257
13.0841   269
13.0941   283
13.1041   265
13.1141   265
13.1241   279
13.1341   295
13.1441   280
13.1541   290
13.1641   312
13.1741   305
13.1841   303
13.1941   294
13.2041   302
13.2141   324
13.2241   319
13.2341   326
13.2441   356
13.2541   358
13.2641   360
13.2741   385
13.2841   411
13.2941   448
13.3041   461
13.3141   440
13.3241   440
13.3341   450
13.3441   481
13.3541   507
13.3641   512
13.3741   510
13.3841   510
13.3941   476
13.4041   479
13.4141   474
13.4241   462
13.4341   468
13.4441   448
13.4541   433
13.4641   418
13.4741   413
13.4841   412
13.4941   373
13.5041   339
13.5141   350
13.5241   340
13.5341   341
13.5441   337
13.5541   325
13.5641   332
13.5741   331
13.5841   334
13.5941   335
13.6041   332
13.6141   334
13.6241   317
13.6341   296
13.6441   314
13.6541   319
13.6641   311
13.6741   300
13.6841   305
13.6941   313
13.7041   320
13.7141   326
13.7241   324
13.7341   325
13.7441   319
13.7541   310
13.7641   307
13.7741   322
13.7841   306
13.7941   281
13.8041   309
13.8141   342
13.8241   342
13.8341   340
13.8441   329
13.8541   312
13.8641   319
13.8741   348
13.8841   371
13.8941   355
13.9041   353
13.9141   366
13.9241   369
13.9341   382
13.9441   397
13.9541   423
13.9641   443
13.9741   476
13.9841   518
13.9941   534
14.0041   537
14.0141   559
14.0241   624
14.0341   702
14.0441   715
14.0541   741
14.0641   822
14.0741   898
14.0841   933
14.0941   941
14.1041   960
14.1141   977
14.1241   999
14.1341  1009
14.1441  1023
14.1541  1044
14.1641  1063
14.1741  1019
14.1841   971
14.1941   953
14.2041   932
14.2141   907
14.2241   850
14.2341   789
14.2441   733
14.2541   663
14.2641   608
14.2741   591
14.2841   574
14.2941   529
14.3041   518
14.3141   522
14.3241   494
14.3341   443
14.3441   405
14.3541   400
14.3641   390
14.3741   388
14.3841   372
14.3941   360
14.4041   381
14.4141   371
14.4241   360
14.4341   368
14.4441   370
14.4541   352
14.4641   356
14.4741   355
14.4841   360
14.4941   375
14.5041   361
14.5141   352
14.5241   356
14.5341   381
14.5441   395
14.5541   377
14.5641   374
14.5741   373
14.5841   391
14.5941   387
14.6041   377
14.6141   382
14.6241   382
14.6341   389
14.6441   384
14.6541   388
14.6641   405
14.6741   406
14.6841   387
14.6941   402
14.7041   390
14.7141   388
14.7241   395
14.7341   390
14.7441   429
14.7541   449
14.7641   423
14.7741   412
14.7841   403
14.7941   390
14.8041   413
14.8141   440
14.8241   449
14.8341   457
14.8441   439
14.8541   446
14.8641   442
14.8741   422
14.8841   448
14.8941   473
14.9041   490
14.9141   471
14.9241   460
14.9341   480
14.9441   453
14.9541   456
14.9641   480
14.9741   494
14.9841   483
14.9941   485
15.0041   489
15.0141   487
15.0241   465
15.0341   454
15.0441   466
15.0541   476
15.0641   471
15.0741   460
15.0841   464
15.0941   447
15.1041   448
15.1141   440
15.1241   429
15.1341   453
15.1441   467
15.1541   453
15.1641   431
15.1741   428
15.1841   440
15.1941   425
15.2041   435
15.2141   451
15.2241   451
15.2341   414
15.2441   429
15.2541   456
15.2641   443
15.2741   435
15.2841   441
15.2941   446
15.3041   453
15.3141   442
15.3241   445
15.3341   460
15.3441   428
15.3541   427
15.3641   440
15.3741   457
15.3841   432
15.3941   430
15.4041   454
15.4141   458
15.4241   439
15.4341   431
15.4441   448
15.4541   458
15.4641   477
15.4741   495
15.4841   473
15.4941   479
15.5041   486
15.5141   469
15.5241   465
15.5341   463
15.5441   503
15.5541   504
15.5641   516
15.5741   537
15.5841   545
15.5941   567
15.6041   589
15.6141   586
15.6241   637
15.6341   673
15.6441   639
15.6541   666
15.6641   737
15.6741   729
15.6841   734
15.6941   781
15.7041   779
15.7141   780
15.7241   848
15.7341   884
15.7441   888
15.7541   859
15.7641   870
15.7741   902
15.7841   905
15.7941   899
15.8041   887
15.8141   840
15.8241   828
15.8341   845
15.8441   836
15.8541   793
15.8641   770
15.8741   756
15.8841   730
15.8941   706
15.9041   682
15.9141   642
15.9241   610
15.9341   587
15.9441   580
15.9541   560
15.9641   529
15.9741   532
15.9841   531
15.9941   534
16.0041   545
16.0141   548
16.0241   520
16.0341   519
16.0441   520
16.0541   509
16.0641   512
16.0741   525
16.0841   509
16.0941   526
16.1041   542
16.1141   524
16.1241   532
16.1341   535
16.1441   534
16.1541   516
16.1641   498
16.1741   521
16.1841   504
16.1941   533
16.2041   529
16.2141   542
16.2241   559
16.2341   540
16.2441   545
16.2541   528
16.2641   520
16.2741   524
16.2841   513
16.2941   529
16.3041   533
16.3141   521
16.3241   513
16.3341   503
16.3441   497
16.3541   535
16.3641   533
16.3741   552
16.3841   546
16.3941   498
16.4041   486
16.4141   534
16.4241   558
16.4341   554
16.4441   534
16.4541   530
16.4641   546
16.4741   546
16.4841   549
16.4941   580
16.5041   558
16.5141   602
16.5241   577
16.5341   590
16.5441   577
16.5541   549
16.5641   550
16.5741   557
16.5841   533
16.5941   545
16.6041   586
16.6141   573
16.6241   544
16.6341   559
16.6441   585
16.6541   583
16.6641   585
16.6741   586
16.6841   602
16.6941   576
16.7041   585
16.7141   594
16.7241   567
16.7341   567
16.7441   574
16.7541   580
16.7641   567
16.7741   591
16.7841   603
16.7941   553
16.8041   561
16.8141   607
16.8241   582
16.8341   543
16.8441   545
16.8541   567
16.8641   550
16.8741   567
16.8841   582
16.8941   602
16.9041   596
16.9141   577
16.9241   543
16.9341   565
16.9441   588
16.9541   566
16.9641   569
16.9741   570
16.9841   593
16.9941   595
17.0041   566
17.0141   575
17.0241   592
17.0341   574
17.0441   563
17.0541   573
17.0641   583
17.0741   607
17.0841   616
17.0941   630
17.1041   632
17.1141   629
17.1241   601
17.1341   599
17.1441   591
17.1541   608
17.1641   620
17.1741   572
17.1841   575
17.1941   592
17.2041   576
17.2141   566
17.2241   581
17.2341   647
17.2441   602
17.2541   601
17.2641   608
17.2741   619
17.2841   596
17.2941   624
17.3041   616
17.3141   637
17.3241   640
17.3341   633
17.3441   585
17.3541   579
17.3641   650
17.3741   637
17.3841   618
17.3941   616
17.4041   602
17.4141   608
17.4241   682
17.4341   651
17.4441   651
17.4541   615
17.4641   607
17.4741   654
17.4841   636
17.4941   637
17.5041   661
17.5141   622
17.5241   637
17.5341   671
17.5441   639
17.5541   656
17.5641   617
17.5741   663
17.5841   657
17.5941   683
17.6041   675
17.6141   700
17.6241   695
17.6341   726
17.6441   709
17.6541   700
17.6641   704
17.6741   698
17.6841   654
17.6941   660
17.7041   757
17.7141   702
17.7241   692
17.7341   702
17.7441   698
17.7541   680
17.7641   661
17.7741   659
17.7841   640
17.7941   648
17.8041   656
17.8141   672
17.8241   679
17.8341   677
17.8441   664
17.8541   686
17.8641   686
17.8741   668
17.8841   670
17.8941   670
17.9041   659
17.9141   678
17.9241   694
17.9341   680
17.9441   680
17.9541   652
17.9641   655
17.9741   686
17.9841   690
17.9941   692
18.0041   682
18.0141   668
18.0241   654
18.0341   671
18.0441   666
18.0541   669
18.0641   665
18.0741   664
18.0841   671
18.0941   656
18.1041   642
18.1141   711
18.1241   655
18.1341   647
18.1441   690
18.1541   662
18.1641   687
18.1741   647
18.1841   678
18.1941   706
18.2041   650
18.2141   675
18.2241   680
18.2341   676
18.2441   702
18.2541   724
18.2641   704
18.2741   667
18.2841   677
18.2941   696
18.3041   695
18.3141   665
18.3241   678
18.3341   690
18.3441   726
18.3541   698
18.3641   694
18.3741   691
18.3841   677
18.3941   658
18.4041   679
18.4141   685
18.4241   709
18.4341   720
18.4441   696
18.4541   698
18.4641   697
18.4741   676
18.4841   716
18.4941   686
18.5041   713
18.5141   720
18.5241   702
18.5341   698
18.5441   736
18.5541   728
18.5641   704
18.5741   681
18.5841   716
18.5941   722
18.6041   713
18.6141   722
18.6241   766
18.6341   721
18.6441   686
18.6541   695
18.6641   721
18.6741   679
18.6841   678
18.6941   688
18.7041   702
18.7141   707
18.7241   753
18.7341   722
18.7441   730
18.7541   720
18.7641   691
18.7741   732
18.7841   739
18.7941   724
18.8041   672
18.8141   709
18.8241   713
18.8341   716
18.8441   715
18.8541   708
18.8641   729
18.8741   759
18.8841   771
18.8941   736
18.9041   681
18.9141   729
18.9241   747
18.9341   716
18.9441   732
18.9541   761
18.9641   741
18.9741   734
18.9841   756
18.9941   747
19.0041   766
19.0141   735
19.0241   740
19.0341   726
19.0441   764
19.0541   741
19.0641   687
19.0741   676
19.0841   716
19.0941   686
19.1041   715
19.1141   733
19.1241   768
19.1341   780
19.1441   714
19.1541   735
19.1641   740
19.1741   742
19.1841   750
19.1941   715
19.2041   734
19.2141   769
19.2241   751
19.2341   699
19.2441   773
19.2541   773
19.2641   756
19.2741   744
19.2841   764
19.2941   710
19.3041   727
19.3141   735
19.3241   755
19.3341   767
19.3441   785
19.3541   791
19.3641   736
19.3741   757
19.3841   784
19.3941   741
19.4041   716
19.4141   779
19.4241   721
19.4341   747
19.4441   756
19.4541   757
19.4641   754
19.4741   723
19.4841   749
19.4941   740
19.5041   753
19.5141   772
19.5241   780
19.5341   705
19.5441   766
19.5541   780
19.5641   741
19.5741   750
19.5841   769
19.5941   789
19.6041   762
19.6141   720
19.6241   740
19.6341   734
19.6441   753
19.6541   752
19.6641   736
19.6741   765
19.6841   753
19.6941   755
19.7041   764
19.7141   717
19.7241   788
19.7341   775
19.7441   802
19.7541   783
19.7641   761
19.7741   756
19.7841   739
19.7941   744
19.8041   765
19.8141   773
19.8241   800
19.8341   739
19.8441   750
19.8541   786
19.8641   774
19.8741   803
19.8841   756
19.8941   761
19.9041   802
19.9141   788
19.9241   795
19.9341   764
19.9441   768
19.9541   771
19.9641   792
19.9741   758
19.9841   829
19.9941   807
20.0041   753
20.0141   753
20.0241   775
20.0341   762
20.0441   725
20.0541   759
20.0641   757
20.0741   774
20.0841   752
20.0941   783
20.1041   756
20.1141   742
20.1241   801
20.1341   739
20.1441   745
20.1541   783
20.1641   789
20.1741   757
20.1841   743
20.1941   773
20.2041   788
20.2141   779
20.2241   776
20.2341   806
20.2441   779
20.2541   777
20.2641   763
20.2741   795
20.2841   762
20.2941   744
20.3041   760
20.3141   734
20.3241   762
20.3341   735
20.3441   733
20.3541   764
20.3641   807
20.3741   787
20.3841   795
20.3941   784
20.4041   758
20.4141   787
20.4241   742
20.4341   736
20.4441   763
20.4541   773
20.4641   800
20.4741   829
20.4841   785
20.4941   726
20.5041   817
20.5141   773
20.5241   781
20.5341   732
20.5441   747
20.5541   766
20.5641   768
20.5741   802
20.5841   770
20.5941   772
20.6041   771
20.6141   768
20.6241   771
20.6341   842
20.6441   778
20.6541   808
20.6641   793
20.6741   755
20.6841   741
20.6941   778
20.7041   798
20.7141   781
20.7241   726
20.7341   775
20.7441   809
20.7541   827
20.7641   800
20.7741   802
20.7841   724
20.7941   842
20.8041   764
20.8141   785
20.8241   766
20.8341   841
20.8441   871
20.8541   883
20.8641   787
20.8741   808
20.8841   818
20.8941   874
20.9041   894
20.9141   894
20.9241   962
20.9341   893
20.9441   888
20.9541   877
20.9641   969
20.9741   975
20.9841   977
20.9941  1020
21.0041   989
21.0141  1041
21.0241   989
21.0341  1054
21.0441  1128
21.0541  1102
21.0641  1150
21.0741  1144
21.0841  1191
21.0941  1145
21.1041  1086
21.1141  1154
21.1241  1221
21.1341  1185
21.1441  1111
21.1541  1139
21.1641  1160
21.1741  1102
21.1841  1147
21.1941  1042
21.2041  1058
21.2141  1056
21.2241  1026
21.2341  1054
21.2441   979
21.2541  1017
21.2641   993
21.2741   946
21.2841   906
21.2941   943
21.3041   917
21.3141   871
21.3241   876
21.3341   861
21.3441   876
21.3541   806
21.3641   804
21.3741   825
21.3841   800
21.3941   793
21.4041   811
21.4141   819
21.4241   789
21.4341   819
21.4441   813
21.4541   798
21.4641   786
21.4741   795
21.4841   749
21.4941   797
21.5041   809
21.5141   832
21.5241   748
21.5341   763
21.5441   782
21.5541   802
21.5641   798
21.5741   752
21.5841   756
21.5941   744
21.6041   779
21.6141   786
21.6241   769
21.6341   791
21.6441   801
21.6541   776
21.6641   787
21.6741   775
21.6841   795
21.6941   765
21.7041   781
21.7141   750
21.7241   817
21.7341   740
21.7441   776
21.7541   771
21.7641   781
21.7741   796
21.7841   769
21.7941   766
21.8041   758
21.8141   744
21.8241   774
21.8341   758
21.8441   746
21.8541   796
21.8641   768
21.8741   760
21.8841   760
21.8941   811
21.9041   749
21.9141   769
21.9241   723
21.9341   777
21.9441   815
21.9541   787
21.9641   776
21.9741   728
21.9841   772
21.9941   757
22.0041   767
22.0141   791
22.0241   796
22.0341   787
22.0441   769
22.0541   760
22.0641   772
22.0741   746
22.0841   762
22.0941   822
22.1041   822
22.1141   805
22.1241   759
22.1341   773
22.1441   747
22.1541   791
22.1641   769
22.1741   767
22.1841   772
22.1941   796
22.2041   753
22.2141   797
22.2241   741
22.2341   792
22.2441   739
22.2541   770
22.2641   764
22.2741   754
22.2841   783
22.2941   748
22.3041   766
22.3141   809
22.3241   821
22.3341   765
22.3441   787
22.3541   742
22.3641   759
22.3741   777
22.3841   821
22.3941   757
22.4041   773
22.4141   751
22.4241   812
22.4341   746
22.4441   791
22.4541   744
22.4641   738
22.4741   735
22.4841   745
22.4941   776
22.5041   766
22.5141   766
22.5241   767
22.5341   753
22.5441   765
22.5541   773
22.5641   806
22.5741   741
22.5841   722
22.5941   719
22.6041   777
22.6141   780
22.6241   776
22.6341   775
22.6441   765
22.6541   779
22.6641   776
22.6741   731
22.6841   747
22.6941   781
22.7041   746
22.7141   752
22.7241   820
22.7341   811
22.7441   748
22.7541   753
22.7641   766
22.7741   756
22.7841   755
22.7941   757
22.8041   796
22.8141   807
22.8241   709
22.8341   783
22.8441   772
22.8541   727
22.8641   734
22.8741   732
22.8841   716
22.8941   720
22.9041   781
22.9141   739
22.9241   745
22.9341   767
22.9441   736
22.9541   756
22.9641   702
22.9741   738
22.9841   744
22.9941   761
23.0041   776
23.0141   734
23.0241   784
23.0341   743
23.0441   739
23.0541   717
23.0641   742
23.0741   764
23.0841   778
23.0941   753
23.1041   785
23.1141   738
23.1241   724
23.1341   796
23.1441   746
23.1541   710
23.1641   721
23.1741   780
23.1841   727
23.1941   732
23.2041   680
23.2141   748
23.2241   774
23.2341   694
23.2441   757
23.2541   808
23.2641   781
23.2741   739
23.2841   792
23.2941   745
23.3041   733
23.3141   759
23.3241   723
23.3341   708
23.3441   707
23.3541   758
23.3641   773
23.3741   710
23.3841   727
23.3941   689
23.4041   734
23.4141   750
23.4241   711
23.4341   743
23.4441   713
23.4541   700
23.4641   722
23.4741   711
23.4841   762
23.4941   711
23.5041   705
23.5141   735
23.5241   770
23.5341   742
23.5441   690
23.5541   734
23.5641   761
23.5741   698
23.5841   755
23.5941   735
23.6041   735
23.6141   746
23.6241   762
23.6341   762
23.6441   693
23.6541   735
23.6641   723
23.6741   743
23.6841   721
23.6941   775
23.7041   766
23.7141   757
23.7241   768
23.7341   745
23.7441   780
23.7541   757
23.7641   800
23.7741   826
23.7841   799
23.7941   790
23.8041   814
23.8141   768
23.8241   696
23.8341   771
23.8441   783
23.8541   797
23.8641   781
23.8741   769
23.8841   752
23.8941   799
23.9041   736
23.9141   804
23.9241   722
23.9341   737
23.9441   734
23.9541   683
23.9641   747
23.9741   723
23.9841   743
23.9941   776
24.0041   734
24.0141   745
24.0241   700
24.0341   698
24.0441   713
24.0541   723
24.0641   699
24.0741   687
24.0841   686
24.0941   694
24.1041   686
24.1141   728
24.1241   706
24.1341   654
24.1441   758
24.1541   695
24.1641   686
24.1741   678
24.1841   724
24.1941   703
24.2041   687
24.2141   693
24.2241   649
24.2341   716
24.2441   740
24.2541   720
24.2641   665
24.2741   709
24.2841   709
24.2941   699
24.3041   682
24.3141   701
24.3241   704
24.3341   658
24.3441   690
24.3541   648
24.3641   702
24.3741   672
24.3841   678
24.3941   744
24.4041   723
24.4141   692
24.4241   695
24.4341   660
24.4441   681
24.4541   712
24.4641   679
24.4741   691
24.4841   659
24.4941   661
24.5041   676
24.5141   683
24.5241   694
24.5341   626
24.5441   672
24.5541   644
24.5641   679
24.5741   696
24.5841   705
24.5941   677
24.6041   679
24.6141   669
24.6241   676
24.6341   653
24.6441   644
24.6541   693
24.6641   650
24.6741   650
24.6841   648
24.6941   691
24.7041   687
24.7141   695
24.7241   655
24.7341   656
24.7441   702
24.7541   671
24.7641   629
24.7741   665
24.7841   671
24.7941   700
24.8041   646
24.8141   647
24.8241   683
24.8341   631
24.8441   695
24.8541   634
24.8641   708
24.8741   652
24.8841   646
24.8941   707
24.9041   661
24.9141   702
24.9241   692
24.9341   620
24.9441   629
24.9541   667
24.9641   661
24.9741   644
24.9841   649
24.9941   658
25.0041   612
25.0141   674
25.0241   694
25.0341   659
25.0441   656
25.0541   673
25.0641   663
25.0741   629
25.0841   630
25.0941   634
25.1041   684
25.1141   664
25.1241   645
25.1341   676
25.1441   661
25.1541   643
25.1641   663
25.1741   680
25.1841   657
25.1941   651
25.2041   648
25.2141   698
25.2241   693
25.2341   688
25.2441   674
25.2541   651
25.2641   669
25.2741   650
25.2841   634
25.2941   665
25.3041   618
25.3141   665
25.3241   657
25.3341   672
25.3441   653
25.3541   661
25.3641   666
25.3741   617
25.3841   594
25.3941   618
25.4041   654
25.4141   653
25.4241   637
25.4341   621
25.4441   598
25.4541   637
25.4641   654
25.4741   675
25.4841   610
25.4941   673
25.5041   578
25.5141   630
25.5241   580
25.5341   654
25.5441   628
25.5541   615
25.5641   595
25.5741   628
25.5841   657
25.5941   614
25.6041   635
25.6141   621
25.6241   591
25.6341   574
25.6441   573
25.6541   590
25.6641   598
25.6741   649
25.6841   638
25.6941   632
25.7041   614
25.7141   641
25.7241   642
25.7341   635
25.7441   618
25.7541   566
25.7641   592
25.7741   615
25.7841   657
25.7941   627
25.8041   617
25.8141   620
25.8241   577
25.8341   628
25.8441   644
25.8541   608
25.8641   601
25.8741   557
25.8841   623
25.8941   611
25.9041   614
25.9141   628
25.9241   581
25.9341   624
25.9441   570
25.9541   598
25.9641   618
25.9741   575
25.9841   632
25.9941   579
26.0041   648
26.0141   635
26.0241   572
26.0341   597
26.0441   582
26.0541   568
26.0641   575
26.0741   618
26.0841   605
26.0941   608
26.1041   583
26.1141   585
26.1241   604
26.1341   586
26.1441   595
26.1541   592
26.1641   589
26.1741   575
26.1841   598
26.1941   565
26.2041   560
26.2141   587
26.2241   584
26.2341   588
26.2441   550
26.2541   562
26.2641   570
26.2741   586
26.2841   575
26.2941   570
26.3041   582
26.3141   621
26.3241   558
26.3341   541
26.3441   594
26.3541   595
26.3641   582
26.3741   597
26.3841   562
26.3941   564
26.4041   566
26.4141   557
26.4241   560
26.4341   560
26.4441   545
26.4541   581
26.4641   548
26.4741   572
26.4841   559
26.4941   562
26.5041   578
26.5141   568
26.5241   592
26.5341   612
26.5441   570
26.5541   573
26.5641   587
26.5741   564
26.5841   558
26.5941   582
26.6041   571
26.6141   575
26.6241   619
26.6341   550
26.6441   564
26.6541   573
26.6641   576
26.6741   553
26.6841   563
26.6941   543
26.7041   551
26.7141   538
26.7241   582
26.7341   605
26.7441   525
26.7541   522
26.7641   551
26.7741   509
26.7841   546
26.7941   576
26.8041   535
26.8141   575
26.8241   529
26.8341   504
26.8441   551
26.8541   533
26.8641   550
26.8741   544
26.8841   550
26.8941   541
26.9041   519
26.9141   543
26.9241   514
26.9341   520
26.9441   556
26.9541   533
26.9641   548
26.9741   556
26.9841   543
26.9941   533
27.0041   554
27.0141   598
27.0241   528
27.0341   530
27.0441   529
27.0541   511
27.0641   522
27.0741   563
27.0841   547
27.0941   578
27.1041   541
27.1141   562
27.1241   562
27.1341   503
27.1441   546
27.1541   491
27.1641   558
27.1741   536
27.1841   529
27.1941   521
27.2041   522
27.2141   545
27.2241   536
27.2341   539
27.2441   533
27.2541   558
27.2641   587
27.2741   554
27.2841   510
27.2941   510
27.3041   495
27.3141   510
27.3241   481
27.3341   501
27.3441   489
27.3541   549
27.3641   506
27.3741   499
27.3841   556
27.3941   539
27.4041   520
27.4141   523
27.4241   544
27.4341   513
27.4441   536
27.4541   495
27.4641   515
27.4741   494
27.4841   505
27.4941   503
27.5041   508
27.5141   510
27.5241   508
27.5341   541
27.5441   521
27.5541   526
27.5641   502
27.5741   506
27.5841   531
27.5941   504
27.6041   515
27.6141   535
27.6241   481
27.6341   507
27.6441   532
27.6541   486
27.6641   499
27.6741   521
27.6841   487
27.6941   466
27.7041   498
27.7141   481
27.7241   498
27.7341   491
27.7441   462
27.7541   500
27.7641   474
27.7741   474
27.7841   517
27.7941   518
27.8041   487
27.8141   496
27.8241   480
27.8341   511
27.8441   490
27.8541   462
27.8641   492
27.8741   502
27.8841   478
27.8941   468
27.9041   468
27.9141   459
27.9241   477
27.9341   462
27.9441   486
27.9541   512
27.9641   473
27.9741   483
27.9841   433
27.9941   456
28.0041   459
28.0141   484
28.0241   486
28.0341   470
28.0441   459
28.0541   514
28.0641   461
28.0741   455
28.0841   504
28.0941   446
28.1041   466
28.1141   485
28.1241   467
28.1341   454
28.1441   494
28.1541   491
28.1641   440
28.1741   498
28.1841   442
28.1941   448
28.2041   440
28.2141   489
28.2241   481
28.2341   457
28.2441   493
28.2541   475
28.2641   491
28.2741   464
28.2841   452
28.2941   461
28.3041   458
28.3141   449
28.3241   456
28.3341   478
28.3441   477
28.3541   455
28.3641   449
28.3741   441
28.3841   438
28.3941   449
28.4041   457
28.4141   471
28.4241   446
28.4341   479
28.4441   430
28.4541   450
28.4641   441
28.4741   459
28.4841   460
28.4941   458
28.5041   441
28.5141   435
28.5241   428
28.5341   447
28.5441   420
28.5541   489
28.5641   469
28.5741   496
28.5841   457
28.5941   478
28.6041   473
28.6141   457
28.6241   433
28.6341   448
28.6441   445
28.6541   428
28.6641   430
28.6741   427
28.6841   428
28.6941   435
28.7041   457
28.7141   443
28.7241   432
28.7341   414
28.7441   429
28.7541   384
28.7641   429
28.7741   412
28.7841   440
28.7941   409
28.8041   436
28.8141   476
28.8241   445
28.8341   396
28.8441   422
28.8541   457
28.8641   429
28.8741   379
28.8841   418
28.8941   446
28.9041   427
28.9141   451
28.9241   425
28.9341   420
28.9441   409
28.9541   434
28.9641   400
28.9741   459
28.9841   440
28.9941   417
29.0041   419
29.0141   426
29.0241   433
29.0341   408
29.0441   439
29.0541   396
29.0641   404
29.0741   390
29.0841   407
29.0941   437
29.1041   446
29.1141   415
29.1241   413
29.1341   422
29.1441   406
29.1541   381
29.1641   424
29.1741   396
29.1841   394
29.1941   416
29.2041   395
29.2141   398
29.2241   414
29.2341   430
29.2441   384
29.2541   416
29.2641   416
29.2741   404
29.2841   391
29.2941   441
29.3041   408
29.3141   395
29.3241   371
29.3341   384
29.3441   393
29.3541   402
29.3641   393
29.3741   395
29.3841   407
29.3941   389
29.4041   390
29.4141   396
29.4241   403
29.4341   371
29.4441   382
29.4541   357
29.4641   409
29.4741   375
29.4841   376
29.4941   372
29.5041   413
29.5141   388
29.5241   368
29.5341   381
29.5441   336
29.5541   353
29.5641   388
29.5741   380
29.5841   373
29.5941   391
29.6041   411
29.6141   388
29.6241   386
29.6341   381
29.6441   389
29.6541   375
29.6641   397
29.6741   397
29.6841   382
29.6941   366
29.7041   401
29.7141   404
29.7241   373
29.7341   382
29.7441   372
29.7541   401
29.7641   394
29.7741   382
29.7841   370
29.7941   384
29.8041   381
29.8141   377
29.8241   379
29.8341   347
29.8441   396
29.8541   372
29.8641   373
29.8741   381
29.8841   340
29.8941   386
29.9041   357
29.9141   371
29.9241   343
29.9341   366
29.9441   367
29.9541   340
29.9641   382
29.9741   322
29.9841   348
29.9941   361
30.0041   379
30.0141   368
30.0241   370
30.0341   340
30.0441   348
30.0541   389
30.0641   343
30.0741   359
30.0841   374
30.0941   364
30.1041   389
30.1141   371
30.1241   356
30.1341   345
30.1441   365
30.1541   386
30.1641   341
30.1741   342
30.1841   343
30.1941   382
30.2041   362
30.2141   338
30.2241   361
30.2341   357
30.2441   370
30.2541   337
30.2641   356
30.2741   386
30.2841   379
30.2941   331
30.3041   358
30.3141   332
30.3241   354
30.3341   382
30.3441   369
30.3541   391
30.3641   375
30.3741   362
30.3841   370
30.3941   353
30.4041   358
30.4141   344
30.4241   315
30.4341   338
30.4441   361
30.4541   336
30.4641   325
30.4741   326
30.4841   324
30.4941   310
30.5041   316
30.5141   370
30.5241   354
30.5341   352
30.5441   331
30.5541   342
30.5641   360
30.5741   310
30.5841   337
30.5941   356
30.6041   336
30.6141   310
30.6241   345
30.6341   349
30.6441   350
30.6541   339
30.6641   319
30.6741   352
30.6841   327
30.6941   303
30.7041   314
30.7141   337
30.7241   334
30.7341   325
30.7441   350
30.7541   347
30.7641   308
30.7741   321
30.7841   319
30.7941   317
30.8041   337
30.8141   367
30.8241   342
30.8341   309
30.8441   319
30.8541   320
30.8641   293
30.8741   293
30.8841   319
30.8941   301
30.9041   330
30.9141   315
30.9241   341
30.9341   327
30.9441   333
30.9541   306
30.9641   319
30.9741   340
30.9841   330
30.9941   306
31.0041   289
31.0141   308
31.0241   332
31.0341   304
31.0441   299
31.0541   306
31.0641   299
31.0741   328
31.0841   297
31.0941   291
31.1041   310
31.1141   304
31.1241   328
31.1341   298
31.1441   258
31.1541   317
31.1641   288
31.1741   294
31.1841   299
31.1941   314
31.2041   280
31.2141   301
31.2241   298
31.2341   292
31.2441   289
31.2541   302
31.2641   295
31.2741   321
31.2841   306
31.2941   300
31.3041   296
31.3141   320
31.3241   308
31.3341   296
31.3441   274
31.3541   282
31.3641   273
31.3741   296
31.3841   304
31.3941   273
31.4041   285
31.4141   294
31.4241   305
31.4341   289
31.4441   266
31.4541   259
31.4641   310
31.4741   290
31.4841   305
31.4941   299
31.5041   287
31.5141   309
31.5241   270
31.5341   250
31.5441   280
31.5541   282
31.5641   294
31.5741   298
31.5841   265
31.5941   283
31.6041   262
31.6141   277
31.6241   261
31.6341   306
31.6441   282
31.6541   309
31.6641   267
31.6741   287
31.6841   291
31.6941   300
31.7041   295
31.7141   299
31.7241   308
31.7341   294
31.7441   300
31.7541   297
31.7641   292
31.7741   304
31.7841   305
31.7941   283
31.8041   305
31.8141   313
31.8241   302
31.8341   302
31.8441   284
31.8541   280
31.8641   285
31.8741   291
31.8841   286
31.8941   279
31.9041   298
31.9141   286
31.9241   267
31.9341   289
31.9441   287
31.9541   289
31.9641   267
31.9741   291
31.9841   294
31.9941   281
32.0041   288
32.0141   287
32.0241   299
32.0341   277
32.0441   256
32.0541   268
32.0641   278
32.0741   301
32.0841   329
32.0941   311
32.1041   292
32.1141   298
32.1241   275
32.1341   268
32.1441   294
32.1541   275
32.1641   290
32.1741   299
32.1841   285
32.1941   286
32.2041   315
32.2141   284
32.2241   277
32.2341   293
32.2441   302
32.2541   294
32.2641   276
32.2741   297
32.2841   294
32.2941   287
32.3041   288
32.3141   279
32.3241   271
32.3341   268
32.3441   265
32.3541   274
32.3641   276
32.3741   250
32.3841   234
32.3941   244
32.4041   253
32.4141   277
32.4241   266
32.4341   245
32.4441   251
32.4541   255
32.4641   260
32.4741   242
32.4841   249
32.4941   234
32.5041   233
32.5141   258
32.5241   225
32.5341   234
32.5441   229
32.5541   227
32.5641   235
32.5741   232
32.5841   230
32.5941   255
32.6041   262
32.6141   230
32.6241   227
32.6341   240
32.6441   235
32.6541   231
32.6641   240
32.6741   249
32.6841   217
32.6941   253
32.7041   251
32.7141   243
32.7241   225
32.7341   242
32.7441   246
32.7541   248
32.7641   248
32.7741   229
32.7841   242
32.7941   245
32.8041   243
32.8141   212
32.8241   219
32.8341   209
32.8441   228
32.8541   221
32.8641   224
32.8741   267
32.8841   222
32.8941   231
32.9041   248
32.9141   242
32.9241   252
32.9341   230
32.9441   224
32.9541   218
32.9641   247
32.9741   229
32.9841   220
32.9941   218
33.0041   223
33.0141   217
33.0241   219
33.0341   222
33.0441   193
33.0541   212
33.0641   223
33.0741   216
33.0841   216
33.0941   221
33.1041   229
33.1141   203
33.1241   194
33.1341   178
33.1441   212
33.1541   196
33.1641   207
33.1741   191
33.1841   207
33.1941   204
33.2041   213
33.2141   194
33.2241   215
33.2341   229
33.2441   218
33.2541   235
33.2641   217
33.2741   226
33.2841   214
33.2941   218
33.3041   206
33.3141   192
33.3241   195
33.3341   199
33.3441   209
33.3541   215
33.3641   209
33.3741   211
33.3841   193
33.3941   190
33.4041   195
33.4141   192
33.4241   179
33.4341   221
33.4441   204
33.4541   202
33.4641   199
33.4741   198
33.4841   211
33.4941   234
33.5041   225
33.5141   216
33.5241   220
33.5341   202
33.5441   197
33.5541   223
33.5641   226
33.5741   200
33.5841   206
33.5941   213
33.6041   235
33.6141   191
33.6241   202
33.6341   201
33.6441   181
33.6541   169
33.6641   195
33.6741   209
33.6841   221
33.6941   173
33.7041   191
33.7141   201
33.7241   209
33.7341   206
33.7441   173
33.7541   201
33.7641   211
33.7741   195
33.7841   193
33.7941   213
33.8041   174
33.8141   182
33.8241   191
33.8341   201
33.8441   198
33.8541   198
33.8641   180
33.8741   187
33.8841   209
33.8941   185
33.9041   204
33.9141   201
33.9241   214
33.9341   178
33.9441   182
33.9541   180
33.9641   199
33.9741   171
33.9841   179
33.9941   176
34.0041   191
34.0141   187
34.0241   191
34.0341   197
34.0441   163
34.0541   168
34.0641   191
34.0741   183
34.0841   191
34.0941   180
34.1041   197
34.1141   166
34.1241   184
34.1341   185
34.1441   172
34.1541   165
34.1641   190
34.1741   173
34.1841   166
34.1941   190
34.2041   157
34.2141   180
34.2241   173
34.2341   169
34.2441   165
34.2541   188
34.2641   162
34.2741   189
34.2841   175
34.2941   180
34.3041   163
34.3141   185
34.3241   159
34.3341   155
34.3441   182
34.3541   178
34.3641   171
34.3741   190
34.3841   165
34.3941   187
34.4041   155
34.4141   180
34.4241   176
34.4341   183
34.4441   172
34.4541   174
34.4641   175
34.4741   169
34.4841   164
34.4941   182
34.5041   144
34.5141   170
34.5241   178
34.5341   163
34.5441   186
34.5541   174
34.5641   162
34.5741   170
34.5841   158
34.5941   166
34.6041   158
34.6141   179
34.6241   182
34.6341   160
34.6441   168
34.6541   149
34.6641   188
34.6741   180
34.6841   158
34.6941   165
34.7041   169
34.7141   158
34.7241   163
34.7341   144
34.7441   159
34.7541   160
34.7641   158
34.7741   155
34.7841   187
34.7941   140
34.8041   135
34.8141   148
34.8241   184
34.8341   167
34.8441   168
34.8541   154
34.8641   145
34.8741   151
34.8841   142
34.8941   177
34.9041   170
34.9141   170
34.9241   165
34.9341   169
34.9441   168
34.9541   143
34.9641   140
34.9741   133
34.9841   138
34.9941   144
35.0041   159
35.0141   135
35.0241   158
35.0341   150
35.0441   156
35.0541   149
35.0641   140
35.0741   160
35.0841   161
35.0941   141
35.1041   161
35.1141   142
35.1241   136
35.1341   144
35.1441   161
35.1541   145
35.1641   151
35.1741   160
35.1841   136
35.1941   132
35.2041   141
35.2141   131
35.2241   155
35.2341   149
35.2441   157
35.2541   136
35.2641   140
35.2741   144
35.2841   148
35.2941   132
35.3041   160
35.3141   143
35.3241   157
35.3341   138
35.3441   149
35.3541   135
35.3641   145
35.3741   155
35.3841   142
35.3941   131
35.4041   150
35.4141   144
35.4241   137
35.4341   145
35.4441   130
35.4541   136
35.4641   148
35.4741   140
35.4841   163
35.4941   146
35.5041   143
35.5141   145
35.5241   150
35.5341   149
35.5441   120
35.5541   125
35.5641   129
35.5741   134
35.5841   127
35.5941   124
35.6041   143
35.6141   137
35.6241   125
35.6341   151
35.6441   155
35.6541   129
35.6641   139
35.6741   136
35.6841   111
35.6941   133
35.7041   120
35.7141   132
35.7241   136
35.7341   135
35.7441   117
35.7541   121
35.7641   137
35.7741   133
35.7841   113
35.7941   117
35.8041   136
35.8141   131
35.8241   121
35.8341   113
35.8441   115
35.8541   125
35.8641   127
35.8741   129
35.8841   112
35.8941   121
35.9041   124
35.9141   122
35.9241   107
35.9341   122
35.9441   117
35.9541   135
35.9641   131
35.9741   127
35.9841   131
35.9941   129
36.0041   123
36.0141   137
36.0241   144
36.0341   125
36.0441   123
36.0541   108
36.0641   133
36.0741   123
36.0841   136
36.0941   112
36.1041   119
36.1141   126
36.1241   139
36.1341   126
36.1441   106
36.1541    95
36.1641   126
36.1741   117
36.1841   131
36.1941   121
36.2041   118
36.2141   141
36.2241   108
36.2341   107
36.2441   105
36.2541   132
36.2641   127
36.2741   108
36.2841   118
36.2941   112
36.3041   122
36.3141   121
36.3241   120
36.3341   124
36.3441   108
36.3541   108
36.3641   117
36.3741   121
36.3841   118
36.3941   126
36.4041   107
36.4141   112
36.4241   115
36.4341   120
36.4441   136
36.4541   125
36.4641   125
36.4741    93
36.4841   116
36.4941   108
36.5041   102
36.5141   116
36.5241   129
36.5341   118
36.5441   120
36.5541   126
36.5641   113
36.5741   108
36.5841   112
36.5941   103
36.6041   111
36.6141   115
36.6241   114
36.6341   107
36.6441   102
36.6541   112
36.6641   111
36.6741   121
36.6841   136
36.6941   126
36.7041   117
36.7141    90
36.7241   130
36.7341   106
36.7441    94
36.7541   114
36.7641   100
36.7741   130
36.7841   109
36.7941   100
36.8041   110
36.8141    89
36.8241   126
36.8341   111
36.8441   110
36.8541   102
36.8641    98
36.8741    90
36.8841   103
36.8941   123
36.9041   108
36.9141    92
36.9241    90
36.9341   104
36.9441    98
36.9541    90
36.9641    84
36.9741    88
36.9841   108
36.9941    86
37.0041    97
37.0141   108
37.0241   101
37.0341   106
37.0441   104
37.0541   110
37.0641    87
37.0741    96
37.0841   121
37.0941    96
37.1041    90
37.1141   101
37.1241    98
37.1341    84
37.1441    97
37.1541    84
37.1641   105
37.1741   108
37.1841   105
37.1941   111
37.2041    88
37.2141    94
37.2241    89
37.2341    93
37.2441    95
37.2541    89
37.2641    94
37.2741    81
37.2841    90
37.2941    90
37.3041    81
37.3141    80
37.3241    96
37.3341    87
37.3441   115
37.3541    98
37.3641    90
37.3741    83
37.3841    84
37.3941    90
37.4041    81
37.4141    95
37.4241    82
37.4341    99
37.4441    72
37.4541    85
37.4641    83
37.4741   101
37.4841   106
37.4941   100
37.5041    93
37.5141    78
37.5241    87
37.5341    80
37.5441    90
37.5541    81
37.5641    65
37.5741    85
37.5841    74
37.5941    75
37.6041    76
37.6141    88
37.6241    94
37.6341    87
37.6441    83
37.6541    75
37.6641   100
37.6741    77
37.6841    83
37.6941    94
37.7041    75
37.7141    76
37.7241    71
37.7341    75
37.7441    91
37.7541    68
37.7641    85
37.7741    88
37.7841    93
37.7941    64
37.8041   100
37.8141    74
37.8241    76
37.8341    87
37.8441    67
37.8541    83
37.8641    79
37.8741    71
37.8841    74
37.8941    84
37.9041    75
37.9141    67
37.9241    65
37.9341    77
37.9441    71
37.9541    82
37.9641    80
37.9741    83
37.9841    75
37.9941    82
38.0041    88
38.0141    61
38.0241    90
38.0341    76
38.0441    67
38.0541    72
38.0641    66
38.0741   100
38.0841    75
38.0941    66
38.1041    84
38.1141    80
38.1241    77
38.1341    71
38.1441    74
38.1541    67
38.1641    68
38.1741    83
38.1841    67
38.1941    67
38.2041    84
38.2141    67
38.2241    69
38.2341    75
38.2441    70
38.2541    73
38.2641    83
38.2741    59
38.2841    61
38.2941    71
38.3041    82
38.3141    68
38.3241    74
38.3341    69
38.3441    65
38.3541    66
38.3641    62
38.3741    74
38.3841    66
38.3941    68
38.4041    66
38.4141    75
38.4241    69
38.4341    68
38.4441    74
38.4541    68
38.4641    73
38.4741    68
38.4841    75
38.4941    64
38.5041    59
38.5141    65
38.5241    73
38.5341    66
38.5441    68
38.5541    62
38.5641    76
38.5741    76
38.5841    66
38.5941    67
38.6041    74
38.6141    65
38.6241    76
38.6341    63
38.6441    68
38.6541    65
38.6641    59
38.6741    55
38.6841    63
38.6941    54
38.7041    67
38.7141    60
38.7241    58
38.7341    70
38.7441    73
38.7541    60
38.7641    61
38.7741    53
38.7841    60
38.7941    57
38.8041    58
38.8141    58
38.8241    60
38.8341    52
38.8441    57
38.8541    51
38.8641    49
38.8741    71
38.8841    61
38.8941    72
38.9041    53
38.9141    55
38.9241    64
38.9341    63
38.9441    57
38.9541    73
38.9641    62
38.9741    66
38.9841    56
38.9941    67
39.0041    51
39.0141    63
39.0241    48
39.0341    47
39.0441    60
39.0541    56
39.0641    44
39.0741    58
39.0841    58
39.0941    58
39.1041    61
39.1141    48
39.1241    55
39.1341    63
39.1441    56
39.1541    46
39.1641    45
39.1741    59
39.1841    50
39.1941    48
39.2041    54
39.2141    52
39.2241    49
39.2341    52
39.2441    45
39.2541    49
39.2641    47
39.2741    52
39.2841    57
39.2941    55
39.3041    61
39.3141    46
39.3241    57
39.3341    53
39.3441    55
39.3541    45
39.3641    46
39.3741    54
39.3841    56
39.3941    46
39.4041    49
39.4141    44
39.4241    59
39.4341    47
39.4441    39
39.4541    66
39.4641    51
39.4741    59
39.4841    49
39.4941    46
39.5041    48
39.5141    48
39.5241    42
39.5341    50
39.5441    59
39.5541    57
39.5641    65
39.5741    54
39.5841    33
39.5941    40
39.6041    54
39.6141    44
39.6241    47
39.6341    51
39.6441    45
39.6541    52
39.6641    53
39.6741    43
39.6841    46
39.6941    44
39.7041    47
39.7141    57
39.7241    54
39.7341    48
39.7441    39
39.7541    49
39.7641    40
39.7741    41
39.7841    45
39.7941    38
39.8041    48
39.8141    42
39.8241    32
39.8341    43
39.8441    36
39.8541    46
39.8641    40
39.8741    43
39.8841    37
39.8941    38
39.9041    43
39.9141    39
39.9241    43
39.9341    43
39.9441    37
39.9541    37
39.9641    34
39.9741    41
39.9841    45
39.9941    32
