Bruker Nano GmbH Berlin, Germany
Esprit 1.9

Date: 5/14/2021 1:39:34 PM
Real time: 21805
Life time: 20611
Pulse density: 79627


Detector type: XFlash 430
Window type: Custom type
Detector thickness: 0.45
Si dead layer:0.029

Calibration, lin.: 10
Calibration, abs.: -955.9
Mn FWHM: 137.05
Fano factor: 0.121
Channels: 4096

Energy Counts
-0.9559     0
-0.9459     0
-0.9359     0
-0.9259     0
-0.9159     0
-0.9059     0
-0.8959     0
-0.8859     0
-0.8759     0
-0.8659     0
-0.8559     0
-0.8459     0
-0.8359     0
-0.8259     0
-0.8159     0
-0.8059     0
-0.7959     0
-0.7859     0
-0.7759     0
-0.7659     0
-0.7559     0
-0.7459     0
-0.7359     0
-0.7259     0
-0.7159     0
-0.7059     0
-0.6959     0
-0.6859     0
-0.6759     0
-0.6659     0
-0.6559     0
-0.6459     0
-0.6359     0
-0.6259     0
-0.6159     0
-0.6059     0
-0.5959     0
-0.5859     0
-0.5759     0
-0.5659     0
-0.5559     0
-0.5459     0
-0.5359     0
-0.5259     0
-0.5159     0
-0.5059     0
-0.4959     0
-0.4859     0
-0.4759     0
-0.4659     0
-0.4559     0
-0.4459     0
-0.4359     0
-0.4259     0
-0.4159     0
-0.4059     0
-0.3959     0
-0.3859     0
-0.3759     0
-0.3659     0
-0.3559     0
-0.3459     0
-0.3359     0
-0.3259     0
-0.3159     0
-0.3059     0
-0.2959     0
-0.2859     0
-0.2759     0
-0.2659     0
-0.2559     0
-0.2459     0
-0.2359     0
-0.2259     0
-0.2159     0
-0.2059     0
-0.1959     0
-0.1859     0
-0.1759     0
-0.1659     1
-0.1559     0
-0.1459     0
-0.1359     0
-0.1259     0
-0.1159     0
-0.1059    14
-0.0959    66
-0.0859   263
-0.0759   824
-0.0659  2384
-0.0559  6045
-0.0459 13102
-0.0359 24619
-0.0259 39447
-0.0159 53822
-0.0059 63282
 0.0041 63395
 0.0141 54471
 0.0241 40305
 0.0341 25425
 0.0441 13897
 0.0541  6423
 0.0641  2580
 0.0741   881
 0.0841   265
 0.0941    78
 0.1041    19
 0.1141    13
 0.1241    11
 0.1341     5
 0.1441     4
 0.1541     5
 0.1641     4
 0.1741     3
 0.1841   185
 0.1941   323
 0.2041   292
 0.2141   290
 0.2241   309
 0.2341   304
 0.2441   293
 0.2541   307
 0.2641   294
 0.2741   325
 0.2841   317
 0.2941   335
 0.3041   294
 0.3141   301
 0.3241   299
 0.3341   301
 0.3441   293
 0.3541   311
 0.3641   300
 0.3741   297
 0.3841   300
 0.3941   289
 0.4041   281
 0.4141   289
 0.4241   273
 0.4341   276
 0.4441   271
 0.4541   276
 0.4641   270
 0.4741   258
 0.4841   266
 0.4941   270
 0.5041   281
 0.5141   260
 0.5241   258
 0.5341   269
 0.5441   262
 0.5541   254
 0.5641   259
 0.5741   257
 0.5841   262
 0.5941   248
 0.6041   226
 0.6141   244
 0.6241   248
 0.6341   253
 0.6441   263
 0.6541   264
 0.6641   249
 0.6741   243
 0.6841   236
 0.6941   223
 0.7041   239
 0.7141   257
 0.7241   228
 0.7341   221
 0.7441   236
 0.7541   233
 0.7641   250
 0.7741   238
 0.7841   224
 0.7941   253
 0.8041   243
 0.8141   229
 0.8241   251
 0.8341   231
 0.8441   224
 0.8541   218
 0.8641   226
 0.8741   222
 0.8841   224
 0.8941   214
 0.9041   202
 0.9141   208
 0.9241   208
 0.9341   214
 0.9441   207
 0.9541   211
 0.9641   209
 0.9741   214
 0.9841   189
 0.9941   194
 1.0041   202
 1.0141   212
 1.0241   197
 1.0341   212
 1.0441   220
 1.0541   181
 1.0641   188
 1.0741   222
 1.0841   216
 1.0941   204
 1.1041   207
 1.1141   191
 1.1241   185
 1.1341   223
 1.1441   204
 1.1541   196
 1.1641   204
 1.1741   201
 1.1841   170
 1.1941   215
 1.2041   195
 1.2141   186
 1.2241   209
 1.2341   195
 1.2441   202
 1.2541   184
 1.2641   191
 1.2741   184
 1.2841   182
 1.2941   186
 1.3041   180
 1.3141   175
 1.3241   199
 1.3341   169
 1.3441   177
 1.3541   183
 1.3641   176
 1.3741   187
 1.3841   171
 1.3941   192
 1.4041   160
 1.4141   163
 1.4241   178
 1.4341   186
 1.4441   182
 1.4541   183
 1.4641   185
 1.4741   177
 1.4841   164
 1.4941   156
 1.5041   182
 1.5141   174
 1.5241   170
 1.5341   178
 1.5441   187
 1.5541   185
 1.5641   177
 1.5741   182
 1.5841   182
 1.5941   172
 1.6041   190
 1.6141   193
 1.6241   180
 1.6341   196
 1.6441   212
 1.6541   200
 1.6641   272
 1.6741   330
 1.6841   405
 1.6941   498
 1.7041   598
 1.7141   728
 1.7241   792
 1.7341   817
 1.7441   837
 1.7541   774
 1.7641   671
 1.7741   604
 1.7841   519
 1.7941   430
 1.8041   338
 1.8141   308
 1.8241   291
 1.8341   227
 1.8441   233
 1.8541   219
 1.8641   217
 1.8741   193
 1.8841   184
 1.8941   176
 1.9041   187
 1.9141   190
 1.9241   166
 1.9341   190
 1.9441   189
 1.9541   163
 1.9641   199
 1.9741   199
 1.9841   222
 1.9941   213
 2.0041   226
 2.0141   223
 2.0241   232
 2.0341   232
 2.0441   206
 2.0541   208
 2.0641   185
 2.0741   186
 2.0841   192
 2.0941   183
 2.1041   169
 2.1141   165
 2.1241   182
 2.1341   178
 2.1441   170
 2.1541   154
 2.1641   152
 2.1741   174
 2.1841   158
 2.1941   174
 2.2041   155
 2.2141   150
 2.2241   149
 2.2341   157
 2.2441   144
 2.2541   148
 2.2641   151
 2.2741   136
 2.2841   162
 2.2941   174
 2.3041   165
 2.3141   160
 2.3241   160
 2.3341   161
 2.3441   164
 2.3541   136
 2.3641   146
 2.3741   150
 2.3841   140
 2.3941   140
 2.4041   144
 2.4141   131
 2.4241   149
 2.4341   142
 2.4441   139
 2.4541   145
 2.4641   140
 2.4741   161
 2.4841   143
 2.4941   138
 2.5041   145
 2.5141   133
 2.5241   130
 2.5341   138
 2.5441   143
 2.5541   153
 2.5641   136
 2.5741   153
 2.5841   161
 2.5941   117
 2.6041   132
 2.6141   136
 2.6241   141
 2.6341   135
 2.6441   138
 2.6541   144
 2.6641   155
 2.6741   143
 2.6841   129
 2.6941   138
 2.7041   138
 2.7141   123
 2.7241   126
 2.7341   141
 2.7441   133
 2.7541   142
 2.7641   134
 2.7741   138
 2.7841   129
 2.7941   164
 2.8041   163
 2.8141   131
 2.8241   151
 2.8341   147
 2.8441   125
 2.8541   121
 2.8641   164
 2.8741   107
 2.8841   131
 2.8941   115
 2.9041   133
 2.9141   133
 2.9241   117
 2.9341   126
 2.9441   120
 2.9541   121
 2.9641   110
 2.9741   112
 2.9841   118
 2.9941   111
 3.0041   123
 3.0141   123
 3.0241   118
 3.0341   117
 3.0441   116
 3.0541   139
 3.0641   132
 3.0741   128
 3.0841   130
 3.0941   111
 3.1041   131
 3.1141   125
 3.1241    98
 3.1341   106
 3.1441   133
 3.1541   107
 3.1641   103
 3.1741   120
 3.1841   136
 3.1941   128
 3.2041   140
 3.2141   138
 3.2241   154
 3.2341   204
 3.2441   218
 3.2541   250
 3.2641   313
 3.2741   371
 3.2841   424
 3.2941   468
 3.3041   497
 3.3141   514
 3.3241   516
 3.3341   426
 3.3441   383
 3.3541   365
 3.3641   310
 3.3741   246
 3.3841   214
 3.3941   202
 3.4041   177
 3.4141   152
 3.4241   125
 3.4341   116
 3.4441   112
 3.4541   118
 3.4641   108
 3.4741   113
 3.4841   112
 3.4941   128
 3.5041   122
 3.5141   139
 3.5241   130
 3.5341   158
 3.5441   186
 3.5541   182
 3.5641   193
 3.5741   241
 3.5841   276
 3.5941   372
 3.6041   385
 3.6141   482
 3.6241   591
 3.6341   651
 3.6441   815
 3.6541   992
 3.6641  1049
 3.6741  1164
 3.6841  1160
 3.6941  1185
 3.7041  1116
 3.7141  1114
 3.7241   947
 3.7341   798
 3.7441   676
 3.7541   509
 3.7641   385
 3.7741   316
 3.7841   281
 3.7941   201
 3.8041   143
 3.8141   149
 3.8241   113
 3.8341   110
 3.8441    90
 3.8541    90
 3.8641   106
 3.8741    90
 3.8841    88
 3.8941    93
 3.9041   105
 3.9141   102
 3.9241   136
 3.9341   133
 3.9441   123
 3.9541   159
 3.9641   183
 3.9741   181
 3.9841   201
 3.9941   219
 4.0041   240
 4.0141   218
 4.0241   242
 4.0341   231
 4.0441   208
 4.0541   197
 4.0641   185
 4.0741   183
 4.0841   129
 4.0941   124
 4.1041   134
 4.1141   104
 4.1241    86
 4.1341    95
 4.1441    81
 4.1541    80
 4.1641    88
 4.1741    89
 4.1841    79
 4.1941    72
 4.2041    91
 4.2141    70
 4.2241    79
 4.2341    85
 4.2441    69
 4.2541    80
 4.2641    90
 4.2741    68
 4.2841    82
 4.2941    70
 4.3041    78
 4.3141    77
 4.3241    88
 4.3341    75
 4.3441    67
 4.3541    96
 4.3641    93
 4.3741   100
 4.3841    95
 4.3941   110
 4.4041   117
 4.4141   131
 4.4241   152
 4.4341   153
 4.4441   190
 4.4541   199
 4.4641   236
 4.4741   232
 4.4841   258
 4.4941   257
 4.5041   276
 4.5141   263
 4.5241   273
 4.5341   243
 4.5441   228
 4.5541   195
 4.5641   178
 4.5741   172
 4.5841   165
 4.5941   116
 4.6041   141
 4.6141   117
 4.6241   113
 4.6341   100
 4.6441    88
 4.6541   107
 4.6641   102
 4.6741    86
 4.6841    98
 4.6941    86
 4.7041    81
 4.7141    99
 4.7241    88
 4.7341   102
 4.7441    91
 4.7541    85
 4.7641    94
 4.7741    81
 4.7841    81
 4.7941    85
 4.8041    88
 4.8141    95
 4.8241   107
 4.8341    97
 4.8441   114
 4.8541   108
 4.8641   126
 4.8741   119
 4.8841   130
 4.8941   120
 4.9041   114
 4.9141   131
 4.9241   120
 4.9341   135
 4.9441   136
 4.9541   113
 4.9641   120
 4.9741   124
 4.9841   120
 4.9941   108
 5.0041    94
 5.0141   106
 5.0241   106
 5.0341    94
 5.0441   104
 5.0541    94
 5.0641   100
 5.0741    92
 5.0841   104
 5.0941    96
 5.1041    92
 5.1141    95
 5.1241    98
 5.1341    95
 5.1441   106
 5.1541    93
 5.1641    86
 5.1741    92
 5.1841    93
 5.1941   106
 5.2041    87
 5.2141   104
 5.2241    88
 5.2341    77
 5.2441   103
 5.2541    95
 5.2641    99
 5.2741    78
 5.2841   104
 5.2941    87
 5.3041   107
 5.3141    99
 5.3241   101
 5.3341    94
 5.3441   121
 5.3541   130
 5.3641   136
 5.3741   149
 5.3841   136
 5.3941   149
 5.4041   164
 5.4141   163
 5.4241   137
 5.4341   166
 5.4441   134
 5.4541   151
 5.4641   136
 5.4741   122
 5.4841   152
 5.4941   115
 5.5041    97
 5.5141   119
 5.5241   108
 5.5341   100
 5.5441   106
 5.5541   106
 5.5641   117
 5.5741   118
 5.5841   101
 5.5941    97
 5.6041   107
 5.6141   110
 5.6241    93
 5.6341   122
 5.6441   113
 5.6541    99
 5.6641   108
 5.6741    90
 5.6841    79
 5.6941   108
 5.7041    94
 5.7141   114
 5.7241   123
 5.7341   113
 5.7441   131
 5.7541   122
 5.7641   119
 5.7741   117
 5.7841   146
 5.7941   141
 5.8041   139
 5.8141   158
 5.8241   155
 5.8341   157
 5.8441   148
 5.8541   176
 5.8641   208
 5.8741   212
 5.8841   206
 5.8941   190
 5.9041   214
 5.9141   217
 5.9241   181
 5.9341   178
 5.9441   181
 5.9541   183
 5.9641   175
 5.9741   131
 5.9841   139
 5.9941   131
 6.0041   131
 6.0141   136
 6.0241   106
 6.0341   143
 6.0441   119
 6.0541   121
 6.0641   117
 6.0741   115
 6.0841   134
 6.0941   126
 6.1041   126
 6.1141   133
 6.1241   114
 6.1341   130
 6.1441   139
 6.1541   159
 6.1641   172
 6.1741   155
 6.1841   155
 6.1941   177
 6.2041   253
 6.2141   261
 6.2241   367
 6.2341   452
 6.2441   631
 6.2541   836
 6.2641  1134
 6.2741  1556
 6.2841  2085
 6.2941  2794
 6.3041  3492
 6.3141  4301
 6.3241  5466
 6.3341  6621
 6.3441  7640
 6.3541  8663
 6.3641  9637
 6.3741 10427
 6.3841 10869
 6.3941 11376
 6.4041 11364
 6.4141 11063
 6.4241 10168
 6.4341  9520
 6.4441  8373
 6.4541  7361
 6.4641  6087
 6.4741  5200
 6.4841  4255
 6.4941  3269
 6.5041  2518
 6.5141  1855
 6.5241  1358
 6.5341  1005
 6.5441   752
 6.5541   545
 6.5641   413
 6.5741   304
 6.5841   237
 6.5941   196
 6.6041   180
 6.6141   166
 6.6241   141
 6.6341   132
 6.6441   164
 6.6541   159
 6.6641   133
 6.6741   147
 6.6841   141
 6.6941   157
 6.7041   150
 6.7141   138
 6.7241   150
 6.7341   172
 6.7441   153
 6.7541   170
 6.7641   186
 6.7741   146
 6.7841   173
 6.7941   181
 6.8041   173
 6.8141   190
 6.8241   183
 6.8341   207
 6.8441   195
 6.8541   200
 6.8641   198
 6.8741   237
 6.8841   251
 6.8941   281
 6.9041   319
 6.9141   373
 6.9241   433
 6.9341   528
 6.9441   610
 6.9541   684
 6.9641   824
 6.9741   991
 6.9841  1124
 6.9941  1336
 7.0041  1490
 7.0141  1608
 7.0241  1731
 7.0341  1802
 7.0441  1921
 7.0541  1915
 7.0641  1883
 7.0741  1869
 7.0841  1640
 7.0941  1562
 7.1041  1406
 7.1141  1294
 7.1241  1089
 7.1341  1030
 7.1441   809
 7.1541   666
 7.1641   539
 7.1741   495
 7.1841   366
 7.1941   342
 7.2041   290
 7.2141   247
 7.2241   208
 7.2341   209
 7.2441   191
 7.2541   221
 7.2641   205
 7.2741   190
 7.2841   195
 7.2941   193
 7.3041   218
 7.3141   226
 7.3241   241
 7.3341   249
 7.3441   262
 7.3541   286
 7.3641   298
 7.3741   318
 7.3841   298
 7.3941   321
 7.4041   337
 7.4141   311
 7.4241   318
 7.4341   370
 7.4441   338
 7.4541   371
 7.4641   327
 7.4741   347
 7.4841   338
 7.4941   301
 7.5041   306
 7.5141   281
 7.5241   281
 7.5341   267
 7.5441   264
 7.5541   233
 7.5641   242
 7.5741   230
 7.5841   225
 7.5941   232
 7.6041   227
 7.6141   219
 7.6241   212
 7.6341   198
 7.6441   234
 7.6541   223
 7.6641   217
 7.6741   253
 7.6841   242
 7.6941   225
 7.7041   257
 7.7141   256
 7.7241   245
 7.7341   252
 7.7441   267
 7.7541   267
 7.7641   279
 7.7741   248
 7.7841   258
 7.7941   268
 7.8041   301
 7.8141   282
 7.8241   284
 7.8341   296
 7.8441   312
 7.8541   311
 7.8641   337
 7.8741   342
 7.8841   370
 7.8941   372
 7.9041   377
 7.9141   394
 7.9241   403
 7.9341   405
 7.9441   433
 7.9541   508
 7.9641   516
 7.9741   550
 7.9841   551
 7.9941   620
 8.0041   658
 8.0141   733
 8.0241   748
 8.0341   810
 8.0441   923
 8.0541   902
 8.0641  1000
 8.0741  1039
 8.0841  1131
 8.0941  1145
 8.1041  1197
 8.1141  1333
 8.1241  1242
 8.1341  1369
 8.1441  1396
 8.1541  1397
 8.1641  1415
 8.1741  1493
 8.1841  1491
 8.1941  1464
 8.2041  1499
 8.2141  1506
 8.2241  1576
 8.2341  1581
 8.2441  1632
 8.2541  1679
 8.2641  1837
 8.2741  1912
 8.2841  2112
 8.2941  2202
 8.3041  2346
 8.3141  2500
 8.3241  2776
 8.3341  2999
 8.3441  3236
 8.3541  3268
 8.3641  3567
 8.3741  3609
 8.3841  3602
 8.3941  3659
 8.4041  3601
 8.4141  3419
 8.4241  3163
 8.4341  2970
 8.4441  2737
 8.4541  2498
 8.4641  2215
 8.4741  2012
 8.4841  1704
 8.4941  1386
 8.5041  1194
 8.5141  1064
 8.5241   881
 8.5341   748
 8.5441   645
 8.5541   536
 8.5641   517
 8.5741   481
 8.5841   419
 8.5941   398
 8.6041   411
 8.6141   402
 8.6241   381
 8.6341   370
 8.6441   415
 8.6541   390
 8.6641   387
 8.6741   406
 8.6841   393
 8.6941   387
 8.7041   363
 8.7141   357
 8.7241   377
 8.7341   379
 8.7441   368
 8.7541   368
 8.7641   361
 8.7741   369
 8.7841   359
 8.7941   353
 8.8041   340
 8.8141   347
 8.8241   351
 8.8341   342
 8.8441   350
 8.8541   379
 8.8641   329
 8.8741   352
 8.8841   350
 8.8941   377
 8.9041   342
 8.9141   362
 8.9241   369
 8.9341   374
 8.9441   358
 8.9541   415
 8.9641   404
 8.9741   387
 8.9841   418
 8.9941   427
 9.0041   409
 9.0141   439
 9.0241   446
 9.0341   420
 9.0441   431
 9.0541   476
 9.0641   498
 9.0741   472
 9.0841   469
 9.0941   534
 9.1041   557
 9.1141   559
 9.1241   560
 9.1341   608
 9.1441   605
 9.1541   665
 9.1641   667
 9.1741   706
 9.1841   731
 9.1941   783
 9.2041   825
 9.2141   812
 9.2241   896
 9.2341   970
 9.2441   991
 9.2541  1044
 9.2641  1098
 9.2741  1121
 9.2841  1168
 9.2941  1254
 9.3041  1247
 9.3141  1284
 9.3241  1278
 9.3341  1375
 9.3441  1427
 9.3541  1395
 9.3641  1391
 9.3741  1441
 9.3841  1459
 9.3941  1530
 9.4041  1572
 9.4141  1515
 9.4241  1572
 9.4341  1520
 9.4441  1580
 9.4541  1591
 9.4641  1666
 9.4741  1610
 9.4841  1732
 9.4941  1757
 9.5041  1762
 9.5141  1736
 9.5241  1869
 9.5341  1943
 9.5441  2102
 9.5541  2154
 9.5641  2246
 9.5741  2378
 9.5841  2535
 9.5941  2669
 9.6041  2912
 9.6141  3041
 9.6241  3195
 9.6341  3255
 9.6441  3331
 9.6541  3343
 9.6641  3438
 9.6741  3393
 9.6841  3447
 9.6941  3287
 9.7041  3180
 9.7141  3039
 9.7241  2851
 9.7341  2677
 9.7441  2461
 9.7541  2223
 9.7641  2137
 9.7741  1904
 9.7841  1846
 9.7941  1702
 9.8041  1581
 9.8141  1480
 9.8241  1428
 9.8341  1409
 9.8441  1364
 9.8541  1357
 9.8641  1394
 9.8741  1386
 9.8841  1385
 9.8941  1414
 9.9041  1476
 9.9141  1454
 9.9241  1518
 9.9341  1493
 9.9441  1497
 9.9541  1473
 9.9641  1455
 9.9741  1482
 9.9841  1376
 9.9941  1305
10.0041  1232
10.0141  1191
10.0241  1048
10.0341   966
10.0441   877
10.0541   808
10.0641   746
10.0741   683
10.0841   571
10.0941   490
10.1041   444
10.1141   386
10.1241   367
10.1341   371
10.1441   344
10.1541   287
10.1641   282
10.1741   287
10.1841   282
10.1941   260
10.2041   235
10.2141   234
10.2241   243
10.2341   240
10.2441   224
10.2541   219
10.2641   194
10.2741   198
10.2841   183
10.2941   186
10.3041   197
10.3141   203
10.3241   218
10.3341   198
10.3441   191
10.3541   192
10.3641   173
10.3741   181
10.3841   180
10.3941   199
10.4041   181
10.4141   170
10.4241   193
10.4341   205
10.4441   190
10.4541   208
10.4641   191
10.4741   189
10.4841   195
10.4941   213
10.5041   218
10.5141   201
10.5241   210
10.5341   214
10.5441   218
10.5541   229
10.5641   225
10.5741   208
10.5841   226
10.5941   225
10.6041   238
10.6141   231
10.6241   252
10.6341   259
10.6441   243
10.6541   234
10.6641   241
10.6741   255
10.6841   240
10.6941   240
10.7041   244
10.7141   269
10.7241   257
10.7341   266
10.7441   273
10.7541   289
10.7641   278
10.7741   296
10.7841   284
10.7941   278
10.8041   313
10.8141   308
10.8241   291
10.8341   339
10.8441   324
10.8541   317
10.8641   320
10.8741   309
10.8841   318
10.8941   345
10.9041   315
10.9141   345
10.9241   329
10.9341   346
10.9441   363
10.9541   345
10.9641   318
10.9741   309
10.9841   273
10.9941   306
11.0041   316
11.0141   313
11.0241   300
11.0341   312
11.0441   286
11.0541   306
11.0641   293
11.0741   270
11.0841   303
11.0941   272
11.1041   289
11.1141   273
11.1241   259
11.1341   290
11.1441   297
11.1541   298
11.1641   331
11.1741   349
11.1841   372
11.1941   384
11.2041   393
11.2141   397
11.2241   423
11.2341   428
11.2441   447
11.2541   492
11.2641   493
11.2741   492
11.2841   490
11.2941   491
11.3041   478
11.3141   453
11.3241   455
11.3341   433
11.3441   407
11.3541   409
11.3641   373
11.3741   350
11.3841   316
11.3941   307
11.4041   311
11.4141   290
11.4241   272
11.4341   249
11.4441   248
11.4541   251
11.4641   252
11.4741   230
11.4841   245
11.4941   244
11.5041   228
11.5141   228
11.5241   242
11.5341   246
11.5441   221
11.5541   224
11.5641   242
11.5741   258
11.5841   249
11.5941   246
11.6041   263
11.6141   267
11.6241   265
11.6341   272
11.6441   255
11.6541   249
11.6641   264
11.6741   263
11.6841   235
11.6941   211
11.7041   204
11.7141   222
11.7241   220
11.7341   235
11.7441   223
11.7541   193
11.7641   188
11.7741   175
11.7841   189
11.7941   196
11.8041   183
11.8141   173
11.8241   183
11.8341   175
11.8441   158
11.8541   165
11.8641   167
11.8741   192
11.8841   175
11.8941   177
11.9041   178
11.9141   167
11.9241   181
11.9341   163
11.9441   176
11.9541   192
11.9641   169
11.9741   180
11.9841   195
11.9941   196
12.0041   181
12.0141   166
12.0241   171
12.0341   192
12.0441   194
12.0541   165
12.0641   175
12.0741   181
12.0841   183
12.0941   180
12.1041   179
12.1141   184
12.1241   181
12.1341   168
12.1441   185
12.1541   177
12.1641   174
12.1741   176
12.1841   173
12.1941   194
12.2041   177
12.2141   176
12.2241   176
12.2341   167
12.2441   177
12.2541   162
12.2641   154
12.2741   171
12.2841   168
12.2941   152
12.3041   155
12.3141   165
12.3241   157
12.3341   176
12.3441   167
12.3541   166
12.3641   177
12.3741   183
12.3841   186
12.3941   173
12.4041   161
12.4141   174
12.4241   172
12.4341   182
12.4441   185
12.4541   172
12.4641   176
12.4741   186
12.4841   183
12.4941   193
12.5041   186
12.5141   178
12.5241   190
12.5341   196
12.5441   192
12.5541   181
12.5641   172
12.5741   200
12.5841   221
12.5941   200
12.6041   178
12.6141   178
12.6241   179
12.6341   184
12.6441   196
12.6541   202
12.6641   192
12.6741   201
12.6841   205
12.6941   199
12.7041   195
12.7141   201
12.7241   199
12.7341   205
12.7441   186
12.7541   180
12.7641   202
12.7741   194
12.7841   202
12.7941   214
12.8041   204
12.8141   198
12.8241   190
12.8341   199
12.8441   199
12.8541   191
12.8641   204
12.8741   215
12.8841   217
12.8941   208
12.9041   196
12.9141   197
12.9241   189
12.9341   194
12.9441   200
12.9541   211
12.9641   216
12.9741   211
12.9841   219
12.9941   214
13.0041   212
13.0141   206
13.0241   206
13.0341   207
13.0441   199
13.0541   200
13.0641   205
13.0741   195
13.0841   213
13.0941   201
13.1041   196
13.1141   208
13.1241   206
13.1341   208
13.1441   232
13.1541   236
13.1641   225
13.1741   252
13.1841   269
13.1941   268
13.2041   276
13.2141   288
13.2241   288
13.2341   300
13.2441   322
13.2541   343
13.2641   359
13.2741   365
13.2841   407
13.2941   433
13.3041   446
13.3141   454
13.3241   474
13.3341   501
13.3441   523
13.3541   510
13.3641   514
13.3741   551
13.3841   550
13.3941   530
13.4041   521
13.4141   503
13.4241   487
13.4341   470
13.4441   453
13.4541   439
13.4641   435
13.4741   384
13.4841   336
13.4941   338
13.5041   349
13.5141   351
13.5241   329
13.5341   298
13.5441   278
13.5541   249
13.5641   243
13.5741   268
13.5841   263
13.5941   251
13.6041   243
13.6141   237
13.6241   240
13.6341   249
13.6441   252
13.6541   250
13.6641   238
13.6741   238
13.6841   244
13.6941   241
13.7041   238
13.7141   247
13.7241   268
13.7341   251
13.7441   238
13.7541   248
13.7641   253
13.7741   260
13.7841   266
13.7941   274
13.8041   256
13.8141   242
13.8241   249
13.8341   249
13.8441   241
13.8541   259
13.8641   257
13.8741   238
13.8841   257
13.8941   272
13.9041   266
13.9141   253
13.9241   246
13.9341   259
13.9441   283
13.9541   278
13.9641   281
13.9741   276
13.9841   282
13.9941   307
14.0041   323
14.0141   328
14.0241   323
14.0341   346
14.0441   367
14.0541   370
14.0641   374
14.0741   406
14.0841   429
14.0941   427
14.1041   426
14.1141   433
14.1241   455
14.1341   456
14.1441   470
14.1541   469
14.1641   453
14.1741   456
14.1841   437
14.1941   426
14.2041   407
14.2141   388
14.2241   382
14.2341   385
14.2441   363
14.2541   325
14.2641   328
14.2741   338
14.2841   324
14.2941   303
14.3041   302
14.3141   299
14.3241   291
14.3341   285
14.3441   274
14.3541   279
14.3641   279
14.3741   270
14.3841   293
14.3941   280
14.4041   266
14.4141   285
14.4241   279
14.4341   277
14.4441   258
14.4541   258
14.4641   280
14.4741   266
14.4841   273
14.4941   282
14.5041   279
14.5141   273
14.5241   279
14.5341   283
14.5441   288
14.5541   293
14.5641   290
14.5741   287
14.5841   288
14.5941   284
14.6041   265
14.6141   262
14.6241   276
14.6341   275
14.6441   263
14.6541   284
14.6641   303
14.6741   291
14.6841   267
14.6941   263
14.7041   278
14.7141   293
14.7241   299
14.7341   303
14.7441   294
14.7541   302
14.7641   326
14.7741   317
14.7841   313
14.7941   300
14.8041   319
14.8141   334
14.8241   332
14.8341   323
14.8441   327
14.8541   352
14.8641   341
14.8741   333
14.8841   356
14.8941   372
14.9041   353
14.9141   349
14.9241   377
14.9341   386
14.9441   381
14.9541   378
14.9641   343
14.9741   346
14.9841   396
14.9941   402
15.0041   381
15.0141   364
15.0241   361
15.0341   361
15.0441   357
15.0541   351
15.0641   347
15.0741   330
15.0841   333
15.0941   337
15.1041   324
15.1141   327
15.1241   346
15.1341   342
15.1441   310
15.1541   286
15.1641   288
15.1741   279
15.1841   296
15.1941   313
15.2041   321
15.2141   328
15.2241   327
15.2341   325
15.2441   308
15.2541   310
15.2641   339
15.2741   335
15.2841   326
15.2941   326
15.3041   310
15.3141   317
15.3241   317
15.3341   334
15.3441   342
15.3541   321
15.3641   321
15.3741   320
15.3841   315
15.3941   327
15.4041   320
15.4141   328
15.4241   325
15.4341   308
15.4441   316
15.4541   306
15.4641   315
15.4741   332
15.4841   332
15.4941   312
15.5041   341
15.5141   361
15.5241   322
15.5341   349
15.5441   373
15.5541   342
15.5641   342
15.5741   348
15.5841   372
15.5941   363
15.6041   357
15.6141   359
15.6241   373
15.6341   405
15.6441   389
15.6541   388
15.6641   407
15.6741   418
15.6841   421
15.6941   438
15.7041   447
15.7141   445
15.7241   448
15.7341   446
15.7441   459
15.7541   468
15.7641   456
15.7741   486
15.7841   483
15.7941   451
15.8041   467
15.8141   454
15.8241   462
15.8341   452
15.8441   444
15.8541   453
15.8641   434
15.8741   433
15.8841   431
15.8941   416
15.9041   404
15.9141   385
15.9241   374
15.9341   388
15.9441   373
15.9541   388
15.9641   386
15.9741   408
15.9841   382
15.9941   356
16.0041   353
16.0141   357
16.0241   381
16.0341   372
16.0441   370
16.0541   369
16.0641   366
16.0741   350
16.0841   349
16.0941   357
16.1041   386
16.1141   384
16.1241   349
16.1341   342
16.1441   384
16.1541   377
16.1641   387
16.1741   353
16.1841   345
16.1941   387
16.2041   398
16.2141   386
16.2241   403
16.2341   395
16.2441   368
16.2541   380
16.2641   410
16.2741   410
16.2841   407
16.2941   388
16.3041   370
16.3141   389
16.3241   377
16.3341   381
16.3441   394
16.3541   384
16.3641   389
16.3741   389
16.3841   416
16.3941   404
16.4041   377
16.4141   368
16.4241   368
16.4341   387
16.4441   404
16.4541   412
16.4641   406
16.4741   390
16.4841   370
16.4941   388
16.5041   412
16.5141   415
16.5241   386
16.5341   366
16.5441   395
16.5541   380
16.5641   378
16.5741   396
16.5841   396
16.5941   400
16.6041   401
16.6141   409
16.6241   396
16.6341   416
16.6441   395
16.6541   403
16.6641   432
16.6741   415
16.6841   402
16.6941   412
16.7041   401
16.7141   403
16.7241   404
16.7341   382
16.7441   385
16.7541   411
16.7641   426
16.7741   412
16.7841   405
16.7941   425
16.8041   435
16.8141   390
16.8241   419
16.8341   437
16.8441   434
16.8541   439
16.8641   433
16.8741   425
16.8841   412
16.8941   440
16.9041   425
16.9141   389
16.9241   404
16.9341   401
16.9441   415
16.9541   432
16.9641   440
16.9741   411
16.9841   415
16.9941   430
17.0041   404
17.0141   397
17.0241   404
17.0341   428
17.0441   450
17.0541   399
17.0641   419
17.0741   414
17.0841   430
17.0941   425
17.1041   419
17.1141   433
17.1241   420
17.1341   408
17.1441   421
17.1541   473
17.1641   450
17.1741   441
17.1841   437
17.1941   436
17.2041   457
17.2141   434
17.2241   432
17.2341   421
17.2441   415
17.2541   421
17.2641   440
17.2741   431
17.2841   421
17.2941   446
17.3041   460
17.3141   454
17.3241   459
17.3341   458
17.3441   447
17.3541   464
17.3641   449
17.3741   422
17.3841   455
17.3941   458
17.4041   452
17.4141   443
17.4241   438
17.4341   451
17.4441   464
17.4541   464
17.4641   453
17.4741   467
17.4841   475
17.4941   464
17.5041   444
17.5141   465
17.5241   489
17.5341   483
17.5441   459
17.5541   492
17.5641   482
17.5741   455
17.5841   451
17.5941   438
17.6041   471
17.6141   496
17.6241   500
17.6341   525
17.6441   505
17.6541   479
17.6641   465
17.6741   440
17.6841   475
17.6941   482
17.7041   449
17.7141   455
17.7241   477
17.7341   470
17.7441   472
17.7541   473
17.7641   445
17.7741   462
17.7841   481
17.7941   486
17.8041   460
17.8141   479
17.8241   463
17.8341   466
17.8441   451
17.8541   477
17.8641   496
17.8741   498
17.8841   499
17.8941   481
17.9041   486
17.9141   478
17.9241   492
17.9341   496
17.9441   505
17.9541   493
17.9641   492
17.9741   505
17.9841   481
17.9941   481
18.0041   481
18.0141   480
18.0241   474
18.0341   489
18.0441   495
18.0541   481
18.0641   472
18.0741   498
18.0841   477
18.0941   469
18.1041   478
18.1141   508
18.1241   498
18.1341   508
18.1441   500
18.1541   514
18.1641   499
18.1741   516
18.1841   497
18.1941   471
18.2041   462
18.2141   484
18.2241   487
18.2341   490
18.2441   505
18.2541   502
18.2641   490
18.2741   507
18.2841   503
18.2941   521
18.3041   517
18.3141   507
18.3241   499
18.3341   528
18.3441   503
18.3541   497
18.3641   501
18.3741   470
18.3841   486
18.3941   510
18.4041   511
18.4141   497
18.4241   508
18.4341   482
18.4441   472
18.4541   499
18.4641   518
18.4741   483
18.4841   510
18.4941   525
18.5041   541
18.5141   505
18.5241   524
18.5341   525
18.5441   520
18.5541   514
18.5641   541
18.5741   550
18.5841   531
18.5941   518
18.6041   533
18.6141   520
18.6241   503
18.6341   551
18.6441   535
18.6541   523
18.6641   479
18.6741   499
18.6841   529
18.6941   548
18.7041   517
18.7141   506
18.7241   521
18.7341   514
18.7441   490
18.7541   512
18.7641   513
18.7741   504
18.7841   529
18.7941   497
18.8041   512
18.8141   532
18.8241   527
18.8341   525
18.8441   551
18.8541   520
18.8641   497
18.8741   535
18.8841   526
18.8941   488
18.9041   552
18.9141   550
18.9241   526
18.9341   549
18.9441   514
18.9541   511
18.9641   522
18.9741   543
18.9841   526
18.9941   562
19.0041   544
19.0141   520
19.0241   518
19.0341   532
19.0441   564
19.0541   532
19.0641   532
19.0741   504
19.0841   539
19.0941   564
19.1041   554
19.1141   531
19.1241   550
19.1341   567
19.1441   526
19.1541   560
19.1641   545
19.1741   564
19.1841   527
19.1941   564
19.2041   550
19.2141   560
19.2241   566
19.2341   563
19.2441   530
19.2541   553
19.2641   508
19.2741   524
19.2841   549
19.2941   533
19.3041   548
19.3141   555
19.3241   593
19.3341   550
19.3441   541
19.3541   563
19.3641   539
19.3741   558
19.3841   556
19.3941   579
19.4041   566
19.4141   542
19.4241   571
19.4341   548
19.4441   523
19.4541   524
19.4641   541
19.4741   573
19.4841   569
19.4941   585
19.5041   559
19.5141   552
19.5241   547
19.5341   543
19.5441   547
19.5541   535
19.5641   533
19.5741   571
19.5841   524
19.5941   571
19.6041   556
19.6141   571
19.6241   557
19.6341   545
19.6441   578
19.6541   529
19.6641   542
19.6741   545
19.6841   549
19.6941   554
19.7041   546
19.7141   541
19.7241   555
19.7341   555
19.7441   567
19.7541   527
19.7641   555
19.7741   527
19.7841   524
19.7941   565
19.8041   592
19.8141   556
19.8241   584
19.8341   542
19.8441   600
19.8541   597
19.8641   513
19.8741   537
19.8841   540
19.8941   547
19.9041   564
19.9141   562
19.9241   594
19.9341   529
19.9441   551
19.9541   568
19.9641   594
19.9741   571
19.9841   542
19.9941   556
20.0041   549
20.0141   560
20.0241   554
20.0341   567
20.0441   590
20.0541   544
20.0641   562
20.0741   574
20.0841   560
20.0941   560
20.1041   576
20.1141   594
20.1241   584
20.1341   593
20.1441   573
20.1541   567
20.1641   561
20.1741   556
20.1841   574
20.1941   589
20.2041   588
20.2141   581
20.2241   567
20.2341   576
20.2441   553
20.2541   546
20.2641   555
20.2741   574
20.2841   550
20.2941   601
20.3041   590
20.3141   589
20.3241   581
20.3341   562
20.3441   583
20.3541   619
20.3641   576
20.3741   579
20.3841   593
20.3941   576
20.4041   583
20.4141   556
20.4241   556
20.4341   585
20.4441   581
20.4541   567
20.4641   560
20.4741   560
20.4841   553
20.4941   566
20.5041   566
20.5141   569
20.5241   524
20.5341   552
20.5441   584
20.5541   595
20.5641   616
20.5741   582
20.5841   586
20.5941   573
20.6041   528
20.6141   626
20.6241   585
20.6341   549
20.6441   563
20.6541   595
20.6641   599
20.6741   592
20.6841   561
20.6941   574
20.7041   595
20.7141   565
20.7241   594
20.7341   592
20.7441   591
20.7541   608
20.7641   646
20.7741   576
20.7841   579
20.7941   588
20.8041   604
20.8141   557
20.8241   612
20.8341   628
20.8441   597
20.8541   607
20.8641   618
20.8741   629
20.8841   649
20.8941   661
20.9041   662
20.9141   701
20.9241   720
20.9341   679
20.9441   730
20.9541   763
20.9641   785
20.9741   762
20.9841   776
20.9941   748
21.0041   813
21.0141   828
21.0241   827
21.0341   811
21.0441   821
21.0541   799
21.0641   820
21.0741   805
21.0841   818
21.0941   820
21.1041   897
21.1141   873
21.1241   826
21.1341   872
21.1441   890
21.1541   855
21.1641   864
21.1741   911
21.1841   869
21.1941   869
21.2041   831
21.2141   842
21.2241   838
21.2341   774
21.2441   803
21.2541   771
21.2641   771
21.2741   691
21.2841   749
21.2941   738
21.3041   710
21.3141   699
21.3241   637
21.3341   643
21.3441   647
21.3541   667
21.3641   605
21.3741   631
21.3841   594
21.3941   606
21.4041   620
21.4141   640
21.4241   612
21.4341   575
21.4441   591
21.4541   612
21.4641   606
21.4741   563
21.4841   629
21.4941   598
21.5041   544
21.5141   555
21.5241   615
21.5341   619
21.5441   623
21.5541   611
21.5641   599
21.5741   602
21.5841   598
21.5941   553
21.6041   595
21.6141   552
21.6241   575
21.6341   606
21.6441   564
21.6541   584
21.6641   550
21.6741   560
21.6841   587
21.6941   565
21.7041   592
21.7141   647
21.7241   602
21.7341   637
21.7441   585
21.7541   599
21.7641   612
21.7741   616
21.7841   593
21.7941   592
21.8041   603
21.8141   602
21.8241   579
21.8341   578
21.8441   607
21.8541   583
21.8641   571
21.8741   584
21.8841   595
21.8941   600
21.9041   588
21.9141   594
21.9241   558
21.9341   550
21.9441   612
21.9541   586
21.9641   642
21.9741   625
21.9841   614
21.9941   621
22.0041   632
22.0141   610
22.0241   610
22.0341   560
22.0441   555
22.0541   562
22.0641   581
22.0741   597
22.0841   557
22.0941   576
22.1041   600
22.1141   632
22.1241   604
22.1341   596
22.1441   530
22.1541   582
22.1641   590
22.1741   551
22.1841   587
22.1941   631
22.2041   569
22.2141   607
22.2241   567
22.2341   549
22.2441   589
22.2541   566
22.2641   584
22.2741   565
22.2841   593
22.2941   608
22.3041   616
22.3141   566
22.3241   586
22.3341   579
22.3441   580
22.3541   555
22.3641   646
22.3741   561
22.3841   558
22.3941   565
22.4041   547
22.4141   575
22.4241   579
22.4341   590
22.4441   589
22.4541   594
22.4641   561
22.4741   613
22.4841   576
22.4941   573
22.5041   582
22.5141   581
22.5241   581
22.5341   577
22.5441   638
22.5541   570
22.5641   598
22.5741   618
22.5841   569
22.5941   583
22.6041   571
22.6141   555
22.6241   565
22.6341   586
22.6441   572
22.6541   595
22.6641   556
22.6741   548
22.6841   563
22.6941   546
22.7041   613
22.7141   554
22.7241   542
22.7341   578
22.7441   560
22.7541   558
22.7641   531
22.7741   576
22.7841   579
22.7941   564
22.8041   591
22.8141   578
22.8241   592
22.8341   598
22.8441   595
22.8541   587
22.8641   558
22.8741   596
22.8841   606
22.8941   527
22.9041   562
22.9141   567
22.9241   579
22.9341   561
22.9441   573
22.9541   594
22.9641   519
22.9741   579
22.9841   607
22.9941   575
23.0041   592
23.0141   571
23.0241   575
23.0341   589
23.0441   592
23.0541   544
23.0641   539
23.0741   560
23.0841   608
23.0941   583
23.1041   555
23.1141   559
23.1241   561
23.1341   551
23.1441   590
23.1541   553
23.1641   574
23.1741   570
23.1841   560
23.1941   536
23.2041   612
23.2141   543
23.2241   570
23.2341   581
23.2441   556
23.2541   563
23.2641   565
23.2741   515
23.2841   563
23.2941   582
23.3041   546
23.3141   551
23.3241   539
23.3341   531
23.3441   552
23.3541   576
23.3641   581
23.3741   558
23.3841   568
23.3941   560
23.4041   528
23.4141   563
23.4241   540
23.4341   575
23.4441   569
23.4541   540
23.4641   588
23.4741   616
23.4841   555
23.4941   588
23.5041   592
23.5141   595
23.5241   569
23.5341   584
23.5441   558
23.5541   571
23.5641   578
23.5741   591
23.5841   584
23.5941   549
23.6041   533
23.6141   574
23.6241   594
23.6341   564
23.6441   599
23.6541   572
23.6641   600
23.6741   560
23.6841   574
23.6941   590
23.7041   609
23.7141   585
23.7241   605
23.7341   611
23.7441   590
23.7541   630
23.7641   612
23.7741   604
23.7841   635
23.7941   584
23.8041   640
23.8141   578
23.8241   532
23.8341   562
23.8441   651
23.8541   617
23.8641   616
23.8741   584
23.8841   616
23.8941   583
23.9041   537
23.9141   595
23.9241   602
23.9341   540
23.9441   589
23.9541   587
23.9641   575
23.9741   557
23.9841   515
23.9941   558
24.0041   557
24.0141   519
24.0241   602
24.0341   495
24.0441   596
24.0541   562
24.0641   564
24.0741   548
24.0841   550
24.0941   484
24.1041   519
24.1141   528
24.1241   583
24.1341   543
24.1441   549
24.1541   557
24.1641   514
24.1741   556
24.1841   539
24.1941   562
24.2041   547
24.2141   538
24.2241   534
24.2341   552
24.2441   538
24.2541   533
24.2641   555
24.2741   584
24.2841   568
24.2941   517
24.3041   549
24.3141   495
24.3241   549
24.3341   563
24.3441   581
24.3541   528
24.3641   539
24.3741   541
24.3841   546
24.3941   490
24.4041   525
24.4141   513
24.4241   498
24.4341   543
24.4441   515
24.4541   536
24.4641   539
24.4741   518
24.4841   507
24.4941   531
24.5041   527
24.5141   532
24.5241   524
24.5341   540
24.5441   511
24.5541   511
24.5641   501
24.5741   542
24.5841   567
24.5941   480
24.6041   503
24.6141   519
24.6241   532
24.6341   513
24.6441   524
24.6541   521
24.6641   508
24.6741   514
24.6841   541
24.6941   544
24.7041   524
24.7141   528
24.7241   560
24.7341   551
24.7441   508
24.7541   519
24.7641   549
24.7741   529
24.7841   495
24.7941   505
24.8041   535
24.8141   535
24.8241   532
24.8341   510
24.8441   516
24.8541   488
24.8641   530
24.8741   513
24.8841   536
24.8941   558
24.9041   483
24.9141   531
24.9241   511
24.9341   516
24.9441   552
24.9541   511
24.9641   522
24.9741   496
24.9841   534
24.9941   547
25.0041   513
25.0141   491
25.0241   577
25.0341   543
25.0441   539
25.0541   555
25.0641   551
25.0741   519
25.0841   494
25.0941   469
25.1041   522
25.1141   498
25.1241   522
25.1341   532
25.1441   497
25.1541   503
25.1641   523
25.1741   508
25.1841   522
25.1941   513
25.2041   503
25.2141   549
25.2241   561
25.2341   500
25.2441   496
25.2541   503
25.2641   502
25.2741   548
25.2841   546
25.2941   507
25.3041   559
25.3141   544
25.3241   499
25.3341   516
25.3441   511
25.3541   517
25.3641   493
25.3741   556
25.3841   537
25.3941   542
25.4041   510
25.4141   489
25.4241   493
25.4341   511
25.4441   501
25.4541   487
25.4641   494
25.4741   505
25.4841   484
25.4941   500
25.5041   508
25.5141   479
25.5241   468
25.5341   519
25.5441   457
25.5541   498
25.5641   491
25.5741   497
25.5841   493
25.5941   505
25.6041   450
25.6141   471
25.6241   509
25.6341   482
25.6441   470
25.6541   502
25.6641   465
25.6741   457
25.6841   509
25.6941   464
25.7041   440
25.7141   503
25.7241   505
25.7341   464
25.7441   458
25.7541   464
25.7641   464
25.7741   457
25.7841   458
25.7941   463
25.8041   510
25.8141   510
25.8241   460
25.8341   489
25.8441   470
25.8541   468
25.8641   482
25.8741   485
25.8841   480
25.8941   471
25.9041   490
25.9141   434
25.9241   466
25.9341   504
25.9441   498
25.9541   441
25.9641   469
25.9741   477
25.9841   444
25.9941   466
26.0041   446
26.0141   469
26.0241   477
26.0341   484
26.0441   463
26.0541   481
26.0641   499
26.0741   446
26.0841   449
26.0941   495
26.1041   493
26.1141   502
26.1241   486
26.1341   487
26.1441   455
26.1541   480
26.1641   489
26.1741   462
26.1841   456
26.1941   439
26.2041   453
26.2141   489
26.2241   450
26.2341   431
26.2441   454
26.2541   427
26.2641   436
26.2741   451
26.2841   453
26.2941   483
26.3041   478
26.3141   445
26.3241   478
26.3341   446
26.3441   443
26.3541   469
26.3641   452
26.3741   488
26.3841   485
26.3941   481
26.4041   477
26.4141   479
26.4241   457
26.4341   479
26.4441   468
26.4541   450
26.4641   448
26.4741   460
26.4841   445
26.4941   444
26.5041   488
26.5141   450
26.5241   494
26.5341   475
26.5441   437
26.5541   450
26.5641   449
26.5741   444
26.5841   428
26.5941   469
26.6041   453
26.6141   464
26.6241   433
26.6341   434
26.6441   432
26.6541   432
26.6641   435
26.6741   457
26.6841   397
26.6941   449
26.7041   415
26.7141   471
26.7241   474
26.7341   412
26.7441   441
26.7541   458
26.7641   416
26.7741   456
26.7841   417
26.7941   429
26.8041   453
26.8141   448
26.8241   463
26.8341   425
26.8441   389
26.8541   458
26.8641   425
26.8741   419
26.8841   438
26.8941   457
26.9041   417
26.9141   405
26.9241   449
26.9341   427
26.9441   417
26.9541   432
26.9641   431
26.9741   451
26.9841   425
26.9941   476
27.0041   424
27.0141   468
27.0241   400
27.0341   399
27.0441   391
27.0541   427
27.0641   439
27.0741   400
27.0841   431
27.0941   439
27.1041   404
27.1141   419
27.1241   444
27.1341   430
27.1441   459
27.1541   423
27.1641   419
27.1741   415
27.1841   431
27.1941   406
27.2041   421
27.2141   454
27.2241   430
27.2341   440
27.2441   410
27.2541   459
27.2641   429
27.2741   428
27.2841   407
27.2941   420
27.3041   416
27.3141   395
27.3241   409
27.3341   418
27.3441   379
27.3541   438
27.3641   414
27.3741   409
27.3841   411
27.3941   423
27.4041   402
27.4141   420
27.4241   418
27.4341   432
27.4441   425
27.4541   410
27.4641   404
27.4741   442
27.4841   463
27.4941   413
27.5041   443
27.5141   402
27.5241   424
27.5341   409
27.5441   412
27.5541   404
27.5641   405
27.5741   390
27.5841   382
27.5941   423
27.6041   436
27.6141   407
27.6241   411
27.6341   402
27.6441   397
27.6541   383
27.6641   423
27.6741   379
27.6841   426
27.6941   395
27.7041   391
27.7141   403
27.7241   377
27.7341   390
27.7441   369
27.7541   419
27.7641   369
27.7741   411
27.7841   435
27.7941   371
27.8041   379
27.8141   388
27.8241   381
27.8341   383
27.8441   394
27.8541   371
27.8641   393
27.8741   393
27.8841   394
27.8941   398
27.9041   374
27.9141   373
27.9241   382
27.9341   384
27.9441   380
27.9541   397
27.9641   390
27.9741   379
27.9841   367
27.9941   392
28.0041   365
28.0141   391
28.0241   351
28.0341   374
28.0441   392
28.0541   382
28.0641   368
28.0741   369
28.0841   405
28.0941   392
28.1041   390
28.1141   419
28.1241   388
28.1341   338
28.1441   364
28.1541   354
28.1641   366
28.1741   374
28.1841   386
28.1941   408
28.2041   374
28.2141   360
28.2241   371
28.2341   370
28.2441   382
28.2541   334
28.2641   362
28.2741   372
28.2841   333
28.2941   350
28.3041   369
28.3141   365
28.3241   386
28.3341   381
28.3441   360
28.3541   400
28.3641   382
28.3741   375
28.3841   363
28.3941   355
28.4041   354
28.4141   356
28.4241   365
28.4341   353
28.4441   363
28.4541   351
28.4641   345
28.4741   359
28.4841   373
28.4941   347
28.5041   361
28.5141   352
28.5241   346
28.5341   375
28.5441   343
28.5541   336
28.5641   353
28.5741   346
28.5841   361
28.5941   353
28.6041   361
28.6141   367
28.6241   342
28.6341   411
28.6441   363
28.6541   403
28.6641   359
28.6741   349
28.6841   368
28.6941   354
28.7041   353
28.7141   365
28.7241   362
28.7341   357
28.7441   353
28.7541   372
28.7641   348
28.7741   326
28.7841   373
28.7941   342
28.8041   366
28.8141   328
28.8241   316
28.8341   338
28.8441   346
28.8541   346
28.8641   372
28.8741   344
28.8841   328
28.8941   324
28.9041   316
28.9141   361
28.9241   376
28.9341   353
28.9441   341
28.9541   350
28.9641   326
28.9741   346
28.9841   356
28.9941   352
29.0041   328
29.0141   329
29.0241   327
29.0341   321
29.0441   344
29.0541   318
29.0641   323
29.0741   355
29.0841   364
29.0941   317
29.1041   337
29.1141   360
29.1241   334
29.1341   286
29.1441   311
29.1541   343
29.1641   309
29.1741   330
29.1841   321
29.1941   328
29.2041   339
29.2141   335
29.2241   359
29.2341   337
29.2441   334
29.2541   333
29.2641   351
29.2741   333
29.2841   304
29.2941   324
29.3041   331
29.3141   352
29.3241   326
29.3341   299
29.3441   317
29.3541   316
29.3641   306
29.3741   318
29.3841   315
29.3941   326
29.4041   338
29.4141   332
29.4241   334
29.4341   338
29.4441   331
29.4541   347
29.4641   351
29.4741   330
29.4841   305
29.4941   311
29.5041   317
29.5141   309
29.5241   318
29.5341   326
29.5441   336
29.5541   307
29.5641   305
29.5741   304
29.5841   306
29.5941   303
29.6041   295
29.6141   311
29.6241   313
29.6341   310
29.6441   306
29.6541   290
29.6641   296
29.6741   326
29.6841   291
29.6941   316
29.7041   292
29.7141   307
29.7241   318
29.7341   283
29.7441   308
29.7541   317
29.7641   291
29.7741   296
29.7841   325
29.7941   280
29.8041   300
29.8141   309
29.8241   296
29.8341   320
29.8441   322
29.8541   318
29.8641   331
29.8741   282
29.8841   299
29.8941   293
29.9041   308
29.9141   300
29.9241   307
29.9341   327
29.9441   311
29.9541   259
29.9641   268
29.9741   287
29.9841   272
29.9941   287
30.0041   308
30.0141   289
30.0241   281
30.0341   313
30.0441   298
30.0541   279
30.0641   285
30.0741   300
30.0841   273
30.0941   297
30.1041   307
30.1141   288
30.1241   281
30.1341   287
30.1441   283
30.1541   280
30.1641   315
30.1741   289
30.1841   291
30.1941   275
30.2041   286
30.2141   302
30.2241   274
30.2341   306
30.2441   301
30.2541   294
30.2641   276
30.2741   305
30.2841   267
30.2941   257
30.3041   273
30.3141   272
30.3241   301
30.3341   268
30.3441   284
30.3541   283
30.3641   290
30.3741   275
30.3841   280
30.3941   276
30.4041   282
30.4141   306
30.4241   283
30.4341   247
30.4441   289
30.4541   288
30.4641   276
30.4741   258
30.4841   240
30.4941   252
30.5041   290
30.5141   276
30.5241   278
30.5341   266
30.5441   282
30.5541   273
30.5641   271
30.5741   259
30.5841   280
30.5941   251
30.6041   258
30.6141   274
30.6241   287
30.6341   255
30.6441   266
30.6541   288
30.6641   272
30.6741   285
30.6841   258
30.6941   261
30.7041   255
30.7141   248
30.7241   268
30.7341   274
30.7441   291
30.7541   252
30.7641   238
30.7741   261
30.7841   247
30.7941   266
30.8041   248
30.8141   265
30.8241   268
30.8341   288
30.8441   244
30.8541   271
30.8641   251
30.8741   272
30.8841   275
30.8941   261
30.9041   245
30.9141   275
30.9241   244
30.9341   254
30.9441   268
30.9541   252
30.9641   256
30.9741   269
30.9841   256
30.9941   242
31.0041   259
31.0141   259
31.0241   246
31.0341   241
31.0441   244
31.0541   267
31.0641   249
31.0741   250
31.0841   267
31.0941   272
31.1041   234
31.1141   249
31.1241   233
31.1341   233
31.1441   265
31.1541   239
31.1641   251
31.1741   251
31.1841   245
31.1941   241
31.2041   247
31.2141   246
31.2241   258
31.2341   267
31.2441   263
31.2541   247
31.2641   242
31.2741   259
31.2841   253
31.2941   235
31.3041   252
31.3141   245
31.3241   252
31.3341   248
31.3441   245
31.3541   248
31.3641   211
31.3741   213
31.3841   235
31.3941   222
31.4041   243
31.4141   242
31.4241   249
31.4341   262
31.4441   258
31.4541   229
31.4641   207
31.4741   232
31.4841   245
31.4941   250
31.5041   221
31.5141   226
31.5241   247
31.5341   246
31.5441   241
31.5541   231
31.5641   217
31.5741   241
31.5841   244
31.5941   240
31.6041   217
31.6141   222
31.6241   219
31.6341   255
31.6441   266
31.6541   228
31.6641   221
31.6741   241
31.6841   246
31.6941   254
31.7041   224
31.7141   231
31.7241   245
31.7341   252
31.7441   223
31.7541   236
31.7641   253
31.7741   253
31.7841   244
31.7941   271
31.8041   256
31.8141   216
31.8241   256
31.8341   229
31.8441   247
31.8541   236
31.8641   246
31.8741   253
31.8841   215
31.8941   233
31.9041   217
31.9141   226
31.9241   213
31.9341   223
31.9441   222
31.9541   224
31.9641   221
31.9741   254
31.9841   224
31.9941   233
32.0041   248
32.0141   228
32.0241   233
32.0341   239
32.0441   228
32.0541   223
32.0641   234
32.0741   214
32.0841   214
32.0941   228
32.1041   236
32.1141   255
32.1241   214
32.1341   243
32.1441   234
32.1541   223
32.1641   228
32.1741   221
32.1841   218
32.1941   277
32.2041   262
32.2141   228
32.2241   254
32.2341   245
32.2441   206
32.2541   226
32.2641   225
32.2741   241
32.2841   220
32.2941   218
32.3041   213
32.3141   209
32.3241   219
32.3341   228
32.3441   211
32.3541   225
32.3641   217
32.3741   213
32.3841   187
32.3941   213
32.4041   202
32.4141   191
32.4241   215
32.4341   239
32.4441   205
32.4541   227
32.4641   210
32.4741   203
32.4841   197
32.4941   205
32.5041   196
32.5141   212
32.5241   208
32.5341   210
32.5441   204
32.5541   187
32.5641   209
32.5741   193
32.5841   177
32.5941   187
32.6041   207
32.6141   211
32.6241   212
32.6341   180
32.6441   221
32.6541   195
32.6641   182
32.6741   176
32.6841   184
32.6941   206
32.7041   185
32.7141   178
32.7241   200
32.7341   207
32.7441   189
32.7541   214
32.7641   190
32.7741   203
32.7841   183
32.7941   215
32.8041   186
32.8141   180
32.8241   189
32.8341   179
32.8441   186
32.8541   193
32.8641   183
32.8741   183
32.8841   195
32.8941   204
32.9041   185
32.9141   199
32.9241   187
32.9341   191
32.9441   207
32.9541   192
32.9641   192
32.9741   192
32.9841   174
32.9941   203
33.0041   194
33.0141   192
33.0241   169
33.0341   176
33.0441   180
33.0541   177
33.0641   181
33.0741   180
33.0841   174
33.0941   180
33.1041   171
33.1141   191
33.1241   179
33.1341   186
33.1441   200
33.1541   189
33.1641   185
33.1741   177
33.1841   193
33.1941   180
33.2041   166
33.2141   177
33.2241   175
33.2341   165
33.2441   165
33.2541   168
33.2641   180
33.2741   173
33.2841   181
33.2941   175
33.3041   154
33.3141   170
33.3241   185
33.3341   180
33.3441   180
33.3541   192
33.3641   160
33.3741   165
33.3841   179
33.3941   192
33.4041   160
33.4141   173
33.4241   162
33.4341   197
33.4441   143
33.4541   167
33.4641   165
33.4741   149
33.4841   161
33.4941   142
33.5041   161
33.5141   172
33.5241   179
33.5341   182
33.5441   172
33.5541   173
33.5641   191
33.5741   178
33.5841   169
33.5941   185
33.6041   157
33.6141   150
33.6241   170
33.6341   147
33.6441   143
33.6541   160
33.6641   146
33.6741   181
33.6841   155
33.6941   166
33.7041   155
33.7141   182
33.7241   158
33.7341   146
33.7441   181
33.7541   179
33.7641   169
33.7741   156
33.7841   152
33.7941   164
33.8041   154
33.8141   176
33.8241   176
33.8341   150
33.8441   154
33.8541   157
33.8641   139
33.8741   146
33.8841   137
33.8941   152
33.9041   161
33.9141   173
33.9241   159
33.9341   151
33.9441   151
33.9541   144
33.9641   152
33.9741   166
33.9841   174
33.9941   134
34.0041   161
34.0141   146
34.0241   171
34.0341   138
34.0441   141
34.0541   167
34.0641   152
34.0741   150
34.0841   139
34.0941   143
34.1041   168
34.1141   152
34.1241   159
34.1341   135
34.1441   149
34.1541   162
34.1641   155
34.1741   154
34.1841   153
34.1941   140
34.2041   179
34.2141   158
34.2241   152
34.2341   148
34.2441   149
34.2541   141
34.2641   141
34.2741   158
34.2841   170
34.2941   128
34.3041   159
34.3141   150
34.3241   146
34.3341   124
34.3441   156
34.3541   142
34.3641   140
34.3741   133
34.3841   131
34.3941   155
34.4041   137
34.4141   142
34.4241   135
34.4341   140
34.4441   150
34.4541   141
34.4641   133
34.4741   148
34.4841   136
34.4941   137
34.5041   160
34.5141   141
34.5241   157
34.5341   168
34.5441   155
34.5541   125
34.5641   146
34.5741   163
34.5841   131
34.5941   138
34.6041   126
34.6141   117
34.6241   128
34.6341   130
34.6441   144
34.6541   144
34.6641   137
34.6741   135
34.6841   129
34.6941   135
34.7041   141
34.7141   136
34.7241   129
34.7341   153
34.7441   128
34.7541   120
34.7641   134
34.7741   126
34.7841   145
34.7941   147
34.8041   123
34.8141   148
34.8241   128
34.8341   120
34.8441   149
34.8541   141
34.8641   149
34.8741   142
34.8841   134
34.8941   149
34.9041   144
34.9141   127
34.9241   143
34.9341   133
34.9441   130
34.9541   119
34.9641   144
34.9741   143
34.9841   128
34.9941   143
35.0041   115
35.0141   122
35.0241   115
35.0341   132
35.0441   117
35.0541   121
35.0641   130
35.0741   137
35.0841   140
35.0941   106
35.1041   135
35.1141   133
35.1241   113
35.1341   135
35.1441   129
35.1541   147
35.1641   122
35.1741   147
35.1841   105
35.1941   124
35.2041   105
35.2141   111
35.2241   118
35.2341   116
35.2441   109
35.2541   124
35.2641   106
35.2741   123
35.2841   121
35.2941   116
35.3041   117
35.3141   121
35.3241   121
35.3341   120
35.3441   126
35.3541   104
35.3641   107
35.3741   104
35.3841   116
35.3941   131
35.4041   120
35.4141   115
35.4241   107
35.4341   110
35.4441   110
35.4541   112
35.4641   122
35.4741   116
35.4841   113
35.4941   111
35.5041   105
35.5141   115
35.5241   115
35.5341   120
35.5441   115
35.5541   108
35.5641   114
35.5741    93
35.5841   114
35.5941   122
35.6041   104
35.6141   101
35.6241   117
35.6341   105
35.6441    93
35.6541   107
35.6641    94
35.6741   116
35.6841   100
35.6941   107
35.7041   116
35.7141    92
35.7241   101
35.7341   101
35.7441   106
35.7541   102
35.7641   102
35.7741   110
35.7841   109
35.7941   113
35.8041   139
35.8141   125
35.8241   106
35.8341    98
35.8441   103
35.8541   112
35.8641   117
35.8741   109
35.8841    95
35.8941   114
35.9041   111
35.9141   101
35.9241    96
35.9341   112
35.9441   113
35.9541   102
35.9641   110
35.9741   113
35.9841    91
35.9941    98
36.0041   104
36.0141   125
36.0241   106
36.0341   102
36.0441   102
36.0541    88
36.0641   130
36.0741   104
36.0841   106
36.0941    98
36.1041    91
36.1141   100
36.1241   113
36.1341   101
36.1441   109
36.1541   113
36.1641    96
36.1741    99
36.1841   100
36.1941   104
36.2041    97
36.2141    97
36.2241    99
36.2341    98
36.2441   111
36.2541   111
36.2641    99
36.2741    99
36.2841    95
36.2941   102
36.3041   107
36.3141   100
36.3241    86
36.3341    79
36.3441    97
36.3541   101
36.3641    87
36.3741    91
36.3841   112
36.3941   112
36.4041    89
36.4141   101
36.4241   102
36.4341    93
36.4441    76
36.4541   112
36.4641    79
36.4741    77
36.4841    70
36.4941    99
36.5041    98
36.5141    91
36.5241    93
36.5341   102
36.5441   100
36.5541    97
36.5641    96
36.5741    84
36.5841    81
36.5941    88
36.6041    90
36.6141   104
36.6241    80
36.6341    97
36.6441    82
36.6541    75
36.6641    72
36.6741    97
36.6841    77
36.6941    90
36.7041    84
36.7141    86
36.7241    93
36.7341    93
36.7441   101
36.7541    81
36.7641    83
36.7741    83
36.7841    96
36.7941   108
36.8041    88
36.8141    91
36.8241    85
36.8341    82
36.8441    84
36.8541    97
36.8641    93
36.8741    85
36.8841    88
36.8941    75
36.9041    83
36.9141   104
36.9241    85
36.9341    83
36.9441   100
36.9541    94
36.9641    68
36.9741    85
36.9841    97
36.9941    90
37.0041    89
37.0141    90
37.0241    85
37.0341    65
37.0441    82
37.0541    77
37.0641    86
37.0741    80
37.0841    82
37.0941    61
37.1041    74
37.1141    76
37.1241    77
37.1341    75
37.1441    77
37.1541    86
37.1641    69
37.1741    82
37.1841    82
37.1941    84
37.2041    88
37.2141    88
37.2241    91
37.2341    81
37.2441    81
37.2541    75
37.2641    75
37.2741    86
37.2841    75
37.2941    79
37.3041    68
37.3141    78
37.3241    89
37.3341    81
37.3441    59
37.3541    73
37.3641    72
37.3741    76
37.3841    76
37.3941    73
37.4041    83
37.4141    68
37.4241    74
37.4341    66
37.4441    68
37.4541    76
37.4641    69
37.4741    74
37.4841    71
37.4941    82
37.5041    90
37.5141    57
37.5241    58
37.5341    61
37.5441    71
37.5541    82
37.5641    67
37.5741    76
37.5841    71
37.5941    78
37.6041    72
37.6141    81
37.6241    83
37.6341    75
37.6441    78
37.6541    76
37.6641    62
37.6741    61
37.6841    59
37.6941    66
37.7041    73
37.7141    70
37.7241    72
37.7341    62
37.7441    60
37.7541    80
37.7641    72
37.7741    74
37.7841    84
37.7941    71
37.8041    59
37.8141    56
37.8241    55
37.8341    73
37.8441    73
37.8541    66
37.8641    65
37.8741    60
37.8841    71
37.8941    62
37.9041    71
37.9141    52
37.9241    61
37.9341    72
37.9441    73
37.9541    75
37.9641    72
37.9741    75
37.9841    66
37.9941    65
38.0041    51
38.0141    58
38.0241    67
38.0341    46
38.0441    58
38.0541    68
38.0641    60
38.0741    58
38.0841    57
38.0941    58
38.1041    54
38.1141    65
38.1241    63
38.1341    57
38.1441    69
38.1541    72
38.1641    52
38.1741    60
38.1841    47
38.1941    63
38.2041    66
38.2141    52
38.2241    68
38.2341    56
38.2441    74
38.2541    62
38.2641    62
38.2741    53
38.2841    52
38.2941    48
38.3041    49
38.3141    53
38.3241    57
38.3341    62
38.3441    61
38.3541    67
38.3641    64
38.3741    48
38.3841    61
38.3941    60
38.4041    50
38.4141    60
38.4241    57
38.4341    61
38.4441    64
38.4541    57
38.4641    61
38.4741    55
38.4841    55
38.4941    55
38.5041    54
38.5141    53
38.5241    53
38.5341    54
38.5441    50
38.5541    55
38.5641    49
38.5741    57
38.5841    50
38.5941    57
38.6041    48
38.6141    51
38.6241    54
38.6341    40
38.6441    54
38.6541    56
38.6641    51
38.6741    52
38.6841    46
38.6941    44
38.7041    57
38.7141    49
38.7241    45
38.7341    53
38.7441    48
38.7541    45
38.7641    54
38.7741    59
38.7841    52
38.7941    49
38.8041    52
38.8141    42
38.8241    51
38.8341    42
38.8441    40
38.8541    41
38.8641    43
38.8741    45
38.8841    50
38.8941    61
38.9041    55
38.9141    56
38.9241    53
38.9341    34
38.9441    45
38.9541    42
38.9641    40
38.9741    55
38.9841    44
38.9941    58
39.0041    48
39.0141    47
39.0241    45
39.0341    41
39.0441    40
39.0541    43
39.0641    57
39.0741    35
39.0841    46
39.0941    61
39.1041    45
39.1141    41
39.1241    45
39.1341    49
39.1441    37
39.1541    38
39.1641    48
39.1741    42
39.1841    40
39.1941    29
39.2041    47
39.2141    40
39.2241    46
39.2341    51
39.2441    44
39.2541    40
39.2641    44
39.2741    48
39.2841    53
39.2941    36
39.3041    37
39.3141    40
39.3241    45
39.3341    44
39.3441    47
39.3541    36
39.3641    46
39.3741    36
39.3841    29
39.3941    37
39.4041    41
39.4141    42
39.4241    41
39.4341    38
39.4441    44
39.4541    46
39.4641    43
39.4741    34
39.4841    42
39.4941    54
39.5041    43
39.5141    40
39.5241    43
39.5341    43
39.5441    44
39.5541    52
39.5641    38
39.5741    50
39.5841    40
39.5941    45
39.6041    47
39.6141    39
39.6241    36
39.6341    36
39.6441    33
39.6541    40
39.6641    38
39.6741    31
39.6841    42
39.6941    51
39.7041    44
39.7141    41
39.7241    44
39.7341    31
39.7441    43
39.7541    34
39.7641    30
39.7741    31
39.7841    44
39.7941    37
39.8041    41
39.8141    28
39.8241    30
39.8341    43
39.8441    35
39.8541    44
39.8641    29
39.8741    26
39.8841    41
39.8941    27
39.9041    39
39.9141    29
39.9241    40
39.9341    34
39.9441    36
39.9541    38
39.9641    42
39.9741    31
39.9841    33
39.9941    34
