Bruker Nano GmbH Berlin, Germany
Esprit 1.9

Date: 4/1/2021 4:51:40 PM
Real time: 13598
Life time: 12404
Pulse density: 133546


Detector type: XFlash 430
Window type: Custom type
Detector thickness: 0.45
Si dead layer:0.029

Calibration, lin.: 10
Calibration, abs.: -955.9
Mn FWHM: 137.05
Fano factor: 0.121
Channels: 4095

Energy Counts
-0.9559     0
-0.9459     0
-0.9359     0
-0.9259     0
-0.9159     0
-0.9059     0
-0.8959     0
-0.8859     0
-0.8759     0
-0.8659     0
-0.8559     0
-0.8459     0
-0.8359     0
-0.8259     0
-0.8159     0
-0.8059     0
-0.7959     0
-0.7859     0
-0.7759     0
-0.7659     0
-0.7559     0
-0.7459     0
-0.7359     0
-0.7259     0
-0.7159     0
-0.7059     0
-0.6959     0
-0.6859     0
-0.6759     0
-0.6659     0
-0.6559     0
-0.6459     0
-0.6359     0
-0.6259     0
-0.6159     0
-0.6059     0
-0.5959     0
-0.5859     0
-0.5759     0
-0.5659     0
-0.5559     0
-0.5459     0
-0.5359     0
-0.5259     0
-0.5159     0
-0.5059     0
-0.4959     0
-0.4859     0
-0.4759     0
-0.4659     0
-0.4559     0
-0.4459     0
-0.4359     0
-0.4259     0
-0.4159     0
-0.4059     0
-0.3959     0
-0.3859     0
-0.3759     0
-0.3659     0
-0.3559     0
-0.3459     0
-0.3359     0
-0.3259     0
-0.3159     0
-0.3059     0
-0.2959     0
-0.2859     0
-0.2759     0
-0.2659     0
-0.2559     0
-0.2459     0
-0.2359     0
-0.2259     0
-0.2159     0
-0.2059     0
-0.1959     0
-0.1859     0
-0.1759     0
-0.1659     0
-0.1559     0
-0.1459     0
-0.1359     0
-0.1259     0
-0.1159     3
-0.1059     7
-0.0959    29
-0.0859   152
-0.0759   503
-0.0659  1432
-0.0559  3635
-0.0459  7973
-0.0359 14789
-0.0259 23480
-0.0159 31862
-0.0059 37888
 0.0041 38432
 0.0141 33123
 0.0241 24265
 0.0341 15406
 0.0441  8611
 0.0541  3829
 0.0641  1521
 0.0741   484
 0.0841   172
 0.0941    52
 0.1041    20
 0.1141     7
 0.1241     8
 0.1341     4
 0.1441     2
 0.1541     2
 0.1641     4
 0.1741     0
 0.1841   139
 0.1941   279
 0.2041   234
 0.2141   211
 0.2241   210
 0.2341   212
 0.2441   227
 0.2541   208
 0.2641   221
 0.2741   209
 0.2841   222
 0.2941   215
 0.3041   213
 0.3141   233
 0.3241   204
 0.3341   206
 0.3441   193
 0.3541   211
 0.3641   199
 0.3741   180
 0.3841   197
 0.3941   207
 0.4041   206
 0.4141   186
 0.4241   196
 0.4341   185
 0.4441   181
 0.4541   181
 0.4641   175
 0.4741   172
 0.4841   193
 0.4941   181
 0.5041   196
 0.5141   212
 0.5241   193
 0.5341   187
 0.5441   181
 0.5541   181
 0.5641   178
 0.5741   186
 0.5841   167
 0.5941   178
 0.6041   181
 0.6141   184
 0.6241   175
 0.6341   180
 0.6441   169
 0.6541   157
 0.6641   167
 0.6741   169
 0.6841   173
 0.6941   173
 0.7041   171
 0.7141   174
 0.7241   164
 0.7341   166
 0.7441   161
 0.7541   152
 0.7641   152
 0.7741   157
 0.7841   153
 0.7941   154
 0.8041   155
 0.8141   154
 0.8241   151
 0.8341   147
 0.8441   145
 0.8541   143
 0.8641   154
 0.8741   155
 0.8841   158
 0.8941   162
 0.9041   147
 0.9141   130
 0.9241   136
 0.9341   165
 0.9441   138
 0.9541   138
 0.9641   149
 0.9741   134
 0.9841   134
 0.9941   139
 1.0041   138
 1.0141   135
 1.0241   146
 1.0341   134
 1.0441   161
 1.0541   167
 1.0641   143
 1.0741   139
 1.0841   133
 1.0941   130
 1.1041   133
 1.1141   131
 1.1241   136
 1.1341   145
 1.1441   156
 1.1541   136
 1.1641   160
 1.1741   131
 1.1841   142
 1.1941   142
 1.2041   134
 1.2141   132
 1.2241   128
 1.2341   134
 1.2441   144
 1.2541   149
 1.2641   146
 1.2741   137
 1.2841   120
 1.2941   129
 1.3041   130
 1.3141   136
 1.3241   126
 1.3341   128
 1.3441   125
 1.3541   120
 1.3641   139
 1.3741   131
 1.3841   127
 1.3941   118
 1.4041   105
 1.4141   127
 1.4241   116
 1.4341   127
 1.4441   120
 1.4541   141
 1.4641   133
 1.4741   132
 1.4841   134
 1.4941   125
 1.5041   133
 1.5141   110
 1.5241   116
 1.5341   132
 1.5441   107
 1.5541   123
 1.5641   119
 1.5741   125
 1.5841   118
 1.5941   105
 1.6041   120
 1.6141   119
 1.6241   125
 1.6341   140
 1.6441   135
 1.6541   136
 1.6641   176
 1.6741   209
 1.6841   253
 1.6941   315
 1.7041   370
 1.7141   437
 1.7241   505
 1.7341   521
 1.7441   519
 1.7541   497
 1.7641   461
 1.7741   374
 1.7841   286
 1.7941   242
 1.8041   223
 1.8141   181
 1.8241   160
 1.8341   158
 1.8441   137
 1.8541   135
 1.8641   143
 1.8741   149
 1.8841   148
 1.8941   147
 1.9041   133
 1.9141   122
 1.9241   105
 1.9341   126
 1.9441   133
 1.9541   135
 1.9641   115
 1.9741   131
 1.9841   159
 1.9941   150
 2.0041   151
 2.0141   147
 2.0241   143
 2.0341   140
 2.0441   137
 2.0541   136
 2.0641   128
 2.0741   134
 2.0841   121
 2.0941   126
 2.1041   117
 2.1141   121
 2.1241   117
 2.1341    98
 2.1441   112
 2.1541   102
 2.1641   115
 2.1741   121
 2.1841   124
 2.1941   121
 2.2041   106
 2.2141   115
 2.2241   114
 2.2341   129
 2.2441    96
 2.2541   106
 2.2641   107
 2.2741   110
 2.2841   118
 2.2941   102
 2.3041   103
 2.3141   114
 2.3241   105
 2.3341   106
 2.3441   105
 2.3541    87
 2.3641    91
 2.3741    93
 2.3841   101
 2.3941   100
 2.4041    90
 2.4141    98
 2.4241    92
 2.4341    83
 2.4441   120
 2.4541    91
 2.4641    87
 2.4741    94
 2.4841    95
 2.4941   101
 2.5041    87
 2.5141    97
 2.5241    88
 2.5341   100
 2.5441    97
 2.5541   101
 2.5641    95
 2.5741   110
 2.5841    83
 2.5941    91
 2.6041    82
 2.6141   100
 2.6241    94
 2.6341    95
 2.6441    95
 2.6541   101
 2.6641   105
 2.6741   101
 2.6841    78
 2.6941    69
 2.7041    76
 2.7141    93
 2.7241    83
 2.7341   115
 2.7441    90
 2.7541    87
 2.7641    78
 2.7741   110
 2.7841   105
 2.7941    96
 2.8041   105
 2.8141    94
 2.8241   100
 2.8341    77
 2.8441   107
 2.8541    79
 2.8641    91
 2.8741    96
 2.8841    96
 2.8941    91
 2.9041    90
 2.9141    86
 2.9241    79
 2.9341    82
 2.9441   102
 2.9541    84
 2.9641    88
 2.9741    88
 2.9841    87
 2.9941    77
 3.0041    80
 3.0141    83
 3.0241    84
 3.0341    80
 3.0441    85
 3.0541    72
 3.0641    73
 3.0741    67
 3.0841    64
 3.0941    83
 3.1041    80
 3.1141    80
 3.1241    82
 3.1341    84
 3.1441    67
 3.1541    77
 3.1641    72
 3.1741    77
 3.1841    65
 3.1941    77
 3.2041    82
 3.2141    66
 3.2241    85
 3.2341    97
 3.2441    95
 3.2541   118
 3.2641   106
 3.2741   120
 3.2841   143
 3.2941   146
 3.3041   146
 3.3141   157
 3.3241   146
 3.3341   144
 3.3441   140
 3.3541   111
 3.3641   118
 3.3741   109
 3.3841    82
 3.3941    79
 3.4041    74
 3.4141    72
 3.4241    66
 3.4341    61
 3.4441    63
 3.4541    86
 3.4641    64
 3.4741    64
 3.4841    75
 3.4941    66
 3.5041    71
 3.5141    71
 3.5241    69
 3.5341    77
 3.5441   105
 3.5541    95
 3.5641   115
 3.5741   115
 3.5841   143
 3.5941   177
 3.6041   201
 3.6141   257
 3.6241   303
 3.6341   373
 3.6441   478
 3.6541   592
 3.6641   622
 3.6741   698
 3.6841   704
 3.6941   724
 3.7041   692
 3.7141   636
 3.7241   537
 3.7341   468
 3.7441   388
 3.7541   314
 3.7641   268
 3.7741   211
 3.7841   177
 3.7941   118
 3.8041    91
 3.8141    77
 3.8241    75
 3.8341    62
 3.8441    72
 3.8541    56
 3.8641    65
 3.8741    68
 3.8841    70
 3.8941    60
 3.9041    75
 3.9141    74
 3.9241    80
 3.9341    88
 3.9441    85
 3.9541    99
 3.9641    96
 3.9741   126
 3.9841   143
 3.9941   138
 4.0041   143
 4.0141   137
 4.0241   131
 4.0341   137
 4.0441   111
 4.0541   107
 4.0641   115
 4.0741    90
 4.0841    96
 4.0941    89
 4.1041    71
 4.1141    66
 4.1241    64
 4.1341    51
 4.1441    54
 4.1541    54
 4.1641    46
 4.1741    60
 4.1841    61
 4.1941    42
 4.2041    50
 4.2141    56
 4.2241    47
 4.2341    55
 4.2441    52
 4.2541    50
 4.2641    44
 4.2741    52
 4.2841    60
 4.2941    49
 4.3041    56
 4.3141    69
 4.3241    61
 4.3341    68
 4.3441    62
 4.3541    48
 4.3641    84
 4.3741    84
 4.3841    95
 4.3941   107
 4.4041   125
 4.4141   191
 4.4241   243
 4.4341   340
 4.4441   391
 4.4541   396
 4.4641   512
 4.4741   587
 4.4841   621
 4.4941   719
 4.5041   717
 4.5141   665
 4.5241   645
 4.5341   604
 4.5441   541
 4.5541   484
 4.5641   409
 4.5741   349
 4.5841   308
 4.5941   222
 4.6041   180
 4.6141   130
 4.6241   110
 4.6341    86
 4.6441    99
 4.6541    70
 4.6641    65
 4.6741    78
 4.6841    52
 4.6941    80
 4.7041    53
 4.7141    64
 4.7241    58
 4.7341    72
 4.7441    79
 4.7541    62
 4.7641    69
 4.7741    66
 4.7841    75
 4.7941    67
 4.8041    83
 4.8141    95
 4.8241   104
 4.8341   109
 4.8441   125
 4.8541   135
 4.8641   136
 4.8741   162
 4.8841   188
 4.8941   161
 4.9041   195
 4.9141   212
 4.9241   190
 4.9341   205
 4.9441   212
 4.9541   210
 4.9641   184
 4.9741   155
 4.9841   147
 4.9941   144
 5.0041   129
 5.0141   110
 5.0241   112
 5.0341    87
 5.0441    87
 5.0541    79
 5.0641    81
 5.0741    77
 5.0841    76
 5.0941    66
 5.1041    65
 5.1141    78
 5.1241    75
 5.1341    62
 5.1441    77
 5.1541    66
 5.1641    67
 5.1741    71
 5.1841    75
 5.1941    75
 5.2041    72
 5.2141    74
 5.2241    62
 5.2341    73
 5.2441    88
 5.2541    88
 5.2641    71
 5.2741    78
 5.2841    78
 5.2941    80
 5.3041    63
 5.3141    90
 5.3241    98
 5.3341    98
 5.3441    92
 5.3541   102
 5.3641   117
 5.3741   125
 5.3841   121
 5.3941   117
 5.4041   141
 5.4141   138
 5.4241   127
 5.4341   145
 5.4441   145
 5.4541   106
 5.4641   109
 5.4741   112
 5.4841    87
 5.4941   110
 5.5041    83
 5.5141    95
 5.5241    82
 5.5341    61
 5.5441    76
 5.5541    72
 5.5641    66
 5.5741    69
 5.5841    85
 5.5941    76
 5.6041    62
 5.6141    82
 5.6241    67
 5.6341    74
 5.6441    75
 5.6541    81
 5.6641    83
 5.6741    76
 5.6841    64
 5.6941    84
 5.7041    72
 5.7141    93
 5.7241    90
 5.7341   110
 5.7441   122
 5.7541   128
 5.7641   199
 5.7741   195
 5.7841   229
 5.7941   296
 5.8041   360
 5.8141   476
 5.8241   542
 5.8341   652
 5.8441   752
 5.8541   842
 5.8641   920
 5.8741   936
 5.8841   989
 5.8941  1014
 5.9041  1019
 5.9141  1010
 5.9241   898
 5.9341   798
 5.9441   753
 5.9541   673
 5.9641   561
 5.9741   458
 5.9841   381
 5.9941   313
 6.0041   249
 6.0141   208
 6.0241   182
 6.0341   159
 6.0441   135
 6.0541   145
 6.0641   127
 6.0741   140
 6.0841   129
 6.0941   152
 6.1041   149
 6.1141   154
 6.1241   126
 6.1341   138
 6.1441   191
 6.1541   188
 6.1641   205
 6.1741   240
 6.1841   275
 6.1941   371
 6.2041   474
 6.2141   651
 6.2241   879
 6.2341  1153
 6.2441  1652
 6.2541  2320
 6.2641  3264
 6.2741  4566
 6.2841  6074
 6.2941  8196
 6.3041 10548
 6.3141 13275
 6.3241 16470
 6.3341 19840
 6.3441 23411
 6.3541 26574
 6.3641 29550
 6.3741 32100
 6.3841 33542
 6.3941 34268
 6.4041 34169
 6.4141 32930
 6.4241 31117
 6.4341 28773
 6.4441 25508
 6.4541 22277
 6.4641 18734
 6.4741 15095
 6.4841 12196
 6.4941  9443
 6.5041  7307
 6.5141  5417
 6.5241  3974
 6.5341  2765
 6.5441  1997
 6.5541  1399
 6.5641   949
 6.5741   662
 6.5841   465
 6.5941   358
 6.6041   281
 6.6141   252
 6.6241   197
 6.6341   171
 6.6441   166
 6.6541   152
 6.6641   155
 6.6741   175
 6.6841   150
 6.6941   163
 6.7041   158
 6.7141   142
 6.7241   151
 6.7341   167
 6.7441   183
 6.7541   167
 6.7641   182
 6.7741   193
 6.7841   174
 6.7941   189
 6.8041   188
 6.8141   240
 6.8241   216
 6.8341   275
 6.8441   255
 6.8541   317
 6.8641   315
 6.8741   410
 6.8841   470
 6.8941   510
 6.9041   656
 6.9141   771
 6.9241  1015
 6.9341  1321
 6.9441  1595
 6.9541  1968
 6.9641  2331
 6.9741  2853
 6.9841  3404
 6.9941  3988
 7.0041  4357
 7.0141  4847
 7.0241  5205
 7.0341  5625
 7.0441  5809
 7.0541  5943
 7.0641  5796
 7.0741  5613
 7.0841  5152
 7.0941  4705
 7.1041  4333
 7.1141  3683
 7.1241  3221
 7.1341  2576
 7.1441  2144
 7.1541  1765
 7.1641  1426
 7.1741   999
 7.1841   796
 7.1941   632
 7.2041   489
 7.2141   347
 7.2241   281
 7.2341   244
 7.2441   194
 7.2541   179
 7.2641   154
 7.2741   154
 7.2841   137
 7.2941   155
 7.3041   158
 7.3141   164
 7.3241   178
 7.3341   164
 7.3441   189
 7.3541   173
 7.3641   189
 7.3741   180
 7.3841   205
 7.3941   205
 7.4041   203
 7.4141   200
 7.4241   239
 7.4341   234
 7.4441   225
 7.4541   201
 7.4641   224
 7.4741   180
 7.4841   198
 7.4941   212
 7.5041   191
 7.5141   197
 7.5241   149
 7.5341   168
 7.5441   159
 7.5541   148
 7.5641   136
 7.5741   143
 7.5841   128
 7.5941   121
 7.6041   142
 7.6141   136
 7.6241   144
 7.6341   126
 7.6441   123
 7.6541   118
 7.6641   131
 7.6741   136
 7.6841   153
 7.6941   137
 7.7041   160
 7.7141   144
 7.7241   170
 7.7341   154
 7.7441   147
 7.7541   137
 7.7641   133
 7.7741   156
 7.7841   155
 7.7941   145
 7.8041   157
 7.8141   181
 7.8241   178
 7.8341   185
 7.8441   198
 7.8541   204
 7.8641   198
 7.8741   191
 7.8841   203
 7.8941   228
 7.9041   227
 7.9141   211
 7.9241   220
 7.9341   254
 7.9441   275
 7.9541   293
 7.9641   343
 7.9741   328
 7.9841   373
 7.9941   374
 8.0041   473
 8.0141   489
 8.0241   474
 8.0341   458
 8.0441   574
 8.0541   596
 8.0641   625
 8.0741   664
 8.0841   717
 8.0941   710
 8.1041   781
 8.1141   801
 8.1241   799
 8.1341   855
 8.1441   892
 8.1541   855
 8.1641   888
 8.1741   910
 8.1841   905
 8.1941   895
 8.2041   946
 8.2141   966
 8.2241   978
 8.2341  1032
 8.2441  1018
 8.2541  1046
 8.2641  1083
 8.2741  1165
 8.2841  1203
 8.2941  1361
 8.3041  1435
 8.3141  1480
 8.3241  1664
 8.3341  1779
 8.3441  1882
 8.3541  2083
 8.3641  1991
 8.3741  2097
 8.3841  2104
 8.3941  2110
 8.4041  2060
 8.4141  2028
 8.4241  1908
 8.4341  1783
 8.4441  1550
 8.4541  1438
 8.4641  1238
 8.4741  1101
 8.4841   977
 8.4941   880
 8.5041   717
 8.5141   629
 8.5241   536
 8.5341   509
 8.5441   447
 8.5541   429
 8.5641   432
 8.5741   432
 8.5841   426
 8.5941   458
 8.6041   443
 8.6141   453
 8.6241   456
 8.6341   431
 8.6441   416
 8.6541   423
 8.6641   421
 8.6741   402
 8.6841   380
 8.6941   343
 8.7041   351
 8.7141   312
 8.7241   311
 8.7341   283
 8.7441   257
 8.7541   248
 8.7641   258
 8.7741   210
 8.7841   231
 8.7941   220
 8.8041   244
 8.8141   212
 8.8241   194
 8.8341   196
 8.8441   192
 8.8541   183
 8.8641   200
 8.8741   211
 8.8841   238
 8.8941   223
 8.9041   221
 8.9141   217
 8.9241   215
 8.9341   216
 8.9441   230
 8.9541   228
 8.9641   217
 8.9741   225
 8.9841   234
 8.9941   222
 9.0041   241
 9.0141   242
 9.0241   248
 9.0341   217
 9.0441   264
 9.0541   261
 9.0641   256
 9.0741   296
 9.0841   280
 9.0941   284
 9.1041   312
 9.1141   294
 9.1241   352
 9.1341   372
 9.1441   367
 9.1541   404
 9.1641   429
 9.1741   421
 9.1841   433
 9.1941   464
 9.2041   478
 9.2141   525
 9.2241   507
 9.2341   527
 9.2441   599
 9.2541   599
 9.2641   646
 9.2741   697
 9.2841   693
 9.2941   738
 9.3041   755
 9.3141   773
 9.3241   795
 9.3341   812
 9.3441   823
 9.3541   843
 9.3641   851
 9.3741   875
 9.3841   884
 9.3941   966
 9.4041   915
 9.4141   906
 9.4241   925
 9.4341   947
 9.4441   943
 9.4541   959
 9.4641   985
 9.4741  1039
 9.4841  1033
 9.4941  1071
 9.5041  1094
 9.5141  1105
 9.5241  1115
 9.5341  1187
 9.5441  1238
 9.5541  1230
 9.5641  1278
 9.5741  1344
 9.5841  1506
 9.5941  1563
 9.6041  1619
 9.6141  1668
 9.6241  1759
 9.6341  1881
 9.6441  1911
 9.6541  1943
 9.6641  1966
 9.6741  1955
 9.6841  1868
 9.6941  1789
 9.7041  1777
 9.7141  1726
 9.7241  1616
 9.7341  1479
 9.7441  1399
 9.7541  1266
 9.7641  1129
 9.7741  1060
 9.7841   996
 9.7941   933
 9.8041   846
 9.8141   821
 9.8241   791
 9.8341   764
 9.8441   751
 9.8541   785
 9.8641   773
 9.8741   744
 9.8841   748
 9.8941   756
 9.9041   763
 9.9141   787
 9.9241   791
 9.9341   837
 9.9441   822
 9.9541   842
 9.9641   824
 9.9741   806
 9.9841   762
 9.9941   716
10.0041   686
10.0141   629
10.0241   607
10.0341   556
10.0441   469
10.0541   418
10.0641   397
10.0741   352
10.0841   321
10.0941   277
10.1041   235
10.1141   239
10.1241   216
10.1341   191
10.1441   197
10.1541   177
10.1641   176
10.1741   178
10.1841   146
10.1941   147
10.2041   145
10.2141   140
10.2241   142
10.2341   124
10.2441   125
10.2541   130
10.2641   125
10.2741   120
10.2841   127
10.2941   109
10.3041   114
10.3141   124
10.3241   119
10.3341   109
10.3441   102
10.3541   105
10.3641    99
10.3741   113
10.3841   103
10.3941   111
10.4041   117
10.4141   113
10.4241   102
10.4341   106
10.4441   109
10.4541   109
10.4641   107
10.4741   118
10.4841   107
10.4941   118
10.5041   124
10.5141   116
10.5241   116
10.5341   138
10.5441   130
10.5541   135
10.5641   143
10.5741   133
10.5841   151
10.5941   136
10.6041   138
10.6141   129
10.6241   123
10.6341   136
10.6441   150
10.6541   142
10.6641   139
10.6741   126
10.6841   135
10.6941   147
10.7041   153
10.7141   151
10.7241   165
10.7341   157
10.7441   163
10.7541   153
10.7641   159
10.7741   167
10.7841   168
10.7941   192
10.8041   175
10.8141   175
10.8241   193
10.8341   193
10.8441   206
10.8541   199
10.8641   206
10.8741   196
10.8841   199
10.8941   214
10.9041   213
10.9141   226
10.9241   215
10.9341   221
10.9441   222
10.9541   206
10.9641   216
10.9741   212
10.9841   201
10.9941   191
11.0041   204
11.0141   205
11.0241   214
11.0341   194
11.0441   200
11.0541   183
11.0641   197
11.0741   184
11.0841   172
11.0941   181
11.1041   191
11.1141   192
11.1241   198
11.1341   190
11.1441   188
11.1541   223
11.1641   211
11.1741   203
11.1841   220
11.1941   239
11.2041   247
11.2141   255
11.2241   261
11.2341   281
11.2441   285
11.2541   283
11.2641   283
11.2741   281
11.2841   291
11.2941   291
11.3041   286
11.3141   278
11.3241   261
11.3341   249
11.3441   253
11.3541   239
11.3641   225
11.3741   207
11.3841   219
11.3941   198
11.4041   180
11.4141   180
11.4241   162
11.4341   159
11.4441   162
11.4541   153
11.4641   141
11.4741   136
11.4841   141
11.4941   138
11.5041   166
11.5141   154
11.5241   138
11.5341   142
11.5441   143
11.5541   148
11.5641   156
11.5741   168
11.5841   154
11.5941   138
11.6041   152
11.6141   152
11.6241   146
11.6341   153
11.6441   151
11.6541   156
11.6641   160
11.6741   157
11.6841   154
11.6941   135
11.7041   140
11.7141   148
11.7241   142
11.7341   131
11.7441   136
11.7541   138
11.7641   133
11.7741   118
11.7841   117
11.7941   110
11.8041   112
11.8141   115
11.8241   132
11.8341   124
11.8441   112
11.8541   123
11.8641   120
11.8741   119
11.8841   100
11.8941    88
11.9041   103
11.9141   116
11.9241   118
11.9341   124
11.9441   125
11.9541   118
11.9641   110
11.9741    99
11.9841   116
11.9941   117
12.0041   107
12.0141   110
12.0241   115
12.0341   129
12.0441   117
12.0541   109
12.0641   110
12.0741   123
12.0841   134
12.0941   128
12.1041   115
12.1141   110
12.1241   107
12.1341   114
12.1441   112
12.1541   113
12.1641   126
12.1741   112
12.1841   112
12.1941   112
12.2041   118
12.2141   119
12.2241   111
12.2341   103
12.2441    95
12.2541   108
12.2641   118
12.2741   125
12.2841   106
12.2941    99
12.3041   118
12.3141   112
12.3241   106
12.3341   108
12.3441   112
12.3541   113
12.3641   119
12.3741   111
12.3841   112
12.3941   119
12.4041   123
12.4141   125
12.4241   116
12.4341   114
12.4441   113
12.4541   123
12.4641   114
12.4741   131
12.4841   122
12.4941   121
12.5041   130
12.5141   123
12.5241   126
12.5341   111
12.5441   120
12.5541   134
12.5641   132
12.5741   127
12.5841   143
12.5941   152
12.6041   153
12.6141   154
12.6241   137
12.6341   137
12.6441   146
12.6541   145
12.6641   139
12.6741   128
12.6841   122
12.6941   124
12.7041   132
12.7141   138
12.7241   138
12.7341   141
12.7441   141
12.7541   138
12.7641   140
12.7741   144
12.7841   144
12.7941   143
12.8041   144
12.8141   145
12.8241   143
12.8341   143
12.8441   143
12.8541   141
12.8641   143
12.8741   141
12.8841   135
12.8941   136
12.9041   141
12.9141   142
12.9241   142
12.9341   145
12.9441   151
12.9541   154
12.9641   148
12.9741   141
12.9841   143
12.9941   149
13.0041   151
13.0141   144
13.0241   144
13.0341   145
13.0441   152
13.0541   149
13.0641   148
13.0741   151
13.0841   152
13.0941   150
13.1041   151
13.1141   146
13.1241   159
13.1341   157
13.1441   142
13.1541   145
13.1641   154
13.1741   154
13.1841   156
13.1941   158
13.2041   171
13.2141   160
13.2241   146
13.2341   157
13.2441   177
13.2541   181
13.2641   181
13.2741   180
13.2841   169
13.2941   186
13.3041   215
13.3141   225
13.3241   225
13.3341   224
13.3441   228
13.3541   226
13.3641   215
13.3741   213
13.3841   224
13.3941   230
13.4041   225
13.4141   219
13.4241   218
13.4341   216
13.4441   219
13.4541   223
13.4641   219
13.4741   215
13.4841   219
13.4941   219
13.5041   205
13.5141   183
13.5241   174
13.5341   180
13.5441   183
13.5541   179
13.5641   175
13.5741   174
13.5841   179
13.5941   181
13.6041   176
13.6141   172
13.6241   170
13.6341   169
13.6441   172
13.6541   179
13.6641   180
13.6741   176
13.6841   177
13.6941   181
13.7041   187
13.7141   189
13.7241   179
13.7341   164
13.7441   161
13.7541   181
13.7641   192
13.7741   187
13.7841   177
13.7941   177
13.8041   192
13.8141   190
13.8241   177
13.8341   183
13.8441   192
13.8541   206
13.8641   200
13.8741   192
13.8841   195
13.8941   203
13.9041   196
13.9141   186
13.9241   185
13.9341   182
13.9441   207
13.9541   217
13.9641   209
13.9741   209
13.9841   201
13.9941   190
14.0041   195
14.0141   206
14.0241   214
14.0341   221
14.0441   228
14.0541   246
14.0641   262
14.0741   253
14.0841   255
14.0941   255
14.1041   255
14.1141   263
14.1241   263
14.1341   254
14.1441   244
14.1541   237
14.1641   245
14.1741   286
14.1841   290
14.1941   269
14.2041   267
14.2141   252
14.2241   236
14.2341   236
14.2441   262
14.2541   261
14.2641   244
14.2741   239
14.2841   230
14.2941   232
14.3041   215
14.3141   201
14.3241   211
14.3341   213
14.3441   217
14.3541   223
14.3641   205
14.3741   200
14.3841   224
14.3941   245
14.4041   244
14.4141   225
14.4241   210
14.4341   218
14.4441   239
14.4541   233
14.4641   217
14.4741   231
14.4841   248
14.4941   218
14.5041   200
14.5141   219
14.5241   228
14.5341   212
14.5441   206
14.5541   232
14.5641   236
14.5741   222
14.5841   228
14.5941   243
14.6041   230
14.6141   225
14.6241   230
14.6341   229
14.6441   244
14.6541   237
14.6641   213
14.6741   215
14.6841   211
14.6941   224
14.7041   248
14.7141   241
14.7241   240
14.7341   243
14.7441   237
14.7541   244
14.7641   242
14.7741   233
14.7841   237
14.7941   236
14.8041   243
14.8141   248
14.8241   251
14.8341   267
14.8441   253
14.8541   270
14.8641   277
14.8741   267
14.8841   285
14.8941   297
14.9041   296
14.9141   292
14.9241   293
14.9341   297
14.9441   281
14.9541   292
14.9641   290
14.9741   280
14.9841   273
14.9941   279
15.0041   287
15.0141   280
15.0241   291
15.0341   300
15.0441   286
15.0541   274
15.0641   253
15.0741   257
15.0841   270
15.0941   266
15.1041   275
15.1141   275
15.1241   262
15.1341   269
15.1441   254
15.1541   256
15.1641   268
15.1741   277
15.1841   263
15.1941   250
15.2041   262
15.2141   268
15.2241   277
15.2341   253
15.2441   248
15.2541   274
15.2641   284
15.2741   289
15.2841   270
15.2941   261
15.3041   264
15.3141   258
15.3241   265
15.3341   282
15.3441   276
15.3541   265
15.3641   276
15.3741   269
15.3841   251
15.3941   262
15.4041   276
15.4141   278
15.4241   297
15.4341   282
15.4441   264
15.4541   291
15.4641   287
15.4741   290
15.4841   295
15.4941   293
15.5041   281
15.5141   286
15.5241   299
15.5341   289
15.5441   306
15.5541   325
15.5641   325
15.5741   342
15.5841   362
15.5941   362
15.6041   373
15.6141   394
15.6241   397
15.6341   405
15.6441   421
15.6541   438
15.6641   474
15.6741   474
15.6841   489
15.6941   505
15.7041   502
15.7141   502
15.7241   535
15.7341   550
15.7441   544
15.7541   546
15.7641   567
15.7741   556
15.7841   498
15.7941   486
15.8041   512
15.8141   530
15.8241   505
15.8341   460
15.8441   445
15.8541   451
15.8641   472
15.8741   453
15.8841   415
15.8941   417
15.9041   418
15.9141   391
15.9241   371
15.9341   357
15.9441   362
15.9541   350
15.9641   316
15.9741   321
15.9841   339
15.9941   338
16.0041   347
16.0141   315
16.0241   316
16.0341   325
16.0441   314
16.0541   318
16.0641   310
16.0741   302
16.0841   330
16.0941   340
16.1041   320
16.1141   322
16.1241   322
16.1341   316
16.1441   312
16.1541   324
16.1641   321
16.1741   310
16.1841   305
16.1941   320
16.2041   324
16.2141   310
16.2241   313
16.2341   326
16.2441   321
16.2541   330
16.2641   355
16.2741   345
16.2841   321
16.2941   326
16.3041   334
16.3141   330
16.3241   316
16.3341   333
16.3441   352
16.3541   348
16.3641   334
16.3741   323
16.3841   313
16.3941   339
16.4041   354
16.4141   332
16.4241   329
16.4341   333
16.4441   343
16.4541   363
16.4641   359
16.4741   352
16.4841   329
16.4941   322
16.5041   309
16.5141   334
16.5241   369
16.5341   343
16.5441   338
16.5541   354
16.5641   372
16.5741   356
16.5841   366
16.5941   363
16.6041   358
16.6141   351
16.6241   357
16.6341   369
16.6441   363
16.6541   368
16.6641   345
16.6741   319
16.6841   361
16.6941   377
16.7041   348
16.7141   353
16.7241   370
16.7341   371
16.7441   359
16.7541   353
16.7641   340
16.7741   370
16.7841   382
16.7941   364
16.8041   359
16.8141   367
16.8241   351
16.8341   357
16.8441   363
16.8541   379
16.8641   346
16.8741   350
16.8841   350
16.8941   373
16.9041   383
16.9141   346
16.9241   359
16.9341   358
16.9441   363
16.9541   378
16.9641   382
16.9741   389
16.9841   351
16.9941   335
17.0041   357
17.0141   358
17.0241   363
17.0341   362
17.0441   370
17.0541   367
17.0641   368
17.0741   372
17.0841   349
17.0941   374
17.1041   397
17.1141   381
17.1241   373
17.1341   382
17.1441   371
17.1541   375
17.1641   348
17.1741   348
17.1841   371
17.1941   379
17.2041   380
17.2141   377
17.2241   370
17.2341   355
17.2441   372
17.2541   369
17.2641   372
17.2741   371
17.2841   372
17.2941   389
17.3041   390
17.3141   382
17.3241   394
17.3341   404
17.3441   389
17.3541   390
17.3641   403
17.3741   421
17.3841   414
17.3941   390
17.4041   397
17.4141   386
17.4241   381
17.4341   408
17.4441   373
17.4541   384
17.4641   395
17.4741   412
17.4841   415
17.4941   392
17.5041   392
17.5141   396
17.5241   401
17.5341   424
17.5441   434
17.5541   434
17.5641   425
17.5741   416
17.5841   415
17.5941   429
17.6041   429
17.6141   444
17.6241   421
17.6341   424
17.6441   428
17.6541   445
17.6641   446
17.6741   455
17.6841   427
17.6941   453
17.7041   434
17.7141   426
17.7241   409
17.7341   423
17.7441   425
17.7541   426
17.7641   420
17.7741   445
17.7841   444
17.7941   420
17.8041   422
17.8141   428
17.8241   417
17.8341   406
17.8441   384
17.8541   401
17.8641   421
17.8741   420
17.8841   424
17.8941   431
17.9041   406
17.9141   398
17.9241   382
17.9341   417
17.9441   424
17.9541   395
17.9641   420
17.9741   433
17.9841   403
17.9941   395
18.0041   405
18.0141   422
18.0241   425
18.0341   414
18.0441   432
18.0541   421
18.0641   427
18.0741   424
18.0841   420
18.0941   430
18.1041   420
18.1141   411
18.1241   404
18.1341   419
18.1441   430
18.1541   420
18.1641   419
18.1741   414
18.1841   432
18.1941   403
18.2041   398
18.2141   428
18.2241   435
18.2341   456
18.2441   461
18.2541   415
18.2641   422
18.2741   412
18.2841   442
18.2941   436
18.3041   436
18.3141   430
18.3241   395
18.3341   426
18.3441   414
18.3541   430
18.3641   452
18.3741   432
18.3841   401
18.3941   438
18.4041   460
18.4141   434
18.4241   429
18.4341   422
18.4441   416
18.4541   409
18.4641   438
18.4741   447
18.4841   428
18.4941   405
18.5041   440
18.5141   452
18.5241   445
18.5341   425
18.5441   434
18.5541   443
18.5641   423
18.5741   421
18.5841   459
18.5941   443
18.6041   449
18.6141   422
18.6241   434
18.6341   441
18.6441   447
18.6541   445
18.6641   438
18.6741   430
18.6841   429
18.6941   407
18.7041   419
18.7141   429
18.7241   443
18.7341   439
18.7441   467
18.7541   432
18.7641   444
18.7741   450
18.7841   415
18.7941   423
18.8041   422
18.8141   459
18.8241   458
18.8341   438
18.8441   447
18.8541   447
18.8641   424
18.8741   453
18.8841   444
18.8941   452
18.9041   437
18.9141   460
18.9241   451
18.9341   445
18.9441   426
18.9541   437
18.9641   445
18.9741   448
18.9841   471
18.9941   439
19.0041   435
19.0141   455
19.0241   459
19.0341   434
19.0441   443
19.0541   455
19.0641   432
19.0741   452
19.0841   434
19.0941   447
19.1041   447
19.1141   452
19.1241   430
19.1341   445
19.1441   439
19.1541   448
19.1641   451
19.1741   451
19.1841   440
19.1941   419
19.2041   441
19.2141   455
19.2241   439
19.2341   451
19.2441   460
19.2541   437
19.2641   456
19.2741   435
19.2841   464
19.2941   458
19.3041   434
19.3141   438
19.3241   477
19.3341   458
19.3441   449
19.3541   444
19.3641   467
19.3741   484
19.3841   450
19.3941   429
19.4041   429
19.4141   463
19.4241   432
19.4341   458
19.4441   466
19.4541   456
19.4641   403
19.4741   418
19.4841   382
19.4941   435
19.5041   444
19.5141   513
19.5241   452
19.5341   435
19.5441   459
19.5541   438
19.5641   488
19.5741   466
19.5841   461
19.5941   451
19.6041   453
19.6141   465
19.6241   453
19.6341   434
19.6441   481
19.6541   447
19.6641   465
19.6741   454
19.6841   460
19.6941   495
19.7041   460
19.7141   486
19.7241   440
19.7341   454
19.7441   467
19.7541   438
19.7641   449
19.7741   444
19.7841   471
19.7941   446
19.8041   436
19.8141   471
19.8241   472
19.8341   468
19.8441   444
19.8541   434
19.8641   472
19.8741   482
19.8841   465
19.8941   485
19.9041   457
19.9141   454
19.9241   463
19.9341   465
19.9441   472
19.9541   474
19.9641   460
19.9741   468
19.9841   469
19.9941   497
20.0041   445
20.0141   453
20.0241   436
20.0341   440
20.0441   459
20.0541   468
20.0641   456
20.0741   482
20.0841   488
20.0941   491
20.1041   475
20.1141   467
20.1241   496
20.1341   446
20.1441   457
20.1541   448
20.1641   482
20.1741   472
20.1841   447
20.1941   444
20.2041   455
20.2141   487
20.2241   499
20.2341   482
20.2441   455
20.2541   491
20.2641   455
20.2741   452
20.2841   495
20.2941   444
20.3041   486
20.3141   435
20.3241   462
20.3341   451
20.3441   457
20.3541   472
20.3641   446
20.3741   463
20.3841   461
20.3941   443
20.4041   477
20.4141   439
20.4241   455
20.4341   439
20.4441   436
20.4541   477
20.4641   478
20.4741   440
20.4841   457
20.4941   463
20.5041   478
20.5141   444
20.5241   481
20.5341   455
20.5441   469
20.5541   458
20.5641   471
20.5741   451
20.5841   475
20.5941   488
20.6041   468
20.6141   439
20.6241   450
20.6341   433
20.6441   488
20.6541   479
20.6641   462
20.6741   456
20.6841   450
20.6941   468
20.7041   473
20.7141   492
20.7241   467
20.7341   482
20.7441   475
20.7541   459
20.7641   423
20.7741   428
20.7841   455
20.7941   483
20.8041   468
20.8141   454
20.8241   493
20.8341   502
20.8441   507
20.8541   511
20.8641   470
20.8741   484
20.8841   511
20.8941   518
20.9041   472
20.9141   513
20.9241   548
20.9341   526
20.9441   575
20.9541   553
20.9641   606
20.9741   560
20.9841   585
20.9941   598
21.0041   584
21.0141   594
21.0241   615
21.0341   603
21.0441   608
21.0541   650
21.0641   655
21.0741   601
21.0841   613
21.0941   622
21.1041   675
21.1141   614
21.1241   633
21.1341   634
21.1441   678
21.1541   626
21.1641   671
21.1741   619
21.1841   643
21.1941   596
21.2041   603
21.2141   637
21.2241   538
21.2341   588
21.2441   614
21.2541   538
21.2641   580
21.2741   562
21.2841   556
21.2941   553
21.3041   530
21.3141   509
21.3241   484
21.3341   474
21.3441   510
21.3541   509
21.3641   494
21.3741   494
21.3841   522
21.3941   448
21.4041   442
21.4141   463
21.4241   463
21.4341   466
21.4441   473
21.4541   463
21.4641   459
21.4741   457
21.4841   450
21.4941   457
21.5041   449
21.5141   433
21.5241   466
21.5341   444
21.5441   438
21.5541   445
21.5641   461
21.5741   450
21.5841   440
21.5941   443
21.6041   419
21.6141   467
21.6241   473
21.6341   471
21.6441   463
21.6541   444
21.6641   438
21.6741   475
21.6841   425
21.6941   466
21.7041   433
21.7141   447
21.7241   448
21.7341   442
21.7441   437
21.7541   464
21.7641   441
21.7741   466
21.7841   448
21.7941   446
21.8041   462
21.8141   476
21.8241   469
21.8341   465
21.8441   500
21.8541   468
21.8641   434
21.8741   432
21.8841   493
21.8941   439
21.9041   436
21.9141   445
21.9241   431
21.9341   442
21.9441   429
21.9541   448
21.9641   429
21.9741   442
21.9841   425
21.9941   444
22.0041   419
22.0141   410
22.0241   455
22.0341   441
22.0441   464
22.0541   462
22.0641   449
22.0741   445
22.0841   447
22.0941   477
22.1041   475
22.1141   437
22.1241   486
22.1341   451
22.1441   420
22.1541   412
22.1641   461
22.1741   431
22.1841   439
22.1941   426
22.2041   481
22.2141   430
22.2241   463
22.2341   421
22.2441   442
22.2541   452
22.2641   465
22.2741   445
22.2841   468
22.2941   469
22.3041   449
22.3141   450
22.3241   495
22.3341   451
22.3441   464
22.3541   498
22.3641   427
22.3741   437
22.3841   454
22.3941   444
22.4041   430
22.4141   435
22.4241   443
22.4341   467
22.4441   452
22.4541   483
22.4641   448
22.4741   447
22.4841   439
22.4941   453
22.5041   459
22.5141   451
22.5241   428
22.5341   440
22.5441   418
22.5541   460
22.5641   478
22.5741   412
22.5841   435
22.5941   456
22.6041   444
22.6141   431
22.6241   436
22.6341   417
22.6441   431
22.6541   437
22.6641   454
22.6741   462
22.6841   422
22.6941   452
22.7041   449
22.7141   460
22.7241   451
22.7341   430
22.7441   430
22.7541   445
22.7641   404
22.7741   428
22.7841   390
22.7941   457
22.8041   461
22.8141   418
22.8241   436
22.8341   456
22.8441   433
22.8541   439
22.8641   439
22.8741   437
22.8841   406
22.8941   466
22.9041   453
22.9141   437
22.9241   398
22.9341   420
22.9441   410
22.9541   457
22.9641   416
22.9741   472
22.9841   465
22.9941   433
23.0041   408
23.0141   413
23.0241   440
23.0341   428
23.0441   465
23.0541   420
23.0641   442
23.0741   438
23.0841   414
23.0941   404
23.1041   457
23.1141   440
23.1241   433
23.1341   429
23.1441   419
23.1541   429
23.1641   440
23.1741   434
23.1841   417
23.1941   402
23.2041   422
23.2141   412
23.2241   427
23.2341   437
23.2441   413
23.2541   444
23.2641   430
23.2741   437
23.2841   452
23.2941   428
23.3041   436
23.3141   436
23.3241   431
23.3341   420
23.3441   397
23.3541   429
23.3641   433
23.3741   406
23.3841   404
23.3941   435
23.4041   414
23.4141   426
23.4241   403
23.4341   423
23.4441   414
23.4541   438
23.4641   417
23.4741   451
23.4841   444
23.4941   430
23.5041   431
23.5141   442
23.5241   414
23.5341   394
23.5441   412
23.5541   424
23.5641   418
23.5741   437
23.5841   408
23.5941   423
23.6041   411
23.6141   430
23.6241   391
23.6341   409
23.6441   425
23.6541   452
23.6641   441
23.6741   438
23.6841   421
23.6941   428
23.7041   416
23.7141   443
23.7241   450
23.7341   420
23.7441   444
23.7541   433
23.7641   436
23.7741   431
23.7841   455
23.7941   415
23.8041   481
23.8141   445
23.8241   472
23.8341   461
23.8441   461
23.8541   459
23.8641   446
23.8741   429
23.8841   392
23.8941   428
23.9041   418
23.9141   434
23.9241   433
23.9341   402
23.9441   437
23.9541   409
23.9641   403
23.9741   413
23.9841   425
23.9941   454
24.0041   396
24.0141   397
24.0241   372
24.0341   374
24.0441   370
24.0541   405
24.0641   379
24.0741   422
24.0841   419
24.0941   359
24.1041   374
24.1141   371
24.1241   376
24.1341   395
24.1441   426
24.1541   387
24.1641   413
24.1741   393
24.1841   390
24.1941   351
24.2041   365
24.2141   419
24.2241   436
24.2341   433
24.2441   396
24.2541   410
24.2641   395
24.2741   372
24.2841   409
24.2941   420
24.3041   402
24.3141   390
24.3241   359
24.3341   407
24.3441   404
24.3541   384
24.3641   363
24.3741   381
24.3841   397
24.3941   383
24.4041   409
24.4141   370
24.4241   389
24.4341   375
24.4441   427
24.4541   399
24.4641   356
24.4741   369
24.4841   413
24.4941   414
24.5041   392
24.5141   386
24.5241   375
24.5341   394
24.5441   393
24.5541   377
24.5641   374
24.5741   395
24.5841   395
24.5941   387
24.6041   355
24.6141   380
24.6241   379
24.6341   410
24.6441   390
24.6541   373
24.6641   387
24.6741   359
24.6841   404
24.6941   373
24.7041   368
24.7141   354
24.7241   374
24.7341   352
24.7441   386
24.7541   380
24.7641   362
24.7741   387
24.7841   363
24.7941   399
24.8041   344
24.8141   355
24.8241   387
24.8341   396
24.8441   370
24.8541   350
24.8641   375
24.8741   374
24.8841   340
24.8941   376
24.9041   357
24.9141   340
24.9241   368
24.9341   369
24.9441   389
24.9541   375
24.9641   392
24.9741   358
24.9841   381
24.9941   371
25.0041   374
25.0141   409
25.0241   360
25.0341   390
25.0441   394
25.0541   361
25.0641   336
25.0741   382
25.0841   396
25.0941   375
25.1041   386
25.1141   360
25.1241   364
25.1341   367
25.1441   375
25.1541   374
25.1641   368
25.1741   364
25.1841   375
25.1941   385
25.2041   337
25.2141   343
25.2241   343
25.2341   361
25.2441   369
25.2541   354
25.2641   348
25.2741   360
25.2841   370
25.2941   337
25.3041   359
25.3141   368
25.3241   342
25.3341   365
25.3441   349
25.3541   358
25.3641   351
25.3741   389
25.3841   353
25.3941   377
25.4041   369
25.4141   338
25.4241   372
25.4341   364
25.4441   346
25.4541   352
25.4641   333
25.4741   348
25.4841   339
25.4941   350
25.5041   307
25.5141   329
25.5241   334
25.5341   358
25.5441   375
25.5541   351
25.5641   357
25.5741   320
25.5841   352
25.5941   318
25.6041   350
25.6141   363
25.6241   372
25.6341   334
25.6441   336
25.6541   334
25.6641   332
25.6741   354
25.6841   354
25.6941   336
25.7041   302
25.7141   331
25.7241   349
25.7341   311
25.7441   335
25.7541   375
25.7641   358
25.7741   353
25.7841   341
25.7941   338
25.8041   365
25.8141   330
25.8241   335
25.8341   350
25.8441   352
25.8541   348
25.8641   320
25.8741   326
25.8841   330
25.8941   354
25.9041   330
25.9141   355
25.9241   333
25.9341   304
25.9441   323
25.9541   334
25.9641   331
25.9741   347
25.9841   321
25.9941   364
26.0041   343
26.0141   306
26.0241   351
26.0341   356
26.0441   307
26.0541   328
26.0641   301
26.0741   305
26.0841   334
26.0941   352
26.1041   315
26.1141   311
26.1241   317
26.1341   342
26.1441   328
26.1541   320
26.1641   318
26.1741   306
26.1841   317
26.1941   341
26.2041   343
26.2141   322
26.2241   317
26.2341   313
26.2441   343
26.2541   299
26.2641   325
26.2741   342
26.2841   309
26.2941   321
26.3041   290
26.3141   307
26.3241   317
26.3341   315
26.3441   317
26.3541   334
26.3641   340
26.3741   332
26.3841   324
26.3941   302
26.4041   261
26.4141   330
26.4241   310
26.4341   327
26.4441   319
26.4541   316
26.4641   285
26.4741   334
26.4841   297
26.4941   320
26.5041   311
26.5141   317
26.5241   325
26.5341   339
26.5441   307
26.5541   289
26.5641   290
26.5741   337
26.5841   302
26.5941   324
26.6041   284
26.6141   334
26.6241   335
26.6341   298
26.6441   314
26.6541   291
26.6641   317
26.6741   285
26.6841   292
26.6941   285
26.7041   291
26.7141   286
26.7241   303
26.7341   307
26.7441   311
26.7541   325
26.7641   286
26.7741   285
26.7841   292
26.7941   277
26.8041   284
26.8141   287
26.8241   298
26.8341   318
26.8441   279
26.8541   308
26.8641   295
26.8741   291
26.8841   297
26.8941   294
26.9041   291
26.9141   304
26.9241   302
26.9341   320
26.9441   279
26.9541   281
26.9641   258
26.9741   282
26.9841   285
26.9941   287
27.0041   296
27.0141   280
27.0241   309
27.0341   260
27.0441   300
27.0541   303
27.0641   317
27.0741   316
27.0841   314
27.0941   301
27.1041   274
27.1141   255
27.1241   311
27.1341   323
27.1441   308
27.1541   304
27.1641   258
27.1741   279
27.1841   271
27.1941   305
27.2041   289
27.2141   295
27.2241   285
27.2341   277
27.2441   270
27.2541   267
27.2641   274
27.2741   298
27.2841   308
27.2941   278
27.3041   284
27.3141   301
27.3241   284
27.3341   282
27.3441   275
27.3541   278
27.3641   277
27.3741   270
27.3841   279
27.3941   294
27.4041   277
27.4141   310
27.4241   281
27.4341   310
27.4441   314
27.4541   293
27.4641   258
27.4741   297
27.4841   303
27.4941   268
27.5041   267
27.5141   289
27.5241   284
27.5341   285
27.5441   301
27.5541   274
27.5641   267
27.5741   298
27.5841   285
27.5941   286
27.6041   280
27.6141   276
27.6241   287
27.6341   278
27.6441   268
27.6541   281
27.6641   266
27.6741   283
27.6841   266
27.6941   275
27.7041   267
27.7141   261
27.7241   289
27.7341   273
27.7441   268
27.7541   256
27.7641   297
27.7741   254
27.7841   263
27.7941   255
27.8041   269
27.8141   239
27.8241   245
27.8341   264
27.8441   254
27.8541   274
27.8641   262
27.8741   246
27.8841   272
27.8941   264
27.9041   244
27.9141   256
27.9241   264
27.9341   280
27.9441   253
27.9541   276
27.9641   248
27.9741   273
27.9841   259
27.9941   233
28.0041   257
28.0141   267
28.0241   270
28.0341   223
28.0441   254
28.0541   249
28.0641   263
28.0741   258
28.0841   270
28.0941   257
28.1041   252
28.1141   245
28.1241   251
28.1341   232
28.1441   246
28.1541   244
28.1641   247
28.1741   254
28.1841   234
28.1941   262
28.2041   250
28.2141   269
28.2241   288
28.2341   269
28.2441   274
28.2541   268
28.2641   246
28.2741   237
28.2841   234
28.2941   234
28.3041   256
28.3141   249
28.3241   237
28.3341   240
28.3441   237
28.3541   249
28.3641   269
28.3741   257
28.3841   252
28.3941   233
28.4041   240
28.4141   255
28.4241   262
28.4341   265
28.4441   252
28.4541   235
28.4641   247
28.4741   235
28.4841   245
28.4941   252
28.5041   261
28.5141   270
28.5241   264
28.5341   245
28.5441   247
28.5541   208
28.5641   230
28.5741   254
28.5841   228
28.5941   234
28.6041   237
28.6141   255
28.6241   241
28.6341   236
28.6441   207
28.6541   226
28.6641   236
28.6741   222
28.6841   246
28.6941   223
28.7041   226
28.7141   237
28.7241   223
28.7341   216
28.7441   220
28.7541   229
28.7641   222
28.7741   240
28.7841   233
28.7941   216
28.8041   217
28.8141   228
28.8241   234
28.8341   228
28.8441   246
28.8541   229
28.8641   216
28.8741   223
28.8841   245
28.8941   217
28.9041   242
28.9141   213
28.9241   246
28.9341   223
28.9441   228
28.9541   225
28.9641   232
28.9741   237
28.9841   213
28.9941   198
29.0041   249
29.0141   230
29.0241   235
29.0341   215
29.0441   191
29.0541   229
29.0641   218
29.0741   219
29.0841   266
29.0941   226
29.1041   196
29.1141   218
29.1241   220
29.1341   217
29.1441   235
29.1541   220
29.1641   226
29.1741   212
29.1841   232
29.1941   203
29.2041   206
29.2141   214
29.2241   233
29.2341   211
29.2441   217
29.2541   213
29.2641   216
29.2741   200
29.2841   207
29.2941   223
29.3041   237
29.3141   213
29.3241   232
29.3341   206
29.3441   211
29.3541   222
29.3641   208
29.3741   196
29.3841   218
29.3941   219
29.4041   223
29.4141   215
29.4241   218
29.4341   202
29.4441   208
29.4541   210
29.4641   198
29.4741   218
29.4841   212
29.4941   224
29.5041   215
29.5141   221
29.5241   191
29.5341   194
29.5441   202
29.5541   192
29.5641   230
29.5741   194
29.5841   199
29.5941   206
29.6041   201
29.6141   205
29.6241   217
29.6341   216
29.6441   246
29.6541   220
29.6641   222
29.6741   222
29.6841   196
29.6941   217
29.7041   194
29.7141   201
29.7241   207
29.7341   218
29.7441   202
29.7541   206
29.7641   191
29.7741   221
29.7841   210
29.7941   221
29.8041   213
29.8141   215
29.8241   200
29.8341   214
29.8441   197
29.8541   204
29.8641   225
29.8741   209
29.8841   209
29.8941   184
29.9041   191
29.9141   192
29.9241   182
29.9341   194
29.9441   209
29.9541   178
29.9641   187
29.9741   191
29.9841   214
29.9941   208
30.0041   201
30.0141   186
30.0241   170
30.0341   190
30.0441   187
30.0541   206
30.0641   213
30.0741   183
30.0841   200
30.0941   179
30.1041   203
30.1141   202
30.1241   186
30.1341   191
30.1441   188
30.1541   191
30.1641   177
30.1741   172
30.1841   186
30.1941   197
30.2041   183
30.2141   177
30.2241   201
30.2341   183
30.2441   168
30.2541   183
30.2641   181
30.2741   199
30.2841   181
30.2941   180
30.3041   192
30.3141   186
30.3241   194
30.3341   205
30.3441   164
30.3541   200
30.3641   190
30.3741   178
30.3841   179
30.3941   154
30.4041   174
30.4141   197
30.4241   187
30.4341   174
30.4441   183
30.4541   173
30.4641   174
30.4741   209
30.4841   145
30.4941   161
30.5041   175
30.5141   174
30.5241   194
30.5341   173
30.5441   193
30.5541   171
30.5641   171
30.5741   176
30.5841   164
30.5941   176
30.6041   199
30.6141   175
30.6241   152
30.6341   187
30.6441   163
30.6541   168
30.6641   167
30.6741   184
30.6841   165
30.6941   160
30.7041   190
30.7141   180
30.7241   179
30.7341   159
30.7441   165
30.7541   153
30.7641   160
30.7741   191
30.7841   178
30.7941   169
30.8041   163
30.8141   148
30.8241   208
30.8341   169
30.8441   163
30.8541   163
30.8641   163
30.8741   151
30.8841   178
30.8941   189
30.9041   172
30.9141   160
30.9241   175
30.9341   164
30.9441   179
30.9541   176
30.9641   173
30.9741   168
30.9841   167
30.9941   158
31.0041   158
31.0141   145
31.0241   177
31.0341   143
31.0441   144
31.0541   182
31.0641   149
31.0741   155
31.0841   167
31.0941   168
31.1041   169
31.1141   172
31.1241   145
31.1341   195
31.1441   179
31.1541   161
31.1641   154
31.1741   168
31.1841   165
31.1941   154
31.2041   149
31.2141   158
31.2241   162
31.2341   154
31.2441   162
31.2541   168
31.2641   162
31.2741   141
31.2841   153
31.2941   154
31.3041   141
31.3141   142
31.3241   164
31.3341   154
31.3441   153
31.3541   151
31.3641   173
31.3741   167
31.3841   161
31.3941   173
31.4041   154
31.4141   162
31.4241   150
31.4341   150
31.4441   163
31.4541   161
31.4641   172
31.4741   151
31.4841   173
31.4941   160
31.5041   159
31.5141   147
31.5241   147
31.5341   148
31.5441   146
31.5541   145
31.5641   162
31.5741   168
31.5841   168
31.5941   143
31.6041   163
31.6141   151
31.6241   154
31.6341   167
31.6441   156
31.6541   144
31.6641   170
31.6741   137
31.6841   151
31.6941   162
31.7041   168
31.7141   158
31.7241   148
31.7341   146
31.7441   149
31.7541   137
31.7641   165
31.7741   144
31.7841   129
31.7941   155
31.8041   156
31.8141   135
31.8241   159
31.8341   150
31.8441   151
31.8541   140
31.8641   155
31.8741   127
31.8841   159
31.8941   161
31.9041   133
31.9141   160
31.9241   165
31.9341   143
31.9441   151
31.9541   147
31.9641   155
31.9741   149
31.9841   140
31.9941   143
32.0041   145
32.0141   159
32.0241   154
32.0341   150
32.0441   144
32.0541   143
32.0641   148
32.0741   162
32.0841   131
32.0941   180
32.1041   150
32.1141   149
32.1241   139
32.1341   140
32.1441   146
32.1541   161
32.1641   137
32.1741   133
32.1841   131
32.1941   143
32.2041   155
32.2141   118
32.2241   143
32.2341   126
32.2441   144
32.2541   140
32.2641   154
32.2741   134
32.2841   134
32.2941   139
32.3041   118
32.3141   138
32.3241   122
32.3341   103
32.3441   111
32.3541   131
32.3641   143
32.3741   115
32.3841   148
32.3941   119
32.4041   123
32.4141   146
32.4241   139
32.4341   128
32.4441   150
32.4541   128
32.4641   147
32.4741   143
32.4841   126
32.4941   115
32.5041   141
32.5141   122
32.5241   118
32.5341   129
32.5441   106
32.5541   134
32.5641   123
32.5741   124
32.5841   122
32.5941   142
32.6041   130
32.6141   128
32.6241   127
32.6341   118
32.6441   138
32.6541   148
32.6641   113
32.6741   109
32.6841   106
32.6941   134
32.7041   119
32.7141   133
32.7241   112
32.7341   132
32.7441   126
32.7541   103
32.7641   122
32.7741   114
32.7841   111
32.7941   104
32.8041   127
32.8141   107
32.8241   117
32.8341   143
32.8441   122
32.8541   130
32.8641   118
32.8741   118
32.8841   122
32.8941   116
32.9041   132
32.9141   135
32.9241   115
32.9341   107
32.9441   116
32.9541   133
32.9641   124
32.9741   112
32.9841   127
32.9941   115
33.0041   120
33.0141   107
33.0241   118
33.0341   119
33.0441   116
33.0541   146
33.0641   122
33.0741   121
33.0841   121
33.0941   138
33.1041   119
33.1141   116
33.1241   120
33.1341   113
33.1441   117
33.1541   127
33.1641   101
33.1741   117
33.1841   118
33.1941   113
33.2041   106
33.2141   102
33.2241   114
33.2341   108
33.2441   111
33.2541   116
33.2641   121
33.2741   123
33.2841   113
33.2941   102
33.3041   106
33.3141   130
33.3241    85
33.3341   100
33.3441   102
33.3541   105
33.3641   101
33.3741   105
33.3841   109
33.3941   120
33.4041   106
33.4141    89
33.4241   113
33.4341   109
33.4441    99
33.4541   122
33.4641    90
33.4741   105
33.4841   111
33.4941   116
33.5041   115
33.5141   115
33.5241   116
33.5341   107
33.5441   113
33.5541   113
33.5641    93
33.5741   108
33.5841    85
33.5941   120
33.6041   104
33.6141   124
33.6241   101
33.6341   120
33.6441   103
33.6541   107
33.6641    85
33.6741    99
33.6841    94
33.6941    99
33.7041   110
33.7141   117
33.7241   112
33.7341   102
33.7441   103
33.7541   115
33.7641    95
33.7741    84
33.7841   102
33.7941   106
33.8041   102
33.8141   105
33.8241   111
33.8341   101
33.8441    90
33.8541    98
33.8641    93
33.8741    98
33.8841    86
33.8941    94
33.9041   102
33.9141    98
33.9241    74
33.9341   101
33.9441    87
33.9541    80
33.9641    95
33.9741   105
33.9841    97
33.9941   101
34.0041   111
34.0141   100
34.0241   111
34.0341   113
34.0441    99
34.0541    94
34.0641   108
34.0741   102
34.0841    82
34.0941    91
34.1041    90
34.1141   105
34.1241   102
34.1341   100
34.1441   113
34.1541    93
34.1641   110
34.1741    86
34.1841   103
34.1941    87
34.2041    97
34.2141    98
34.2241   105
34.2341   117
34.2441   101
34.2541    94
34.2641    74
34.2741    94
34.2841    76
34.2941    88
34.3041   111
34.3141    86
34.3241    99
34.3341   102
34.3441    95
34.3541   105
34.3641   105
34.3741   102
34.3841   100
34.3941   105
34.4041    88
34.4141   106
34.4241    88
34.4341    89
34.4441    78
34.4541    90
34.4641    89
34.4741    81
34.4841    88
34.4941   103
34.5041    92
34.5141    93
34.5241    83
34.5341    92
34.5441    83
34.5541    82
34.5641    89
34.5741    82
34.5841    79
34.5941    92
34.6041    86
34.6141    86
34.6241    94
34.6341    90
34.6441    98
34.6541    73
34.6641    99
34.6741    89
34.6841    89
34.6941    97
34.7041    91
34.7141    88
34.7241    96
34.7341    80
34.7441    70
34.7541    81
34.7641    90
34.7741    69
34.7841    74
34.7941    72
34.8041    91
34.8141    72
34.8241    72
34.8341    98
34.8441   100
34.8541    77
34.8641    80
34.8741    85
34.8841    85
34.8941    88
34.9041    85
34.9141    78
34.9241    67
34.9341    81
34.9441    75
34.9541    76
34.9641    81
34.9741    75
34.9841    76
34.9941    83
35.0041    92
35.0141    62
35.0241    69
35.0341    85
35.0441    81
35.0541    75
35.0641    85
35.0741    64
35.0841    83
35.0941    74
35.1041    71
35.1141    76
35.1241    70
35.1341    74
35.1441    73
35.1541    90
35.1641    85
35.1741    66
35.1841    64
35.1941    66
35.2041    72
35.2141    75
35.2241    70
35.2341    73
35.2441    73
35.2541    85
35.2641    75
35.2741    71
35.2841    83
35.2941    69
35.3041    78
35.3141    86
35.3241    77
35.3341    71
35.3441    72
35.3541    77
35.3641    86
35.3741    86
35.3841    79
35.3941    66
35.4041    82
35.4141    77
35.4241    90
35.4341    76
35.4441    76
35.4541    62
35.4641    73
35.4741    75
35.4841    67
35.4941    79
35.5041    72
35.5141    68
35.5241    67
35.5341    87
35.5441    83
35.5541    65
35.5641    65
35.5741    81
35.5841    77
35.5941    84
35.6041    65
35.6141    71
35.6241    67
35.6341    78
35.6441    80
35.6541    63
35.6641    52
35.6741    60
35.6841    71
35.6941    67
35.7041    59
35.7141    67
35.7241    74
35.7341    66
35.7441    74
35.7541    71
35.7641    84
35.7741    64
35.7841    64
35.7941    65
35.8041    70
35.8141    60
35.8241    63
35.8341    65
35.8441    59
35.8541    76
35.8641    69
35.8741    60
35.8841    71
35.8941    79
35.9041    67
35.9141    68
35.9241    63
35.9341    75
35.9441    64
35.9541    76
35.9641    72
35.9741    72
35.9841    67
35.9941    70
36.0041    70
36.0141    66
36.0241    51
36.0341    73
36.0441    73
36.0541    68
36.0641    70
36.0741    59
36.0841    86
36.0941    49
36.1041    64
36.1141    62
36.1241    56
36.1341    67
36.1441    70
36.1541    51
36.1641    58
36.1741    55
36.1841    63
36.1941    60
36.2041    67
36.2141    68
36.2241    57
36.2341    65
36.2441    57
36.2541    59
36.2641    74
36.2741    66
36.2841    55
36.2941    54
36.3041    65
36.3141    73
36.3241    53
36.3341    59
36.3441    65
36.3541    66
36.3641    57
36.3741    41
36.3841    61
36.3941    68
36.4041    54
36.4141    67
36.4241    54
36.4341    59
36.4441    51
36.4541    59
36.4641    66
36.4741    51
36.4841    53
36.4941    51
36.5041    48
36.5141    72
36.5241    52
36.5341    51
36.5441    54
36.5541    57
36.5641    63
36.5741    52
36.5841    59
36.5941    50
36.6041    55
36.6141    51
36.6241    61
36.6341    72
36.6441    48
36.6541    48
36.6641    53
36.6741    49
36.6841    45
36.6941    53
36.7041    46
36.7141    48
36.7241    50
36.7341    62
36.7441    45
36.7541    51
36.7641    48
36.7741    49
36.7841    55
36.7941    57
36.8041    62
36.8141    34
36.8241    50
36.8341    56
36.8441    42
36.8541    62
36.8641    51
36.8741    51
36.8841    38
36.8941    41
36.9041    52
36.9141    45
36.9241    50
36.9341    53
36.9441    44
36.9541    57
36.9641    55
36.9741    42
36.9841    50
36.9941    61
37.0041    53
37.0141    47
37.0241    45
37.0341    49
37.0441    55
37.0541    44
37.0641    45
37.0741    49
37.0841    43
37.0941    41
37.1041    47
37.1141    40
37.1241    46
37.1341    49
37.1441    52
37.1541    51
37.1641    51
37.1741    49
37.1841    40
37.1941    45
37.2041    36
37.2141    61
37.2241    49
37.2341    45
37.2441    54
37.2541    66
37.2641    46
37.2741    49
37.2841    42
37.2941    49
37.3041    41
37.3141    40
37.3241    45
37.3341    43
37.3441    47
37.3541    40
37.3641    42
37.3741    49
37.3841    45
37.3941    56
37.4041    48
37.4141    40
37.4241    31
37.4341    50
37.4441    42
37.4541    48
37.4641    41
37.4741    56
37.4841    53
37.4941    48
37.5041    40
37.5141    46
37.5241    50
37.5341    52
37.5441    52
37.5541    36
37.5641    43
37.5741    41
37.5841    53
37.5941    50
37.6041    49
37.6141    42
37.6241    50
37.6341    34
37.6441    49
37.6541    44
37.6641    38
37.6741    41
37.6841    36
37.6941    30
37.7041    34
37.7141    33
37.7241    38
37.7341    42
37.7441    41
37.7541    41
37.7641    46
37.7741    40
37.7841    40
37.7941    47
37.8041    41
37.8141    44
37.8241    45
37.8341    44
37.8441    37
37.8541    51
37.8641    33
37.8741    41
37.8841    41
37.8941    39
37.9041    36
37.9141    36
37.9241    36
37.9341    42
37.9441    39
37.9541    39
37.9641    32
37.9741    42
37.9841    33
37.9941    42
38.0041    31
38.0141    25
38.0241    30
38.0341    42
38.0441    32
38.0541    40
38.0641    38
38.0741    28
38.0841    34
38.0941    30
38.1041    40
38.1141    31
38.1241    34
38.1341    47
38.1441    45
38.1541    35
38.1641    31
38.1741    30
38.1841    32
38.1941    32
38.2041    34
38.2141    26
38.2241    35
38.2341    28
38.2441    28
38.2541    31
38.2641    30
38.2741    50
38.2841    32
38.2941    50
38.3041    50
38.3141    28
38.3241    27
38.3341    37
38.3441    32
38.3541    35
38.3641    37
38.3741    30
38.3841    40
38.3941    32
38.4041    36
38.4141    37
38.4241    30
38.4341    41
38.4441    34
38.4541    24
38.4641    27
38.4741    27
38.4841    37
38.4941    26
38.5041    33
38.5141    29
38.5241    23
38.5341    30
38.5441    28
38.5541    42
38.5641    28
38.5741    33
38.5841    32
38.5941    30
38.6041    44
38.6141    41
38.6241    26
38.6341    32
38.6441    32
38.6541    33
38.6641    26
38.6741    27
38.6841    33
38.6941    26
38.7041    26
38.7141    28
38.7241    31
38.7341    32
38.7441    29
38.7541    33
38.7641    26
38.7741    32
38.7841    41
38.7941    29
38.8041    30
38.8141    26
38.8241    23
38.8341    34
38.8441    35
38.8541    30
38.8641    23
38.8741    40
38.8841    26
38.8941    22
38.9041    28
38.9141    31
38.9241    25
38.9341    27
38.9441    30
38.9541    30
38.9641    29
38.9741    30
38.9841    24
38.9941    30
39.0041    23
39.0141    24
39.0241    24
39.0341    26
39.0441    28
39.0541    25
39.0641    33
39.0741    26
39.0841    29
39.0941    28
39.1041    29
39.1141    36
39.1241    27
39.1341    31
39.1441    31
39.1541    23
39.1641    24
39.1741    23
39.1841    25
39.1941    26
39.2041    27
39.2141    26
39.2241    20
39.2341    23
39.2441    30
39.2541    21
39.2641    23
39.2741    23
39.2841    25
39.2941    19
39.3041    22
39.3141    17
39.3241    25
39.3341    20
39.3441    20
39.3541    22
39.3641    23
39.3741    29
39.3841    31
39.3941    30
39.4041    17
39.4141    31
39.4241    24
39.4341    23
39.4441    23
39.4541    17
39.4641    28
39.4741    29
39.4841    27
39.4941    24
39.5041    21
39.5141    19
39.5241    25
39.5341    27
39.5441    20
39.5541    28
39.5641    22
39.5741    22
39.5841    25
39.5941    36
39.6041    21
39.6141    24
39.6241    18
39.6341    27
39.6441    25
39.6541    37
39.6641    28
39.6741    17
39.6841    19
39.6941    31
39.7041    19
39.7141    17
39.7241    21
39.7341    25
39.7441    27
39.7541    20
39.7641    27
39.7741    22
39.7841    14
39.7941    21
39.8041    19
39.8141    14
39.8241    24
39.8341    14
39.8441    18
39.8541    23
39.8641    19
39.8741    18
39.8841    18
39.8941    28
39.9041    18
39.9141    21
39.9241    32
39.9341    23
39.9441    17
39.9541    20
39.9641    14
39.9741    18
39.9841    22
