Bruker Nano GmbH Berlin, Germany
Esprit 1.9

Date: 4/21/2021 2:37:09 PM
Real time: 26239
Life time: 24694
Pulse density: 86226


Detector type: XFlash 430
Window type: Custom type
Detector thickness: 0.45
Si dead layer:0.029

Calibration, lin.: 10
Calibration, abs.: -955.9
Mn FWHM: 137.05
Fano factor: 0.121
Channels: 4096

Energy Counts
-0.9559     0
-0.9459     0
-0.9359     0
-0.9259     0
-0.9159     0
-0.9059     0
-0.8959     0
-0.8859     0
-0.8759     0
-0.8659     0
-0.8559     0
-0.8459     0
-0.8359     0
-0.8259     0
-0.8159     0
-0.8059     0
-0.7959     0
-0.7859     0
-0.7759     0
-0.7659     0
-0.7559     0
-0.7459     0
-0.7359     0
-0.7259     0
-0.7159     0
-0.7059     0
-0.6959     0
-0.6859     0
-0.6759     0
-0.6659     0
-0.6559     0
-0.6459     0
-0.6359     0
-0.6259     0
-0.6159     0
-0.6059     0
-0.5959     0
-0.5859     0
-0.5759     0
-0.5659     0
-0.5559     0
-0.5459     0
-0.5359     0
-0.5259     0
-0.5159     0
-0.5059     0
-0.4959     0
-0.4859     0
-0.4759     0
-0.4659     0
-0.4559     0
-0.4459     0
-0.4359     0
-0.4259     0
-0.4159     0
-0.4059     0
-0.3959     0
-0.3859     0
-0.3759     0
-0.3659     0
-0.3559     0
-0.3459     0
-0.3359     0
-0.3259     0
-0.3159     0
-0.3059     0
-0.2959     0
-0.2859     0
-0.2759     0
-0.2659     0
-0.2559     0
-0.2459     0
-0.2359     0
-0.2259     0
-0.2159     0
-0.2059     0
-0.1959     0
-0.1859     0
-0.1759     0
-0.1659     0
-0.1559     1
-0.1459     0
-0.1359     0
-0.1259     0
-0.1159     4
-0.1059    13
-0.0959    80
-0.0859   295
-0.0759   977
-0.0659  2832
-0.0559  7053
-0.0459 15763
-0.0359 29343
-0.0259 47259
-0.0159 64272
-0.0059 75673
 0.0041 76546
 0.0141 65512
 0.0241 48158
 0.0341 30459
 0.0441 16707
 0.0541  7628
 0.0641  3040
 0.0741  1017
 0.0841   328
 0.0941    87
 0.1041    26
 0.1141    14
 0.1241     7
 0.1341    10
 0.1441     4
 0.1541     8
 0.1641    10
 0.1741     3
 0.1841   226
 0.1941   430
 0.2041   387
 0.2141   423
 0.2241   392
 0.2341   370
 0.2441   396
 0.2541   388
 0.2641   425
 0.2741   390
 0.2841   374
 0.2941   386
 0.3041   368
 0.3141   377
 0.3241   374
 0.3341   382
 0.3441   392
 0.3541   358
 0.3641   374
 0.3741   391
 0.3841   381
 0.3941   345
 0.4041   351
 0.4141   365
 0.4241   364
 0.4341   330
 0.4441   330
 0.4541   321
 0.4641   314
 0.4741   345
 0.4841   353
 0.4941   350
 0.5041   343
 0.5141   351
 0.5241   330
 0.5341   336
 0.5441   325
 0.5541   327
 0.5641   317
 0.5741   310
 0.5841   330
 0.5941   336
 0.6041   329
 0.6141   316
 0.6241   311
 0.6341   323
 0.6441   313
 0.6541   326
 0.6641   319
 0.6741   308
 0.6841   295
 0.6941   317
 0.7041   313
 0.7141   301
 0.7241   304
 0.7341   294
 0.7441   298
 0.7541   287
 0.7641   273
 0.7741   280
 0.7841   288
 0.7941   275
 0.8041   275
 0.8141   283
 0.8241   279
 0.8341   280
 0.8441   267
 0.8541   263
 0.8641   260
 0.8741   249
 0.8841   258
 0.8941   278
 0.9041   283
 0.9141   271
 0.9241   287
 0.9341   268
 0.9441   264
 0.9541   274
 0.9641   289
 0.9741   278
 0.9841   293
 0.9941   268
 1.0041   263
 1.0141   256
 1.0241   259
 1.0341   257
 1.0441   265
 1.0541   266
 1.0641   266
 1.0741   280
 1.0841   263
 1.0941   251
 1.1041   252
 1.1141   244
 1.1241   239
 1.1341   249
 1.1441   283
 1.1541   264
 1.1641   265
 1.1741   247
 1.1841   242
 1.1941   262
 1.2041   225
 1.2141   252
 1.2241   255
 1.2341   256
 1.2441   231
 1.2541   242
 1.2641   267
 1.2741   263
 1.2841   250
 1.2941   236
 1.3041   239
 1.3141   234
 1.3241   247
 1.3341   218
 1.3441   238
 1.3541   245
 1.3641   228
 1.3741   222
 1.3841   240
 1.3941   240
 1.4041   218
 1.4141   239
 1.4241   248
 1.4341   222
 1.4441   235
 1.4541   224
 1.4641   228
 1.4741   243
 1.4841   243
 1.4941   236
 1.5041   219
 1.5141   218
 1.5241   225
 1.5341   234
 1.5441   225
 1.5541   217
 1.5641   237
 1.5741   232
 1.5841   214
 1.5941   205
 1.6041   214
 1.6141   215
 1.6241   234
 1.6341   205
 1.6441   236
 1.6541   285
 1.6641   324
 1.6741   361
 1.6841   473
 1.6941   591
 1.7041   701
 1.7141   771
 1.7241   906
 1.7341   935
 1.7441   916
 1.7541   935
 1.7641   795
 1.7741   671
 1.7841   606
 1.7941   520
 1.8041   384
 1.8141   353
 1.8241   332
 1.8341   300
 1.8441   267
 1.8541   264
 1.8641   260
 1.8741   230
 1.8841   226
 1.8941   231
 1.9041   233
 1.9141   220
 1.9241   241
 1.9341   237
 1.9441   253
 1.9541   258
 1.9641   273
 1.9741   264
 1.9841   299
 1.9941   284
 2.0041   263
 2.0141   265
 2.0241   278
 2.0341   280
 2.0441   268
 2.0541   251
 2.0641   256
 2.0741   225
 2.0841   241
 2.0941   213
 2.1041   213
 2.1141   200
 2.1241   228
 2.1341   218
 2.1441   210
 2.1541   202
 2.1641   202
 2.1741   203
 2.1841   203
 2.1941   228
 2.2041   206
 2.2141   208
 2.2241   205
 2.2341   173
 2.2441   204
 2.2541   210
 2.2641   189
 2.2741   205
 2.2841   190
 2.2941   211
 2.3041   178
 2.3141   209
 2.3241   189
 2.3341   187
 2.3441   189
 2.3541   161
 2.3641   158
 2.3741   181
 2.3841   177
 2.3941   192
 2.4041   177
 2.4141   165
 2.4241   198
 2.4341   168
 2.4441   167
 2.4541   173
 2.4641   187
 2.4741   179
 2.4841   183
 2.4941   167
 2.5041   171
 2.5141   185
 2.5241   165
 2.5341   184
 2.5441   165
 2.5541   165
 2.5641   179
 2.5741   156
 2.5841   163
 2.5941   210
 2.6041   186
 2.6141   172
 2.6241   196
 2.6341   178
 2.6441   186
 2.6541   167
 2.6641   150
 2.6741   164
 2.6841   178
 2.6941   176
 2.7041   174
 2.7141   184
 2.7241   158
 2.7341   184
 2.7441   153
 2.7541   173
 2.7641   174
 2.7741   165
 2.7841   195
 2.7941   175
 2.8041   167
 2.8141   195
 2.8241   180
 2.8341   149
 2.8441   188
 2.8541   171
 2.8641   162
 2.8741   155
 2.8841   163
 2.8941   161
 2.9041   111
 2.9141   143
 2.9241   170
 2.9341   147
 2.9441   151
 2.9541   173
 2.9641   155
 2.9741   137
 2.9841   160
 2.9941   177
 3.0041   155
 3.0141   140
 3.0241   148
 3.0341   142
 3.0441   142
 3.0541   128
 3.0641   149
 3.0741   152
 3.0841   139
 3.0941   134
 3.1041   144
 3.1141   128
 3.1241   153
 3.1341   137
 3.1441   128
 3.1541   154
 3.1641   139
 3.1741   159
 3.1841   169
 3.1941   168
 3.2041   160
 3.2141   189
 3.2241   185
 3.2341   240
 3.2441   262
 3.2541   332
 3.2641   382
 3.2741   402
 3.2841   449
 3.2941   477
 3.3041   506
 3.3141   487
 3.3241   519
 3.3341   510
 3.3441   462
 3.3541   394
 3.3641   340
 3.3741   287
 3.3841   249
 3.3941   211
 3.4041   195
 3.4141   162
 3.4241   165
 3.4341   145
 3.4441   151
 3.4541   139
 3.4641   147
 3.4741   144
 3.4841   146
 3.4941   164
 3.5041   154
 3.5141   158
 3.5241   188
 3.5341   202
 3.5441   220
 3.5541   242
 3.5641   270
 3.5741   326
 3.5841   372
 3.5941   422
 3.6041   522
 3.6141   641
 3.6241   801
 3.6341   957
 3.6441  1149
 3.6541  1396
 3.6641  1528
 3.6741  1617
 3.6841  1713
 3.6941  1738
 3.7041  1602
 3.7141  1525
 3.7241  1356
 3.7341  1151
 3.7441   918
 3.7541   808
 3.7641   612
 3.7741   428
 3.7841   356
 3.7941   257
 3.8041   183
 3.8141   172
 3.8241   166
 3.8341   124
 3.8441   131
 3.8541   106
 3.8641   109
 3.8741   121
 3.8841   131
 3.8941   141
 3.9041   133
 3.9141   137
 3.9241   165
 3.9341   209
 3.9441   215
 3.9541   232
 3.9641   274
 3.9741   277
 3.9841   282
 3.9941   299
 4.0041   325
 4.0141   308
 4.0241   324
 4.0341   308
 4.0441   286
 4.0541   248
 4.0641   223
 4.0741   209
 4.0841   173
 4.0941   164
 4.1041   162
 4.1141   146
 4.1241   138
 4.1341   126
 4.1441   118
 4.1541   117
 4.1641    94
 4.1741    96
 4.1841   110
 4.1941    96
 4.2041    90
 4.2141    99
 4.2241    70
 4.2341    86
 4.2441   103
 4.2541    92
 4.2641   101
 4.2741    99
 4.2841   108
 4.2941   119
 4.3041    88
 4.3141   127
 4.3241   102
 4.3341   113
 4.3441   130
 4.3541   106
 4.3641   127
 4.3741   147
 4.3841   141
 4.3941   189
 4.4041   196
 4.4141   215
 4.4241   235
 4.4341   237
 4.4441   303
 4.4541   311
 4.4641   325
 4.4741   355
 4.4841   368
 4.4941   366
 4.5041   336
 4.5141   349
 4.5241   353
 4.5341   297
 4.5441   244
 4.5541   222
 4.5641   189
 4.5741   182
 4.5841   166
 4.5941   162
 4.6041   150
 4.6141   127
 4.6241   117
 4.6341   123
 4.6441   122
 4.6541   137
 4.6641   133
 4.6741   127
 4.6841   126
 4.6941   118
 4.7041   109
 4.7141   139
 4.7241   114
 4.7341   125
 4.7441   142
 4.7541   163
 4.7641   160
 4.7741   188
 4.7841   215
 4.7941   223
 4.8041   170
 4.8141   225
 4.8241   246
 4.8341   244
 4.8441   249
 4.8541   245
 4.8641   246
 4.8741   233
 4.8841   214
 4.8941   218
 4.9041   228
 4.9141   193
 4.9241   189
 4.9341   194
 4.9441   172
 4.9541   164
 4.9641   177
 4.9741   163
 4.9841   147
 4.9941   136
 5.0041   138
 5.0141   121
 5.0241   115
 5.0341   121
 5.0441   141
 5.0541   119
 5.0641   119
 5.0741   124
 5.0841   158
 5.0941   131
 5.1041   141
 5.1141   139
 5.1241   145
 5.1341   154
 5.1441   163
 5.1541   159
 5.1641   162
 5.1741   163
 5.1841   162
 5.1941   161
 5.2041   131
 5.2141   158
 5.2241   156
 5.2341   143
 5.2441   147
 5.2541   147
 5.2641   133
 5.2741   136
 5.2841   136
 5.2941   138
 5.3041   170
 5.3141   183
 5.3241   222
 5.3341   253
 5.3441   252
 5.3541   311
 5.3641   384
 5.3741   389
 5.3841   405
 5.3941   456
 5.4041   460
 5.4141   469
 5.4241   449
 5.4341   433
 5.4441   428
 5.4541   373
 5.4641   339
 5.4741   316
 5.4841   290
 5.4941   238
 5.5041   230
 5.5141   195
 5.5241   227
 5.5341   197
 5.5441   148
 5.5541   174
 5.5641   151
 5.5741   155
 5.5841   158
 5.5941   150
 5.6041   148
 5.6141   127
 5.6241   134
 5.6341   137
 5.6441   136
 5.6541   133
 5.6641   133
 5.6741   132
 5.6841   132
 5.6941   145
 5.7041   132
 5.7141   139
 5.7241   141
 5.7341   134
 5.7441   148
 5.7541   184
 5.7641   182
 5.7741   202
 5.7841   218
 5.7941   240
 5.8041   227
 5.8141   310
 5.8241   340
 5.8341   374
 5.8441   413
 5.8541   477
 5.8641   508
 5.8741   498
 5.8841   509
 5.8941   537
 5.9041   522
 5.9141   499
 5.9241   523
 5.9341   480
 5.9441   426
 5.9541   403
 5.9641   377
 5.9741   352
 5.9841   272
 5.9941   263
 6.0041   225
 6.0141   231
 6.0241   187
 6.0341   175
 6.0441   178
 6.0541   161
 6.0641   184
 6.0741   131
 6.0841   144
 6.0941   162
 6.1041   179
 6.1141   152
 6.1241   187
 6.1341   186
 6.1441   166
 6.1541   176
 6.1641   182
 6.1741   185
 6.1841   235
 6.1941   211
 6.2041   275
 6.2141   293
 6.2241   370
 6.2341   472
 6.2441   580
 6.2541   835
 6.2641  1142
 6.2741  1531
 6.2841  2089
 6.2941  2687
 6.3041  3468
 6.3141  4236
 6.3241  5306
 6.3341  6505
 6.3441  7569
 6.3541  8684
 6.3641  9385
 6.3741 10469
 6.3841 11101
 6.3941 11240
 6.4041 10990
 6.4141 10621
 6.4241 10076
 6.4341  9477
 6.4441  8558
 6.4541  7361
 6.4641  6230
 6.4741  5195
 6.4841  4239
 6.4941  3288
 6.5041  2598
 6.5141  1914
 6.5241  1459
 6.5341  1020
 6.5441   811
 6.5541   630
 6.5641   449
 6.5741   314
 6.5841   292
 6.5941   251
 6.6041   198
 6.6141   231
 6.6241   225
 6.6341   208
 6.6441   185
 6.6541   194
 6.6641   189
 6.6741   185
 6.6841   171
 6.6941   179
 6.7041   182
 6.7141   222
 6.7241   176
 6.7341   187
 6.7441   201
 6.7541   194
 6.7641   200
 6.7741   227
 6.7841   211
 6.7941   214
 6.8041   215
 6.8141   188
 6.8241   232
 6.8341   221
 6.8441   239
 6.8541   244
 6.8641   282
 6.8741   301
 6.8841   296
 6.8941   352
 6.9041   380
 6.9141   389
 6.9241   470
 6.9341   598
 6.9441   651
 6.9541   773
 6.9641   906
 6.9741  1045
 6.9841  1283
 6.9941  1348
 7.0041  1459
 7.0141  1650
 7.0241  1800
 7.0341  1945
 7.0441  2016
 7.0541  2096
 7.0641  2111
 7.0741  1957
 7.0841  1810
 7.0941  1680
 7.1041  1597
 7.1141  1377
 7.1241  1243
 7.1341  1022
 7.1441   936
 7.1541   762
 7.1641   646
 7.1741   543
 7.1841   464
 7.1941   431
 7.2041   359
 7.2141   341
 7.2241   355
 7.2341   285
 7.2441   285
 7.2541   273
 7.2641   251
 7.2741   311
 7.2841   302
 7.2941   324
 7.3041   327
 7.3141   347
 7.3241   392
 7.3341   415
 7.3441   436
 7.3541   485
 7.3641   519
 7.3741   581
 7.3841   673
 7.3941   741
 7.4041   843
 7.4141   844
 7.4241   884
 7.4341   943
 7.4441   998
 7.4541  1018
 7.4641  1078
 7.4741  1013
 7.4841  1021
 7.4941   993
 7.5041   938
 7.5141   919
 7.5241   821
 7.5341   737
 7.5441   669
 7.5541   615
 7.5641   491
 7.5741   433
 7.5841   442
 7.5941   416
 7.6041   355
 7.6141   353
 7.6241   326
 7.6341   295
 7.6441   293
 7.6541   297
 7.6641   276
 7.6741   308
 7.6841   274
 7.6941   278
 7.7041   299
 7.7141   285
 7.7241   296
 7.7341   290
 7.7441   318
 7.7541   335
 7.7641   357
 7.7741   328
 7.7841   367
 7.7941   406
 7.8041   380
 7.8141   387
 7.8241   412
 7.8341   417
 7.8441   414
 7.8541   399
 7.8641   433
 7.8741   410
 7.8841   457
 7.8941   470
 7.9041   471
 7.9141   486
 7.9241   506
 7.9341   543
 7.9441   573
 7.9541   604
 7.9641   612
 7.9741   677
 7.9841   731
 7.9941   745
 8.0041   870
 8.0141   886
 8.0241   980
 8.0341  1047
 8.0441  1139
 8.0541  1167
 8.0641  1263
 8.0741  1316
 8.0841  1452
 8.0941  1484
 8.1041  1608
 8.1141  1590
 8.1241  1732
 8.1341  1802
 8.1441  1850
 8.1541  2033
 8.1641  2060
 8.1741  1950
 8.1841  2047
 8.1941  2090
 8.2041  2079
 8.2141  2219
 8.2241  2178
 8.2341  2146
 8.2441  2325
 8.2541  2354
 8.2641  2390
 8.2741  2521
 8.2841  2769
 8.2941  2924
 8.3041  3195
 8.3141  3445
 8.3241  3726
 8.3341  3943
 8.3441  4144
 8.3541  4439
 8.3641  4622
 8.3741  4535
 8.3841  4777
 8.3941  4784
 8.4041  4702
 8.4141  4573
 8.4241  4258
 8.4341  3914
 8.4441  3617
 8.4541  3221
 8.4641  2841
 8.4741  2515
 8.4841  2212
 8.4941  1853
 8.5041  1556
 8.5141  1334
 8.5241  1092
 8.5341   941
 8.5441   784
 8.5541   772
 8.5641   699
 8.5741   666
 8.5841   595
 8.5941   563
 8.6041   536
 8.6141   599
 8.6241   583
 8.6341   555
 8.6441   562
 8.6541   565
 8.6641   576
 8.6741   539
 8.6841   549
 8.6941   542
 8.7041   540
 8.7141   511
 8.7241   523
 8.7341   507
 8.7441   472
 8.7541   447
 8.7641   462
 8.7741   460
 8.7841   477
 8.7941   452
 8.8041   449
 8.8141   420
 8.8241   463
 8.8341   435
 8.8441   440
 8.8541   424
 8.8641   426
 8.8741   443
 8.8841   408
 8.8941   463
 8.9041   457
 8.9141   433
 8.9241   482
 8.9341   460
 8.9441   468
 8.9541   473
 8.9641   493
 8.9741   489
 8.9841   515
 8.9941   511
 9.0041   536
 9.0141   527
 9.0241   545
 9.0341   556
 9.0441   561
 9.0541   616
 9.0641   603
 9.0741   618
 9.0841   663
 9.0941   678
 9.1041   678
 9.1141   706
 9.1241   763
 9.1341   792
 9.1441   794
 9.1541   791
 9.1641   867
 9.1741   907
 9.1841   904
 9.1941   996
 9.2041  1048
 9.2141  1102
 9.2241  1145
 9.2341  1203
 9.2441  1249
 9.2541  1298
 9.2641  1357
 9.2741  1413
 9.2841  1524
 9.2941  1595
 9.3041  1553
 9.3141  1628
 9.3241  1686
 9.3341  1770
 9.3441  1769
 9.3541  1865
 9.3641  1880
 9.3741  1917
 9.3841  1907
 9.3941  2001
 9.4041  2006
 9.4141  2066
 9.4241  2138
 9.4341  2087
 9.4441  2123
 9.4541  2149
 9.4641  2135
 9.4741  2129
 9.4841  2232
 9.4941  2292
 9.5041  2321
 9.5141  2351
 9.5241  2583
 9.5341  2601
 9.5441  2642
 9.5541  2748
 9.5641  2911
 9.5741  3078
 9.5841  3245
 9.5941  3517
 9.6041  3727
 9.6141  4057
 9.6241  4194
 9.6341  4332
 9.6441  4428
 9.6541  4568
 9.6641  4627
 9.6741  4551
 9.6841  4493
 9.6941  4458
 9.7041  4385
 9.7141  4131
 9.7241  3915
 9.7341  3610
 9.7441  3415
 9.7541  3199
 9.7641  2874
 9.7741  2647
 9.7841  2444
 9.7941  2318
 9.8041  2200
 9.8141  2095
 9.8241  1917
 9.8341  1938
 9.8441  1922
 9.8541  1827
 9.8641  1843
 9.8741  1813
 9.8841  1884
 9.8941  1990
 9.9041  1933
 9.9141  2002
 9.9241  2069
 9.9341  2032
 9.9441  2086
 9.9541  2103
 9.9641  2052
 9.9741  1972
 9.9841  1961
 9.9941  1868
10.0041  1774
10.0141  1547
10.0241  1471
10.0341  1395
10.0441  1258
10.0541  1084
10.0641   991
10.0741   902
10.0841   834
10.0941   704
10.1041   667
10.1141   610
10.1241   554
10.1341   478
10.1441   467
10.1541   446
10.1641   395
10.1741   385
10.1841   394
10.1941   371
10.2041   356
10.2141   363
10.2241   355
10.2341   361
10.2441   346
10.2541   330
10.2641   304
10.2741   287
10.2841   299
10.2941   274
10.3041   250
10.3141   282
10.3241   268
10.3341   272
10.3441   266
10.3541   260
10.3641   246
10.3741   243
10.3841   268
10.3941   261
10.4041   287
10.4141   260
10.4241   254
10.4341   245
10.4441   251
10.4541   235
10.4641   255
10.4741   261
10.4841   230
10.4941   243
10.5041   269
10.5141   285
10.5241   280
10.5341   272
10.5441   275
10.5541   269
10.5641   278
10.5741   301
10.5841   310
10.5941   288
10.6041   296
10.6141   288
10.6241   290
10.6341   275
10.6441   296
10.6541   317
10.6641   328
10.6741   337
10.6841   326
10.6941   313
10.7041   320
10.7141   297
10.7241   329
10.7341   326
10.7441   347
10.7541   358
10.7641   364
10.7741   384
10.7841   399
10.7941   366
10.8041   364
10.8141   378
10.8241   385
10.8341   404
10.8441   406
10.8541   414
10.8641   429
10.8741   435
10.8841   449
10.8941   442
10.9041   411
10.9141   452
10.9241   470
10.9341   472
10.9441   440
10.9541   442
10.9641   443
10.9741   441
10.9841   444
10.9941   424
11.0041   441
11.0141   422
11.0241   413
11.0341   428
11.0441   399
11.0541   396
11.0641   393
11.0741   399
11.0841   393
11.0941   385
11.1041   362
11.1141   368
11.1241   406
11.1341   421
11.1441   425
11.1541   403
11.1641   428
11.1741   451
11.1841   471
11.1941   500
11.2041   526
11.2141   549
11.2241   584
11.2341   569
11.2441   598
11.2541   589
11.2641   573
11.2741   585
11.2841   603
11.2941   617
11.3041   594
11.3141   610
11.3241   614
11.3341   579
11.3441   512
11.3541   499
11.3641   488
11.3741   464
11.3841   437
11.3941   384
11.4041   356
11.4141   356
11.4241   366
11.4341   356
11.4441   316
11.4541   313
11.4641   323
11.4741   314
11.4841   312
11.4941   312
11.5041   316
11.5141   307
11.5241   296
11.5341   315
11.5441   313
11.5541   307
11.5641   328
11.5741   301
11.5841   314
11.5941   320
11.6041   317
11.6141   333
11.6241   348
11.6341   346
11.6441   358
11.6541   353
11.6641   341
11.6741   325
11.6841   306
11.6941   329
11.7041   313
11.7141   318
11.7241   274
11.7341   254
11.7441   280
11.7541   259
11.7641   254
11.7741   256
11.7841   232
11.7941   230
11.8041   244
11.8141   247
11.8241   226
11.8341   231
11.8441   228
11.8541   206
11.8641   202
11.8741   215
11.8841   236
11.8941   223
11.9041   234
11.9141   238
11.9241   228
11.9341   226
11.9441   214
11.9541   208
11.9641   231
11.9741   250
11.9841   241
11.9941   228
12.0041   236
12.0141   223
12.0241   239
12.0341   251
12.0441   246
12.0541   250
12.0641   241
12.0741   251
12.0841   249
12.0941   253
12.1041   225
12.1141   215
12.1241   237
12.1341   235
12.1441   224
12.1541   214
12.1641   227
12.1741   239
12.1841   228
12.1941   225
12.2041   216
12.2141   214
12.2241   241
12.2341   237
12.2441   235
12.2541   225
12.2641   225
12.2741   239
12.2841   213
12.2941   226
12.3041   256
12.3141   260
12.3241   222
12.3341   192
12.3441   240
12.3541   227
12.3641   220
12.3741   239
12.3841   232
12.3941   218
12.4041   213
12.4141   223
12.4241   222
12.4341   226
12.4441   218
12.4541   238
12.4641   249
12.4741   240
12.4841   240
12.4941   239
12.5041   238
12.5141   244
12.5241   244
12.5341   240
12.5441   251
12.5541   259
12.5641   249
12.5741   253
12.5841   248
12.5941   255
12.6041   252
12.6141   262
12.6241   272
12.6341   261
12.6441   257
12.6541   263
12.6641   261
12.6741   271
12.6841   277
12.6941   268
12.7041   257
12.7141   254
12.7241   244
12.7341   257
12.7441   238
12.7541   244
12.7641   269
12.7741   259
12.7841   277
12.7941   266
12.8041   252
12.8141   264
12.8241   248
12.8341   241
12.8441   254
12.8541   254
12.8641   252
12.8741   259
12.8841   274
12.8941   276
12.9041   268
12.9141   263
12.9241   249
12.9341   261
12.9441   270
12.9541   273
12.9641   271
12.9741   266
12.9841   257
12.9941   252
13.0041   289
13.0141   290
13.0241   284
13.0341   274
13.0441   261
13.0541   263
13.0641   267
13.0741   284
13.0841   272
13.0941   264
13.1041   260
13.1141   281
13.1241   287
13.1341   289
13.1441   296
13.1541   290
13.1641   294
13.1741   297
13.1841   294
13.1941   307
13.2041   333
13.2141   338
13.2241   360
13.2341   361
13.2441   359
13.2541   370
13.2641   410
13.2741   420
13.2841   408
13.2941   439
13.3041   470
13.3141   478
13.3241   476
13.3341   504
13.3441   545
13.3541   535
13.3641   539
13.3741   539
13.3841   541
13.3941   552
13.4041   540
13.4141   553
13.4241   568
13.4341   553
13.4441   492
13.4541   451
13.4641   440
13.4741   434
13.4841   438
13.4941   412
13.5041   372
13.5141   363
13.5241   358
13.5341   348
13.5441   366
13.5541   364
13.5641   326
13.5741   321
13.5841   351
13.5941   338
13.6041   325
13.6141   309
13.6241   308
13.6341   324
13.6441   340
13.6541   340
13.6641   323
13.6741   303
13.6841   328
13.6941   333
13.7041   304
13.7141   322
13.7241   327
13.7341   326
13.7441   330
13.7541   315
13.7641   320
13.7741   326
13.7841   326
13.7941   327
13.8041   326
13.8141   325
13.8241   329
13.8341   349
13.8441   347
13.8541   326
13.8641   332
13.8741   348
13.8841   366
13.8941   369
13.9041   380
13.9141   424
13.9241   443
13.9341   467
13.9441   507
13.9541   567
13.9641   624
13.9741   681
13.9841   741
13.9941   777
14.0041   869
14.0141   969
14.0241  1068
14.0341  1181
14.0441  1260
14.0541  1370
14.0641  1505
14.0741  1640
14.0841  1705
14.0941  1741
14.1041  1794
14.1141  1922
14.1241  1990
14.1341  1939
14.1441  1972
14.1541  2009
14.1641  2010
14.1741  1946
14.1841  1909
14.1941  1859
14.2041  1672
14.2141  1559
14.2241  1518
14.2341  1396
14.2441  1275
14.2541  1146
14.2641  1029
14.2741   935
14.2841   861
14.2941   781
14.3041   697
14.3141   631
14.3241   566
14.3341   541
14.3441   517
14.3541   472
14.3641   439
14.3741   420
14.3841   419
14.3941   411
14.4041   403
14.4141   404
14.4241   394
14.4341   372
14.4441   377
14.4541   381
14.4641   367
14.4741   341
14.4841   341
14.4941   348
14.5041   366
14.5141   381
14.5241   353
14.5341   356
14.5441   389
14.5541   366
14.5641   358
14.5741   389
14.5841   393
14.5941   386
14.6041   376
14.6141   378
14.6241   394
14.6341   399
14.6441   366
14.6541   359
14.6641   372
14.6741   373
14.6841   384
14.6941   384
14.7041   387
14.7141   399
14.7241   392
14.7341   392
14.7441   393
14.7541   380
14.7641   370
14.7741   377
14.7841   391
14.7941   420
14.8041   415
14.8141   394
14.8241   381
14.8341   401
14.8441   424
14.8541   414
14.8641   416
14.8741   434
14.8841   442
14.8941   460
14.9041   455
14.9141   426
14.9241   429
14.9341   464
14.9441   471
14.9541   464
14.9641   460
14.9741   457
14.9841   452
14.9941   447
15.0041   435
15.0141   440
15.0241   449
15.0341   437
15.0441   453
15.0541   453
15.0641   445
15.0741   449
15.0841   419
15.0941   401
15.1041   400
15.1141   401
15.1241   413
15.1341   419
15.1441   421
15.1541   412
15.1641   416
15.1741   406
15.1841   437
15.1941   436
15.2041   394
15.2141   382
15.2241   399
15.2341   422
15.2441   440
15.2541   430
15.2641   429
15.2741   437
15.2841   424
15.2941   436
15.3041   447
15.3141   416
15.3241   408
15.3341   443
15.3441   452
15.3541   425
15.3641   424
15.3741   426
15.3841   400
15.3941   409
15.4041   446
15.4141   442
15.4241   436
15.4341   448
15.4441   461
15.4541   440
15.4641   430
15.4741   453
15.4841   446
15.4941   418
15.5041   425
15.5141   416
15.5241   437
15.5341   483
15.5441   480
15.5541   466
15.5641   487
15.5741   495
15.5841   518
15.5941   544
15.6041   536
15.6141   547
15.6241   585
15.6341   616
15.6441   613
15.6541   627
15.6641   655
15.6741   690
15.6841   720
15.6941   736
15.7041   730
15.7141   778
15.7241   816
15.7341   817
15.7441   872
15.7541   863
15.7641   909
15.7741   959
15.7841   934
15.7941   974
15.8041   970
15.8141   940
15.8241   933
15.8341   917
15.8441   862
15.8541   831
15.8641   827
15.8741   817
15.8841   791
15.8941   763
15.9041   736
15.9141   703
15.9241   702
15.9341   691
15.9441   672
15.9541   592
15.9641   580
15.9741   580
15.9841   570
15.9941   558
16.0041   549
16.0141   545
16.0241   529
16.0341   524
16.0441   540
16.0541   513
16.0641   489
16.0741   514
16.0841   567
16.0941   556
16.1041   523
16.1141   482
16.1241   488
16.1341   509
16.1441   538
16.1541   519
16.1641   524
16.1741   531
16.1841   502
16.1941   514
16.2041   535
16.2141   528
16.2241   501
16.2341   494
16.2441   522
16.2541   506
16.2641   501
16.2741   507
16.2841   507
16.2941   510
16.3041   486
16.3141   480
16.3241   505
16.3341   516
16.3441   496
16.3541   493
16.3641   507
16.3741   529
16.3841   515
16.3941   517
16.4041   513
16.4141   517
16.4241   535
16.4341   517
16.4441   512
16.4541   511
16.4641   528
16.4741   569
16.4841   531
16.4941   537
16.5041   532
16.5141   499
16.5241   518
16.5341   527
16.5441   527
16.5541   544
16.5641   554
16.5741   504
16.5841   514
16.5941   535
16.6041   533
16.6141   539
16.6241   543
16.6341   563
16.6441   554
16.6541   564
16.6641   535
16.6741   535
16.6841   542
16.6941   514
16.7041   557
16.7141   584
16.7241   548
16.7341   554
16.7441   549
16.7541   540
16.7641   533
16.7741   527
16.7841   528
16.7941   573
16.8041   565
16.8141   544
16.8241   547
16.8341   553
16.8441   551
16.8541   538
16.8641   567
16.8741   533
16.8841   553
16.8941   555
16.9041   545
16.9141   518
16.9241   540
16.9341   564
16.9441   575
16.9541   587
16.9641   586
16.9741   560
16.9841   557
16.9941   536
17.0041   528
17.0141   564
17.0241   583
17.0341   567
17.0441   554
17.0541   545
17.0641   564
17.0741   582
17.0841   574
17.0941   564
17.1041   539
17.1141   561
17.1241   587
17.1341   545
17.1441   562
17.1541   545
17.1641   548
17.1741   573
17.1841   558
17.1941   561
17.2041   577
17.2141   567
17.2241   563
17.2341   554
17.2441   570
17.2541   621
17.2641   601
17.2741   579
17.2841   581
17.2941   593
17.3041   577
17.3141   602
17.3241   588
17.3341   582
17.3441   580
17.3541   577
17.3641   615
17.3741   595
17.3841   624
17.3941   630
17.4041   608
17.4141   627
17.4241   633
17.4341   645
17.4441   597
17.4541   595
17.4641   647
17.4741   629
17.4841   603
17.4941   643
17.5041   607
17.5141   615
17.5241   610
17.5341   617
17.5441   643
17.5541   643
17.5641   663
17.5741   642
17.5841   657
17.5941   629
17.6041   673
17.6141   678
17.6241   621
17.6341   656
17.6441   646
17.6541   661
17.6641   665
17.6741   656
17.6841   641
17.6941   625
17.7041   674
17.7141   664
17.7241   647
17.7341   661
17.7441   693
17.7541   681
17.7641   670
17.7741   708
17.7841   649
17.7941   617
17.8041   633
17.8141   644
17.8241   671
17.8341   641
17.8441   634
17.8541   636
17.8641   644
17.8741   644
17.8841   647
17.8941   632
17.9041   634
17.9141   665
17.9241   697
17.9341   653
17.9441   646
17.9541   624
17.9641   654
17.9741   657
17.9841   654
17.9941   673
18.0041   687
18.0141   623
18.0241   644
18.0341   631
18.0441   646
18.0541   637
18.0641   665
18.0741   648
18.0841   634
18.0941   614
18.1041   606
18.1141   618
18.1241   619
18.1341   610
18.1441   646
18.1541   628
18.1641   647
18.1741   657
18.1841   655
18.1941   665
18.2041   661
18.2141   655
18.2241   677
18.2341   631
18.2441   673
18.2541   661
18.2641   643
18.2741   628
18.2841   678
18.2941   640
18.3041   649
18.3141   661
18.3241   680
18.3341   686
18.3441   689
18.3541   654
18.3641   658
18.3741   664
18.3841   634
18.3941   691
18.4041   639
18.4141   666
18.4241   666
18.4341   642
18.4441   648
18.4541   681
18.4641   658
18.4741   672
18.4841   636
18.4941   677
18.5041   689
18.5141   674
18.5241   661
18.5341   695
18.5441   683
18.5541   682
18.5641   656
18.5741   688
18.5841   688
18.5941   701
18.6041   669
18.6141   689
18.6241   671
18.6341   705
18.6441   692
18.6541   742
18.6641   682
18.6741   653
18.6841   641
18.6941   685
18.7041   683
18.7141   671
18.7241   659
18.7341   661
18.7441   700
18.7541   651
18.7641   681
18.7741   706
18.7841   704
18.7941   675
18.8041   688
18.8141   711
18.8241   721
18.8341   673
18.8441   673
18.8541   707
18.8641   705
18.8741   687
18.8841   720
18.8941   690
18.9041   684
18.9141   647
18.9241   683
18.9341   672
18.9441   699
18.9541   741
18.9641   742
18.9741   728
18.9841   692
18.9941   668
19.0041   662
19.0141   680
19.0241   685
19.0341   716
19.0441   694
19.0541   706
19.0641   734
19.0741   740
19.0841   717
19.0941   695
19.1041   717
19.1141   724
19.1241   701
19.1341   695
19.1441   665
19.1541   696
19.1641   731
19.1741   698
19.1841   706
19.1941   749
19.2041   722
19.2141   701
19.2241   718
19.2341   730
19.2441   696
19.2541   720
19.2641   714
19.2741   709
19.2841   698
19.2941   677
19.3041   723
19.3141   736
19.3241   722
19.3341   736
19.3441   702
19.3541   690
19.3641   726
19.3741   727
19.3841   763
19.3941   756
19.4041   711
19.4141   715
19.4241   699
19.4341   731
19.4441   713
19.4541   708
19.4641   720
19.4741   711
19.4841   720
19.4941   786
19.5041   755
19.5141   741
19.5241   751
19.5341   726
19.5441   712
19.5541   704
19.5641   692
19.5741   716
19.5841   721
19.5941   731
19.6041   740
19.6141   708
19.6241   725
19.6341   711
19.6441   693
19.6541   727
19.6641   773
19.6741   729
19.6841   711
19.6941   756
19.7041   744
19.7141   674
19.7241   743
19.7341   728
19.7441   728
19.7541   751
19.7641   727
19.7741   734
19.7841   758
19.7941   742
19.8041   742
19.8141   713
19.8241   707
19.8341   716
19.8441   777
19.8541   728
19.8641   735
19.8741   717
19.8841   728
19.8941   716
19.9041   729
19.9141   762
19.9241   767
19.9341   692
19.9441   750
19.9541   743
19.9641   753
19.9741   729
19.9841   745
19.9941   751
20.0041   714
20.0141   753
20.0241   719
20.0341   754
20.0441   724
20.0541   722
20.0641   736
20.0741   709
20.0841   720
20.0941   767
20.1041   745
20.1141   719
20.1241   706
20.1341   718
20.1441   733
20.1541   744
20.1641   763
20.1741   725
20.1841   747
20.1941   781
20.2041   753
20.2141   730
20.2241   762
20.2341   741
20.2441   768
20.2541   762
20.2641   772
20.2741   731
20.2841   733
20.2941   761
20.3041   785
20.3141   763
20.3241   737
20.3341   719
20.3441   759
20.3541   762
20.3641   786
20.3741   737
20.3841   736
20.3941   721
20.4041   737
20.4141   745
20.4241   770
20.4341   778
20.4441   766
20.4541   818
20.4641   753
20.4741   780
20.4841   745
20.4941   753
20.5041   754
20.5141   760
20.5241   765
20.5341   787
20.5441   802
20.5541   762
20.5641   763
20.5741   733
20.5841   721
20.5941   750
20.6041   731
20.6141   746
20.6241   760
20.6341   758
20.6441   789
20.6541   757
20.6641   774
20.6741   758
20.6841   787
20.6941   744
20.7041   762
20.7141   762
20.7241   779
20.7341   787
20.7441   759
20.7541   760
20.7641   743
20.7741   755
20.7841   760
20.7941   798
20.8041   787
20.8141   760
20.8241   760
20.8341   793
20.8441   834
20.8541   825
20.8641   829
20.8741   816
20.8841   838
20.8941   891
20.9041   834
20.9141   886
20.9241   899
20.9341   941
20.9441   907
20.9541   929
20.9641   910
20.9741   985
20.9841   979
20.9941  1026
21.0041  1020
21.0141  1015
21.0241  1063
21.0341  1080
21.0441  1071
21.0541  1022
21.0641  1054
21.0741  1110
21.0841  1087
21.0941  1090
21.1041  1082
21.1141  1129
21.1241  1066
21.1341  1126
21.1441  1146
21.1541  1129
21.1641  1108
21.1741  1133
21.1841  1125
21.1941  1155
21.2041  1096
21.2141  1059
21.2241  1094
21.2341  1038
21.2441  1038
21.2541  1058
21.2641   961
21.2741   944
21.2841   979
21.2941   962
21.3041   923
21.3141   873
21.3241   882
21.3341   882
21.3441   775
21.3541   862
21.3641   861
21.3741   802
21.3841   779
21.3941   778
21.4041   776
21.4141   826
21.4241   774
21.4341   768
21.4441   781
21.4541   828
21.4641   774
21.4741   754
21.4841   755
21.4941   757
21.5041   772
21.5141   747
21.5241   798
21.5341   777
21.5441   816
21.5541   780
21.5641   763
21.5741   742
21.5841   785
21.5941   811
21.6041   755
21.6141   782
21.6241   798
21.6341   788
21.6441   815
21.6541   782
21.6641   742
21.6741   748
21.6841   728
21.6941   742
21.7041   776
21.7141   744
21.7241   786
21.7341   770
21.7441   768
21.7541   776
21.7641   754
21.7741   736
21.7841   776
21.7941   756
21.8041   786
21.8141   734
21.8241   779
21.8341   771
21.8441   748
21.8541   768
21.8641   725
21.8741   750
21.8841   747
21.8941   760
21.9041   752
21.9141   785
21.9241   726
21.9341   744
21.9441   773
21.9541   739
21.9641   771
21.9741   742
21.9841   805
21.9941   744
22.0041   754
22.0141   793
22.0241   759
22.0341   747
22.0441   742
22.0541   814
22.0641   738
22.0741   749
22.0841   775
22.0941   787
22.1041   737
22.1141   765
22.1241   712
22.1341   745
22.1441   755
22.1541   755
22.1641   803
22.1741   766
22.1841   731
22.1941   783
22.2041   753
22.2141   752
22.2241   737
22.2341   770
22.2441   752
22.2541   765
22.2641   783
22.2741   784
22.2841   713
22.2941   751
22.3041   737
22.3141   780
22.3241   739
22.3341   710
22.3441   749
22.3541   761
22.3641   717
22.3741   763
22.3841   726
22.3941   758
22.4041   726
22.4141   735
22.4241   733
22.4341   739
22.4441   772
22.4541   793
22.4641   712
22.4741   759
22.4841   756
22.4941   785
22.5041   717
22.5141   744
22.5241   719
22.5341   703
22.5441   729
22.5541   738
22.5641   697
22.5741   722
22.5841   763
22.5941   788
22.6041   764
22.6141   782
22.6241   720
22.6341   774
22.6441   773
22.6541   788
22.6641   772
22.6741   755
22.6841   797
22.6941   733
22.7041   720
22.7141   738
22.7241   704
22.7341   785
22.7441   716
22.7541   766
22.7641   729
22.7741   759
22.7841   712
22.7941   731
22.8041   731
22.8141   765
22.8241   766
22.8341   723
22.8441   694
22.8541   732
22.8641   769
22.8741   757
22.8841   731
22.8941   733
22.9041   724
22.9141   750
22.9241   689
22.9341   689
22.9441   755
22.9541   712
22.9641   727
22.9741   759
22.9841   747
22.9941   729
23.0041   711
23.0141   737
23.0241   717
23.0341   767
23.0441   773
23.0541   688
23.0641   781
23.0741   757
23.0841   765
23.0941   755
23.1041   703
23.1141   779
23.1241   746
23.1341   756
23.1441   728
23.1541   767
23.1641   710
23.1741   718
23.1841   720
23.1941   742
23.2041   759
23.2141   700
23.2241   770
23.2341   732
23.2441   732
23.2541   726
23.2641   667
23.2741   758
23.2841   725
23.2941   714
23.3041   715
23.3141   737
23.3241   731
23.3341   692
23.3441   746
23.3541   716
23.3641   718
23.3741   727
23.3841   713
23.3941   743
23.4041   703
23.4141   708
23.4241   743
23.4341   735
23.4441   681
23.4541   747
23.4641   712
23.4741   721
23.4841   769
23.4941   701
23.5041   780
23.5141   706
23.5241   690
23.5341   707
23.5441   706
23.5541   727
23.5641   745
23.5741   743
23.5841   711
23.5941   721
23.6041   752
23.6141   751
23.6241   724
23.6341   750
23.6441   755
23.6541   721
23.6641   771
23.6741   702
23.6841   754
23.6941   761
23.7041   736
23.7141   743
23.7241   757
23.7341   755
23.7441   758
23.7541   745
23.7641   782
23.7741   748
23.7841   773
23.7941   790
23.8041   766
23.8141   759
23.8241   755
23.8341   819
23.8441   809
23.8541   790
23.8641   773
23.8741   743
23.8841   796
23.8941   721
23.9041   747
23.9141   797
23.9241   744
23.9341   739
23.9441   726
23.9541   755
23.9641   725
23.9741   703
23.9841   685
23.9941   716
24.0041   725
24.0141   708
24.0241   727
24.0341   667
24.0441   668
24.0541   681
24.0641   687
24.0741   687
24.0841   669
24.0941   700
24.1041   731
24.1141   709
24.1241   692
24.1341   728
24.1441   715
24.1541   655
24.1641   721
24.1741   701
24.1841   679
24.1941   686
24.2041   687
24.2141   662
24.2241   687
24.2341   664
24.2441   674
24.2541   702
24.2641   712
24.2741   658
24.2841   703
24.2941   686
24.3041   693
24.3141   713
24.3241   683
24.3341   712
24.3441   674
24.3541   673
24.3641   696
24.3741   686
24.3841   663
24.3941   657
24.4041   687
24.4141   659
24.4241   684
24.4341   666
24.4441   662
24.4541   716
24.4641   660
24.4741   677
24.4841   652
24.4941   700
24.5041   701
24.5141   713
24.5241   662
24.5341   644
24.5441   672
24.5541   659
24.5641   632
24.5741   661
24.5841   675
24.5941   665
24.6041   669
24.6141   632
24.6241   668
24.6341   656
24.6441   672
24.6541   647
24.6641   673
24.6741   657
24.6841   646
24.6941   689
24.7041   666
24.7141   626
24.7241   697
24.7341   689
24.7441   651
24.7541   707
24.7641   660
24.7741   654
24.7841   633
24.7941   646
24.8041   647
24.8141   632
24.8241   633
24.8341   625
24.8441   626
24.8541   681
24.8641   684
24.8741   642
24.8841   627
24.8941   641
24.9041   701
24.9141   693
24.9241   628
24.9341   618
24.9441   657
24.9541   672
24.9641   641
24.9741   652
24.9841   681
24.9941   645
25.0041   641
25.0141   651
25.0241   694
25.0341   683
25.0441   647
25.0541   651
25.0641   698
25.0741   668
25.0841   704
25.0941   661
25.1041   647
25.1141   667
25.1241   669
25.1341   669
25.1441   659
25.1541   658
25.1641   726
25.1741   678
25.1841   679
25.1941   639
25.2041   667
25.2141   702
25.2241   690
25.2341   673
25.2441   689
25.2541   657
25.2641   643
25.2741   602
25.2841   631
25.2941   684
25.3041   669
25.3141   654
25.3241   660
25.3341   660
25.3441   667
25.3541   647
25.3641   628
25.3741   625
25.3841   642
25.3941   650
25.4041   645
25.4141   639
25.4241   678
25.4341   574
25.4441   629
25.4541   652
25.4641   630
25.4741   626
25.4841   638
25.4941   673
25.5041   647
25.5141   644
25.5241   619
25.5341   625
25.5441   604
25.5541   623
25.5641   627
25.5741   557
25.5841   664
25.5941   603
25.6041   629
25.6141   630
25.6241   581
25.6341   609
25.6441   580
25.6541   619
25.6641   597
25.6741   603
25.6841   620
25.6941   627
25.7041   610
25.7141   605
25.7241   608
25.7341   604
25.7441   614
25.7541   613
25.7641   658
25.7741   596
25.7841   597
25.7941   590
25.8041   639
25.8141   593
25.8241   659
25.8341   634
25.8441   615
25.8541   613
25.8641   578
25.8741   598
25.8841   617
25.8941   583
25.9041   590
25.9141   588
25.9241   557
25.9341   562
25.9441   579
25.9541   624
25.9641   618
25.9741   585
25.9841   613
25.9941   600
26.0041   571
26.0141   607
26.0241   570
26.0341   585
26.0441   584
26.0541   593
26.0641   585
26.0741   631
26.0841   579
26.0941   555
26.1041   581
26.1141   586
26.1241   612
26.1341   587
26.1441   633
26.1541   564
26.1641   605
26.1741   602
26.1841   611
26.1941   596
26.2041   610
26.2141   584
26.2241   570
26.2341   598
26.2441   567
26.2541   604
26.2641   564
26.2741   603
26.2841   608
26.2941   607
26.3041   650
26.3141   610
26.3241   545
26.3341   585
26.3441   597
26.3541   622
26.3641   584
26.3741   558
26.3841   580
26.3941   545
26.4041   572
26.4141   568
26.4241   551
26.4341   606
26.4441   602
26.4541   577
26.4641   578
26.4741   541
26.4841   524
26.4941   629
26.5041   548
26.5141   526
26.5241   541
26.5341   570
26.5441   577
26.5541   521
26.5641   543
26.5741   575
26.5841   581
26.5941   561
26.6041   554
26.6141   566
26.6241   516
26.6341   560
26.6441   568
26.6541   564
26.6641   541
26.6741   508
26.6841   557
26.6941   563
26.7041   590
26.7141   542
26.7241   559
26.7341   548
26.7441   553
26.7541   577
26.7641   541
26.7741   523
26.7841   547
26.7941   531
26.8041   558
26.8141   507
26.8241   557
26.8341   574
26.8441   561
26.8541   565
26.8641   552
26.8741   514
26.8841   509
26.8941   530
26.9041   567
26.9141   552
26.9241   576
26.9341   530
26.9441   563
26.9541   551
26.9641   538
26.9741   512
26.9841   514
26.9941   547
27.0041   498
27.0141   518
27.0241   532
27.0341   549
27.0441   548
27.0541   514
27.0641   540
27.0741   581
27.0841   551
27.0941   524
27.1041   547
27.1141   571
27.1241   547
27.1341   551
27.1441   578
27.1541   550
27.1641   511
27.1741   563
27.1841   567
27.1941   495
27.2041   546
27.2141   514
27.2241   547
27.2341   504
27.2441   510
27.2541   523
27.2641   537
27.2741   531
27.2841   544
27.2941   539
27.3041   527
27.3141   545
27.3241   510
27.3341   520
27.3441   528
27.3541   486
27.3641   486
27.3741   533
27.3841   536
27.3941   505
27.4041   539
27.4141   500
27.4241   455
27.4341   516
27.4441   466
27.4541   508
27.4641   537
27.4741   509
27.4841   482
27.4941   547
27.5041   558
27.5141   525
27.5241   518
27.5341   547
27.5441   504
27.5541   534
27.5641   529
27.5741   510
27.5841   507
27.5941   508
27.6041   553
27.6141   510
27.6241   490
27.6341   511
27.6441   470
27.6541   473
27.6641   509
27.6741   487
27.6841   510
27.6941   506
27.7041   491
27.7141   503
27.7241   510
27.7341   468
27.7441   517
27.7541   487
27.7641   509
27.7741   484
27.7841   469
27.7941   469
27.8041   495
27.8141   511
27.8241   511
27.8341   474
27.8441   466
27.8541   493
27.8641   480
27.8741   473
27.8841   486
27.8941   490
27.9041   451
27.9141   470
27.9241   468
27.9341   441
27.9441   495
27.9541   440
27.9641   485
27.9741   497
27.9841   491
27.9941   451
28.0041   492
28.0141   486
28.0241   470
28.0341   478
28.0441   504
28.0541   493
28.0641   491
28.0741   493
28.0841   476
28.0941   457
28.1041   446
28.1141   480
28.1241   484
28.1341   467
28.1441   465
28.1541   449
28.1641   449
28.1741   461
28.1841   421
28.1941   491
28.2041   498
28.2141   456
28.2241   470
28.2341   477
28.2441   476
28.2541   442
28.2641   437
28.2741   458
28.2841   447
28.2941   470
28.3041   483
28.3141   467
28.3241   480
28.3341   468
28.3441   499
28.3541   467
28.3641   489
28.3741   463
28.3841   449
28.3941   483
28.4041   421
28.4141   445
28.4241   450
28.4341   486
28.4441   470
28.4541   487
28.4641   478
28.4741   472
28.4841   462
28.4941   460
28.5041   422
28.5141   460
28.5241   456
28.5341   465
28.5441   424
28.5541   457
28.5641   452
28.5741   451
28.5841   448
28.5941   451
28.6041   475
28.6141   469
28.6241   459
28.6341   465
28.6441   426
28.6541   431
28.6641   432
28.6741   446
28.6841   451
28.6941   446
28.7041   415
28.7141   445
28.7241   440
28.7341   405
28.7441   412
28.7541   483
28.7641   445
28.7741   425
28.7841   452
28.7941   443
28.8041   417
28.8141   419
28.8241   434
28.8341   437
28.8441   443
28.8541   436
28.8641   434
28.8741   436
28.8841   395
28.8941   441
28.9041   412
28.9141   407
28.9241   431
28.9341   458
28.9441   433
28.9541   434
28.9641   407
28.9741   408
28.9841   426
28.9941   416
29.0041   419
29.0141   413
29.0241   450
29.0341   397
29.0441   475
29.0541   453
29.0641   403
29.0741   405
29.0841   391
29.0941   432
29.1041   394
29.1141   413
29.1241   413
29.1341   443
29.1441   440
29.1541   403
29.1641   407
29.1741   448
29.1841   389
29.1941   401
29.2041   393
29.2141   427
29.2241   402
29.2341   447
29.2441   388
29.2541   382
29.2641   397
29.2741   415
29.2841   427
29.2941   413
29.3041   426
29.3141   401
29.3241   416
29.3341   450
29.3441   409
29.3541   431
29.3641   405
29.3741   368
29.3841   372
29.3941   403
29.4041   379
29.4141   398
29.4241   423
29.4341   396
29.4441   404
29.4541   446
29.4641   405
29.4741   398
29.4841   389
29.4941   413
29.5041   400
29.5141   400
29.5241   401
29.5341   356
29.5441   423
29.5541   426
29.5641   380
29.5741   388
29.5841   382
29.5941   410
29.6041   378
29.6141   381
29.6241   389
29.6341   371
29.6441   409
29.6541   386
29.6641   372
29.6741   417
29.6841   384
29.6941   352
29.7041   384
29.7141   350
29.7241   403
29.7341   378
29.7441   381
29.7541   377
29.7641   377
29.7741   341
29.7841   385
29.7941   377
29.8041   421
29.8141   380
29.8241   363
29.8341   360
29.8441   398
29.8541   374
29.8641   367
29.8741   372
29.8841   352
29.8941   346
29.9041   366
29.9141   374
29.9241   370
29.9341   394
29.9441   395
29.9541   368
29.9641   329
29.9741   346
29.9841   368
29.9941   367
30.0041   385
30.0141   380
30.0241   363
30.0341   342
30.0441   385
30.0541   350
30.0641   367
30.0741   381
30.0841   395
30.0941   371
30.1041   370
30.1141   382
30.1241   348
30.1341   385
30.1441   373
30.1541   360
30.1641   360
30.1741   355
30.1841   350
30.1941   375
30.2041   359
30.2141   372
30.2241   344
30.2341   347
30.2441   358
30.2541   377
30.2641   356
30.2741   393
30.2841   372
30.2941   379
30.3041   379
30.3141   370
30.3241   356
30.3341   333
30.3441   372
30.3541   366
30.3641   312
30.3741   359
30.3841   361
30.3941   330
30.4041   344
30.4141   347
30.4241   354
30.4341   331
30.4441   358
30.4541   326
30.4641   360
30.4741   357
30.4841   337
30.4941   341
30.5041   325
30.5141   340
30.5241   315
30.5341   333
30.5441   354
30.5541   344
30.5641   347
30.5741   325
30.5841   317
30.5941   322
30.6041   354
30.6141   301
30.6241   343
30.6341   350
30.6441   337
30.6541   317
30.6641   313
30.6741   333
30.6841   311
30.6941   283
30.7041   352
30.7141   339
30.7241   347
30.7341   334
30.7441   306
30.7541   327
30.7641   324
30.7741   311
30.7841   316
30.7941   344
30.8041   338
30.8141   310
30.8241   303
30.8341   297
30.8441   363
30.8541   330
30.8641   294
30.8741   295
30.8841   323
30.8941   328
30.9041   312
30.9141   333
30.9241   325
30.9341   304
30.9441   334
30.9541   331
30.9641   344
30.9741   328
30.9841   326
30.9941   312
31.0041   335
31.0141   297
31.0241   301
31.0341   337
31.0441   305
31.0541   307
31.0641   315
31.0741   323
31.0841   326
31.0941   315
31.1041   313
31.1141   320
31.1241   316
31.1341   285
31.1441   287
31.1541   305
31.1641   318
31.1741   295
31.1841   276
31.1941   298
31.2041   318
31.2141   316
31.2241   287
31.2341   313
31.2441   285
31.2541   312
31.2641   297
31.2741   308
31.2841   280
31.2941   292
31.3041   282
31.3141   329
31.3241   320
31.3341   310
31.3441   284
31.3541   306
31.3641   287
31.3741   283
31.3841   328
31.3941   281
31.4041   298
31.4141   282
31.4241   309
31.4341   280
31.4441   316
31.4541   316
31.4641   290
31.4741   292
31.4841   292
31.4941   333
31.5041   282
31.5141   302
31.5241   317
31.5341   304
31.5441   286
31.5541   307
31.5641   309
31.5741   292
31.5841   299
31.5941   308
31.6041   334
31.6141   314
31.6241   307
31.6341   317
31.6441   321
31.6541   315
31.6641   331
31.6741   324
31.6841   326
31.6941   321
31.7041   336
31.7141   358
31.7241   335
31.7341   385
31.7441   362
31.7541   380
31.7641   354
31.7741   368
31.7841   373
31.7941   337
31.8041   345
31.8141   337
31.8241   361
31.8341   375
31.8441   364
31.8541   370
31.8641   357
31.8741   354
31.8841   343
31.8941   364
31.9041   350
31.9141   354
31.9241   363
31.9341   335
31.9441   329
31.9541   365
31.9641   354
31.9741   356
31.9841   350
31.9941   329
32.0041   348
32.0141   362
32.0241   334
32.0341   333
32.0441   378
32.0541   352
32.0641   347
32.0741   347
32.0841   354
32.0941   353
32.1041   362
32.1141   347
32.1241   408
32.1341   371
32.1441   380
32.1541   404
32.1641   418
32.1741   396
32.1841   413
32.1941   386
32.2041   386
32.2141   391
32.2241   400
32.2341   405
32.2441   377
32.2541   364
32.2641   380
32.2741   388
32.2841   334
32.2941   329
32.3041   311
32.3141   331
32.3241   339
32.3341   342
32.3441   316
32.3541   326
32.3641   377
32.3741   301
32.3841   323
32.3941   307
32.4041   268
32.4141   272
32.4241   308
32.4341   267
32.4441   261
32.4541   286
32.4641   232
32.4741   262
32.4841   234
32.4941   259
32.5041   244
32.5141   256
32.5241   266
32.5341   261
32.5441   245
32.5541   270
32.5641   241
32.5741   248
32.5841   272
32.5941   261
32.6041   260
32.6141   238
32.6241   211
32.6341   265
32.6441   241
32.6541   215
32.6641   232
32.6741   233
32.6841   225
32.6941   246
32.7041   239
32.7141   225
32.7241   256
32.7341   208
32.7441   234
32.7541   234
32.7641   271
32.7741   251
32.7841   228
32.7941   257
32.8041   229
32.8141   245
32.8241   237
32.8341   252
32.8441   229
32.8541   256
32.8641   238
32.8741   230
32.8841   233
32.8941   214
32.9041   236
32.9141   215
32.9241   219
32.9341   236
32.9441   226
32.9541   242
32.9641   240
32.9741   227
32.9841   224
32.9941   232
33.0041   254
33.0141   250
33.0241   224
33.0341   237
33.0441   236
33.0541   226
33.0641   226
33.0741   243
33.0841   229
33.0941   224
33.1041   247
33.1141   223
33.1241   241
33.1341   234
33.1441   211
33.1541   214
33.1641   223
33.1741   225
33.1841   233
33.1941   219
33.2041   203
33.2141   229
33.2241   206
33.2341   230
33.2441   235
33.2541   230
33.2641   217
33.2741   198
33.2841   196
33.2941   232
33.3041   220
33.3141   213
33.3241   205
33.3341   190
33.3441   206
33.3541   217
33.3641   193
33.3741   200
33.3841   206
33.3941   229
33.4041   237
33.4141   215
33.4241   208
33.4341   201
33.4441   215
33.4541   210
33.4641   212
33.4741   182
33.4841   233
33.4941   229
33.5041   208
33.5141   223
33.5241   196
33.5341   202
33.5441   207
33.5541   202
33.5641   220
33.5741   205
33.5841   190
33.5941   206
33.6041   222
33.6141   204
33.6241   182
33.6341   226
33.6441   202
33.6541   175
33.6641   176
33.6741   198
33.6841   188
33.6941   192
33.7041   208
33.7141   178
33.7241   180
33.7341   185
33.7441   184
33.7541   206
33.7641   195
33.7741   176
33.7841   183
33.7941   168
33.8041   193
33.8141   193
33.8241   198
33.8341   177
33.8441   209
33.8541   192
33.8641   220
33.8741   199
33.8841   182
33.8941   202
33.9041   192
33.9141   194
33.9241   211
33.9341   190
33.9441   157
33.9541   196
33.9641   183
33.9741   176
33.9841   185
33.9941   209
34.0041   193
34.0141   189
34.0241   195
34.0341   192
34.0441   187
34.0541   181
34.0641   181
34.0741   180
34.0841   198
34.0941   169
34.1041   190
34.1141   188
34.1241   185
34.1341   175
34.1441   184
34.1541   180
34.1641   188
34.1741   176
34.1841   198
34.1941   174
34.2041   181
34.2141   184
34.2241   188
34.2341   172
34.2441   183
34.2541   166
34.2641   173
34.2741   181
34.2841   197
34.2941   177
34.3041   166
34.3141   173
34.3241   211
34.3341   166
34.3441   174
34.3541   180
34.3641   180
34.3741   162
34.3841   185
34.3941   169
34.4041   181
34.4141   176
34.4241   175
34.4341   181
34.4441   165
34.4541   173
34.4641   170
34.4741   181
34.4841   174
34.4941   166
34.5041   173
34.5141   167
34.5241   194
34.5341   196
34.5441   150
34.5541   179
34.5641   161
34.5741   163
34.5841   192
34.5941   189
34.6041   171
34.6141   150
34.6241   166
34.6341   149
34.6441   176
34.6541   150
34.6641   165
34.6741   193
34.6841   183
34.6941   153
34.7041   165
34.7141   137
34.7241   163
34.7341   160
34.7441   179
34.7541   173
34.7641   139
34.7741   157
34.7841   172
34.7941   160
34.8041   184
34.8141   175
34.8241   169
34.8341   162
34.8441   182
34.8541   172
34.8641   171
34.8741   144
34.8841   162
34.8941   169
34.9041   173
34.9141   167
34.9241   151
34.9341   172
34.9441   158
34.9541   156
34.9641   151
34.9741   163
34.9841   141
34.9941   123
35.0041   145
35.0141   142
35.0241   142
35.0341   136
35.0441   161
35.0541   168
35.0641   159
35.0741   144
35.0841   141
35.0941   161
35.1041   152
35.1141   156
35.1241   128
35.1341   180
35.1441   162
35.1541   138
35.1641   167
35.1741   159
35.1841   166
35.1941   136
35.2041   161
35.2141   147
35.2241   140
35.2341   146
35.2441   140
35.2541   142
35.2641   143
35.2741   141
35.2841   140
35.2941   145
35.3041   155
35.3141   149
35.3241   161
35.3341   141
35.3441   129
35.3541   133
35.3641   146
35.3741   145
35.3841   130
35.3941   145
35.4041   142
35.4141   123
35.4241   130
35.4341   147
35.4441   154
35.4541   147
35.4641   141
35.4741   145
35.4841   132
35.4941   137
35.5041   142
35.5141   135
35.5241   138
35.5341   142
35.5441   142
35.5541   126
35.5641   138
35.5741   128
35.5841   115
35.5941   130
35.6041   129
35.6141   127
35.6241   110
35.6341   136
35.6441   143
35.6541   136
35.6641   159
35.6741   152
35.6841   112
35.6941   124
35.7041   122
35.7141   141
35.7241   138
35.7341   149
35.7441   126
35.7541   117
35.7641   138
35.7741   136
35.7841   126
35.7941   139
35.8041   131
35.8141   124
35.8241   128
35.8341   130
35.8441   133
35.8541   138
35.8641   138
35.8741   130
35.8841   128
35.8941   122
35.9041   128
35.9141   128
35.9241   125
35.9341   124
35.9441   125
35.9541   144
35.9641   137
35.9741   120
35.9841   120
35.9941   113
36.0041   118
36.0141   129
36.0241   118
36.0341   128
36.0441   139
36.0541   154
36.0641   144
36.0741   123
36.0841   119
36.0941   141
36.1041   132
36.1141   133
36.1241   117
36.1341   115
36.1441   140
36.1541   120
36.1641   111
36.1741   139
36.1841   128
36.1941   139
36.2041   133
36.2141   132
36.2241   147
36.2341   135
36.2441   145
36.2541   138
36.2641   158
36.2741   140
36.2841   139
36.2941   148
36.3041   149
36.3141   139
36.3241   131
36.3341   144
36.3441   145
36.3541   155
36.3641   133
36.3741   158
36.3841   135
36.3941   126
36.4041   130
36.4141   140
36.4241   151
36.4341   130
36.4441   150
36.4541   127
36.4641   144
36.4741   115
36.4841   143
36.4941   123
36.5041   146
36.5141   139
36.5241   125
36.5341   133
36.5441   125
36.5541   138
36.5641   132
36.5741   108
36.5841   123
36.5941   107
36.6041    96
36.6141   126
36.6241   120
36.6341   112
36.6441   122
36.6541   116
36.6641   119
36.6741   104
36.6841   119
36.6941   112
36.7041   104
36.7141    92
36.7241   113
36.7341   106
36.7441   103
36.7541   105
36.7641   117
36.7741   104
36.7841    93
36.7941   103
36.8041   116
36.8141    99
36.8241   120
36.8341   100
36.8441   109
36.8541    81
36.8641    93
36.8741   100
36.8841   108
36.8941   103
36.9041   116
36.9141   119
36.9241   101
36.9341   106
36.9441   106
36.9541    82
36.9641   109
36.9741   115
36.9841   103
36.9941   102
37.0041    95
37.0141   101
37.0241    93
37.0341   104
37.0441    95
37.0541   116
37.0641   106
37.0741    77
37.0841   106
37.0941   109
37.1041   101
37.1141   101
37.1241    95
37.1341    95
37.1441    97
37.1541   107
37.1641   104
37.1741   108
37.1841    87
37.1941   103
37.2041    94
37.2141    98
37.2241    99
37.2341    91
37.2441    94
37.2541   117
37.2641    90
37.2741    96
37.2841    92
37.2941   102
37.3041   108
37.3141    98
37.3241   112
37.3341    88
37.3441    89
37.3541    95
37.3641    94
37.3741   108
37.3841    84
37.3941    90
37.4041    87
37.4141   121
37.4241    91
37.4341    87
37.4441   102
37.4541    96
37.4641   101
37.4741    90
37.4841   115
37.4941    90
37.5041    97
37.5141    98
37.5241    97
37.5341    81
37.5441    76
37.5541   105
37.5641    80
37.5741    93
37.5841    99
37.5941    88
37.6041    76
37.6141    86
37.6241    92
37.6341    80
37.6441    76
37.6541    87
37.6641    98
37.6741    73
37.6841    77
37.6941    68
37.7041    85
37.7141    74
37.7241    71
37.7341    81
37.7441    81
37.7541    82
37.7641    99
37.7741    82
37.7841    91
37.7941    98
37.8041    98
37.8141    88
37.8241    92
37.8341    83
37.8441    71
37.8541    72
37.8641    77
37.8741    82
37.8841    87
37.8941    84
37.9041    93
37.9141    75
37.9241    78
37.9341    96
37.9441    88
37.9541    76
37.9641    68
37.9741    93
37.9841    78
37.9941    87
38.0041    74
38.0141    95
38.0241    56
38.0341    66
38.0441    69
38.0541    62
38.0641    64
38.0741    70
38.0841    85
38.0941    79
38.1041    69
38.1141    73
38.1241    77
38.1341    82
38.1441    61
38.1541    86
38.1641    76
38.1741    90
38.1841    72
38.1941    72
38.2041    83
38.2141    75
38.2241    75
38.2341    74
38.2441    68
38.2541    76
38.2641    73
38.2741    67
38.2841    89
38.2941    70
38.3041    69
38.3141    69
38.3241    61
38.3341    82
38.3441    65
38.3541    67
38.3641    69
38.3741    78
38.3841    68
38.3941    79
38.4041    70
38.4141    66
38.4241    66
38.4341    53
38.4441    70
38.4541    75
38.4641    82
38.4741    68
38.4841    68
38.4941    69
38.5041    66
38.5141    65
38.5241    65
38.5341    61
38.5441    64
38.5541    71
38.5641    70
38.5741    77
38.5841    87
38.5941    64
38.6041    65
38.6141    63
38.6241    70
38.6341    50
38.6441    72
38.6541    64
38.6641    82
38.6741    64
38.6841    68
38.6941    71
38.7041    56
38.7141    66
38.7241    62
38.7341    72
38.7441    68
38.7541    71
38.7641    65
38.7741    58
38.7841    58
38.7941    70
38.8041    53
38.8141    56
38.8241    64
38.8341    62
38.8441    67
38.8541    50
38.8641    59
38.8741    42
38.8841    63
38.8941    61
38.9041    60
38.9141    52
38.9241    69
38.9341    71
38.9441    60
38.9541    57
38.9641    49
38.9741    64
38.9841    70
38.9941    57
39.0041    55
39.0141    63
39.0241    62
39.0341    64
39.0441    51
39.0541    54
39.0641    50
39.0741    55
39.0841    78
39.0941    44
39.1041    57
39.1141    75
39.1241    57
39.1341    58
39.1441    54
39.1541    59
39.1641    44
39.1741    55
39.1841    48
39.1941    53
39.2041    55
39.2141    66
39.2241    55
39.2341    59
39.2441    68
39.2541    59
39.2641    43
39.2741    39
39.2841    53
39.2941    55
39.3041    63
39.3141    43
39.3241    63
39.3341    45
39.3441    58
39.3541    63
39.3641    49
39.3741    48
39.3841    53
39.3941    52
39.4041    62
39.4141    53
39.4241    50
39.4341    47
39.4441    46
39.4541    44
39.4641    58
39.4741    48
39.4841    48
39.4941    47
39.5041    43
39.5141    54
39.5241    44
39.5341    40
39.5441    42
39.5541    49
39.5641    38
39.5741    49
39.5841    46
39.5941    50
39.6041    54
39.6141    40
39.6241    38
39.6341    41
39.6441    33
39.6541    49
39.6641    43
39.6741    43
39.6841    49
39.6941    41
39.7041    46
39.7141    43
39.7241    39
39.7341    53
39.7441    48
39.7541    49
39.7641    48
39.7741    48
39.7841    46
39.7941    49
39.8041    45
39.8141    34
39.8241    40
39.8341    48
39.8441    51
39.8541    38
39.8641    38
39.8741    43
39.8841    32
39.8941    43
39.9041    45
39.9141    37
39.9241    41
39.9341    39
39.9441    38
39.9541    39
39.9641    41
39.9741    48
39.9841    43
39.9941    43
