Bruker Nano GmbH Berlin, Germany
Esprit 1.9

Date: 5/14/2021 3:57:02 PM
Real time: 21624
Life time: 20424
Pulse density: 80835


Detector type: XFlash 430
Window type: Custom type
Detector thickness: 0.45
Si dead layer:0.029

Calibration, lin.: 10
Calibration, abs.: -955.9
Mn FWHM: 137.05
Fano factor: 0.121
Channels: 4096

Energy Counts
-0.9559     0
-0.9459     0
-0.9359     0
-0.9259     0
-0.9159     0
-0.9059     0
-0.8959     0
-0.8859     0
-0.8759     0
-0.8659     0
-0.8559     0
-0.8459     0
-0.8359     0
-0.8259     0
-0.8159     0
-0.8059     0
-0.7959     0
-0.7859     0
-0.7759     0
-0.7659     0
-0.7559     0
-0.7459     0
-0.7359     0
-0.7259     0
-0.7159     0
-0.7059     0
-0.6959     0
-0.6859     0
-0.6759     0
-0.6659     0
-0.6559     0
-0.6459     0
-0.6359     0
-0.6259     0
-0.6159     0
-0.6059     0
-0.5959     0
-0.5859     0
-0.5759     0
-0.5659     0
-0.5559     0
-0.5459     0
-0.5359     0
-0.5259     0
-0.5159     0
-0.5059     0
-0.4959     0
-0.4859     0
-0.4759     0
-0.4659     0
-0.4559     0
-0.4459     0
-0.4359     0
-0.4259     0
-0.4159     0
-0.4059     0
-0.3959     0
-0.3859     0
-0.3759     0
-0.3659     0
-0.3559     0
-0.3459     0
-0.3359     0
-0.3259     0
-0.3159     0
-0.3059     0
-0.2959     0
-0.2859     0
-0.2759     0
-0.2659     0
-0.2559     0
-0.2459     0
-0.2359     0
-0.2259     0
-0.2159     0
-0.2059     0
-0.1959     0
-0.1859     0
-0.1759     0
-0.1659     0
-0.1559     0
-0.1459     0
-0.1359     1
-0.1259     0
-0.1159     2
-0.1059    10
-0.0959    64
-0.0859   201
-0.0759   761
-0.0659  2354
-0.0559  6019
-0.0459 12782
-0.0359 24642
-0.0259 39070
-0.0159 53099
-0.0059 62998
 0.0041 62935
 0.0141 53913
 0.0241 39991
 0.0341 25159
 0.0441 13685
 0.0541  6391
 0.0641  2559
 0.0741   878
 0.0841   259
 0.0941    70
 0.1041    19
 0.1141    17
 0.1241     8
 0.1341     7
 0.1441     9
 0.1541     3
 0.1641     4
 0.1741     2
 0.1841   173
 0.1941   346
 0.2041   323
 0.2141   289
 0.2241   279
 0.2341   318
 0.2441   319
 0.2541   333
 0.2641   309
 0.2741   306
 0.2841   300
 0.2941   311
 0.3041   309
 0.3141   312
 0.3241   309
 0.3341   291
 0.3441   271
 0.3541   255
 0.3641   257
 0.3741   293
 0.3841   274
 0.3941   258
 0.4041   293
 0.4141   283
 0.4241   295
 0.4341   293
 0.4441   267
 0.4541   277
 0.4641   284
 0.4741   279
 0.4841   275
 0.4941   267
 0.5041   261
 0.5141   264
 0.5241   274
 0.5341   267
 0.5441   257
 0.5541   267
 0.5641   271
 0.5741   262
 0.5841   244
 0.5941   253
 0.6041   257
 0.6141   251
 0.6241   251
 0.6341   243
 0.6441   236
 0.6541   243
 0.6641   239
 0.6741   238
 0.6841   237
 0.6941   223
 0.7041   223
 0.7141   220
 0.7241   231
 0.7341   244
 0.7441   225
 0.7541   203
 0.7641   210
 0.7741   225
 0.7841   237
 0.7941   237
 0.8041   212
 0.8141   210
 0.8241   225
 0.8341   252
 0.8441   229
 0.8541   224
 0.8641   234
 0.8741   221
 0.8841   214
 0.8941   203
 0.9041   218
 0.9141   207
 0.9241   188
 0.9341   198
 0.9441   225
 0.9541   218
 0.9641   210
 0.9741   222
 0.9841   207
 0.9941   197
 1.0041   188
 1.0141   210
 1.0241   230
 1.0341   218
 1.0441   197
 1.0541   207
 1.0641   205
 1.0741   209
 1.0841   213
 1.0941   202
 1.1041   191
 1.1141   189
 1.1241   185
 1.1341   184
 1.1441   189
 1.1541   191
 1.1641   210
 1.1741   198
 1.1841   192
 1.1941   194
 1.2041   179
 1.2141   194
 1.2241   213
 1.2341   192
 1.2441   191
 1.2541   225
 1.2641   211
 1.2741   177
 1.2841   168
 1.2941   187
 1.3041   177
 1.3141   183
 1.3241   195
 1.3341   186
 1.3441   162
 1.3541   184
 1.3641   177
 1.3741   192
 1.3841   206
 1.3941   212
 1.4041   170
 1.4141   171
 1.4241   210
 1.4341   185
 1.4441   208
 1.4541   190
 1.4641   191
 1.4741   200
 1.4841   207
 1.4941   190
 1.5041   180
 1.5141   184
 1.5241   189
 1.5341   180
 1.5441   176
 1.5541   177
 1.5641   178
 1.5741   174
 1.5841   183
 1.5941   199
 1.6041   159
 1.6141   176
 1.6241   181
 1.6341   179
 1.6441   207
 1.6541   215
 1.6641   263
 1.6741   313
 1.6841   394
 1.6941   514
 1.7041   665
 1.7141   735
 1.7241   754
 1.7341   822
 1.7441   854
 1.7541   791
 1.7641   700
 1.7741   622
 1.7841   473
 1.7941   418
 1.8041   342
 1.8141   298
 1.8241   253
 1.8341   224
 1.8441   230
 1.8541   245
 1.8641   215
 1.8741   194
 1.8841   214
 1.8941   176
 1.9041   172
 1.9141   175
 1.9241   205
 1.9341   184
 1.9441   196
 1.9541   202
 1.9641   205
 1.9741   201
 1.9841   207
 1.9941   201
 2.0041   212
 2.0141   219
 2.0241   218
 2.0341   202
 2.0441   221
 2.0541   195
 2.0641   179
 2.0741   187
 2.0841   166
 2.0941   176
 2.1041   187
 2.1141   186
 2.1241   180
 2.1341   176
 2.1441   159
 2.1541   148
 2.1641   168
 2.1741   169
 2.1841   161
 2.1941   162
 2.2041   182
 2.2141   158
 2.2241   163
 2.2341   146
 2.2441   153
 2.2541   161
 2.2641   169
 2.2741   156
 2.2841   163
 2.2941   155
 2.3041   144
 2.3141   160
 2.3241   152
 2.3341   146
 2.3441   149
 2.3541   156
 2.3641   130
 2.3741   167
 2.3841   147
 2.3941   134
 2.4041   137
 2.4141   144
 2.4241   111
 2.4341   153
 2.4441   125
 2.4541   144
 2.4641   148
 2.4741   141
 2.4841   140
 2.4941   129
 2.5041   145
 2.5141   161
 2.5241   162
 2.5341   137
 2.5441   148
 2.5541   130
 2.5641   135
 2.5741   133
 2.5841   123
 2.5941   131
 2.6041   137
 2.6141   140
 2.6241   144
 2.6341   145
 2.6441   130
 2.6541   138
 2.6641   142
 2.6741   147
 2.6841   117
 2.6941   122
 2.7041   124
 2.7141   136
 2.7241   130
 2.7341   137
 2.7441   119
 2.7541   155
 2.7641   132
 2.7741   131
 2.7841   140
 2.7941   145
 2.8041   158
 2.8141   135
 2.8241   149
 2.8341   153
 2.8441   134
 2.8541   137
 2.8641   128
 2.8741   136
 2.8841   124
 2.8941   116
 2.9041   113
 2.9141   107
 2.9241   111
 2.9341   126
 2.9441   120
 2.9541   118
 2.9641   126
 2.9741   120
 2.9841   142
 2.9941   128
 3.0041   129
 3.0141   137
 3.0241   119
 3.0341   102
 3.0441   124
 3.0541   108
 3.0641   136
 3.0741   115
 3.0841   113
 3.0941    99
 3.1041   124
 3.1141   118
 3.1241   112
 3.1341   121
 3.1441   108
 3.1541   109
 3.1641   119
 3.1741   108
 3.1841   120
 3.1941   116
 3.2041   126
 3.2141   132
 3.2241   131
 3.2341   149
 3.2441   160
 3.2541   186
 3.2641   187
 3.2741   253
 3.2841   269
 3.2941   253
 3.3041   297
 3.3141   278
 3.3241   280
 3.3341   255
 3.3441   251
 3.3541   217
 3.3641   200
 3.3741   191
 3.3841   154
 3.3941   144
 3.4041   112
 3.4141   128
 3.4241   121
 3.4341   109
 3.4441    94
 3.4541   100
 3.4641    90
 3.4741   115
 3.4841    93
 3.4941   100
 3.5041   120
 3.5141   126
 3.5241   132
 3.5341   152
 3.5441   161
 3.5541   172
 3.5641   202
 3.5741   262
 3.5841   336
 3.5941   356
 3.6041   458
 3.6141   622
 3.6241   780
 3.6341   963
 3.6441  1127
 3.6541  1353
 3.6641  1517
 3.6741  1649
 3.6841  1731
 3.6941  1750
 3.7041  1598
 3.7141  1490
 3.7241  1321
 3.7341  1176
 3.7441   956
 3.7541   754
 3.7641   618
 3.7741   422
 3.7841   336
 3.7941   241
 3.8041   206
 3.8141   143
 3.8241   141
 3.8341   106
 3.8441   108
 3.8541    94
 3.8641   100
 3.8741   112
 3.8841    95
 3.8941   116
 3.9041   128
 3.9141   121
 3.9241   147
 3.9341   165
 3.9441   209
 3.9541   225
 3.9641   267
 3.9741   292
 3.9841   284
 3.9941   297
 4.0041   321
 4.0141   292
 4.0241   315
 4.0341   302
 4.0441   291
 4.0541   275
 4.0641   243
 4.0741   230
 4.0841   177
 4.0941   155
 4.1041   132
 4.1141   130
 4.1241   100
 4.1341    97
 4.1441    85
 4.1541    84
 4.1641    76
 4.1741    79
 4.1841    81
 4.1941    76
 4.2041    84
 4.2141    68
 4.2241    75
 4.2341    73
 4.2441    69
 4.2541    80
 4.2641    84
 4.2741    86
 4.2841    88
 4.2941    71
 4.3041    87
 4.3141    67
 4.3241    92
 4.3341    75
 4.3441    70
 4.3541    84
 4.3641    73
 4.3741    85
 4.3841    82
 4.3941   106
 4.4041   107
 4.4141   136
 4.4241   171
 4.4341   176
 4.4441   219
 4.4541   242
 4.4641   275
 4.4741   294
 4.4841   331
 4.4941   362
 4.5041   345
 4.5141   362
 4.5241   325
 4.5341   315
 4.5441   263
 4.5541   236
 4.5641   231
 4.5741   180
 4.5841   173
 4.5941   164
 4.6041   149
 4.6141   134
 4.6241   120
 4.6341   113
 4.6441    89
 4.6541    95
 4.6641   105
 4.6741    97
 4.6841    88
 4.6941    87
 4.7041   102
 4.7141    74
 4.7241    89
 4.7341    96
 4.7441    75
 4.7541    93
 4.7641    98
 4.7741   103
 4.7841    87
 4.7941   107
 4.8041   105
 4.8141   110
 4.8241   132
 4.8341    99
 4.8441   133
 4.8541   126
 4.8641   118
 4.8741   140
 4.8841   137
 4.8941   136
 4.9041   150
 4.9141   137
 4.9241   137
 4.9341   133
 4.9441   131
 4.9541   122
 4.9641   142
 4.9741   119
 4.9841   119
 4.9941   127
 5.0041   124
 5.0141   114
 5.0241   117
 5.0341    95
 5.0441   102
 5.0541    98
 5.0641    75
 5.0741   110
 5.0841    95
 5.0941   106
 5.1041    94
 5.1141    74
 5.1241    93
 5.1341   106
 5.1441    76
 5.1541    98
 5.1641   104
 5.1741    88
 5.1841    89
 5.1941    97
 5.2041    87
 5.2141    86
 5.2241    85
 5.2341    84
 5.2441   114
 5.2541   108
 5.2641   111
 5.2741    91
 5.2841    88
 5.2941   100
 5.3041   102
 5.3141    94
 5.3241    88
 5.3341    94
 5.3441   118
 5.3541    98
 5.3641   117
 5.3741   112
 5.3841   116
 5.3941   107
 5.4041   117
 5.4141   114
 5.4241   127
 5.4341    96
 5.4441   112
 5.4541   110
 5.4641   118
 5.4741   111
 5.4841   101
 5.4941   101
 5.5041    96
 5.5141    95
 5.5241   111
 5.5341   108
 5.5441   125
 5.5541   118
 5.5641    91
 5.5741    97
 5.5841   101
 5.5941   104
 5.6041   114
 5.6141   110
 5.6241   101
 5.6341   113
 5.6441   100
 5.6541   123
 5.6641   110
 5.6741    92
 5.6841    91
 5.6941   101
 5.7041    86
 5.7141   114
 5.7241    98
 5.7341    95
 5.7441   130
 5.7541    93
 5.7641   148
 5.7741   126
 5.7841   147
 5.7941   144
 5.8041   141
 5.8141   158
 5.8241   186
 5.8341   184
 5.8441   209
 5.8541   194
 5.8641   216
 5.8741   254
 5.8841   210
 5.8941   241
 5.9041   244
 5.9141   237
 5.9241   227
 5.9341   216
 5.9441   211
 5.9541   211
 5.9641   178
 5.9741   182
 5.9841   156
 5.9941   153
 6.0041   143
 6.0141   136
 6.0241   127
 6.0341   131
 6.0441   115
 6.0541   126
 6.0641   120
 6.0741   120
 6.0841   125
 6.0941   120
 6.1041   128
 6.1141   150
 6.1241   112
 6.1341   127
 6.1441   129
 6.1541   122
 6.1641   144
 6.1741   130
 6.1841   154
 6.1941   149
 6.2041   184
 6.2141   225
 6.2241   282
 6.2341   377
 6.2441   500
 6.2541   654
 6.2641   863
 6.2741  1222
 6.2841  1537
 6.2941  2062
 6.3041  2520
 6.3141  3240
 6.3241  3998
 6.3341  4817
 6.3441  5620
 6.3541  6374
 6.3641  7169
 6.3741  7561
 6.3841  7825
 6.3941  8236
 6.4041  8279
 6.4141  7894
 6.4241  7635
 6.4341  6730
 6.4441  6105
 6.4541  5438
 6.4641  4570
 6.4741  3774
 6.4841  2925
 6.4941  2382
 6.5041  1773
 6.5141  1331
 6.5241  1080
 6.5341   793
 6.5441   564
 6.5541   409
 6.5641   344
 6.5741   259
 6.5841   225
 6.5941   178
 6.6041   175
 6.6141   159
 6.6241   142
 6.6341   135
 6.6441   138
 6.6541   164
 6.6641   148
 6.6741   132
 6.6841   127
 6.6941   127
 6.7041   153
 6.7141   144
 6.7241   127
 6.7341   153
 6.7441   138
 6.7541   146
 6.7641   144
 6.7741   150
 6.7841   152
 6.7941   168
 6.8041   162
 6.8141   164
 6.8241   170
 6.8341   189
 6.8441   164
 6.8541   171
 6.8641   183
 6.8741   198
 6.8841   227
 6.8941   269
 6.9041   258
 6.9141   342
 6.9241   379
 6.9341   387
 6.9441   524
 6.9541   615
 6.9641   644
 6.9741   771
 6.9841   883
 6.9941   996
 7.0041  1167
 7.0141  1240
 7.0241  1348
 7.0341  1445
 7.0441  1452
 7.0541  1481
 7.0641  1434
 7.0741  1428
 7.0841  1404
 7.0941  1219
 7.1041  1175
 7.1141  1021
 7.1241   917
 7.1341   800
 7.1441   683
 7.1541   567
 7.1641   456
 7.1741   424
 7.1841   356
 7.1941   314
 7.2041   288
 7.2141   269
 7.2241   272
 7.2341   229
 7.2441   241
 7.2541   226
 7.2641   271
 7.2741   236
 7.2841   240
 7.2941   229
 7.3041   273
 7.3141   264
 7.3241   252
 7.3341   289
 7.3441   325
 7.3541   290
 7.3641   291
 7.3741   284
 7.3841   310
 7.3941   287
 7.4041   321
 7.4141   308
 7.4241   306
 7.4341   306
 7.4441   301
 7.4541   293
 7.4641   250
 7.4741   272
 7.4841   269
 7.4941   244
 7.5041   239
 7.5141   235
 7.5241   212
 7.5341   244
 7.5441   217
 7.5541   234
 7.5641   218
 7.5741   243
 7.5841   215
 7.5941   242
 7.6041   242
 7.6141   235
 7.6241   245
 7.6341   210
 7.6441   239
 7.6541   237
 7.6641   234
 7.6741   234
 7.6841   267
 7.6941   242
 7.7041   285
 7.7141   218
 7.7241   254
 7.7341   275
 7.7441   254
 7.7541   248
 7.7641   276
 7.7741   282
 7.7841   294
 7.7941   325
 7.8041   329
 7.8141   316
 7.8241   329
 7.8341   342
 7.8441   350
 7.8541   363
 7.8641   336
 7.8741   353
 7.8841   347
 7.8941   386
 7.9041   369
 7.9141   412
 7.9241   444
 7.9341   455
 7.9441   455
 7.9541   490
 7.9641   553
 7.9741   558
 7.9841   596
 7.9941   607
 8.0041   702
 8.0141   716
 8.0241   790
 8.0341   874
 8.0441   936
 8.0541  1022
 8.0641  1047
 8.0741  1102
 8.0841  1215
 8.0941  1192
 8.1041  1282
 8.1141  1364
 8.1241  1356
 8.1341  1330
 8.1441  1420
 8.1541  1478
 8.1641  1495
 8.1741  1498
 8.1841  1541
 8.1941  1538
 8.2041  1623
 8.2141  1576
 8.2241  1593
 8.2341  1691
 8.2441  1761
 8.2541  1783
 8.2641  1963
 8.2741  1964
 8.2841  2077
 8.2941  2187
 8.3041  2380
 8.3141  2658
 8.3241  2820
 8.3341  3141
 8.3441  3442
 8.3541  3561
 8.3641  3636
 8.3741  3836
 8.3841  3845
 8.3941  3748
 8.4041  3739
 8.4141  3608
 8.4241  3450
 8.4341  3204
 8.4441  2970
 8.4541  2658
 8.4641  2395
 8.4741  2032
 8.4841  1814
 8.4941  1508
 8.5041  1305
 8.5141  1139
 8.5241   905
 8.5341   800
 8.5441   693
 8.5541   615
 8.5641   533
 8.5741   457
 8.5841   452
 8.5941   455
 8.6041   395
 8.6141   380
 8.6241   415
 8.6341   412
 8.6441   382
 8.6541   398
 8.6641   412
 8.6741   427
 8.6841   427
 8.6941   419
 8.7041   422
 8.7141   401
 8.7241   399
 8.7341   413
 8.7441   428
 8.7541   400
 8.7641   385
 8.7741   379
 8.7841   399
 8.7941   361
 8.8041   377
 8.8141   366
 8.8241   377
 8.8341   378
 8.8441   389
 8.8541   348
 8.8641   369
 8.8741   379
 8.8841   390
 8.8941   357
 8.9041   368
 8.9141   398
 8.9241   383
 8.9341   390
 8.9441   364
 8.9541   389
 8.9641   372
 8.9741   395
 8.9841   355
 8.9941   396
 9.0041   419
 9.0141   398
 9.0241   480
 9.0341   441
 9.0441   460
 9.0541   443
 9.0641   465
 9.0741   506
 9.0841   496
 9.0941   512
 9.1041   552
 9.1141   550
 9.1241   646
 9.1341   631
 9.1441   611
 9.1541   661
 9.1641   705
 9.1741   717
 9.1841   790
 9.1941   821
 9.2041   817
 9.2141   911
 9.2241   915
 9.2341   989
 9.2441  1034
 9.2541  1003
 9.2641  1102
 9.2741  1147
 9.2841  1190
 9.2941  1281
 9.3041  1238
 9.3141  1277
 9.3241  1355
 9.3341  1363
 9.3441  1396
 9.3541  1436
 9.3641  1497
 9.3741  1559
 9.3841  1527
 9.3941  1566
 9.4041  1622
 9.4141  1585
 9.4241  1662
 9.4341  1643
 9.4441  1644
 9.4541  1664
 9.4641  1727
 9.4741  1745
 9.4841  1751
 9.4941  1825
 9.5041  1866
 9.5141  1968
 9.5241  1960
 9.5341  2035
 9.5441  2212
 9.5541  2253
 9.5641  2337
 9.5741  2471
 9.5841  2664
 9.5941  2816
 9.6041  2952
 9.6141  3028
 9.6241  3284
 9.6341  3452
 9.6441  3507
 9.6541  3705
 9.6641  3714
 9.6741  3715
 9.6841  3571
 9.6941  3529
 9.7041  3383
 9.7141  3149
 9.7241  3043
 9.7341  2814
 9.7441  2612
 9.7541  2369
 9.7641  2231
 9.7741  2120
 9.7841  1918
 9.7941  1708
 9.8041  1572
 9.8141  1545
 9.8241  1515
 9.8341  1413
 9.8441  1373
 9.8541  1350
 9.8641  1352
 9.8741  1340
 9.8841  1382
 9.8941  1416
 9.9041  1517
 9.9141  1517
 9.9241  1602
 9.9341  1571
 9.9441  1535
 9.9541  1594
 9.9641  1566
 9.9741  1538
 9.9841  1496
 9.9941  1390
10.0041  1324
10.0141  1264
10.0241  1123
10.0341  1036
10.0441   950
10.0541   853
10.0641   752
10.0741   674
10.0841   593
10.0941   560
10.1041   516
10.1141   460
10.1241   431
10.1341   416
10.1441   383
10.1541   346
10.1641   333
10.1741   318
10.1841   285
10.1941   308
10.2041   310
10.2141   283
10.2241   274
10.2341   269
10.2441   237
10.2541   246
10.2641   244
10.2741   224
10.2841   218
10.2941   225
10.3041   212
10.3141   206
10.3241   201
10.3341   203
10.3441   216
10.3541   213
10.3641   196
10.3741   192
10.3841   217
10.3941   204
10.4041   206
10.4141   207
10.4241   230
10.4341   205
10.4441   201
10.4541   217
10.4641   231
10.4741   221
10.4841   234
10.4941   238
10.5041   211
10.5141   213
10.5241   217
10.5341   224
10.5441   217
10.5541   238
10.5641   220
10.5741   213
10.5841   235
10.5941   251
10.6041   250
10.6141   233
10.6241   226
10.6341   242
10.6441   240
10.6541   255
10.6641   261
10.6741   239
10.6841   261
10.6941   261
10.7041   242
10.7141   263
10.7241   281
10.7341   273
10.7441   262
10.7541   284
10.7641   304
10.7741   298
10.7841   304
10.7941   309
10.8041   301
10.8141   318
10.8241   348
10.8341   319
10.8441   314
10.8541   356
10.8641   343
10.8741   361
10.8841   347
10.8941   331
10.9041   367
10.9141   354
10.9241   359
10.9341   359
10.9441   327
10.9541   368
10.9641   366
10.9741   365
10.9841   349
10.9941   352
11.0041   364
11.0141   350
11.0241   320
11.0341   334
11.0441   327
11.0541   298
11.0641   290
11.0741   307
11.0841   307
11.0941   302
11.1041   304
11.1141   322
11.1241   324
11.1341   335
11.1441   323
11.1541   339
11.1641   355
11.1741   367
11.1841   393
11.1941   401
11.2041   414
11.2141   447
11.2241   446
11.2341   490
11.2441   496
11.2541   504
11.2641   506
11.2741   519
11.2841   535
11.2941   496
11.3041   511
11.3141   498
11.3241   434
11.3341   444
11.3441   449
11.3541   424
11.3641   403
11.3741   385
11.3841   361
11.3941   321
11.4041   320
11.4141   307
11.4241   295
11.4341   265
11.4441   259
11.4541   254
11.4641   239
11.4741   246
11.4841   237
11.4941   253
11.5041   259
11.5141   243
11.5241   249
11.5341   253
11.5441   251
11.5541   252
11.5641   235
11.5741   240
11.5841   249
11.5941   253
11.6041   250
11.6141   258
11.6241   272
11.6341   267
11.6441   258
11.6541   255
11.6641   261
11.6741   276
11.6841   278
11.6941   264
11.7041   252
11.7141   236
11.7241   222
11.7341   209
11.7441   194
11.7541   199
11.7641   211
11.7741   205
11.7841   215
11.7941   203
11.8041   182
11.8141   191
11.8241   185
11.8341   179
11.8441   182
11.8541   196
11.8641   185
11.8741   174
11.8841   185
11.8941   177
11.9041   185
11.9141   189
11.9241   187
11.9341   187
11.9441   176
11.9541   177
11.9641   188
11.9741   190
11.9841   196
11.9941   181
12.0041   200
12.0141   201
12.0241   202
12.0341   189
12.0441   172
12.0541   162
12.0641   176
12.0741   178
12.0841   179
12.0941   178
12.1041   187
12.1141   188
12.1241   190
12.1341   182
12.1441   181
12.1541   186
12.1641   181
12.1741   185
12.1841   182
12.1941   187
12.2041   186
12.2141   175
12.2241   183
12.2341   182
12.2441   180
12.2541   167
12.2641   170
12.2741   174
12.2841   178
12.2941   182
12.3041   179
12.3141   178
12.3241   178
12.3341   175
12.3441   183
12.3541   196
12.3641   183
12.3741   188
12.3841   183
12.3941   176
12.4041   175
12.4141   168
12.4241   176
12.4341   182
12.4441   187
12.4541   173
12.4641   185
12.4741   200
12.4841   201
12.4941   174
12.5041   174
12.5141   173
12.5241   203
12.5341   206
12.5441   192
12.5541   194
12.5641   191
12.5741   187
12.5841   200
12.5941   218
12.6041   213
12.6141   217
12.6241   224
12.6341   219
12.6441   198
12.6541   194
12.6641   215
12.6741   222
12.6841   205
12.6941   194
12.7041   186
12.7141   181
12.7241   193
12.7341   214
12.7441   217
12.7541   202
12.7641   200
12.7741   209
12.7841   226
12.7941   216
12.8041   217
12.8141   223
12.8241   223
12.8341   215
12.8441   200
12.8541   196
12.8641   204
12.8741   201
12.8841   216
12.8941   221
12.9041   219
12.9141   206
12.9241   197
12.9341   215
12.9441   215
12.9541   217
12.9641   210
12.9741   202
12.9841   218
12.9941   228
13.0041   213
13.0141   213
13.0241   233
13.0341   238
13.0441   223
13.0541   207
13.0641   214
13.0741   221
13.0841   229
13.0941   217
13.1041   220
13.1141   231
13.1241   223
13.1341   224
13.1441   235
13.1541   230
13.1641   232
13.1741   230
13.1841   226
13.1941   227
13.2041   250
13.2141   266
13.2241   268
13.2341   270
13.2441   281
13.2541   277
13.2641   277
13.2741   312
13.2841   323
13.2941   321
13.3041   347
13.3141   356
13.3241   357
13.3341   360
13.3441   369
13.3541   378
13.3641   379
13.3741   377
13.3841   384
13.3941   403
13.4041   401
13.4141   383
13.4241   370
13.4341   365
13.4441   357
13.4541   347
13.4641   323
13.4741   312
13.4841   327
13.4941   327
13.5041   296
13.5141   275
13.5241   273
13.5341   277
13.5441   282
13.5541   273
13.5641   268
13.5741   268
13.5841   237
13.5941   232
13.6041   253
13.6141   267
13.6241   270
13.6341   256
13.6441   255
13.6541   248
13.6641   247
13.6741   266
13.6841   278
13.6941   257
13.7041   232
13.7141   249
13.7241   279
13.7341   269
13.7441   251
13.7541   254
13.7641   242
13.7741   268
13.7841   301
13.7941   282
13.8041   263
13.8141   250
13.8241   258
13.8341   272
13.8441   248
13.8541   239
13.8641   259
13.8741   266
13.8841   280
13.8941   283
13.9041   286
13.9141   309
13.9241   308
13.9341   305
13.9441   311
13.9541   312
13.9641   317
13.9741   335
13.9841   367
13.9941   381
14.0041   411
14.0141   442
14.0241   471
14.0341   505
14.0441   509
14.0541   524
14.0641   557
14.0741   587
14.0841   616
14.0941   649
14.1041   674
14.1141   690
14.1241   726
14.1341   725
14.1441   701
14.1541   698
14.1641   673
14.1741   672
14.1841   682
14.1941   652
14.2041   609
14.2141   589
14.2241   572
14.2341   513
14.2441   483
14.2541   479
14.2641   467
14.2741   455
14.2841   420
14.2941   387
14.3041   365
14.3141   355
14.3241   355
14.3341   361
14.3441   337
14.3541   304
14.3641   305
14.3741   310
14.3841   310
14.3941   310
14.4041   308
14.4141   306
14.4241   299
14.4341   295
14.4441   303
14.4541   309
14.4641   296
14.4741   309
14.4841   319
14.4941   293
14.5041   290
14.5141   296
14.5241   294
14.5341   301
14.5441   318
14.5541   310
14.5641   301
14.5741   299
14.5841   300
14.5941   322
14.6041   310
14.6141   296
14.6241   292
14.6341   294
14.6441   289
14.6541   295
14.6641   300
14.6741   297
14.6841   302
14.6941   307
14.7041   323
14.7141   320
14.7241   307
14.7341   308
14.7441   310
14.7541   338
14.7641   337
14.7741   316
14.7841   333
14.7941   354
14.8041   342
14.8141   322
14.8241   321
14.8341   341
14.8441   358
14.8541   358
14.8641   361
14.8741   354
14.8841   366
14.8941   375
14.9041   368
14.9141   362
14.9241   365
14.9341   372
14.9441   373
14.9541   368
14.9641   367
14.9741   370
14.9841   389
14.9941   365
15.0041   338
15.0141   337
15.0241   348
15.0341   357
15.0441   357
15.0541   363
15.0641   380
15.0741   368
15.0841   337
15.0941   334
15.1041   358
15.1141   355
15.1241   346
15.1341   353
15.1441   347
15.1541   338
15.1641   324
15.1741   322
15.1841   353
15.1941   339
15.2041   334
15.2141   329
15.2241   327
15.2341   323
15.2441   309
15.2541   347
15.2641   361
15.2741   341
15.2841   331
15.2941   347
15.3041   347
15.3141   334
15.3241   346
15.3341   344
15.3441   325
15.3541   352
15.3641   357
15.3741   350
15.3841   354
15.3941   335
15.4041   351
15.4141   367
15.4241   343
15.4341   349
15.4441   364
15.4541   356
15.4641   352
15.4741   365
15.4841   381
15.4941   375
15.5041   370
15.5141   378
15.5241   372
15.5341   390
15.5441   427
15.5541   444
15.5641   435
15.5741   436
15.5841   455
15.5941   470
15.6041   476
15.6141   497
15.6241   566
15.6341   566
15.6441   537
15.6541   577
15.6641   636
15.6741   625
15.6841   618
15.6941   648
15.7041   705
15.7141   757
15.7241   750
15.7341   724
15.7441   719
15.7541   720
15.7641   720
15.7741   742
15.7841   744
15.7941   745
15.8041   759
15.8141   718
15.8241   670
15.8341   648
15.8441   655
15.8541   644
15.8641   629
15.8741   602
15.8841   588
15.8941   553
15.9041   523
15.9141   501
15.9241   509
15.9341   476
15.9441   450
15.9541   436
15.9641   447
15.9741   422
15.9841   418
15.9941   400
16.0041   405
16.0141   410
16.0241   415
16.0341   414
16.0441   425
16.0541   386
16.0641   386
16.0741   407
16.0841   436
16.0941   437
16.1041   425
16.1141   408
16.1241   397
16.1341   426
16.1441   403
16.1541   421
16.1641   427
16.1741   419
16.1841   413
16.1941   399
16.2041   389
16.2141   397
16.2241   388
16.2341   420
16.2441   423
16.2541   430
16.2641   418
16.2741   409
16.2841   419
16.2941   448
16.3041   408
16.3141   414
16.3241   435
16.3341   417
16.3441   398
16.3541   411
16.3641   428
16.3741   445
16.3841   450
16.3941   432
16.4041   427
16.4141   394
16.4241   410
16.4341   425
16.4441   415
16.4541   398
16.4641   415
16.4741   449
16.4841   435
16.4941   429
16.5041   435
16.5141   460
16.5241   435
16.5341   424
16.5441   408
16.5541   428
16.5641   437
16.5741   439
16.5841   443
16.5941   470
16.6041   453
16.6141   462
16.6241   464
16.6341   442
16.6441   442
16.6541   436
16.6641   436
16.6741   431
16.6841   441
16.6941   442
16.7041   425
16.7141   446
16.7241   459
16.7341   454
16.7441   452
16.7541   442
16.7641   451
16.7741   476
16.7841   444
16.7941   441
16.8041   465
16.8141   424
16.8241   419
16.8341   439
16.8441   427
16.8541   444
16.8641   431
16.8741   436
16.8841   453
16.8941   415
16.9041   433
16.9141   417
16.9241   447
16.9341   464
16.9441   440
16.9541   436
16.9641   430
16.9741   464
16.9841   473
16.9941   440
17.0041   435
17.0141   440
17.0241   464
17.0341   470
17.0441   434
17.0541   456
17.0641   463
17.0741   463
17.0841   465
17.0941   464
17.1041   473
17.1141   459
17.1241   444
17.1341   469
17.1441   464
17.1541   470
17.1641   462
17.1741   482
17.1841   456
17.1941   474
17.2041   447
17.2141   467
17.2241   479
17.2341   503
17.2441   504
17.2541   500
17.2641   470
17.2741   451
17.2841   477
17.2941   470
17.3041   473
17.3141   483
17.3241   478
17.3341   473
17.3441   447
17.3541   459
17.3641   473
17.3741   481
17.3841   498
17.3941   489
17.4041   490
17.4141   472
17.4241   482
17.4341   469
17.4441   489
17.4541   471
17.4641   447
17.4741   482
17.4841   530
17.4941   514
17.5041   497
17.5141   529
17.5241   512
17.5341   527
17.5441   508
17.5541   519
17.5641   527
17.5741   529
17.5841   540
17.5941   554
17.6041   560
17.6141   564
17.6241   565
17.6341   557
17.6441   507
17.6541   514
17.6641   552
17.6741   546
17.6841   528
17.6941   545
17.7041   562
17.7141   550
17.7241   566
17.7341   576
17.7441   563
17.7541   554
17.7641   548
17.7741   546
17.7841   528
17.7941   519
17.8041   531
17.8141   534
17.8241   511
17.8341   546
17.8441   548
17.8541   511
17.8641   487
17.8741   539
17.8841   507
17.8941   520
17.9041   511
17.9141   505
17.9241   524
17.9341   546
17.9441   557
17.9541   518
17.9641   520
17.9741   533
17.9841   530
17.9941   556
18.0041   529
18.0141   523
18.0241   537
18.0341   567
18.0441   535
18.0541   504
18.0641   515
18.0741   552
18.0841   590
18.0941   556
18.1041   572
18.1141   550
18.1241   536
18.1341   512
18.1441   536
18.1541   542
18.1641   501
18.1741   523
18.1841   523
18.1941   536
18.2041   550
18.2141   543
18.2241   521
18.2341   525
18.2441   546
18.2541   516
18.2641   540
18.2741   534
18.2841   510
18.2941   532
18.3041   550
18.3141   504
18.3241   522
18.3341   563
18.3441   570
18.3541   572
18.3641   556
18.3741   572
18.3841   530
18.3941   537
18.4041   543
18.4141   563
18.4241   542
18.4341   541
18.4441   565
18.4541   570
18.4641   559
18.4741   560
18.4841   543
18.4941   553
18.5041   556
18.5141   534
18.5241   515
18.5341   585
18.5441   560
18.5541   570
18.5641   532
18.5741   540
18.5841   543
18.5941   522
18.6041   532
18.6141   541
18.6241   585
18.6341   570
18.6441   576
18.6541   588
18.6641   586
18.6741   580
18.6841   567
18.6941   581
18.7041   572
18.7141   567
18.7241   574
18.7341   591
18.7441   548
18.7541   538
18.7641   552
18.7741   570
18.7841   571
18.7941   558
18.8041   576
18.8141   588
18.8241   556
18.8341   535
18.8441   554
18.8541   563
18.8641   538
18.8741   558
18.8841   587
18.8941   553
18.9041   521
18.9141   547
18.9241   584
18.9341   605
18.9441   575
18.9541   578
18.9641   574
18.9741   536
18.9841   568
18.9941   575
19.0041   556
19.0141   524
19.0241   529
19.0341   535
19.0441   598
19.0541   573
19.0641   519
19.0741   583
19.0841   590
19.0941   537
19.1041   570
19.1141   560
19.1241   550
19.1341   552
19.1441   611
19.1541   609
19.1641   572
19.1741   544
19.1841   573
19.1941   577
19.2041   580
19.2141   534
19.2241   569
19.2341   569
19.2441   606
19.2541   626
19.2641   593
19.2741   562
19.2841   597
19.2941   587
19.3041   531
19.3141   584
19.3241   602
19.3341   550
19.3441   579
19.3541   616
19.3641   609
19.3741   578
19.3841   579
19.3941   606
19.4041   581
19.4141   566
19.4241   593
19.4341   586
19.4441   582
19.4541   563
19.4641   602
19.4741   592
19.4841   602
19.4941   590
19.5041   582
19.5141   559
19.5241   544
19.5341   568
19.5441   586
19.5541   591
19.5641   612
19.5741   625
19.5841   573
19.5941   578
19.6041   564
19.6141   589
19.6241   592
19.6341   620
19.6441   577
19.6541   587
19.6641   591
19.6741   597
19.6841   618
19.6941   599
19.7041   565
19.7141   593
19.7241   595
19.7341   587
19.7441   578
19.7541   610
19.7641   634
19.7741   621
19.7841   586
19.7941   607
19.8041   646
19.8141   563
19.8241   570
19.8341   592
19.8441   635
19.8541   601
19.8641   584
19.8741   602
19.8841   600
19.8941   591
19.9041   565
19.9141   601
19.9241   602
19.9341   608
19.9441   617
19.9541   615
19.9641   629
19.9741   606
19.9841   639
19.9941   622
20.0041   636
20.0141   602
20.0241   596
20.0341   624
20.0441   649
20.0541   651
20.0641   649
20.0741   653
20.0841   621
20.0941   576
20.1041   612
20.1141   630
20.1241   606
20.1341   590
20.1441   576
20.1541   614
20.1641   584
20.1741   597
20.1841   616
20.1941   625
20.2041   631
20.2141   590
20.2241   588
20.2341   589
20.2441   614
20.2541   618
20.2641   627
20.2741   573
20.2841   595
20.2941   594
20.3041   572
20.3141   610
20.3241   608
20.3341   617
20.3441   643
20.3541   651
20.3641   610
20.3741   561
20.3841   593
20.3941   624
20.4041   627
20.4141   610
20.4241   569
20.4341   576
20.4441   589
20.4541   618
20.4641   588
20.4741   586
20.4841   574
20.4941   631
20.5041   618
20.5141   604
20.5241   614
20.5341   604
20.5441   624
20.5541   673
20.5641   619
20.5741   597
20.5841   634
20.5941   608
20.6041   619
20.6141   609
20.6241   605
20.6341   563
20.6441   609
20.6541   611
20.6641   585
20.6741   624
20.6841   639
20.6941   616
20.7041   636
20.7141   620
20.7241   604
20.7341   603
20.7441   612
20.7541   633
20.7641   626
20.7741   625
20.7841   619
20.7941   643
20.8041   667
20.8141   666
20.8241   608
20.8341   618
20.8441   690
20.8541   686
20.8641   679
20.8741   621
20.8841   672
20.8941   645
20.9041   719
20.9141   738
20.9241   723
20.9341   714
20.9441   734
20.9541   720
20.9641   786
20.9741   795
20.9841   792
20.9941   799
21.0041   817
21.0141   829
21.0241   881
21.0341   869
21.0441   871
21.0541   856
21.0641   853
21.0741   872
21.0841   886
21.0941   871
21.1041   951
21.1141   894
21.1241   906
21.1341   899
21.1441   939
21.1541   936
21.1641   943
21.1741   876
21.1841   842
21.1941   844
21.2041   822
21.2141   892
21.2241   793
21.2341   826
21.2441   852
21.2541   783
21.2641   769
21.2741   766
21.2841   731
21.2941   693
21.3041   753
21.3141   659
21.3241   713
21.3341   691
21.3441   700
21.3541   667
21.3641   654
21.3741   646
21.3841   631
21.3941   654
21.4041   668
21.4141   607
21.4241   631
21.4341   650
21.4441   637
21.4541   632
21.4641   660
21.4741   598
21.4841   633
21.4941   621
21.5041   643
21.5141   568
21.5241   577
21.5341   664
21.5441   664
21.5541   575
21.5641   617
21.5741   604
21.5841   658
21.5941   583
21.6041   610
21.6141   635
21.6241   640
21.6341   583
21.6441   585
21.6541   614
21.6641   617
21.6741   601
21.6841   611
21.6941   625
21.7041   629
21.7141   613
21.7241   577
21.7341   622
21.7441   566
21.7541   605
21.7641   625
21.7741   599
21.7841   624
21.7941   617
21.8041   605
21.8141   636
21.8241   583
21.8341   595
21.8441   626
21.8541   625
21.8641   657
21.8741   631
21.8841   595
21.8941   606
21.9041   630
21.9141   652
21.9241   577
21.9341   609
21.9441   598
21.9541   612
21.9641   648
21.9741   586
21.9841   597
21.9941   598
22.0041   608
22.0141   618
22.0241   598
22.0341   634
22.0441   607
22.0541   619
22.0641   620
22.0741   619
22.0841   688
22.0941   640
22.1041   611
22.1141   584
22.1241   603
22.1341   649
22.1441   641
22.1541   628
22.1641   581
22.1741   592
22.1841   633
22.1941   602
22.2041   670
22.2141   611
22.2241   612
22.2341   589
22.2441   647
22.2541   647
22.2641   553
22.2741   622
22.2841   636
22.2941   580
22.3041   608
22.3141   588
22.3241   590
22.3341   641
22.3441   649
22.3541   645
22.3641   592
22.3741   640
22.3841   613
22.3941   573
22.4041   620
22.4141   629
22.4241   600
22.4341   630
22.4441   648
22.4541   566
22.4641   632
22.4741   631
22.4841   601
22.4941   602
22.5041   601
22.5141   616
22.5241   609
22.5341   573
22.5441   604
22.5541   589
22.5641   567
22.5741   603
22.5841   636
22.5941   601
22.6041   551
22.6141   606
22.6241   622
22.6341   590
22.6441   622
22.6541   610
22.6641   584
22.6741   622
22.6841   613
22.6941   611
22.7041   582
22.7141   588
22.7241   619
22.7341   587
22.7441   615
22.7541   620
22.7641   588
22.7741   615
22.7841   596
22.7941   620
22.8041   549
22.8141   570
22.8241   558
22.8341   593
22.8441   567
22.8541   603
22.8641   604
22.8741   618
22.8841   584
22.8941   584
22.9041   607
22.9141   640
22.9241   616
22.9341   641
22.9441   593
22.9541   604
22.9641   607
22.9741   608
22.9841   565
22.9941   581
23.0041   577
23.0141   648
23.0241   552
23.0341   613
23.0441   580
23.0541   591
23.0641   537
23.0741   633
23.0841   643
23.0941   613
23.1041   548
23.1141   559
23.1241   595
23.1341   582
23.1441   620
23.1541   546
23.1641   611
23.1741   557
23.1841   626
23.1941   603
23.2041   580
23.2141   589
23.2241   586
23.2341   570
23.2441   552
23.2541   613
23.2641   592
23.2741   562
23.2841   573
23.2941   613
23.3041   588
23.3141   635
23.3241   540
23.3341   560
23.3441   603
23.3541   568
23.3641   585
23.3741   581
23.3841   597
23.3941   595
23.4041   559
23.4141   579
23.4241   576
23.4341   616
23.4441   573
23.4541   586
23.4641   595
23.4741   572
23.4841   571
23.4941   599
23.5041   619
23.5141   542
23.5241   560
23.5341   575
23.5441   587
23.5541   555
23.5641   552
23.5741   567
23.5841   599
23.5941   620
23.6041   574
23.6141   595
23.6241   626
23.6341   596
23.6441   586
23.6541   588
23.6641   571
23.6741   590
23.6841   606
23.6941   638
23.7041   601
23.7141   596
23.7241   646
23.7341   596
23.7441   611
23.7541   627
23.7641   638
23.7741   619
23.7841   620
23.7941   602
23.8041   647
23.8141   635
23.8241   576
23.8341   647
23.8441   614
23.8541   573
23.8641   602
23.8741   595
23.8841   590
23.8941   622
23.9041   559
23.9141   580
23.9241   619
23.9341   572
23.9441   566
23.9541   579
23.9641   569
23.9741   554
23.9841   550
23.9941   592
24.0041   581
24.0141   555
24.0241   521
24.0341   610
24.0441   582
24.0541   605
24.0641   552
24.0741   558
24.0841   571
24.0941   573
24.1041   539
24.1141   543
24.1241   521
24.1341   528
24.1441   595
24.1541   578
24.1641   559
24.1741   566
24.1841   590
24.1941   566
24.2041   572
24.2141   538
24.2241   582
24.2341   558
24.2441   597
24.2541   577
24.2641   555
24.2741   559
24.2841   565
24.2941   579
24.3041   552
24.3141   540
24.3241   578
24.3341   530
24.3441   552
24.3541   572
24.3641   562
24.3741   501
24.3841   522
24.3941   535
24.4041   581
24.4141   534
24.4241   542
24.4341   564
24.4441   571
24.4541   552
24.4641   551
24.4741   531
24.4841   560
24.4941   549
24.5041   534
24.5141   534
24.5241   496
24.5341   560
24.5441   527
24.5541   541
24.5641   535
24.5741   566
24.5841   544
24.5941   552
24.6041   561
24.6141   502
24.6241   530
24.6341   561
24.6441   539
24.6541   545
24.6641   548
24.6741   530
24.6841   525
24.6941   553
24.7041   548
24.7141   560
24.7241   533
24.7341   514
24.7441   523
24.7541   536
24.7641   534
24.7741   528
24.7841   536
24.7941   520
24.8041   516
24.8141   555
24.8241   514
24.8341   542
24.8441   533
24.8541   505
24.8641   519
24.8741   528
24.8841   538
24.8941   555
24.9041   543
24.9141   545
24.9241   496
24.9341   502
24.9441   521
24.9541   539
24.9641   532
24.9741   511
24.9841   529
24.9941   517
25.0041   518
25.0141   505
25.0241   524
25.0341   561
25.0441   530
25.0541   536
25.0641   516
25.0741   564
25.0841   539
25.0941   533
25.1041   512
25.1141   522
25.1241   495
25.1341   539
25.1441   538
25.1541   491
25.1641   551
25.1741   557
25.1841   519
25.1941   509
25.2041   549
25.2141   553
25.2241   541
25.2341   513
25.2441   543
25.2541   497
25.2641   503
25.2741   552
25.2841   537
25.2941   538
25.3041   460
25.3141   512
25.3241   523
25.3341   536
25.3441   514
25.3541   532
25.3641   507
25.3741   526
25.3841   535
25.3941   534
25.4041   532
25.4141   542
25.4241   496
25.4341   504
25.4441   537
25.4541   500
25.4641   510
25.4741   496
25.4841   509
25.4941   517
25.5041   473
25.5141   532
25.5241   539
25.5341   501
25.5441   492
25.5541   530
25.5641   494
25.5741   472
25.5841   485
25.5941   492
25.6041   451
25.6141   520
25.6241   504
25.6341   485
25.6441   524
25.6541   469
25.6641   478
25.6741   513
25.6841   502
25.6941   486
25.7041   523
25.7141   485
25.7241   496
25.7341   470
25.7441   467
25.7541   501
25.7641   511
25.7741   459
25.7841   480
25.7941   502
25.8041   479
25.8141   472
25.8241   487
25.8341   503
25.8441   490
25.8541   470
25.8641   474
25.8741   480
25.8841   497
25.8941   482
25.9041   448
25.9141   453
25.9241   498
25.9341   500
25.9441   478
25.9541   498
25.9641   471
25.9741   466
25.9841   462
25.9941   523
26.0041   510
26.0141   498
26.0241   490
26.0341   486
26.0441   463
26.0541   489
26.0641   459
26.0741   438
26.0841   489
26.0941   529
26.1041   458
26.1141   460
26.1241   444
26.1341   463
26.1441   477
26.1541   501
26.1641   482
26.1741   458
26.1841   458
26.1941   455
26.2041   473
26.2141   464
26.2241   453
26.2341   459
26.2441   506
26.2541   453
26.2641   451
26.2741   461
26.2841   481
26.2941   461
26.3041   452
26.3141   439
26.3241   492
26.3341   479
26.3441   476
26.3541   449
26.3641   453
26.3741   442
26.3841   466
26.3941   417
26.4041   485
26.4141   447
26.4241   443
26.4341   449
26.4441   458
26.4541   465
26.4641   493
26.4741   455
26.4841   455
26.4941   445
26.5041   439
26.5141   455
26.5241   448
26.5341   481
26.5441   481
26.5541   459
26.5641   447
26.5741   457
26.5841   471
26.5941   424
26.6041   460
26.6141   450
26.6241   470
26.6341   438
26.6441   438
26.6541   460
26.6641   473
26.6741   416
26.6841   444
26.6941   437
26.7041   448
26.7141   454
26.7241   431
26.7341   454
26.7441   449
26.7541   442
26.7641   432
26.7741   457
26.7841   464
26.7941   427
26.8041   467
26.8141   442
26.8241   458
26.8341   446
26.8441   391
26.8541   405
26.8641   433
26.8741   435
26.8841   387
26.8941   437
26.9041   422
26.9141   397
26.9241   432
26.9341   433
26.9441   386
26.9541   407
26.9641   449
26.9741   429
26.9841   450
26.9941   465
27.0041   438
27.0141   433
27.0241   444
27.0341   412
27.0441   454
27.0541   471
27.0641   451
27.0741   446
27.0841   432
27.0941   409
27.1041   422
27.1141   414
27.1241   449
27.1341   442
27.1441   409
27.1541   419
27.1641   410
27.1741   410
27.1841   424
27.1941   426
27.2041   413
27.2141   388
27.2241   408
27.2341   415
27.2441   446
27.2541   446
27.2641   426
27.2741   405
27.2841   415
27.2941   401
27.3041   430
27.3141   447
27.3241   445
27.3341   409
27.3441   411
27.3541   429
27.3641   418
27.3741   397
27.3841   421
27.3941   392
27.4041   413
27.4141   429
27.4241   441
27.4341   399
27.4441   430
27.4541   430
27.4641   408
27.4741   409
27.4841   421
27.4941   418
27.5041   427
27.5141   446
27.5241   436
27.5341   382
27.5441   427
27.5541   425
27.5641   435
27.5741   379
27.5841   411
27.5941   429
27.6041   406
27.6141   452
27.6241   423
27.6341   395
27.6441   397
27.6541   419
27.6641   385
27.6741   398
27.6841   406
27.6941   382
27.7041   403
27.7141   394
27.7241   428
27.7341   396
27.7441   390
27.7541   396
27.7641   424
27.7741   394
27.7841   413
27.7941   370
27.8041   393
27.8141   408
27.8241   383
27.8341   401
27.8441   409
27.8541   394
27.8641   393
27.8741   391
27.8841   363
27.8941   407
27.9041   386
27.9141   376
27.9241   383
27.9341   388
27.9441   369
27.9541   396
27.9641   359
27.9741   382
27.9841   360
27.9941   385
28.0041   382
28.0141   384
28.0241   416
28.0341   374
28.0441   377
28.0541   383
28.0641   377
28.0741   379
28.0841   371
28.0941   356
28.1041   362
28.1141   390
28.1241   377
28.1341   374
28.1441   404
28.1541   375
28.1641   352
28.1741   379
28.1841   378
28.1941   369
28.2041   385
28.2141   363
28.2241   357
28.2341   377
28.2441   366
28.2541   367
28.2641   348
28.2741   363
28.2841   330
28.2941   385
28.3041   356
28.3141   360
28.3241   386
28.3341   353
28.3441   350
28.3541   364
28.3641   366
28.3741   345
28.3841   352
28.3941   349
28.4041   371
28.4141   382
28.4241   343
28.4341   362
28.4441   384
28.4541   361
28.4641   353
28.4741   372
28.4841   364
28.4941   361
28.5041   357
28.5141   347
28.5241   379
28.5341   353
28.5441   353
28.5541   386
28.5641   354
28.5741   368
28.5841   378
28.5941   362
28.6041   343
28.6141   349
28.6241   365
28.6341   360
28.6441   357
28.6541   375
28.6641   374
28.6741   355
28.6841   337
28.6941   342
28.7041   334
28.7141   361
28.7241   335
28.7341   354
28.7441   355
28.7541   363
28.7641   325
28.7741   345
28.7841   324
28.7941   335
28.8041   337
28.8141   346
28.8241   350
28.8341   361
28.8441   332
28.8541   330
28.8641   333
28.8741   333
28.8841   342
28.8941   333
28.9041   339
28.9141   325
28.9241   338
28.9341   343
28.9441   337
28.9541   330
28.9641   326
28.9741   320
28.9841   331
28.9941   356
29.0041   356
29.0141   330
29.0241   317
29.0341   355
29.0441   332
29.0541   346
29.0641   325
29.0741   322
29.0841   342
29.0941   347
29.1041   316
29.1141   302
29.1241   333
29.1341   330
29.1441   317
29.1541   336
29.1641   355
29.1741   347
29.1841   335
29.1941   353
29.2041   320
29.2141   323
29.2241   316
29.2341   345
29.2441   332
29.2541   327
29.2641   318
29.2741   345
29.2841   345
29.2941   314
29.3041   314
29.3141   349
29.3241   356
29.3341   320
29.3441   350
29.3541   339
29.3641   328
29.3741   312
29.3841   323
29.3941   320
29.4041   315
29.4141   319
29.4241   325
29.4341   341
29.4441   303
29.4541   333
29.4641   294
29.4741   302
29.4841   332
29.4941   323
29.5041   319
29.5141   296
29.5241   304
29.5341   298
29.5441   334
29.5541   315
29.5641   305
29.5741   318
29.5841   311
29.5941   324
29.6041   324
29.6141   321
29.6241   329
29.6341   309
29.6441   286
29.6541   342
29.6641   310
29.6741   315
29.6841   300
29.6941   305
29.7041   268
29.7141   321
29.7241   332
29.7341   315
29.7441   314
29.7541   308
29.7641   287
29.7741   287
29.7841   282
29.7941   280
29.8041   283
29.8141   294
29.8241   280
29.8341   286
29.8441   323
29.8541   308
29.8641   313
29.8741   314
29.8841   296
29.8941   278
29.9041   312
29.9141   310
29.9241   298
29.9341   277
29.9441   296
29.9541   287
29.9641   274
29.9741   308
29.9841   291
29.9941   265
30.0041   267
30.0141   310
30.0241   321
30.0341   316
30.0441   287
30.0541   286
30.0641   289
30.0741   286
30.0841   280
30.0941   297
30.1041   292
30.1141   292
30.1241   290
30.1341   292
30.1441   297
30.1541   291
30.1641   291
30.1741   304
30.1841   293
30.1941   291
30.2041   290
30.2141   291
30.2241   285
30.2341   319
30.2441   286
30.2541   285
30.2641   307
30.2741   296
30.2841   277
30.2941   268
30.3041   310
30.3141   256
30.3241   246
30.3341   297
30.3441   286
30.3541   270
30.3641   261
30.3741   272
30.3841   276
30.3941   271
30.4041   278
30.4141   289
30.4241   284
30.4341   251
30.4441   263
30.4541   269
30.4641   243
30.4741   263
30.4841   274
30.4941   280
30.5041   286
30.5141   269
30.5241   275
30.5341   276
30.5441   266
30.5541   279
30.5641   262
30.5741   294
30.5841   297
30.5941   274
30.6041   243
30.6141   247
30.6241   263
30.6341   241
30.6441   252
30.6541   273
30.6641   254
30.6741   286
30.6841   268
30.6941   256
30.7041   282
30.7141   262
30.7241   244
30.7341   254
30.7441   257
30.7541   255
30.7641   258
30.7741   247
30.7841   212
30.7941   260
30.8041   284
30.8141   276
30.8241   246
30.8341   242
30.8441   222
30.8541   237
30.8641   268
30.8741   264
30.8841   263
30.8941   262
30.9041   252
30.9141   256
30.9241   257
30.9341   263
30.9441   266
30.9541   284
30.9641   234
30.9741   265
30.9841   279
30.9941   237
31.0041   267
31.0141   242
31.0241   249
31.0341   234
31.0441   222
31.0541   230
31.0641   260
31.0741   255
31.0841   254
31.0941   268
31.1041   220
31.1141   263
31.1241   206
31.1341   232
31.1441   249
31.1541   236
31.1641   245
31.1741   256
31.1841   233
31.1941   246
31.2041   259
31.2141   245
31.2241   227
31.2341   245
31.2441   216
31.2541   237
31.2641   253
31.2741   265
31.2841   238
31.2941   248
31.3041   238
31.3141   227
31.3241   242
31.3341   228
31.3441   217
31.3541   248
31.3641   221
31.3741   227
31.3841   248
31.3941   231
31.4041   215
31.4141   267
31.4241   229
31.4341   241
31.4441   246
31.4541   219
31.4641   244
31.4741   227
31.4841   237
31.4941   262
31.5041   285
31.5141   253
31.5241   250
31.5341   224
31.5441   206
31.5541   235
31.5641   245
31.5741   245
31.5841   232
31.5941   219
31.6041   254
31.6141   251
31.6241   237
31.6341   242
31.6441   231
31.6541   233
31.6641   240
31.6741   248
31.6841   243
31.6941   215
31.7041   212
31.7141   231
31.7241   263
31.7341   239
31.7441   263
31.7541   240
31.7641   230
31.7741   230
31.7841   212
31.7941   238
31.8041   212
31.8141   218
31.8241   237
31.8341   232
31.8441   237
31.8541   245
31.8641   212
31.8741   212
31.8841   235
31.8941   220
31.9041   224
31.9141   219
31.9241   244
31.9341   230
31.9441   226
31.9541   233
31.9641   211
31.9741   226
31.9841   224
31.9941   231
32.0041   232
32.0141   229
32.0241   243
32.0341   214
32.0441   226
32.0541   237
32.0641   259
32.0741   240
32.0841   215
32.0941   249
32.1041   217
32.1141   216
32.1241   235
32.1341   217
32.1441   230
32.1541   224
32.1641   250
32.1741   257
32.1841   246
32.1941   240
32.2041   229
32.2141   235
32.2241   220
32.2341   233
32.2441   241
32.2541   229
32.2641   223
32.2741   213
32.2841   198
32.2941   222
32.3041   220
32.3141   223
32.3241   223
32.3341   210
32.3441   211
32.3541   209
32.3641   211
32.3741   227
32.3841   203
32.3941   200
32.4041   216
32.4141   191
32.4241   204
32.4341   228
32.4441   216
32.4541   197
32.4641   193
32.4741   214
32.4841   184
32.4941   202
32.5041   201
32.5141   199
32.5241   217
32.5341   212
32.5441   211
32.5541   201
32.5641   202
32.5741   199
32.5841   190
32.5941   202
32.6041   172
32.6141   199
32.6241   178
32.6341   193
32.6441   200
32.6541   193
32.6641   200
32.6741   203
32.6841   197
32.6941   168
32.7041   192
32.7141   172
32.7241   194
32.7341   163
32.7441   186
32.7541   210
32.7641   188
32.7741   180
32.7841   193
32.7941   197
32.8041   189
32.8141   210
32.8241   163
32.8341   175
32.8441   190
32.8541   159
32.8641   180
32.8741   197
32.8841   193
32.8941   172
32.9041   172
32.9141   166
32.9241   185
32.9341   193
32.9441   174
32.9541   160
32.9641   182
32.9741   177
32.9841   170
32.9941   179
33.0041   175
33.0141   174
33.0241   183
33.0341   155
33.0441   148
33.0541   175
33.0641   169
33.0741   166
33.0841   168
33.0941   166
33.1041   178
33.1141   166
33.1241   181
33.1341   176
33.1441   178
33.1541   173
33.1641   180
33.1741   193
33.1841   163
33.1941   178
33.2041   176
33.2141   187
33.2241   182
33.2341   177
33.2441   170
33.2541   185
33.2641   180
33.2741   191
33.2841   174
33.2941   162
33.3041   163
33.3141   177
33.3241   198
33.3341   173
33.3441   165
33.3541   152
33.3641   163
33.3741   160
33.3841   170
33.3941   182
33.4041   183
33.4141   167
33.4241   164
33.4341   160
33.4441   167
33.4541   174
33.4641   162
33.4741   167
33.4841   166
33.4941   181
33.5041   158
33.5141   162
33.5241   163
33.5341   162
33.5441   154
33.5541   176
33.5641   167
33.5741   159
33.5841   147
33.5941   152
33.6041   160
33.6141   160
33.6241   141
33.6341   154
33.6441   178
33.6541   156
33.6641   151
33.6741   182
33.6841   141
33.6941   166
33.7041   162
33.7141   162
33.7241   142
33.7341   142
33.7441   166
33.7541   148
33.7641   160
33.7741   158
33.7841   147
33.7941   148
33.8041   146
33.8141   164
33.8241   167
33.8341   166
33.8441   131
33.8541   150
33.8641   151
33.8741   136
33.8841   161
33.8941   157
33.9041   156
33.9141   142
33.9241   162
33.9341   146
33.9441   154
33.9541   153
33.9641   153
33.9741   140
33.9841   133
33.9941   152
34.0041   146
34.0141   140
34.0241   145
34.0341   148
34.0441   131
34.0541   124
34.0641   142
34.0741   150
34.0841   155
34.0941   142
34.1041   146
34.1141   135
34.1241   143
34.1341   140
34.1441   143
34.1541   156
34.1641   141
34.1741   130
34.1841   153
34.1941   144
34.2041   135
34.2141   141
34.2241   155
34.2341   134
34.2441   160
34.2541   120
34.2641   157
34.2741   143
34.2841   146
34.2941   154
34.3041   141
34.3141   162
34.3241   153
34.3341   151
34.3441   128
34.3541   137
34.3641   147
34.3741   130
34.3841   132
34.3941   139
34.4041   138
34.4141   149
34.4241   155
34.4341   135
34.4441   140
34.4541   149
34.4641   117
34.4741   117
34.4841   144
34.4941   137
34.5041   114
34.5141   109
34.5241   130
34.5341   133
34.5441   135
34.5541   133
34.5641   147
34.5741   130
34.5841   118
34.5941   151
34.6041   144
34.6141   113
34.6241   108
34.6341   118
34.6441   140
34.6541   124
34.6641   105
34.6741   133
34.6841   124
34.6941   131
34.7041   136
34.7141   143
34.7241   151
34.7341   138
34.7441   123
34.7541   130
34.7641   125
34.7741   131
34.7841   127
34.7941   135
34.8041   132
34.8141   133
34.8241   126
34.8341   137
34.8441   127
34.8541   115
34.8641   133
34.8741   111
34.8841   129
34.8941   122
34.9041   106
34.9141   148
34.9241   130
34.9341   115
34.9441   116
34.9541   131
34.9641   132
34.9741   146
34.9841   120
34.9941   116
35.0041   142
35.0141   130
35.0241   125
35.0341   134
35.0441   142
35.0541   122
35.0641   119
35.0741   115
35.0841   108
35.0941   132
35.1041   112
35.1141   126
35.1241   107
35.1341   134
35.1441   112
35.1541   106
35.1641   115
35.1741   126
35.1841   119
35.1941   112
35.2041   112
35.2141   119
35.2241   123
35.2341   125
35.2441   135
35.2541   118
35.2641   119
35.2741    95
35.2841   133
35.2941   141
35.3041   108
35.3141   127
35.3241   135
35.3341   126
35.3441   112
35.3541   122
35.3641   105
35.3741   106
35.3841   110
35.3941   109
35.4041   119
35.4141   111
35.4241   120
35.4341   114
35.4441   128
35.4541   126
35.4641   121
35.4741   129
35.4841   125
35.4941   104
35.5041   114
35.5141   103
35.5241    91
35.5341    93
35.5441   108
35.5541   118
35.5641   114
35.5741   118
35.5841   120
35.5941   102
35.6041   132
35.6141   111
35.6241   116
35.6341   107
35.6441   110
35.6541    95
35.6641    98
35.6741   100
35.6841   106
35.6941   122
35.7041    93
35.7141   107
35.7241    94
35.7341    96
35.7441   101
35.7541   108
35.7641    87
35.7741   107
35.7841   121
35.7941    90
35.8041   110
35.8141   113
35.8241    97
35.8341   115
35.8441   105
35.8541   112
35.8641   104
35.8741   112
35.8841   101
35.8941   112
35.9041   108
35.9141   100
35.9241    91
35.9341    98
35.9441   106
35.9541    97
35.9641    94
35.9741    87
35.9841   114
35.9941    97
36.0041    92
36.0141   102
36.0241    99
36.0341    95
36.0441    90
36.0541    90
36.0641    96
36.0741    89
36.0841    81
36.0941    81
36.1041   101
36.1141   102
36.1241   102
36.1341    92
36.1441   105
36.1541   104
36.1641   106
36.1741    97
36.1841   103
36.1941    98
36.2041    73
36.2141    86
36.2241   103
36.2341    92
36.2441   102
36.2541   106
36.2641   103
36.2741   107
36.2841    93
36.2941   114
36.3041   107
36.3141   101
36.3241   103
36.3341    96
36.3441    99
36.3541   112
36.3641   110
36.3741    95
36.3841    88
36.3941    87
36.4041   107
36.4141   100
36.4241    96
36.4341   102
36.4441    96
36.4541   105
36.4641    89
36.4741    91
36.4841   101
36.4941   100
36.5041    92
36.5141   115
36.5241    94
36.5341    80
36.5441    91
36.5541   111
36.5641    90
36.5741    93
36.5841    69
36.5941   115
36.6041    97
36.6141    92
36.6241    99
36.6341    89
36.6441    87
36.6541    87
36.6641    88
36.6741    91
36.6841    78
36.6941    87
36.7041    79
36.7141    84
36.7241    89
36.7341    84
36.7441    91
36.7541    76
36.7641    91
36.7741    79
36.7841    68
36.7941    83
36.8041    76
36.8141   103
36.8241    85
36.8341    88
36.8441    80
36.8541    88
36.8641    70
36.8741    81
36.8841    69
36.8941    64
36.9041    82
36.9141    80
36.9241    81
36.9341    84
36.9441    78
36.9541    85
36.9641    91
36.9741    77
36.9841    72
36.9941    70
37.0041    78
37.0141    83
37.0241    87
37.0341    75
37.0441    83
37.0541    81
37.0641    85
37.0741    62
37.0841    70
37.0941    74
37.1041    75
37.1141    63
37.1241    77
37.1341    74
37.1441    81
37.1541    71
37.1641    89
37.1741    77
37.1841    73
37.1941    76
37.2041    75
37.2141    85
37.2241    85
37.2341    86
37.2441    65
37.2541    83
37.2641    85
37.2741    91
37.2841    83
37.2941    83
37.3041    75
37.3141    78
37.3241    62
37.3341    70
37.3441    67
37.3541    92
37.3641    62
37.3741    80
37.3841    81
37.3941    66
37.4041    73
37.4141    72
37.4241    71
37.4341    66
37.4441    67
37.4541    72
37.4641    56
37.4741    67
37.4841    80
37.4941    88
37.5041    84
37.5141    71
37.5241    69
37.5341    61
37.5441    68
37.5541    74
37.5641    68
37.5741    66
37.5841    72
37.5941    64
37.6041    69
37.6141    61
37.6241    72
37.6341    69
37.6441    67
37.6541    77
37.6641    84
37.6741    75
37.6841    70
37.6941    58
37.7041    64
37.7141    73
37.7241    65
37.7341    79
37.7441    61
37.7541    68
37.7641    59
37.7741    71
37.7841    61
37.7941    64
37.8041    70
37.8141    67
37.8241    50
37.8341    63
37.8441    58
37.8541    69
37.8641    62
37.8741    60
37.8841    68
37.8941    70
37.9041    63
37.9141    73
37.9241    65
37.9341    70
37.9441    58
37.9541    71
37.9641    74
37.9741    63
37.9841    75
37.9941    69
38.0041    68
38.0141    64
38.0241    57
38.0341    62
38.0441    69
38.0541    64
38.0641    36
38.0741    40
38.0841    49
38.0941    60
38.1041    59
38.1141    60
38.1241    71
38.1341    49
38.1441    57
38.1541    51
38.1641    69
38.1741    54
38.1841    51
38.1941    52
38.2041    63
38.2141    59
38.2241    49
38.2341    55
38.2441    57
38.2541    64
38.2641    56
38.2741    51
38.2841    63
38.2941    58
38.3041    53
38.3141    62
38.3241    54
38.3341    55
38.3441    56
38.3541    60
38.3641    54
38.3741    63
38.3841    56
38.3941    47
38.4041    49
38.4141    51
38.4241    59
38.4341    51
38.4441    66
38.4541    54
38.4641    58
38.4741    57
38.4841    59
38.4941    59
38.5041    62
38.5141    50
38.5241    46
38.5341    47
38.5441    61
38.5541    51
38.5641    48
38.5741    50
38.5841    52
38.5941    44
38.6041    52
38.6141    58
38.6241    46
38.6341    54
38.6441    50
38.6541    47
38.6641    48
38.6741    48
38.6841    54
38.6941    51
38.7041    47
38.7141    65
38.7241    49
38.7341    53
38.7441    51
38.7541    52
38.7641    44
38.7741    57
38.7841    61
38.7941    53
38.8041    56
38.8141    56
38.8241    57
38.8341    52
38.8441    44
38.8541    54
38.8641    55
38.8741    45
38.8841    41
38.8941    49
38.9041    40
38.9141    44
38.9241    51
38.9341    57
38.9441    47
38.9541    50
38.9641    42
38.9741    43
38.9841    55
38.9941    35
39.0041    45
39.0141    57
39.0241    44
39.0341    62
39.0441    56
39.0541    38
39.0641    48
39.0741    46
39.0841    43
39.0941    38
39.1041    49
39.1141    43
39.1241    44
39.1341    43
39.1441    39
39.1541    52
39.1641    48
39.1741    41
39.1841    39
39.1941    42
39.2041    38
39.2141    42
39.2241    54
39.2341    39
39.2441    43
39.2541    30
39.2641    40
39.2741    31
39.2841    45
39.2941    46
39.3041    41
39.3141    53
39.3241    34
39.3341    46
39.3441    47
39.3541    40
39.3641    29
39.3741    37
39.3841    44
39.3941    43
39.4041    42
39.4141    37
39.4241    49
39.4341    42
39.4441    39
39.4541    45
39.4641    34
39.4741    42
39.4841    37
39.4941    43
39.5041    41
39.5141    40
39.5241    40
39.5341    32
39.5441    39
39.5541    34
39.5641    51
39.5741    43
39.5841    38
39.5941    28
39.6041    23
39.6141    43
39.6241    42
39.6341    31
39.6441    34
39.6541    44
39.6641    40
39.6741    37
39.6841    26
39.6941    41
39.7041    44
39.7141    31
39.7241    32
39.7341    29
39.7441    28
39.7541    34
39.7641    32
39.7741    35
39.7841    25
39.7941    34
39.8041    48
39.8141    37
39.8241    34
39.8341    42
39.8441    25
39.8541    37
39.8641    32
39.8741    24
39.8841    38
39.8941    30
39.9041    33
39.9141    33
39.9241    42
39.9341    28
39.9441    37
39.9541    40
39.9641    40
39.9741    21
39.9841    39
39.9941    35
