Bruker Nano GmbH Berlin, Germany
Esprit 1.9

Date: 4/1/2021 5:02:27 PM
Real time: 23051
Life time: 21710
Pulse density: 86433


Detector type: XFlash 430
Window type: Custom type
Detector thickness: 0.45
Si dead layer:0.029

Calibration, lin.: 10
Calibration, abs.: -955.9
Mn FWHM: 137.05
Fano factor: 0.121
Channels: 4095

Energy Counts
-0.9559     0
-0.9459     0
-0.9359     0
-0.9259     0
-0.9159     0
-0.9059     0
-0.8959     0
-0.8859     0
-0.8759     0
-0.8659     0
-0.8559     0
-0.8459     0
-0.8359     0
-0.8259     0
-0.8159     0
-0.8059     0
-0.7959     0
-0.7859     0
-0.7759     0
-0.7659     0
-0.7559     0
-0.7459     0
-0.7359     0
-0.7259     0
-0.7159     0
-0.7059     0
-0.6959     0
-0.6859     0
-0.6759     0
-0.6659     0
-0.6559     0
-0.6459     0
-0.6359     0
-0.6259     0
-0.6159     0
-0.6059     0
-0.5959     0
-0.5859     0
-0.5759     0
-0.5659     0
-0.5559     0
-0.5459     0
-0.5359     0
-0.5259     0
-0.5159     0
-0.5059     0
-0.4959     0
-0.4859     0
-0.4759     0
-0.4659     0
-0.4559     0
-0.4459     0
-0.4359     0
-0.4259     0
-0.4159     0
-0.4059     0
-0.3959     0
-0.3859     0
-0.3759     0
-0.3659     0
-0.3559     0
-0.3459     0
-0.3359     0
-0.3259     0
-0.3159     0
-0.3059     0
-0.2959     0
-0.2859     0
-0.2759     0
-0.2659     0
-0.2559     0
-0.2459     0
-0.2359     0
-0.2259     0
-0.2159     0
-0.2059     0
-0.1959     0
-0.1859     0
-0.1759     0
-0.1659     0
-0.1559     0
-0.1459     0
-0.1359     0
-0.1259     0
-0.1159     3
-0.1059    17
-0.0959    55
-0.0859   226
-0.0759   821
-0.0659  2497
-0.0559  6374
-0.0459 13765
-0.0359 25579
-0.0259 41465
-0.0159 56682
-0.0059 66794
 0.0041 67215
 0.0141 57383
 0.0241 42675
 0.0341 26674
 0.0441 14538
 0.0541  6758
 0.0641  2579
 0.0741   939
 0.0841   291
 0.0941    73
 0.1041    19
 0.1141    14
 0.1241     8
 0.1341     9
 0.1441     5
 0.1541     3
 0.1641     6
 0.1741     2
 0.1841   185
 0.1941   330
 0.2041   306
 0.2141   298
 0.2241   288
 0.2341   301
 0.2441   307
 0.2541   325
 0.2641   335
 0.2741   344
 0.2841   331
 0.2941   348
 0.3041   333
 0.3141   303
 0.3241   295
 0.3341   311
 0.3441   285
 0.3541   270
 0.3641   286
 0.3741   282
 0.3841   292
 0.3941   275
 0.4041   260
 0.4141   252
 0.4241   267
 0.4341   273
 0.4441   247
 0.4541   271
 0.4641   282
 0.4741   271
 0.4841   264
 0.4941   263
 0.5041   261
 0.5141   245
 0.5241   255
 0.5341   270
 0.5441   254
 0.5541   240
 0.5641   233
 0.5741   249
 0.5841   260
 0.5941   266
 0.6041   239
 0.6141   235
 0.6241   244
 0.6341   240
 0.6441   238
 0.6541   245
 0.6641   234
 0.6741   232
 0.6841   259
 0.6941   251
 0.7041   238
 0.7141   244
 0.7241   237
 0.7341   219
 0.7441   210
 0.7541   221
 0.7641   221
 0.7741   221
 0.7841   220
 0.7941   211
 0.8041   217
 0.8141   206
 0.8241   220
 0.8341   230
 0.8441   220
 0.8541   226
 0.8641   230
 0.8741   212
 0.8841   219
 0.8941   225
 0.9041   213
 0.9141   212
 0.9241   248
 0.9341   232
 0.9441   220
 0.9541   218
 0.9641   216
 0.9741   209
 0.9841   231
 0.9941   219
 1.0041   187
 1.0141   184
 1.0241   181
 1.0341   199
 1.0441   194
 1.0541   188
 1.0641   209
 1.0741   197
 1.0841   207
 1.0941   220
 1.1041   207
 1.1141   210
 1.1241   191
 1.1341   186
 1.1441   189
 1.1541   195
 1.1641   201
 1.1741   190
 1.1841   210
 1.1941   192
 1.2041   199
 1.2141   210
 1.2241   204
 1.2341   184
 1.2441   193
 1.2541   192
 1.2641   196
 1.2741   190
 1.2841   186
 1.2941   199
 1.3041   183
 1.3141   191
 1.3241   173
 1.3341   181
 1.3441   201
 1.3541   200
 1.3641   208
 1.3741   208
 1.3841   208
 1.3941   195
 1.4041   181
 1.4141   190
 1.4241   199
 1.4341   183
 1.4441   167
 1.4541   191
 1.4641   184
 1.4741   177
 1.4841   153
 1.4941   174
 1.5041   153
 1.5141   165
 1.5241   188
 1.5341   199
 1.5441   188
 1.5541   183
 1.5641   169
 1.5741   162
 1.5841   165
 1.5941   167
 1.6041   181
 1.6141   210
 1.6241   177
 1.6341   176
 1.6441   191
 1.6541   237
 1.6641   288
 1.6741   359
 1.6841   427
 1.6941   513
 1.7041   636
 1.7141   724
 1.7241   854
 1.7341   862
 1.7441   809
 1.7541   742
 1.7641   692
 1.7741   615
 1.7841   497
 1.7941   435
 1.8041   351
 1.8141   291
 1.8241   251
 1.8341   263
 1.8441   239
 1.8541   203
 1.8641   221
 1.8741   190
 1.8841   197
 1.8941   222
 1.9041   214
 1.9141   178
 1.9241   177
 1.9341   177
 1.9441   205
 1.9541   197
 1.9641   197
 1.9741   213
 1.9841   227
 1.9941   243
 2.0041   242
 2.0141   251
 2.0241   203
 2.0341   233
 2.0441   212
 2.0541   202
 2.0641   192
 2.0741   180
 2.0841   161
 2.0941   173
 2.1041   172
 2.1141   172
 2.1241   185
 2.1341   199
 2.1441   167
 2.1541   182
 2.1641   177
 2.1741   166
 2.1841   168
 2.1941   154
 2.2041   175
 2.2141   171
 2.2241   162
 2.2341   172
 2.2441   184
 2.2541   162
 2.2641   147
 2.2741   175
 2.2841   163
 2.2941   152
 2.3041   152
 2.3141   163
 2.3241   151
 2.3341   142
 2.3441   164
 2.3541   150
 2.3641   163
 2.3741   152
 2.3841   158
 2.3941   167
 2.4041   157
 2.4141   154
 2.4241   140
 2.4341   140
 2.4441   143
 2.4541   148
 2.4641   150
 2.4741   150
 2.4841   135
 2.4941   139
 2.5041   138
 2.5141   134
 2.5241   139
 2.5341   160
 2.5441   143
 2.5541   153
 2.5641   144
 2.5741   157
 2.5841   138
 2.5941   141
 2.6041   138
 2.6141   132
 2.6241   140
 2.6341   127
 2.6441   124
 2.6541   145
 2.6641   151
 2.6741   120
 2.6841   128
 2.6941   146
 2.7041   151
 2.7141   120
 2.7241   145
 2.7341   115
 2.7441   129
 2.7541   147
 2.7641   126
 2.7741   125
 2.7841   148
 2.7941   140
 2.8041   152
 2.8141   153
 2.8241   141
 2.8341   141
 2.8441   138
 2.8541   152
 2.8641   135
 2.8741   132
 2.8841   132
 2.8941   150
 2.9041   137
 2.9141   136
 2.9241   119
 2.9341   144
 2.9441   144
 2.9541   161
 2.9641   131
 2.9741   133
 2.9841   120
 2.9941   138
 3.0041   141
 3.0141   111
 3.0241   134
 3.0341   137
 3.0441   108
 3.0541   127
 3.0641   122
 3.0741   111
 3.0841   126
 3.0941   123
 3.1041   123
 3.1141   115
 3.1241   110
 3.1341   110
 3.1441   124
 3.1541   103
 3.1641   127
 3.1741   131
 3.1841   157
 3.1941   116
 3.2041   125
 3.2141   131
 3.2241   153
 3.2341   155
 3.2441   148
 3.2541   193
 3.2641   229
 3.2741   261
 3.2841   264
 3.2941   284
 3.3041   296
 3.3141   303
 3.3241   273
 3.3341   270
 3.3441   242
 3.3541   234
 3.3641   217
 3.3741   202
 3.3841   171
 3.3941   155
 3.4041   136
 3.4141   134
 3.4241   116
 3.4341   114
 3.4441   113
 3.4541   115
 3.4641   115
 3.4741   114
 3.4841   113
 3.4941   138
 3.5041   127
 3.5141   148
 3.5241   179
 3.5341   197
 3.5441   224
 3.5541   308
 3.5641   395
 3.5741   507
 3.5841   719
 3.5941  1035
 3.6041  1406
 3.6141  1842
 3.6241  2458
 3.6341  3075
 3.6441  3677
 3.6541  4522
 3.6641  5118
 3.6741  5570
 3.6841  5758
 3.6941  5847
 3.7041  5487
 3.7141  5154
 3.7241  4592
 3.7341  3788
 3.7441  3030
 3.7541  2470
 3.7641  1900
 3.7741  1400
 3.7841   902
 3.7941   688
 3.8041   450
 3.8141   322
 3.8241   224
 3.8341   196
 3.8441   166
 3.8541   164
 3.8641   145
 3.8741   162
 3.8841   157
 3.8941   247
 3.9041   279
 3.9141   298
 3.9241   368
 3.9341   475
 3.9441   575
 3.9541   673
 3.9641   818
 3.9741   943
 3.9841  1102
 3.9941  1181
 4.0041  1204
 4.0141  1180
 4.0241  1223
 4.0341  1149
 4.0441  1014
 4.0541   868
 4.0641   799
 4.0741   608
 4.0841   510
 4.0941   394
 4.1041   313
 4.1141   245
 4.1241   172
 4.1341   136
 4.1441   123
 4.1541   104
 4.1641    94
 4.1741   103
 4.1841    68
 4.1941    71
 4.2041    74
 4.2141    75
 4.2241    83
 4.2341    77
 4.2441    83
 4.2541    75
 4.2641    72
 4.2741    74
 4.2841    90
 4.2941    83
 4.3041    93
 4.3141    68
 4.3241    84
 4.3341    81
 4.3441   105
 4.3541    92
 4.3641    99
 4.3741   101
 4.3841   116
 4.3941   158
 4.4041   138
 4.4141   171
 4.4241   225
 4.4341   235
 4.4441   297
 4.4541   368
 4.4641   399
 4.4741   445
 4.4841   452
 4.4941   453
 4.5041   518
 4.5141   501
 4.5241   465
 4.5341   443
 4.5441   376
 4.5541   369
 4.5641   291
 4.5741   265
 4.5841   200
 4.5941   168
 4.6041   159
 4.6141   137
 4.6241   130
 4.6341   110
 4.6441    92
 4.6541    81
 4.6641   100
 4.6741    85
 4.6841   106
 4.6941    87
 4.7041    92
 4.7141    98
 4.7241    95
 4.7341    92
 4.7441    80
 4.7541    86
 4.7641    84
 4.7741    98
 4.7841   110
 4.7941   106
 4.8041   131
 4.8141   118
 4.8241   125
 4.8341   124
 4.8441   129
 4.8541   109
 4.8641   144
 4.8741   166
 4.8841   185
 4.8941   179
 4.9041   159
 4.9141   166
 4.9241   170
 4.9341   194
 4.9441   179
 4.9541   188
 4.9641   158
 4.9741   176
 4.9841   169
 4.9941   143
 5.0041   112
 5.0141   124
 5.0241   129
 5.0341   104
 5.0441   118
 5.0541   103
 5.0641   115
 5.0741   101
 5.0841   105
 5.0941   104
 5.1041    91
 5.1141   106
 5.1241   109
 5.1341    81
 5.1441    95
 5.1541    79
 5.1641   106
 5.1741   105
 5.1841   104
 5.1941    94
 5.2041   123
 5.2141   108
 5.2241   104
 5.2341   114
 5.2441   106
 5.2541   115
 5.2641   114
 5.2741   111
 5.2841    98
 5.2941    96
 5.3041   102
 5.3141   115
 5.3241   114
 5.3341    97
 5.3441   103
 5.3541   124
 5.3641   119
 5.3741   138
 5.3841   134
 5.3941   132
 5.4041   128
 5.4141   134
 5.4241   129
 5.4341   112
 5.4441   129
 5.4541   111
 5.4641    95
 5.4741   119
 5.4841   119
 5.4941   106
 5.5041   101
 5.5141   116
 5.5241   105
 5.5341   113
 5.5441    95
 5.5541   114
 5.5641   109
 5.5741   113
 5.5841   109
 5.5941   117
 5.6041   108
 5.6141   114
 5.6241   105
 5.6341   128
 5.6441   101
 5.6541   105
 5.6641   120
 5.6741   109
 5.6841   138
 5.6941   106
 5.7041   114
 5.7141   108
 5.7241   113
 5.7341   118
 5.7441   108
 5.7541   152
 5.7641   186
 5.7741   187
 5.7841   225
 5.7941   225
 5.8041   266
 5.8141   340
 5.8241   388
 5.8341   455
 5.8441   464
 5.8541   542
 5.8641   568
 5.8741   619
 5.8841   635
 5.8941   635
 5.9041   658
 5.9141   601
 5.9241   596
 5.9341   509
 5.9441   488
 5.9541   431
 5.9641   359
 5.9741   305
 5.9841   289
 5.9941   248
 6.0041   215
 6.0141   181
 6.0241   170
 6.0341   149
 6.0441   171
 6.0541   139
 6.0641   147
 6.0741   150
 6.0841   163
 6.0941   141
 6.1041   170
 6.1141   149
 6.1241   155
 6.1341   150
 6.1441   176
 6.1541   186
 6.1641   185
 6.1741   229
 6.1841   234
 6.1941   291
 6.2041   317
 6.2141   426
 6.2241   627
 6.2341   716
 6.2441  1084
 6.2541  1510
 6.2641  2109
 6.2741  2833
 6.2841  3715
 6.2941  4977
 6.3041  6409
 6.3141  8225
 6.3241 10123
 6.3341 12226
 6.3441 14123
 6.3541 16398
 6.3641 18239
 6.3741 19697
 6.3841 20468
 6.3941 20772
 6.4041 20902
 6.4141 20405
 6.4241 18968
 6.4341 17363
 6.4441 15618
 6.4541 13522
 6.4641 11385
 6.4741  9499
 6.4841  7547
 6.4941  5863
 6.5041  4545
 6.5141  3279
 6.5241  2438
 6.5341  1743
 6.5441  1274
 6.5541   858
 6.5641   624
 6.5741   496
 6.5841   386
 6.5941   290
 6.6041   236
 6.6141   221
 6.6241   217
 6.6341   176
 6.6441   180
 6.6541   198
 6.6641   155
 6.6741   174
 6.6841   169
 6.6941   175
 6.7041   166
 6.7141   169
 6.7241   151
 6.7341   213
 6.7441   184
 6.7541   193
 6.7641   179
 6.7741   211
 6.7841   178
 6.7941   200
 6.8041   211
 6.8141   233
 6.8241   223
 6.8341   232
 6.8441   262
 6.8541   243
 6.8641   306
 6.8741   318
 6.8841   373
 6.8941   411
 6.9041   529
 6.9141   550
 6.9241   670
 6.9341   840
 6.9441  1104
 6.9541  1257
 6.9641  1547
 6.9741  1769
 6.9841  2216
 6.9941  2414
 7.0041  2684
 7.0141  3031
 7.0241  3272
 7.0341  3419
 7.0441  3534
 7.0541  3584
 7.0641  3561
 7.0741  3350
 7.0841  3211
 7.0941  2927
 7.1041  2627
 7.1141  2274
 7.1241  1993
 7.1341  1656
 7.1441  1403
 7.1541  1184
 7.1641   941
 7.1741   724
 7.1841   586
 7.1941   486
 7.2041   412
 7.2141   340
 7.2241   263
 7.2341   254
 7.2441   236
 7.2541   229
 7.2641   249
 7.2741   240
 7.2841   222
 7.2941   232
 7.3041   248
 7.3141   277
 7.3241   234
 7.3341   263
 7.3441   261
 7.3541   269
 7.3641   281
 7.3741   286
 7.3841   314
 7.3941   294
 7.4041   288
 7.4141   295
 7.4241   336
 7.4341   281
 7.4441   312
 7.4541   257
 7.4641   267
 7.4741   237
 7.4841   235
 7.4941   276
 7.5041   223
 7.5141   233
 7.5241   267
 7.5341   230
 7.5441   222
 7.5541   187
 7.5641   227
 7.5741   223
 7.5841   244
 7.5941   229
 7.6041   219
 7.6141   189
 7.6241   204
 7.6341   217
 7.6441   226
 7.6541   245
 7.6641   234
 7.6741   202
 7.6841   237
 7.6941   219
 7.7041   212
 7.7141   229
 7.7241   237
 7.7341   262
 7.7441   248
 7.7541   267
 7.7641   259
 7.7741   226
 7.7841   244
 7.7941   246
 7.8041   280
 7.8141   286
 7.8241   299
 7.8341   303
 7.8441   292
 7.8541   308
 7.8641   296
 7.8741   322
 7.8841   323
 7.8941   320
 7.9041   395
 7.9141   387
 7.9241   395
 7.9341   411
 7.9441   462
 7.9541   494
 7.9641   513
 7.9741   510
 7.9841   558
 7.9941   612
 8.0041   673
 8.0141   741
 8.0241   718
 8.0341   790
 8.0441   871
 8.0541   940
 8.0641   978
 8.0741  1051
 8.0841  1081
 8.0941  1143
 8.1041  1195
 8.1141  1286
 8.1241  1301
 8.1341  1392
 8.1441  1404
 8.1541  1425
 8.1641  1472
 8.1741  1435
 8.1841  1461
 8.1941  1512
 8.2041  1486
 8.2141  1470
 8.2241  1531
 8.2341  1573
 8.2441  1649
 8.2541  1734
 8.2641  1796
 8.2741  1819
 8.2841  1954
 8.2941  2029
 8.3041  2251
 8.3141  2362
 8.3241  2568
 8.3341  2790
 8.3441  2846
 8.3541  3024
 8.3641  3227
 8.3741  3266
 8.3841  3314
 8.3941  3241
 8.4041  3208
 8.4141  3113
 8.4241  2894
 8.4341  2729
 8.4441  2458
 8.4541  2338
 8.4641  1959
 8.4741  1744
 8.4841  1479
 8.4941  1288
 8.5041  1060
 8.5141   962
 8.5241   741
 8.5341   665
 8.5441   609
 8.5541   526
 8.5641   481
 8.5741   464
 8.5841   436
 8.5941   417
 8.6041   384
 8.6141   405
 8.6241   411
 8.6341   412
 8.6441   417
 8.6541   391
 8.6641   439
 8.6741   380
 8.6841   420
 8.6941   394
 8.7041   391
 8.7141   392
 8.7241   385
 8.7341   348
 8.7441   342
 8.7541   363
 8.7641   348
 8.7741   313
 8.7841   310
 8.7941   326
 8.8041   321
 8.8141   309
 8.8241   317
 8.8341   299
 8.8441   314
 8.8541   325
 8.8641   300
 8.8741   340
 8.8841   349
 8.8941   332
 8.9041   311
 8.9141   352
 8.9241   355
 8.9341   378
 8.9441   366
 8.9541   392
 8.9641   374
 8.9741   367
 8.9841   394
 8.9941   361
 9.0041   368
 9.0141   372
 9.0241   393
 9.0341   403
 9.0441   419
 9.0541   439
 9.0641   448
 9.0741   446
 9.0841   477
 9.0941   457
 9.1041   467
 9.1141   508
 9.1241   536
 9.1341   569
 9.1441   575
 9.1541   622
 9.1641   649
 9.1741   693
 9.1841   684
 9.1941   699
 9.2041   729
 9.2141   800
 9.2241   813
 9.2341   850
 9.2441   906
 9.2541  1000
 9.2641  1035
 9.2741  1026
 9.2841  1079
 9.2941  1097
 9.3041  1146
 9.3141  1193
 9.3241  1225
 9.3341  1304
 9.3441  1330
 9.3541  1324
 9.3641  1337
 9.3741  1418
 9.3841  1382
 9.3941  1424
 9.4041  1453
 9.4141  1468
 9.4241  1527
 9.4341  1540
 9.4441  1484
 9.4541  1559
 9.4641  1501
 9.4741  1563
 9.4841  1630
 9.4941  1628
 9.5041  1666
 9.5141  1675
 9.5241  1707
 9.5341  1842
 9.5441  1871
 9.5541  1941
 9.5641  2107
 9.5741  2111
 9.5841  2241
 9.5941  2468
 9.6041  2643
 9.6141  2753
 9.6241  2866
 9.6341  2944
 9.6441  2963
 9.6541  3006
 9.6641  3082
 9.6741  3092
 9.6841  3018
 9.6941  2983
 9.7041  2823
 9.7141  2676
 9.7241  2539
 9.7341  2387
 9.7441  2186
 9.7541  2009
 9.7641  1868
 9.7741  1744
 9.7841  1610
 9.7941  1482
 9.8041  1361
 9.8141  1353
 9.8241  1304
 9.8341  1231
 9.8441  1200
 9.8541  1241
 9.8641  1303
 9.8741  1253
 9.8841  1322
 9.8941  1359
 9.9041  1388
 9.9141  1360
 9.9241  1464
 9.9341  1442
 9.9441  1428
 9.9541  1457
 9.9641  1442
 9.9741  1380
 9.9841  1294
 9.9941  1222
10.0041  1215
10.0141  1144
10.0241  1014
10.0341   936
10.0441   814
10.0541   720
10.0641   677
10.0741   607
10.0841   571
10.0941   486
10.1041   434
10.1141   422
10.1241   399
10.1341   336
10.1441   300
10.1541   296
10.1641   293
10.1741   263
10.1841   249
10.1941   255
10.2041   266
10.2141   268
10.2241   217
10.2341   218
10.2441   208
10.2541   200
10.2641   201
10.2741   219
10.2841   220
10.2941   200
10.3041   198
10.3141   190
10.3241   192
10.3341   188
10.3441   184
10.3541   147
10.3641   168
10.3741   175
10.3841   164
10.3941   169
10.4041   188
10.4141   202
10.4241   200
10.4341   179
10.4441   183
10.4541   194
10.4641   189
10.4741   190
10.4841   201
10.4941   187
10.5041   197
10.5141   198
10.5241   203
10.5341   214
10.5441   203
10.5541   206
10.5641   219
10.5741   219
10.5841   207
10.5941   210
10.6041   220
10.6141   219
10.6241   214
10.6341   225
10.6441   209
10.6541   235
10.6641   207
10.6741   205
10.6841   208
10.6941   210
10.7041   216
10.7141   216
10.7241   239
10.7341   246
10.7441   245
10.7541   238
10.7641   247
10.7741   266
10.7841   259
10.7941   262
10.8041   284
10.8141   263
10.8241   279
10.8341   289
10.8441   299
10.8541   285
10.8641   326
10.8741   321
10.8841   283
10.8941   293
10.9041   324
10.9141   316
10.9241   314
10.9341   300
10.9441   335
10.9541   315
10.9641   323
10.9741   321
10.9841   293
10.9941   286
11.0041   299
11.0141   276
11.0241   275
11.0341   277
11.0441   279
11.0541   283
11.0641   269
11.0741   278
11.0841   272
11.0941   283
11.1041   271
11.1141   273
11.1241   267
11.1341   305
11.1441   311
11.1541   310
11.1641   332
11.1741   335
11.1841   365
11.1941   357
11.2041   358
11.2141   395
11.2241   406
11.2341   433
11.2441   403
11.2541   418
11.2641   440
11.2741   471
11.2841   458
11.2941   458
11.3041   445
11.3141   435
11.3241   403
11.3341   409
11.3441   390
11.3541   391
11.3641   359
11.3741   322
11.3841   314
11.3941   293
11.4041   283
11.4141   266
11.4241   260
11.4341   274
11.4441   245
11.4541   232
11.4641   224
11.4741   226
11.4841   206
11.4941   227
11.5041   252
11.5141   239
11.5241   237
11.5341   223
11.5441   209
11.5541   205
11.5641   236
11.5741   231
11.5841   227
11.5941   238
11.6041   222
11.6141   202
11.6241   223
11.6341   231
11.6441   259
11.6541   245
11.6641   221
11.6741   224
11.6841   233
11.6941   235
11.7041   213
11.7141   222
11.7241   202
11.7341   175
11.7441   186
11.7541   192
11.7641   183
11.7741   171
11.7841   176
11.7941   167
11.8041   170
11.8141   169
11.8241   186
11.8341   175
11.8441   168
11.8541   193
11.8641   166
11.8741   164
11.8841   166
11.8941   158
11.9041   159
11.9141   159
11.9241   171
11.9341   176
11.9441   181
11.9541   182
11.9641   176
11.9741   167
11.9841   170
11.9941   161
12.0041   166
12.0141   164
12.0241   177
12.0341   188
12.0441   198
12.0541   189
12.0641   179
12.0741   186
12.0841   183
12.0941   170
12.1041   155
12.1141   150
12.1241   160
12.1341   166
12.1441   157
12.1541   155
12.1641   158
12.1741   145
12.1841   162
12.1941   171
12.2041   166
12.2141   163
12.2241   173
12.2341   168
12.2441   153
12.2541   144
12.2641   158
12.2741   161
12.2841   160
12.2941   172
12.3041   178
12.3141   165
12.3241   169
12.3341   165
12.3441   148
12.3541   153
12.3641   169
12.3741   165
12.3841   171
12.3941   166
12.4041   158
12.4141   153
12.4241   177
12.4341   171
12.4441   174
12.4541   174
12.4641   160
12.4741   160
12.4841   174
12.4941   173
12.5041   177
12.5141   172
12.5241   188
12.5341   191
12.5441   173
12.5541   164
12.5641   167
12.5741   182
12.5841   187
12.5941   178
12.6041   193
12.6141   196
12.6241   195
12.6341   195
12.6441   176
12.6541   174
12.6641   179
12.6741   177
12.6841   182
12.6941   181
12.7041   181
12.7141   185
12.7241   181
12.7341   174
12.7441   174
12.7541   172
12.7641   170
12.7741   178
12.7841   183
12.7941   184
12.8041   184
12.8141   180
12.8241   175
12.8341   172
12.8441   176
12.8541   185
12.8641   189
12.8741   188
12.8841   187
12.8941   185
12.9041   185
12.9141   186
12.9241   190
12.9341   193
12.9441   195
12.9541   195
12.9641   190
12.9741   179
12.9841   171
12.9941   167
13.0041   164
13.0141   171
13.0241   185
13.0341   197
13.0441   196
13.0541   191
13.0641   208
13.0741   201
13.0841   195
13.0941   206
13.1041   187
13.1141   181
13.1241   203
13.1341   197
13.1441   185
13.1541   181
13.1641   190
13.1741   186
13.1841   182
13.1941   196
13.2041   214
13.2141   225
13.2241   223
13.2341   214
13.2441   228
13.2541   243
13.2641   257
13.2741   250
13.2841   252
13.2941   267
13.3041   250
13.3141   238
13.3241   247
13.3341   266
13.3441   272
13.3541   291
13.3641   279
13.3741   285
13.3841   300
13.3941   280
13.4041   270
13.4141   293
13.4241   299
13.4341   278
13.4441   264
13.4541   253
13.4641   256
13.4741   273
13.4841   270
13.4941   260
13.5041   252
13.5141   243
13.5241   243
13.5341   234
13.5441   227
13.5541   235
13.5641   239
13.5741   235
13.5841   227
13.5941   222
13.6041   219
13.6141   223
13.6241   234
13.6341   233
13.6441   223
13.6541   217
13.6641   213
13.6741   214
13.6841   206
13.6941   207
13.7041   210
13.7141   202
13.7241   203
13.7341   214
13.7441   223
13.7541   233
13.7641   216
13.7741   216
13.7841   235
13.7941   228
13.8041   230
13.8141   230
13.8241   231
13.8341   233
13.8441   226
13.8541   215
13.8641   223
13.8741   241
13.8841   246
13.8941   258
13.9041   268
13.9141   255
13.9241   234
13.9341   241
13.9441   267
13.9541   276
13.9641   282
13.9741   305
13.9841   337
13.9941   351
14.0041   360
14.0141   401
14.0241   419
14.0341   451
14.0441   501
14.0541   531
14.0641   549
14.0741   557
14.0841   564
14.0941   603
14.1041   655
14.1141   652
14.1241   654
14.1341   674
14.1441   667
14.1541   641
14.1641   666
14.1741   677
14.1841   647
14.1941   625
14.2041   598
14.2141   563
14.2241   531
14.2341   511
14.2441   495
14.2541   482
14.2641   446
14.2741   394
14.2841   355
14.2941   344
14.3041   334
14.3141   330
14.3241   301
14.3341   285
14.3441   304
14.3541   306
14.3641   278
14.3741   271
14.3841   280
14.3941   279
14.4041   292
14.4141   276
14.4241   263
14.4341   265
14.4441   262
14.4541   256
14.4641   265
14.4741   264
14.4841   261
14.4941   261
14.5041   248
14.5141   225
14.5241   236
14.5341   268
14.5441   260
14.5541   253
14.5641   255
14.5741   248
14.5841   258
14.5941   251
14.6041   251
14.6141   250
14.6241   244
14.6341   245
14.6441   264
14.6541   264
14.6641   268
14.6741   270
14.6841   263
14.6941   257
14.7041   253
14.7141   262
14.7241   297
14.7341   302
14.7441   285
14.7541   280
14.7641   288
14.7741   280
14.7841   269
14.7941   278
14.8041   278
14.8141   280
14.8241   288
14.8341   309
14.8441   314
14.8541   297
14.8641   304
14.8741   317
14.8841   312
14.8941   317
14.9041   314
14.9141   305
14.9241   320
14.9341   340
14.9441   355
14.9541   365
14.9641   350
14.9741   342
14.9841   317
14.9941   318
15.0041   331
15.0141   329
15.0241   331
15.0341   311
15.0441   315
15.0541   325
15.0641   324
15.0741   307
15.0841   306
15.0941   316
15.1041   305
15.1141   289
15.1241   299
15.1341   285
15.1441   273
15.1541   288
15.1641   275
15.1741   269
15.1841   296
15.1941   310
15.2041   296
15.2141   286
15.2241   283
15.2341   296
15.2441   303
15.2541   299
15.2641   294
15.2741   292
15.2841   291
15.2941   292
15.3041   295
15.3141   283
15.3241   298
15.3341   321
15.3441   307
15.3541   291
15.3641   296
15.3741   291
15.3841   282
15.3941   288
15.4041   313
15.4141   299
15.4241   301
15.4341   299
15.4441   293
15.4541   313
15.4641   341
15.4741   326
15.4841   345
15.4941   336
15.5041   350
15.5141   358
15.5241   330
15.5341   323
15.5441   349
15.5541   368
15.5641   396
15.5741   403
15.5841   385
15.5941   400
15.6041   420
15.6141   422
15.6241   446
15.6341   457
15.6441   483
15.6541   505
15.6641   535
15.6741   565
15.6841   541
15.6941   564
15.7041   595
15.7141   570
15.7241   580
15.7341   622
15.7441   643
15.7541   621
15.7641   653
15.7741   625
15.7841   624
15.7941   657
15.8041   619
15.8141   599
15.8241   571
15.8341   564
15.8441   594
15.8541   541
15.8641   517
15.8741   518
15.8841   491
15.8941   486
15.9041   483
15.9141   446
15.9241   428
15.9341   419
15.9441   401
15.9541   376
15.9641   409
15.9741   396
15.9841   392
15.9941   388
16.0041   375
16.0141   364
16.0241   371
16.0341   384
16.0441   377
16.0541   339
16.0641   334
16.0741   342
16.0841   350
16.0941   354
16.1041   341
16.1141   358
16.1241   358
16.1341   351
16.1441   372
16.1541   364
16.1641   360
16.1741   388
16.1841   364
16.1941   336
16.2041   342
16.2141   358
16.2241   344
16.2341   375
16.2441   382
16.2541   377
16.2641   372
16.2741   376
16.2841   376
16.2941   385
16.3041   353
16.3141   347
16.3241   356
16.3341   372
16.3441   366
16.3541   377
16.3641   375
16.3741   369
16.3841   356
16.3941   365
16.4041   362
16.4141   358
16.4241   378
16.4341   390
16.4441   385
16.4541   369
16.4641   363
16.4741   369
16.4841   394
16.4941   383
16.5041   360
16.5141   387
16.5241   367
16.5341   373
16.5441   351
16.5541   349
16.5641   390
16.5741   401
16.5841   409
16.5941   418
16.6041   393
16.6141   401
16.6241   379
16.6341   387
16.6441   414
16.6541   416
16.6641   403
16.6741   378
16.6841   385
16.6941   391
16.7041   395
16.7141   390
16.7241   400
16.7341   390
16.7441   379
16.7541   355
16.7641   384
16.7741   414
16.7841   409
16.7941   383
16.8041   366
16.8141   382
16.8241   389
16.8341   393
16.8441   397
16.8541   404
16.8641   425
16.8741   405
16.8841   404
16.8941   418
16.9041   407
16.9141   395
16.9241   415
16.9341   411
16.9441   403
16.9541   395
16.9641   403
16.9741   408
16.9841   426
16.9941   419
17.0041   412
17.0141   388
17.0241   423
17.0341   409
17.0441   417
17.0541   411
17.0641   415
17.0741   415
17.0841   383
17.0941   376
17.1041   418
17.1141   435
17.1241   414
17.1341   434
17.1441   441
17.1541   417
17.1641   433
17.1741   416
17.1841   425
17.1941   434
17.2041   403
17.2141   417
17.2241   410
17.2341   412
17.2441   435
17.2541   451
17.2641   454
17.2741   436
17.2841   405
17.2941   429
17.3041   423
17.3141   413
17.3241   405
17.3341   428
17.3441   418
17.3541   420
17.3641   413
17.3741   441
17.3841   472
17.3941   472
17.4041   476
17.4141   453
17.4241   473
17.4341   475
17.4441   449
17.4541   454
17.4641   459
17.4741   444
17.4841   459
17.4941   455
17.5041   429
17.5141   453
17.5241   461
17.5341   451
17.5441   475
17.5541   480
17.5641   460
17.5741   470
17.5841   482
17.5941   497
17.6041   510
17.6141   474
17.6241   481
17.6341   478
17.6441   481
17.6541   495
17.6641   526
17.6741   512
17.6841   473
17.6941   473
17.7041   512
17.7141   526
17.7241   489
17.7341   492
17.7441   492
17.7541   473
17.7641   493
17.7741   489
17.7841   466
17.7941   469
17.8041   461
17.8141   486
17.8241   497
17.8341   484
17.8441   463
17.8541   461
17.8641   477
17.8741   487
17.8841   507
17.8941   471
17.9041   447
17.9141   484
17.9241   475
17.9341   469
17.9441   486
17.9541   469
17.9641   467
17.9741   439
17.9841   504
17.9941   463
18.0041   458
18.0141   480
18.0241   488
18.0341   469
18.0441   500
18.0541   498
18.0641   507
18.0741   461
18.0841   462
18.0941   457
18.1041   442
18.1141   493
18.1241   521
18.1341   505
18.1441   510
18.1541   511
18.1641   494
18.1741   488
18.1841   504
18.1941   480
18.2041   476
18.2141   489
18.2241   477
18.2341   497
18.2441   491
18.2541   513
18.2641   493
18.2741   498
18.2841   498
18.2941   464
18.3041   475
18.3141   505
18.3241   504
18.3341   481
18.3441   455
18.3541   502
18.3641   457
18.3741   502
18.3841   495
18.3941   500
18.4041   485
18.4141   501
18.4241   494
18.4341   495
18.4441   498
18.4541   491
18.4641   481
18.4741   553
18.4841   517
18.4941   501
18.5041   514
18.5141   526
18.5241   494
18.5341   537
18.5441   531
18.5541   511
18.5641   508
18.5741   512
18.5841   527
18.5941   514
18.6041   491
18.6141   492
18.6241   495
18.6341   517
18.6441   547
18.6541   519
18.6641   540
18.6741   480
18.6841   517
18.6941   543
18.7041   521
18.7141   527
18.7241   529
18.7341   528
18.7441   521
18.7541   493
18.7641   506
18.7741   500
18.7841   510
18.7941   511
18.8041   499
18.8141   509
18.8241   564
18.8341   549
18.8441   524
18.8541   574
18.8641   544
18.8741   530
18.8841   497
18.8941   550
18.9041   554
18.9141   555
18.9241   557
18.9341   532
18.9441   517
18.9541   554
18.9641   540
18.9741   519
18.9841   536
18.9941   507
19.0041   537
19.0141   537
19.0241   558
19.0341   547
19.0441   551
19.0541   602
19.0641   546
19.0741   535
19.0841   517
19.0941   536
19.1041   560
19.1141   547
19.1241   526
19.1341   496
19.1441   515
19.1541   531
19.1641   541
19.1741   531
19.1841   526
19.1941   530
19.2041   553
19.2141   545
19.2241   510
19.2341   570
19.2441   570
19.2541   551
19.2641   531
19.2741   513
19.2841   538
19.2941   503
19.3041   526
19.3141   574
19.3241   530
19.3341   527
19.3441   535
19.3541   572
19.3641   552
19.3741   542
19.3841   533
19.3941   508
19.4041   553
19.4141   565
19.4241   553
19.4341   555
19.4441   520
19.4541   529
19.4641   570
19.4741   532
19.4841   551
19.4941   577
19.5041   549
19.5141   543
19.5241   564
19.5341   559
19.5441   582
19.5541   553
19.5641   525
19.5741   586
19.5841   569
19.5941   583
19.6041   579
19.6141   593
19.6241   571
19.6341   565
19.6441   551
19.6541   598
19.6641   513
19.6741   573
19.6841   563
19.6941   526
19.7041   554
19.7141   584
19.7241   571
19.7341   533
19.7441   528
19.7541   543
19.7641   535
19.7741   556
19.7841   543
19.7941   568
19.8041   546
19.8141   530
19.8241   512
19.8341   539
19.8441   548
19.8541   545
19.8641   574
19.8741   605
19.8841   565
19.8941   543
19.9041   577
19.9141   545
19.9241   565
19.9341   599
19.9441   547
19.9541   574
19.9641   573
19.9741   565
19.9841   565
19.9941   544
20.0041   562
20.0141   542
20.0241   552
20.0341   581
20.0441   559
20.0541   586
20.0641   585
20.0741   548
20.0841   532
20.0941   567
20.1041   601
20.1141   603
20.1241   547
20.1341   571
20.1441   562
20.1541   568
20.1641   554
20.1741   619
20.1841   579
20.1941   600
20.2041   543
20.2141   567
20.2241   583
20.2341   561
20.2441   575
20.2541   574
20.2641   591
20.2741   568
20.2841   553
20.2941   550
20.3041   562
20.3141   591
20.3241   584
20.3341   556
20.3441   581
20.3541   566
20.3641   609
20.3741   628
20.3841   557
20.3941   571
20.4041   598
20.4141   555
20.4241   574
20.4341   616
20.4441   592
20.4541   569
20.4641   595
20.4741   579
20.4841   583
20.4941   568
20.5041   571
20.5141   572
20.5241   569
20.5341   575
20.5441   594
20.5541   595
20.5641   569
20.5741   611
20.5841   596
20.5941   585
20.6041   574
20.6141   576
20.6241   545
20.6341   566
20.6441   610
20.6541   585
20.6641   555
20.6741   569
20.6841   613
20.6941   586
20.7041   583
20.7141   583
20.7241   582
20.7341   551
20.7441   612
20.7541   562
20.7641   571
20.7741   611
20.7841   589
20.7941   568
20.8041   613
20.8141   554
20.8241   594
20.8341   617
20.8441   628
20.8541   631
20.8641   671
20.8741   656
20.8841   632
20.8941   684
20.9041   726
20.9141   681
20.9241   677
20.9341   669
20.9441   712
20.9541   704
20.9641   741
20.9741   728
20.9841   730
20.9941   784
21.0041   836
21.0141   814
21.0241   758
21.0341   873
21.0441   831
21.0541   798
21.0641   868
21.0741   884
21.0841   831
21.0941   889
21.1041   878
21.1141   902
21.1241   909
21.1341   939
21.1441   827
21.1541   864
21.1641   861
21.1741   910
21.1841   889
21.1941   862
21.2041   863
21.2141   839
21.2241   817
21.2341   748
21.2441   757
21.2541   769
21.2641   756
21.2741   778
21.2841   797
21.2941   713
21.3041   662
21.3141   670
21.3241   673
21.3341   632
21.3441   643
21.3541   650
21.3641   649
21.3741   620
21.3841   581
21.3941   612
21.4041   615
21.4141   619
21.4241   648
21.4341   583
21.4441   602
21.4541   618
21.4641   581
21.4741   653
21.4841   608
21.4941   640
21.5041   557
21.5141   609
21.5241   579
21.5341   576
21.5441   583
21.5541   588
21.5641   624
21.5741   592
21.5841   601
21.5941   587
21.6041   558
21.6141   588
21.6241   569
21.6341   604
21.6441   594
21.6541   603
21.6641   541
21.6741   571
21.6841   578
21.6941   589
21.7041   611
21.7141   589
21.7241   625
21.7341   562
21.7441   579
21.7541   607
21.7641   554
21.7741   591
21.7841   538
21.7941   620
21.8041   589
21.8141   599
21.8241   589
21.8341   644
21.8441   584
21.8541   559
21.8641   559
21.8741   552
21.8841   591
21.8941   572
21.9041   589
21.9141   612
21.9241   582
21.9341   595
21.9441   578
21.9541   583
21.9641   564
21.9741   587
21.9841   570
21.9941   555
22.0041   590
22.0141   590
22.0241   626
22.0341   579
22.0441   570
22.0541   585
22.0641   569
22.0741   592
22.0841   606
22.0941   611
22.1041   589
22.1141   537
22.1241   589
22.1341   574
22.1441   579
22.1541   586
22.1641   613
22.1741   592
22.1841   579
22.1941   560
22.2041   588
22.2141   584
22.2241   554
22.2341   561
22.2441   591
22.2541   537
22.2641   595
22.2741   580
22.2841   567
22.2941   602
22.3041   588
22.3141   582
22.3241   581
22.3341   562
22.3441   627
22.3541   583
22.3641   587
22.3741   612
22.3841   602
22.3941   594
22.4041   573
22.4141   602
22.4241   628
22.4341   594
22.4441   595
22.4541   599
22.4641   573
22.4741   606
22.4841   635
22.4941   595
22.5041   608
22.5141   551
22.5241   614
22.5341   602
22.5441   606
22.5541   577
22.5641   561
22.5741   536
22.5841   567
22.5941   610
22.6041   578
22.6141   548
22.6241   585
22.6341   598
22.6441   575
22.6541   577
22.6641   617
22.6741   595
22.6841   529
22.6941   619
22.7041   601
22.7141   591
22.7241   589
22.7341   576
22.7441   574
22.7541   580
22.7641   603
22.7741   573
22.7841   622
22.7941   597
22.8041   611
22.8141   560
22.8241   566
22.8341   589
22.8441   583
22.8541   574
22.8641   549
22.8741   565
22.8841   596
22.8941   561
22.9041   607
22.9141   587
22.9241   577
22.9341   615
22.9441   610
22.9541   547
22.9641   590
22.9741   610
22.9841   551
22.9941   602
23.0041   591
23.0141   543
23.0241   606
23.0341   565
23.0441   558
23.0541   559
23.0641   562
23.0741   609
23.0841   571
23.0941   575
23.1041   562
23.1141   579
23.1241   550
23.1341   610
23.1441   576
23.1541   521
23.1641   547
23.1741   589
23.1841   577
23.1941   582
23.2041   569
23.2141   578
23.2241   576
23.2341   572
23.2441   551
23.2541   576
23.2641   560
23.2741   576
23.2841   548
23.2941   523
23.3041   540
23.3141   620
23.3241   554
23.3341   568
23.3441   570
23.3541   585
23.3641   542
23.3741   592
23.3841   542
23.3941   536
23.4041   585
23.4141   586
23.4241   589
23.4341   537
23.4441   569
23.4541   575
23.4641   527
23.4741   546
23.4841   594
23.4941   569
23.5041   621
23.5141   592
23.5241   595
23.5341   521
23.5441   569
23.5541   596
23.5641   558
23.5741   545
23.5841   576
23.5941   569
23.6041   577
23.6141   566
23.6241   549
23.6341   559
23.6441   601
23.6541   551
23.6641   596
23.6741   614
23.6841   593
23.6941   624
23.7041   593
23.7141   649
23.7241   608
23.7341   591
23.7441   613
23.7541   615
23.7641   641
23.7741   584
23.7841   603
23.7941   590
23.8041   606
23.8141   611
23.8241   625
23.8341   634
23.8441   603
23.8541   611
23.8641   590
23.8741   590
23.8841   584
23.8941   564
23.9041   598
23.9141   570
23.9241   525
23.9341   548
23.9441   555
23.9541   569
23.9641   544
23.9741   548
23.9841   554
23.9941   565
24.0041   549
24.0141   541
24.0241   566
24.0341   566
24.0441   554
24.0541   547
24.0641   540
24.0741   566
24.0841   547
24.0941   517
24.1041   552
24.1141   540
24.1241   559
24.1341   509
24.1441   523
24.1541   579
24.1641   521
24.1741   533
24.1841   560
24.1941   535
24.2041   552
24.2141   516
24.2241   518
24.2341   545
24.2441   519
24.2541   508
24.2641   561
24.2741   608
24.2841   596
24.2941   530
24.3041   573
24.3141   543
24.3241   551
24.3341   565
24.3441   583
24.3541   530
24.3641   518
24.3741   483
24.3841   539
24.3941   533
24.4041   541
24.4141   556
24.4241   519
24.4341   511
24.4441   530
24.4541   528
24.4641   508
24.4741   514
24.4841   557
24.4941   540
24.5041   533
24.5141   570
24.5241   560
24.5341   523
24.5441   520
24.5541   562
24.5641   520
24.5741   530
24.5841   539
24.5941   555
24.6041   534
24.6141   538
24.6241   509
24.6341   542
24.6441   530
24.6541   535
24.6641   552
24.6741   517
24.6841   495
24.6941   526
24.7041   529
24.7141   539
24.7241   547
24.7341   521
24.7441   537
24.7541   544
24.7641   537
24.7741   547
24.7841   521
24.7941   552
24.8041   467
24.8141   498
24.8241   543
24.8341   510
24.8441   535
24.8541   515
24.8641   563
24.8741   576
24.8841   559
24.8941   508
24.9041   509
24.9141   490
24.9241   514
24.9341   516
24.9441   474
24.9541   534
24.9641   542
24.9741   540
24.9841   556
24.9941   536
25.0041   511
25.0141   556
25.0241   543
25.0341   522
25.0441   556
25.0541   503
25.0641   527
25.0741   537
25.0841   546
25.0941   524
25.1041   528
25.1141   544
25.1241   527
25.1341   492
25.1441   507
25.1541   480
25.1641   510
25.1741   477
25.1841   529
25.1941   507
25.2041   529
25.2141   538
25.2241   531
25.2341   519
25.2441   540
25.2541   530
25.2641   534
25.2741   509
25.2841   551
25.2941   574
25.3041   533
25.3141   516
25.3241   555
25.3341   548
25.3441   544
25.3541   546
25.3641   489
25.3741   458
25.3841   516
25.3941   482
25.4041   521
25.4141   467
25.4241   494
25.4341   521
25.4441   512
25.4541   509
25.4641   494
25.4741   510
25.4841   516
25.4941   464
25.5041   518
25.5141   505
25.5241   487
25.5341   548
25.5441   526
25.5541   503
25.5641   534
25.5741   488
25.5841   508
25.5941   484
25.6041   465
25.6141   498
25.6241   521
25.6341   462
25.6441   455
25.6541   500
25.6641   490
25.6741   474
25.6841   538
25.6941   501
25.7041   525
25.7141   474
25.7241   483
25.7341   515
25.7441   536
25.7541   475
25.7641   500
25.7741   478
25.7841   511
25.7941   500
25.8041   475
25.8141   496
25.8241   492
25.8341   493
25.8441   496
25.8541   524
25.8641   469
25.8741   497
25.8841   496
25.8941   495
25.9041   497
25.9141   489
25.9241   456
25.9341   451
25.9441   491
25.9541   471
25.9641   501
25.9741   486
25.9841   498
25.9941   453
26.0041   484
26.0141   467
26.0241   485
26.0341   499
26.0441   461
26.0541   463
26.0641   482
26.0741   453
26.0841   471
26.0941   517
26.1041   471
26.1141   438
26.1241   471
26.1341   451
26.1441   453
26.1541   494
26.1641   492
26.1741   489
26.1841   466
26.1941   504
26.2041   466
26.2141   446
26.2241   468
26.2341   483
26.2441   463
26.2541   487
26.2641   476
26.2741   450
26.2841   469
26.2941   466
26.3041   463
26.3141   477
26.3241   440
26.3341   477
26.3441   457
26.3541   438
26.3641   465
26.3741   425
26.3841   406
26.3941   461
26.4041   421
26.4141   440
26.4241   458
26.4341   448
26.4441   447
26.4541   425
26.4641   448
26.4741   470
26.4841   454
26.4941   474
26.5041   496
26.5141   441
26.5241   462
26.5341   469
26.5441   424
26.5541   447
26.5641   427
26.5741   450
26.5841   446
26.5941   418
26.6041   433
26.6141   431
26.6241   440
26.6341   447
26.6441   479
26.6541   428
26.6641   416
26.6741   463
26.6841   447
26.6941   447
26.7041   484
26.7141   410
26.7241   436
26.7341   453
26.7441   469
26.7541   407
26.7641   446
26.7741   462
26.7841   442
26.7941   436
26.8041   461
26.8141   456
26.8241   459
26.8341   425
26.8441   435
26.8541   448
26.8641   434
26.8741   447
26.8841   403
26.8941   445
26.9041   431
26.9141   439
26.9241   431
26.9341   440
26.9441   414
26.9541   401
26.9641   462
26.9741   445
26.9841   402
26.9941   433
27.0041   428
27.0141   422
27.0241   396
27.0341   417
27.0441   429
27.0541   454
27.0641   423
27.0741   401
27.0841   432
27.0941   424
27.1041   430
27.1141   423
27.1241   425
27.1341   446
27.1441   415
27.1541   419
27.1641   455
27.1741   411
27.1841   457
27.1941   424
27.2041   427
27.2141   418
27.2241   442
27.2341   480
27.2441   420
27.2541   441
27.2641   459
27.2741   424
27.2841   385
27.2941   426
27.3041   423
27.3141   424
27.3241   402
27.3341   423
27.3441   420
27.3541   403
27.3641   446
27.3741   438
27.3841   443
27.3941   441
27.4041   439
27.4141   439
27.4241   419
27.4341   423
27.4441   390
27.4541   419
27.4641   419
27.4741   410
27.4841   419
27.4941   423
27.5041   436
27.5141   436
27.5241   377
27.5341   374
27.5441   421
27.5541   409
27.5641   433
27.5741   398
27.5841   367
27.5941   448
27.6041   401
27.6141   414
27.6241   426
27.6341   422
27.6441   396
27.6541   397
27.6641   413
27.6741   398
27.6841   397
27.6941   397
27.7041   387
27.7141   404
27.7241   373
27.7341   390
27.7441   405
27.7541   445
27.7641   399
27.7741   373
27.7841   410
27.7941   364
27.8041   422
27.8141   408
27.8241   386
27.8341   400
27.8441   388
27.8541   384
27.8641   369
27.8741   388
27.8841   383
27.8941   398
27.9041   391
27.9141   404
27.9241   416
27.9341   422
27.9441   359
27.9541   386
27.9641   412
27.9741   394
27.9841   393
27.9941   379
28.0041   353
28.0141   363
28.0241   358
28.0341   393
28.0441   393
28.0541   370
28.0641   394
28.0741   343
28.0841   377
28.0941   370
28.1041   354
28.1141   396
28.1241   416
28.1341   402
28.1441   363
28.1541   387
28.1641   372
28.1741   399
28.1841   386
28.1941   358
28.2041   361
28.2141   382
28.2241   368
28.2341   311
28.2441   370
28.2541   402
28.2641   374
28.2741   370
28.2841   383
28.2941   374
28.3041   357
28.3141   376
28.3241   347
28.3341   339
28.3441   361
28.3541   384
28.3641   366
28.3741   352
28.3841   364
28.3941   350
28.4041   385
28.4141   339
28.4241   352
28.4341   344
28.4441   380
28.4541   396
28.4641   361
28.4741   377
28.4841   393
28.4941   346
28.5041   383
28.5141   360
28.5241   374
28.5341   373
28.5441   357
28.5541   344
28.5641   378
28.5741   385
28.5841   345
28.5941   363
28.6041   381
28.6141   393
28.6241   343
28.6341   349
28.6441   386
28.6541   351
28.6641   365
28.6741   387
28.6841   369
28.6941   328
28.7041   346
28.7141   359
28.7241   343
28.7341   373
28.7441   375
28.7541   333
28.7641   353
28.7741   340
28.7841   391
28.7941   344
28.8041   335
28.8141   335
28.8241   332
28.8341   365
28.8441   360
28.8541   358
28.8641   353
28.8741   370
28.8841   365
28.8941   319
28.9041   331
28.9141   345
28.9241   346
28.9341   321
28.9441   339
28.9541   343
28.9641   361
28.9741   352
28.9841   338
28.9941   342
29.0041   345
29.0141   325
29.0241   326
29.0341   314
29.0441   315
29.0541   346
29.0641   333
29.0741   348
29.0841   355
29.0941   339
29.1041   327
29.1141   321
29.1241   320
29.1341   332
29.1441   329
29.1541   312
29.1641   333
29.1741   341
29.1841   349
29.1941   313
29.2041   327
29.2141   342
29.2241   314
29.2341   320
29.2441   335
29.2541   327
29.2641   332
29.2741   332
29.2841   315
29.2941   328
29.3041   312
29.3141   324
29.3241   340
29.3341   321
29.3441   309
29.3541   328
29.3641   325
29.3741   337
29.3841   292
29.3941   288
29.4041   306
29.4141   315
29.4241   333
29.4341   340
29.4441   316
29.4541   341
29.4641   304
29.4741   314
29.4841   320
29.4941   315
29.5041   293
29.5141   306
29.5241   336
29.5341   349
29.5441   314
29.5541   327
29.5641   318
29.5741   307
29.5841   287
29.5941   268
29.6041   305
29.6141   313
29.6241   305
29.6341   342
29.6441   308
29.6541   306
29.6641   292
29.6741   319
29.6841   290
29.6941   301
29.7041   292
29.7141   320
29.7241   303
29.7341   350
29.7441   291
29.7541   302
29.7641   318
29.7741   296
29.7841   311
29.7941   295
29.8041   267
29.8141   319
29.8241   318
29.8341   289
29.8441   298
29.8541   306
29.8641   299
29.8741   313
29.8841   299
29.8941   321
29.9041   322
29.9141   300
29.9241   308
29.9341   300
29.9441   301
29.9541   311
29.9641   288
29.9741   289
29.9841   294
29.9941   289
30.0041   280
30.0141   302
30.0241   294
30.0341   291
30.0441   304
30.0541   333
30.0641   305
30.0741   288
30.0841   271
30.0941   298
30.1041   263
30.1141   284
30.1241   296
30.1341   268
30.1441   274
30.1541   274
30.1641   317
30.1741   315
30.1841   285
30.1941   288
30.2041   280
30.2141   287
30.2241   294
30.2341   269
30.2441   274
30.2541   261
30.2641   304
30.2741   306
30.2841   286
30.2941   281
30.3041   289
30.3141   268
30.3241   280
30.3341   282
30.3441   276
30.3541   317
30.3641   277
30.3741   267
30.3841   299
30.3941   281
30.4041   279
30.4141   269
30.4241   275
30.4341   275
30.4441   274
30.4541   286
30.4641   266
30.4741   270
30.4841   271
30.4941   275
30.5041   249
30.5141   287
30.5241   271
30.5341   285
30.5441   286
30.5541   256
30.5641   269
30.5741   270
30.5841   274
30.5941   284
30.6041   266
30.6141   264
30.6241   290
30.6341   251
30.6441   255
30.6541   299
30.6641   261
30.6741   268
30.6841   276
30.6941   291
30.7041   240
30.7141   283
30.7241   277
30.7341   288
30.7441   307
30.7541   291
30.7641   257
30.7741   258
30.7841   271
30.7941   289
30.8041   292
30.8141   293
30.8241   287
30.8341   268
30.8441   246
30.8541   267
30.8641   254
30.8741   234
30.8841   269
30.8941   266
30.9041   272
30.9141   248
30.9241   244
30.9341   263
30.9441   237
30.9541   280
30.9641   274
30.9741   266
30.9841   269
30.9941   248
31.0041   265
31.0141   274
31.0241   272
31.0341   264
31.0441   258
31.0541   283
31.0641   245
31.0741   265
31.0841   246
31.0941   241
31.1041   236
31.1141   231
31.1241   256
31.1341   258
31.1441   260
31.1541   271
31.1641   225
31.1741   231
31.1841   245
31.1941   253
31.2041   292
31.2141   272
31.2241   229
31.2341   255
31.2441   232
31.2541   242
31.2641   251
31.2741   251
31.2841   256
31.2941   276
31.3041   280
31.3141   240
31.3241   258
31.3341   250
31.3441   234
31.3541   239
31.3641   249
31.3741   239
31.3841   246
31.3941   251
31.4041   245
31.4141   225
31.4241   242
31.4341   235
31.4441   230
31.4541   250
31.4641   203
31.4741   229
31.4841   231
31.4941   253
31.5041   243
31.5141   250
31.5241   239
31.5341   237
31.5441   237
31.5541   223
31.5641   227
31.5741   252
31.5841   234
31.5941   233
31.6041   213
31.6141   244
31.6241   192
31.6341   238
31.6441   216
31.6541   218
31.6641   226
31.6741   236
31.6841   236
31.6941   229
31.7041   225
31.7141   226
31.7241   238
31.7341   232
31.7441   257
31.7541   244
31.7641   228
31.7741   233
31.7841   224
31.7941   231
31.8041   203
31.8141   230
31.8241   234
31.8341   233
31.8441   215
31.8541   241
31.8641   243
31.8741   226
31.8841   218
31.8941   197
31.9041   235
31.9141   184
31.9241   219
31.9341   231
31.9441   235
31.9541   236
31.9641   212
31.9741   231
31.9841   207
31.9941   237
32.0041   201
32.0141   230
32.0241   235
32.0341   210
32.0441   237
32.0541   220
32.0641   221
32.0741   236
32.0841   228
32.0941   222
32.1041   238
32.1141   230
32.1241   223
32.1341   251
32.1441   232
32.1541   224
32.1641   252
32.1741   228
32.1841   221
32.1941   224
32.2041   207
32.2141   215
32.2241   201
32.2341   204
32.2441   235
32.2541   214
32.2641   204
32.2741   195
32.2841   231
32.2941   219
32.3041   215
32.3141   211
32.3241   199
32.3341   197
32.3441   215
32.3541   225
32.3641   182
32.3741   219
32.3841   188
32.3941   215
32.4041   215
32.4141   208
32.4241   208
32.4341   220
32.4441   194
32.4541   220
32.4641   208
32.4741   188
32.4841   182
32.4941   185
32.5041   197
32.5141   206
32.5241   220
32.5341   193
32.5441   169
32.5541   197
32.5641   195
32.5741   199
32.5841   195
32.5941   199
32.6041   213
32.6141   184
32.6241   182
32.6341   198
32.6441   194
32.6541   197
32.6641   193
32.6741   197
32.6841   181
32.6941   191
32.7041   192
32.7141   202
32.7241   188
32.7341   213
32.7441   195
32.7541   181
32.7641   183
32.7741   181
32.7841   167
32.7941   197
32.8041   179
32.8141   196
32.8241   180
32.8341   199
32.8441   204
32.8541   187
32.8641   178
32.8741   176
32.8841   191
32.8941   224
32.9041   176
32.9141   192
32.9241   184
32.9341   182
32.9441   188
32.9541   192
32.9641   161
32.9741   171
32.9841   184
32.9941   209
33.0041   178
33.0141   188
33.0241   190
33.0341   174
33.0441   207
33.0541   193
33.0641   195
33.0741   184
33.0841   187
33.0941   198
33.1041   182
33.1141   197
33.1241   168
33.1341   160
33.1441   164
33.1541   174
33.1641   187
33.1741   179
33.1841   178
33.1941   175
33.2041   164
33.2141   167
33.2241   170
33.2341   167
33.2441   174
33.2541   179
33.2641   161
33.2741   174
33.2841   185
33.2941   175
33.3041   185
33.3141   174
33.3241   172
33.3341   185
33.3441   154
33.3541   164
33.3641   181
33.3741   184
33.3841   172
33.3941   183
33.4041   181
33.4141   165
33.4241   180
33.4341   182
33.4441   174
33.4541   169
33.4641   158
33.4741   173
33.4841   183
33.4941   179
33.5041   175
33.5141   167
33.5241   150
33.5341   168
33.5441   158
33.5541   149
33.5641   159
33.5741   169
33.5841   156
33.5941   167
33.6041   166
33.6141   148
33.6241   163
33.6341   174
33.6441   176
33.6541   163
33.6641   169
33.6741   174
33.6841   168
33.6941   154
33.7041   183
33.7141   155
33.7241   158
33.7341   182
33.7441   175
33.7541   175
33.7641   176
33.7741   199
33.7841   131
33.7941   164
33.8041   163
33.8141   148
33.8241   133
33.8341   164
33.8441   167
33.8541   163
33.8641   152
33.8741   134
33.8841   158
33.8941   150
33.9041   138
33.9141   143
33.9241   166
33.9341   161
33.9441   144
33.9541   136
33.9641   161
33.9741   145
33.9841   151
33.9941   139
34.0041   167
34.0141   154
34.0241   165
34.0341   161
34.0441   151
34.0541   151
34.0641   138
34.0741   143
34.0841   170
34.0941   152
34.1041   134
34.1141   145
34.1241   142
34.1341   145
34.1441   159
34.1541   157
34.1641   156
34.1741   124
34.1841   134
34.1941   160
34.2041   150
34.2141   146
34.2241   144
34.2341   144
34.2441   150
34.2541   158
34.2641   130
34.2741   119
34.2841   136
34.2941   154
34.3041   137
34.3141   160
34.3241   148
34.3341   150
34.3441   126
34.3541   142
34.3641   143
34.3741   145
34.3841   155
34.3941   158
34.4041   134
34.4141   148
34.4241   161
34.4341   148
34.4441   149
34.4541   160
34.4641   137
34.4741   135
34.4841   117
34.4941   132
34.5041   145
34.5141   136
34.5241   160
34.5341   141
34.5441   140
34.5541   140
34.5641   113
34.5741   126
34.5841   129
34.5941   124
34.6041   141
34.6141   128
34.6241   131
34.6341   150
34.6441   144
34.6541   129
34.6641   136
34.6741   139
34.6841   151
34.6941   123
34.7041   131
34.7141   123
34.7241   166
34.7341   152
34.7441   144
34.7541   140
34.7641   134
34.7741   128
34.7841   154
34.7941   117
34.8041   135
34.8141   109
34.8241   137
34.8341   137
34.8441   134
34.8541   149
34.8641   117
34.8741   125
34.8841   134
34.8941   131
34.9041   141
34.9141   122
34.9241   125
34.9341   118
34.9441   142
34.9541   148
34.9641   139
34.9741   121
34.9841   133
34.9941   135
35.0041   126
35.0141   122
35.0241    97
35.0341   134
35.0441   124
35.0541   152
35.0641   136
35.0741   125
35.0841   117
35.0941   121
35.1041   129
35.1141   120
35.1241   124
35.1341   139
35.1441   129
35.1541   115
35.1641   129
35.1741   129
35.1841   117
35.1941   115
35.2041   144
35.2141   124
35.2241   113
35.2341   126
35.2441   140
35.2541   124
35.2641   124
35.2741   117
35.2841   123
35.2941   114
35.3041   100
35.3141    99
35.3241   117
35.3341   124
35.3441   127
35.3541    92
35.3641   101
35.3741   100
35.3841   125
35.3941   112
35.4041   114
35.4141   114
35.4241   115
35.4341   117
35.4441   122
35.4541   134
35.4641   103
35.4741   115
35.4841   132
35.4941   122
35.5041   124
35.5141   125
35.5241   117
35.5341   124
35.5441   119
35.5541   129
35.5641   119
35.5741    99
35.5841    97
35.5941    97
35.6041   129
35.6141   100
35.6241    98
35.6341   103
35.6441   102
35.6541   108
35.6641   112
35.6741    99
35.6841   121
35.6941   114
35.7041   103
35.7141   108
35.7241   116
35.7341   106
35.7441   117
35.7541   100
35.7641   110
35.7741    96
35.7841   109
35.7941   110
35.8041    92
35.8141   111
35.8241   111
35.8341   110
35.8441   109
35.8541   121
35.8641   102
35.8741   102
35.8841   111
35.8941   109
35.9041   104
35.9141   128
35.9241   105
35.9341    97
35.9441   105
35.9541    97
35.9641    99
35.9741   115
35.9841    91
35.9941   101
36.0041   107
36.0141   107
36.0241   107
36.0341   102
36.0441   101
36.0541   105
36.0641    96
36.0741   111
36.0841   114
36.0941    95
36.1041    94
36.1141   102
36.1241    93
36.1341   120
36.1441   110
36.1541   110
36.1641   103
36.1741    90
36.1841    97
36.1941    95
36.2041    99
36.2141    95
36.2241    93
36.2341    83
36.2441   108
36.2541   116
36.2641    85
36.2741   107
36.2841   106
36.2941    92
36.3041    96
36.3141    85
36.3241    90
36.3341   102
36.3441   107
36.3541    99
36.3641    89
36.3741    97
36.3841    99
36.3941   114
36.4041    90
36.4141    99
36.4241    99
36.4341   107
36.4441    77
36.4541    84
36.4641    90
36.4741   112
36.4841   105
36.4941    82
36.5041    97
36.5141    93
36.5241    85
36.5341    92
36.5441    97
36.5541   100
36.5641    98
36.5741    95
36.5841   106
36.5941    88
36.6041    78
36.6141   113
36.6241    89
36.6341    82
36.6441    79
36.6541    78
36.6641    87
36.6741    91
36.6841    81
36.6941    89
36.7041    77
36.7141    88
36.7241    90
36.7341    79
36.7441    90
36.7541    96
36.7641    84
36.7741    90
36.7841    85
36.7941   101
36.8041    88
36.8141    93
36.8241    94
36.8341    82
36.8441    88
36.8541    82
36.8641    69
36.8741    81
36.8841    87
36.8941    94
36.9041    79
36.9141    80
36.9241    86
36.9341    74
36.9441    76
36.9541    88
36.9641    94
36.9741    85
36.9841    77
36.9941    78
37.0041    78
37.0141    94
37.0241    97
37.0341    75
37.0441    79
37.0541    91
37.0641    75
37.0741    93
37.0841    88
37.0941    60
37.1041    85
37.1141    70
37.1241    74
37.1341    87
37.1441    67
37.1541    82
37.1641    81
37.1741    84
37.1841    68
37.1941    71
37.2041    59
37.2141    60
37.2241    73
37.2341    71
37.2441    76
37.2541    84
37.2641    76
37.2741    84
37.2841    74
37.2941    64
37.3041    69
37.3141    85
37.3241    80
37.3341    66
37.3441    77
37.3541    69
37.3641    57
37.3741    77
37.3841    92
37.3941    81
37.4041    74
37.4141    75
37.4241    95
37.4341    73
37.4441    70
37.4541    75
37.4641    69
37.4741    75
37.4841    75
37.4941    75
37.5041    63
37.5141    64
37.5241    76
37.5341    58
37.5441    80
37.5541    83
37.5641    75
37.5741    74
37.5841    68
37.5941    63
37.6041    61
37.6141    81
37.6241    85
37.6341    76
37.6441    64
37.6541    69
37.6641    76
37.6741    66
37.6841    74
37.6941    71
37.7041    65
37.7141    56
37.7241    61
37.7341    80
37.7441    61
37.7541    55
37.7641    75
37.7741    69
37.7841    63
37.7941    52
37.8041    51
37.8141    51
37.8241    54
37.8341    59
37.8441    76
37.8541    80
37.8641    64
37.8741    76
37.8841    76
37.8941    72
37.9041    68
37.9141    66
37.9241    64
37.9341    70
37.9441    73
37.9541    61
37.9641    51
37.9741    68
37.9841    76
37.9941    64
38.0041    68
38.0141    53
38.0241    60
38.0341    63
38.0441    65
38.0541    62
38.0641    76
38.0741    60
38.0841    68
38.0941    70
38.1041    58
38.1141    73
38.1241    65
38.1341    59
38.1441    54
38.1541    62
38.1641    69
38.1741    60
38.1841    65
38.1941    58
38.2041    57
38.2141    68
38.2241    60
38.2341    61
38.2441    60
38.2541    63
38.2641    53
38.2741    54
38.2841    47
38.2941    50
38.3041    48
38.3141    56
38.3241    61
38.3341    61
38.3441    60
38.3541    70
38.3641    55
38.3741    65
38.3841    57
38.3941    38
38.4041    40
38.4141    73
38.4241    53
38.4341    62
38.4441    58
38.4541    57
38.4641    41
38.4741    46
38.4841    53
38.4941    49
38.5041    52
38.5141    51
38.5241    52
38.5341    51
38.5441    42
38.5541    59
38.5641    65
38.5741    51
38.5841    63
38.5941    71
38.6041    48
38.6141    52
38.6241    56
38.6341    42
38.6441    55
38.6541    52
38.6641    51
38.6741    48
38.6841    43
38.6941    58
38.7041    46
38.7141    40
38.7241    47
38.7341    58
38.7441    51
38.7541    56
38.7641    53
38.7741    54
38.7841    58
38.7941    54
38.8041    60
38.8141    48
38.8241    48
38.8341    45
38.8441    51
38.8541    67
38.8641    49
38.8741    54
38.8841    36
38.8941    43
38.9041    41
38.9141    57
38.9241    56
38.9341    49
38.9441    37
38.9541    56
38.9641    41
38.9741    51
38.9841    49
38.9941    51
39.0041    43
39.0141    51
39.0241    45
39.0341    51
39.0441    53
39.0541    41
39.0641    47
39.0741    37
39.0841    45
39.0941    43
39.1041    49
39.1141    40
39.1241    46
39.1341    41
39.1441    51
39.1541    47
39.1641    36
39.1741    41
39.1841    39
39.1941    46
39.2041    44
39.2141    37
39.2241    43
39.2341    45
39.2441    41
39.2541    39
39.2641    43
39.2741    43
39.2841    45
39.2941    35
39.3041    38
39.3141    40
39.3241    37
39.3341    38
39.3441    54
39.3541    38
39.3641    37
39.3741    48
39.3841    37
39.3941    48
39.4041    41
39.4141    40
39.4241    42
39.4341    41
39.4441    47
39.4541    52
39.4641    44
39.4741    46
39.4841    45
39.4941    31
39.5041    47
39.5141    37
39.5241    40
39.5341    35
39.5441    50
39.5541    33
39.5641    34
39.5741    45
39.5841    43
39.5941    31
39.6041    40
39.6141    37
39.6241    31
39.6341    43
39.6441    32
39.6541    31
39.6641    41
39.6741    22
39.6841    29
39.6941    36
39.7041    42
39.7141    36
39.7241    41
39.7341    38
39.7441    39
39.7541    37
39.7641    34
39.7741    33
39.7841    31
39.7941    34
39.8041    33
39.8141    35
39.8241    40
39.8341    40
39.8441    41
39.8541    36
39.8641    35
39.8741    31
39.8841    33
39.8941    47
39.9041    30
39.9141    37
39.9241    35
39.9341    40
39.9441    30
39.9541    34
39.9641    38
39.9741    34
39.9841    30
