Bruker Nano GmbH Berlin, Germany
Esprit 1.9

Date: 4/21/2021 2:21:35 PM
Real time: 34544
Life time: 32579
Pulse density: 79960


Detector type: XFlash 430
Window type: Custom type
Detector thickness: 0.45
Si dead layer:0.029

Calibration, lin.: 10
Calibration, abs.: -955.9
Mn FWHM: 137.05
Fano factor: 0.121
Channels: 4096

Energy Counts
-0.9559      0
-0.9459      0
-0.9359      0
-0.9259      0
-0.9159      0
-0.9059      0
-0.8959      0
-0.8859      0
-0.8759      0
-0.8659      0
-0.8559      0
-0.8459      0
-0.8359      0
-0.8259      0
-0.8159      0
-0.8059      0
-0.7959      0
-0.7859      0
-0.7759      0
-0.7659      0
-0.7559      0
-0.7459      0
-0.7359      0
-0.7259      0
-0.7159      0
-0.7059      0
-0.6959      0
-0.6859      0
-0.6759      0
-0.6659      0
-0.6559      0
-0.6459      0
-0.6359      0
-0.6259      0
-0.6159      0
-0.6059      0
-0.5959      0
-0.5859      0
-0.5759      0
-0.5659      0
-0.5559      0
-0.5459      0
-0.5359      0
-0.5259      0
-0.5159      0
-0.5059      0
-0.4959      0
-0.4859      0
-0.4759      0
-0.4659      0
-0.4559      0
-0.4459      0
-0.4359      0
-0.4259      0
-0.4159      0
-0.4059      0
-0.3959      0
-0.3859      0
-0.3759      0
-0.3659      0
-0.3559      0
-0.3459      0
-0.3359      0
-0.3259      0
-0.3159      0
-0.3059      0
-0.2959      0
-0.2859      0
-0.2759      0
-0.2659      0
-0.2559      0
-0.2459      0
-0.2359      0
-0.2259      0
-0.2159      0
-0.2059      0
-0.1959      0
-0.1859      0
-0.1759      0
-0.1659      0
-0.1559      0
-0.1459      1
-0.1359      0
-0.1259      0
-0.1159      5
-0.1059     23
-0.0959    102
-0.0859    351
-0.0759   1295
-0.0659   3794
-0.0559   9483
-0.0459  20611
-0.0359  39122
-0.0259  61895
-0.0159  84410
-0.0059 100080
 0.0041 100464
 0.0141  86235
 0.0241  63953
 0.0341  40453
 0.0441  21992
 0.0541  10299
 0.0641   4205
 0.0741   1441
 0.0841    433
 0.0941    123
 0.1041     33
 0.1141     17
 0.1241      8
 0.1341     10
 0.1441     12
 0.1541      7
 0.1641      5
 0.1741     40
 0.1841    348
 0.1941    625
 0.2041    536
 0.2141    550
 0.2241    537
 0.2341    605
 0.2441    554
 0.2541    586
 0.2641    552
 0.2741    568
 0.2841    562
 0.2941    573
 0.3041    578
 0.3141    557
 0.3241    549
 0.3341    561
 0.3441    541
 0.3541    524
 0.3641    549
 0.3741    524
 0.3841    507
 0.3941    499
 0.4041    504
 0.4141    535
 0.4241    532
 0.4341    485
 0.4441    491
 0.4541    503
 0.4641    508
 0.4741    504
 0.4841    499
 0.4941    489
 0.5041    507
 0.5141    495
 0.5241    466
 0.5341    453
 0.5441    450
 0.5541    449
 0.5641    483
 0.5741    468
 0.5841    462
 0.5941    474
 0.6041    443
 0.6141    436
 0.6241    449
 0.6341    434
 0.6441    435
 0.6541    450
 0.6641    439
 0.6741    440
 0.6841    464
 0.6941    446
 0.7041    430
 0.7141    429
 0.7241    427
 0.7341    434
 0.7441    413
 0.7541    412
 0.7641    404
 0.7741    411
 0.7841    399
 0.7941    374
 0.8041    405
 0.8141    390
 0.8241    392
 0.8341    423
 0.8441    403
 0.8541    413
 0.8641    402
 0.8741    396
 0.8841    402
 0.8941    378
 0.9041    380
 0.9141    411
 0.9241    409
 0.9341    419
 0.9441    387
 0.9541    394
 0.9641    390
 0.9741    382
 0.9841    394
 0.9941    411
 1.0041    395
 1.0141    376
 1.0241    384
 1.0341    381
 1.0441    389
 1.0541    401
 1.0641    397
 1.0741    347
 1.0841    333
 1.0941    378
 1.1041    370
 1.1141    374
 1.1241    386
 1.1341    363
 1.1441    374
 1.1541    369
 1.1641    393
 1.1741    354
 1.1841    359
 1.1941    377
 1.2041    380
 1.2141    353
 1.2241    357
 1.2341    354
 1.2441    365
 1.2541    376
 1.2641    344
 1.2741    337
 1.2841    365
 1.2941    328
 1.3041    355
 1.3141    384
 1.3241    347
 1.3341    366
 1.3441    351
 1.3541    347
 1.3641    320
 1.3741    324
 1.3841    337
 1.3941    326
 1.4041    335
 1.4141    326
 1.4241    352
 1.4341    324
 1.4441    351
 1.4541    342
 1.4641    353
 1.4741    324
 1.4841    346
 1.4941    337
 1.5041    329
 1.5141    355
 1.5241    336
 1.5341    322
 1.5441    314
 1.5541    319
 1.5641    314
 1.5741    302
 1.5841    327
 1.5941    354
 1.6041    324
 1.6141    335
 1.6241    320
 1.6341    334
 1.6441    365
 1.6541    367
 1.6641    427
 1.6741    494
 1.6841    612
 1.6941    786
 1.7041    925
 1.7141   1014
 1.7241   1043
 1.7341   1210
 1.7441   1221
 1.7541   1123
 1.7641   1042
 1.7741    931
 1.7841    770
 1.7941    627
 1.8041    509
 1.8141    484
 1.8241    458
 1.8341    378
 1.8441    365
 1.8541    350
 1.8641    373
 1.8741    356
 1.8841    352
 1.8941    336
 1.9041    335
 1.9141    348
 1.9241    320
 1.9341    367
 1.9441    377
 1.9541    351
 1.9641    367
 1.9741    382
 1.9841    369
 1.9941    415
 2.0041    404
 2.0141    412
 2.0241    379
 2.0341    378
 2.0441    356
 2.0541    387
 2.0641    323
 2.0741    341
 2.0841    319
 2.0941    322
 2.1041    308
 2.1141    332
 2.1241    311
 2.1341    328
 2.1441    262
 2.1541    305
 2.1641    315
 2.1741    309
 2.1841    301
 2.1941    307
 2.2041    303
 2.2141    283
 2.2241    284
 2.2341    269
 2.2441    251
 2.2541    302
 2.2641    284
 2.2741    312
 2.2841    329
 2.2941    307
 2.3041    275
 2.3141    294
 2.3241    258
 2.3341    260
 2.3441    267
 2.3541    290
 2.3641    272
 2.3741    257
 2.3841    307
 2.3941    262
 2.4041    276
 2.4141    299
 2.4241    276
 2.4341    240
 2.4441    266
 2.4541    265
 2.4641    273
 2.4741    272
 2.4841    275
 2.4941    263
 2.5041    265
 2.5141    256
 2.5241    257
 2.5341    251
 2.5441    250
 2.5541    249
 2.5641    261
 2.5741    269
 2.5841    247
 2.5941    235
 2.6041    242
 2.6141    256
 2.6241    236
 2.6341    271
 2.6441    242
 2.6541    262
 2.6641    237
 2.6741    242
 2.6841    247
 2.6941    255
 2.7041    265
 2.7141    246
 2.7241    250
 2.7341    262
 2.7441    245
 2.7541    260
 2.7641    245
 2.7741    235
 2.7841    271
 2.7941    257
 2.8041    269
 2.8141    227
 2.8241    247
 2.8341    257
 2.8441    226
 2.8541    254
 2.8641    252
 2.8741    250
 2.8841    263
 2.8941    251
 2.9041    242
 2.9141    207
 2.9241    256
 2.9341    245
 2.9441    220
 2.9541    238
 2.9641    259
 2.9741    230
 2.9841    215
 2.9941    243
 3.0041    228
 3.0141    227
 3.0241    246
 3.0341    222
 3.0441    223
 3.0541    246
 3.0641    234
 3.0741    223
 3.0841    203
 3.0941    171
 3.1041    195
 3.1141    199
 3.1241    192
 3.1341    223
 3.1441    208
 3.1541    198
 3.1641    204
 3.1741    223
 3.1841    205
 3.1941    207
 3.2041    210
 3.2141    281
 3.2241    255
 3.2341    273
 3.2441    313
 3.2541    314
 3.2641    384
 3.2741    396
 3.2841    448
 3.2941    480
 3.3041    465
 3.3141    452
 3.3241    469
 3.3341    473
 3.3441    421
 3.3541    373
 3.3641    335
 3.3741    300
 3.3841    278
 3.3941    250
 3.4041    245
 3.4141    222
 3.4241    217
 3.4341    195
 3.4441    190
 3.4541    197
 3.4641    212
 3.4741    199
 3.4841    214
 3.4941    227
 3.5041    226
 3.5141    257
 3.5241    254
 3.5341    301
 3.5441    329
 3.5541    404
 3.5641    542
 3.5741    642
 3.5841    866
 3.5941   1257
 3.6041   1641
 3.6141   2089
 3.6241   2818
 3.6341   3430
 3.6441   4286
 3.6541   5010
 3.6641   5830
 3.6741   6422
 3.6841   6591
 3.6941   6679
 3.7041   6552
 3.7141   5908
 3.7241   5194
 3.7341   4390
 3.7441   3713
 3.7541   2932
 3.7641   2250
 3.7741   1690
 3.7841   1181
 3.7941    833
 3.8041    588
 3.8141    450
 3.8241    308
 3.8341    277
 3.8441    230
 3.8541    239
 3.8641    228
 3.8741    223
 3.8841    261
 3.8941    280
 3.9041    330
 3.9141    361
 3.9241    460
 3.9341    576
 3.9441    678
 3.9541    798
 3.9641    922
 3.9741   1094
 3.9841   1189
 3.9941   1294
 4.0041   1398
 4.0141   1403
 4.0241   1410
 4.0341   1281
 4.0441   1164
 4.0541    993
 4.0641    819
 4.0741    754
 4.0841    583
 4.0941    460
 4.1041    350
 4.1141    311
 4.1241    263
 4.1341    235
 4.1441    181
 4.1541    150
 4.1641    126
 4.1741    153
 4.1841    144
 4.1941    137
 4.2041    135
 4.2141    146
 4.2241    132
 4.2341    147
 4.2441    149
 4.2541    135
 4.2641    133
 4.2741    139
 4.2841    128
 4.2941    145
 4.3041    146
 4.3141    146
 4.3241    140
 4.3341    135
 4.3441    147
 4.3541    132
 4.3641    124
 4.3741    135
 4.3841    155
 4.3941    146
 4.4041    143
 4.4141    164
 4.4241    164
 4.4341    195
 4.4441    176
 4.4541    183
 4.4641    216
 4.4741    197
 4.4841    189
 4.4941    240
 4.5041    199
 4.5141    194
 4.5241    193
 4.5341    201
 4.5441    219
 4.5541    200
 4.5641    188
 4.5741    169
 4.5841    164
 4.5941    157
 4.6041    178
 4.6141    146
 4.6241    157
 4.6341    154
 4.6441    123
 4.6541    178
 4.6641    178
 4.6741    151
 4.6841    137
 4.6941    152
 4.7041    158
 4.7141    139
 4.7241    140
 4.7341    132
 4.7441    151
 4.7541    131
 4.7641    150
 4.7741    133
 4.7841    149
 4.7941    152
 4.8041    159
 4.8141    152
 4.8241    157
 4.8341    161
 4.8441    144
 4.8541    157
 4.8641    155
 4.8741    149
 4.8841    167
 4.8941    154
 4.9041    152
 4.9141    155
 4.9241    147
 4.9341    157
 4.9441    143
 4.9541    165
 4.9641    170
 4.9741    131
 4.9841    151
 4.9941    143
 5.0041    156
 5.0141    141
 5.0241    147
 5.0341    151
 5.0441    154
 5.0541    158
 5.0641    151
 5.0741    157
 5.0841    160
 5.0941    155
 5.1041    146
 5.1141    164
 5.1241    150
 5.1341    128
 5.1441    120
 5.1541    143
 5.1641    146
 5.1741    151
 5.1841    155
 5.1941    142
 5.2041    142
 5.2141    158
 5.2241    135
 5.2341    159
 5.2441    141
 5.2541    153
 5.2641    158
 5.2741    130
 5.2841    133
 5.2941    124
 5.3041    167
 5.3141    149
 5.3241    142
 5.3341    149
 5.3441    135
 5.3541    159
 5.3641    153
 5.3741    163
 5.3841    166
 5.3941    154
 5.4041    170
 5.4141    165
 5.4241    168
 5.4341    173
 5.4441    159
 5.4541    165
 5.4641    168
 5.4741    160
 5.4841    157
 5.4941    152
 5.5041    142
 5.5141    140
 5.5241    156
 5.5341    146
 5.5441    166
 5.5541    152
 5.5641    161
 5.5741    150
 5.5841    172
 5.5941    174
 5.6041    158
 5.6141    153
 5.6241    118
 5.6341    111
 5.6441    117
 5.6541    155
 5.6641    159
 5.6741    141
 5.6841    162
 5.6941    166
 5.7041    157
 5.7141    139
 5.7241    145
 5.7341    157
 5.7441    173
 5.7541    184
 5.7641    169
 5.7741    173
 5.7841    181
 5.7941    196
 5.8041    207
 5.8141    205
 5.8241    202
 5.8341    229
 5.8441    231
 5.8541    241
 5.8641    255
 5.8741    258
 5.8841    262
 5.8941    271
 5.9041    268
 5.9141    281
 5.9241    267
 5.9341    244
 5.9441    247
 5.9541    237
 5.9641    189
 5.9741    235
 5.9841    204
 5.9941    187
 6.0041    221
 6.0141    187
 6.0241    171
 6.0341    161
 6.0441    184
 6.0541    173
 6.0641    167
 6.0741    197
 6.0841    171
 6.0941    176
 6.1041    149
 6.1141    163
 6.1241    156
 6.1341    184
 6.1441    177
 6.1541    177
 6.1641    187
 6.1741    161
 6.1841    160
 6.1941    188
 6.2041    182
 6.2141    213
 6.2241    231
 6.2341    305
 6.2441    328
 6.2541    374
 6.2641    475
 6.2741    646
 6.2841    832
 6.2941    959
 6.3041   1264
 6.3141   1523
 6.3241   1885
 6.3341   2296
 6.3441   2767
 6.3541   3146
 6.3641   3272
 6.3741   3623
 6.3841   3849
 6.3941   3927
 6.4041   3893
 6.4141   3958
 6.4241   3675
 6.4341   3394
 6.4441   2963
 6.4541   2638
 6.4641   2251
 6.4741   1898
 6.4841   1571
 6.4941   1273
 6.5041   1051
 6.5141    772
 6.5241    627
 6.5341    522
 6.5441    393
 6.5541    322
 6.5641    276
 6.5741    283
 6.5841    243
 6.5941    216
 6.6041    203
 6.6141    207
 6.6241    197
 6.6341    177
 6.6441    197
 6.6541    192
 6.6641    215
 6.6741    195
 6.6841    169
 6.6941    196
 6.7041    195
 6.7141    195
 6.7241    205
 6.7341    174
 6.7441    194
 6.7541    183
 6.7641    203
 6.7741    193
 6.7841    174
 6.7941    207
 6.8041    204
 6.8141    205
 6.8241    245
 6.8341    241
 6.8441    252
 6.8541    228
 6.8641    205
 6.8741    220
 6.8841    244
 6.8941    249
 6.9041    256
 6.9141    302
 6.9241    325
 6.9341    325
 6.9441    393
 6.9541    413
 6.9641    463
 6.9741    539
 6.9841    555
 6.9941    629
 7.0041    678
 7.0141    706
 7.0241    862
 7.0341    819
 7.0441    901
 7.0541    876
 7.0641    937
 7.0741    846
 7.0841    798
 7.0941    706
 7.1041    751
 7.1141    678
 7.1241    582
 7.1341    562
 7.1441    502
 7.1541    425
 7.1641    450
 7.1741    372
 7.1841    355
 7.1941    345
 7.2041    319
 7.2141    329
 7.2241    289
 7.2341    296
 7.2441    307
 7.2541    334
 7.2641    326
 7.2741    348
 7.2841    341
 7.2941    343
 7.3041    341
 7.3141    354
 7.3241    379
 7.3341    369
 7.3441    378
 7.3541    413
 7.3641    441
 7.3741    423
 7.3841    426
 7.3941    452
 7.4041    432
 7.4141    463
 7.4241    424
 7.4341    475
 7.4441    425
 7.4541    428
 7.4641    417
 7.4741    424
 7.4841    354
 7.4941    329
 7.5041    369
 7.5141    345
 7.5241    339
 7.5341    374
 7.5441    341
 7.5541    317
 7.5641    301
 7.5741    319
 7.5841    295
 7.5941    307
 7.6041    329
 7.6141    308
 7.6241    292
 7.6341    326
 7.6441    274
 7.6541    331
 7.6641    333
 7.6741    320
 7.6841    345
 7.6941    350
 7.7041    333
 7.7141    348
 7.7241    358
 7.7341    369
 7.7441    383
 7.7541    380
 7.7641    388
 7.7741    382
 7.7841    440
 7.7941    442
 7.8041    394
 7.8141    448
 7.8241    428
 7.8341    464
 7.8441    474
 7.8541    467
 7.8641    480
 7.8741    489
 7.8841    483
 7.8941    513
 7.9041    546
 7.9141    552
 7.9241    555
 7.9341    622
 7.9441    671
 7.9541    686
 7.9641    691
 7.9741    739
 7.9841    792
 7.9941    855
 8.0041    954
 8.0141    990
 8.0241   1044
 8.0341   1123
 8.0441   1233
 8.0541   1297
 8.0641   1341
 8.0741   1429
 8.0841   1590
 8.0941   1628
 8.1041   1744
 8.1141   1819
 8.1241   1942
 8.1341   1982
 8.1441   2114
 8.1541   2201
 8.1641   2218
 8.1741   2183
 8.1841   2286
 8.1941   2242
 8.2041   2326
 8.2141   2354
 8.2241   2416
 8.2341   2373
 8.2441   2364
 8.2541   2431
 8.2641   2561
 8.2741   2688
 8.2841   2821
 8.2941   2971
 8.3041   3351
 8.3141   3425
 8.3241   3699
 8.3341   3966
 8.3441   4126
 8.3541   4249
 8.3641   4412
 8.3741   4663
 8.3841   4671
 8.3941   4568
 8.4041   4632
 8.4141   4417
 8.4241   4143
 8.4341   3769
 8.4441   3484
 8.4541   3136
 8.4641   2876
 8.4741   2378
 8.4841   2074
 8.4941   1750
 8.5041   1489
 8.5141   1289
 8.5241   1095
 8.5341    970
 8.5441    867
 8.5541    714
 8.5641    678
 8.5741    669
 8.5841    576
 8.5941    568
 8.6041    535
 8.6141    529
 8.6241    559
 8.6341    533
 8.6441    529
 8.6541    583
 8.6641    552
 8.6741    509
 8.6841    542
 8.6941    544
 8.7041    586
 8.7141    596
 8.7241    586
 8.7341    556
 8.7441    579
 8.7541    582
 8.7641    588
 8.7741    537
 8.7841    580
 8.7941    571
 8.8041    549
 8.8141    562
 8.8241    566
 8.8341    544
 8.8441    577
 8.8541    563
 8.8641    520
 8.8741    530
 8.8841    562
 8.8941    533
 8.9041    562
 8.9141    533
 8.9241    569
 8.9341    592
 8.9441    594
 8.9541    548
 8.9641    580
 8.9741    590
 8.9841    598
 8.9941    599
 9.0041    600
 9.0141    624
 9.0241    613
 9.0341    655
 9.0441    633
 9.0541    654
 9.0641    664
 9.0741    695
 9.0841    703
 9.0941    739
 9.1041    756
 9.1141    799
 9.1241    851
 9.1341    854
 9.1441    932
 9.1541    928
 9.1641    940
 9.1741   1022
 9.1841   1080
 9.1941   1070
 9.2041   1151
 9.2141   1247
 9.2241   1342
 9.2341   1368
 9.2441   1467
 9.2541   1504
 9.2641   1531
 9.2741   1600
 9.2841   1698
 9.2941   1810
 9.3041   1811
 9.3141   1879
 9.3241   1914
 9.3341   2011
 9.3441   2078
 9.3541   2145
 9.3641   2266
 9.3741   2163
 9.3841   2235
 9.3941   2308
 9.4041   2327
 9.4141   2409
 9.4241   2396
 9.4341   2513
 9.4441   2494
 9.4541   2621
 9.4641   2511
 9.4741   2569
 9.4841   2604
 9.4941   2624
 9.5041   2710
 9.5141   2762
 9.5241   2769
 9.5341   2879
 9.5441   3009
 9.5541   3150
 9.5641   3278
 9.5741   3457
 9.5841   3697
 9.5941   3796
 9.6041   3946
 9.6141   4135
 9.6241   4242
 9.6341   4340
 9.6441   4588
 9.6541   4547
 9.6641   4670
 9.6741   4564
 9.6841   4420
 9.6941   4389
 9.7041   4240
 9.7141   4045
 9.7241   3872
 9.7341   3634
 9.7441   3372
 9.7541   3149
 9.7641   2923
 9.7741   2737
 9.7841   2588
 9.7941   2396
 9.8041   2281
 9.8141   2201
 9.8241   2172
 9.8341   2044
 9.8441   2053
 9.8541   2051
 9.8641   2167
 9.8741   2169
 9.8841   2239
 9.8941   2302
 9.9041   2381
 9.9141   2464
 9.9241   2490
 9.9341   2487
 9.9441   2590
 9.9541   2511
 9.9641   2518
 9.9741   2360
 9.9841   2350
 9.9941   2267
10.0041   2096
10.0141   1853
10.0241   1804
10.0341   1641
10.0441   1510
10.0541   1338
10.0641   1177
10.0741   1048
10.0841    923
10.0941    864
10.1041    790
10.1141    681
10.1241    606
10.1341    548
10.1441    535
10.1541    505
10.1641    452
10.1741    447
10.1841    439
10.1941    433
10.2041    402
10.2141    399
10.2241    405
10.2341    366
10.2441    322
10.2541    381
10.2641    362
10.2741    346
10.2841    320
10.2941    306
10.3041    314
10.3141    289
10.3241    303
10.3341    304
10.3441    296
10.3541    284
10.3641    297
10.3741    277
10.3841    301
10.3941    299
10.4041    272
10.4141    269
10.4241    291
10.4341    284
10.4441    286
10.4541    292
10.4641    290
10.4741    295
10.4841    319
10.4941    327
10.5041    334
10.5141    319
10.5241    322
10.5341    312
10.5441    327
10.5541    350
10.5641    329
10.5741    342
10.5841    371
10.5941    340
10.6041    358
10.6141    349
10.6241    338
10.6341    357
10.6441    360
10.6541    361
10.6641    353
10.6741    338
10.6841    355
10.6941    357
10.7041    339
10.7141    385
10.7241    387
10.7341    407
10.7441    408
10.7541    404
10.7641    422
10.7741    431
10.7841    431
10.7941    475
10.8041    454
10.8141    458
10.8241    463
10.8341    492
10.8441    490
10.8541    500
10.8641    485
10.8741    509
10.8841    541
10.8941    530
10.9041    519
10.9141    518
10.9241    502
10.9341    521
10.9441    559
10.9541    543
10.9641    531
10.9741    544
10.9841    526
10.9941    528
11.0041    524
11.0141    523
11.0241    501
11.0341    500
11.0441    511
11.0541    487
11.0641    460
11.0741    459
11.0841    461
11.0941    471
11.1041    480
11.1141    455
11.1241    481
11.1341    480
11.1441    517
11.1541    524
11.1641    506
11.1741    550
11.1841    611
11.1941    637
11.2041    632
11.2141    653
11.2241    688
11.2341    686
11.2441    719
11.2541    797
11.2641    817
11.2741    765
11.2841    759
11.2941    775
11.3041    803
11.3141    785
11.3241    735
11.3341    742
11.3441    722
11.3541    687
11.3641    644
11.3741    586
11.3841    570
11.3941    542
11.4041    524
11.4141    500
11.4241    475
11.4341    438
11.4441    424
11.4541    427
11.4641    401
11.4741    390
11.4841    372
11.4941    375
11.5041    364
11.5141    376
11.5241    380
11.5341    372
11.5441    386
11.5541    387
11.5641    363
11.5741    364
11.5841    389
11.5941    380
11.6041    382
11.6141    375
11.6241    389
11.6341    384
11.6441    403
11.6541    402
11.6641    415
11.6741    430
11.6841    404
11.6941    374
11.7041    371
11.7141    353
11.7241    343
11.7341    352
11.7441    336
11.7541    326
11.7641    311
11.7741    310
11.7841    315
11.7941    277
11.8041    290
11.8141    301
11.8241    292
11.8341    294
11.8441    289
11.8541    269
11.8641    279
11.8741    276
11.8841    273
11.8941    276
11.9041    267
11.9141    287
11.9241    291
11.9341    300
11.9441    279
11.9541    302
11.9641    300
11.9741    302
11.9841    298
11.9941    285
12.0041    284
12.0141    294
12.0241    292
12.0341    278
12.0441    295
12.0541    271
12.0641    269
12.0741    276
12.0841    284
12.0941    279
12.1041    280
12.1141    280
12.1241    305
12.1341    286
12.1441    271
12.1541    273
12.1641    271
12.1741    269
12.1841    274
12.1941    286
12.2041    287
12.2141    278
12.2241    275
12.2341    285
12.2441    290
12.2541    277
12.2641    278
12.2741    294
12.2841    286
12.2941    281
12.3041    266
12.3141    274
12.3241    280
12.3341    279
12.3441    275
12.3541    295
12.3641    305
12.3741    294
12.3841    277
12.3941    274
12.4041    297
12.4141    286
12.4241    285
12.4341    276
12.4441    250
12.4541    270
12.4641    288
12.4741    269
12.4841    284
12.4941    287
12.5041    286
12.5141    287
12.5241    294
12.5341    322
12.5441    329
12.5541    315
12.5641    313
12.5741    292
12.5841    284
12.5941    296
12.6041    298
12.6141    304
12.6241    325
12.6341    323
12.6441    296
12.6541    309
12.6641    299
12.6741    288
12.6841    302
12.6941    295
12.7041    303
12.7141    308
12.7241    303
12.7341    319
12.7441    315
12.7541    287
12.7641    305
12.7741    323
12.7841    319
12.7941    322
12.8041    309
12.8141    311
12.8241    320
12.8341    322
12.8441    310
12.8541    327
12.8641    318
12.8741    287
12.8841    302
12.8941    295
12.9041    279
12.9141    290
12.9241    337
12.9341    330
12.9441    295
12.9541    312
12.9641    318
12.9741    318
12.9841    332
12.9941    319
13.0041    298
13.0141    308
13.0241    317
13.0341    333
13.0441    327
13.0541    311
13.0641    313
13.0741    312
13.0841    327
13.0941    348
13.1041    329
13.1141    320
13.1241    311
13.1341    332
13.1441    351
13.1541    342
13.1641    357
13.1741    354
13.1841    353
13.1941    378
13.2041    386
13.2141    386
13.2241    399
13.2341    408
13.2441    435
13.2541    468
13.2641    494
13.2741    482
13.2841    472
13.2941    497
13.3041    538
13.3141    559
13.3241    557
13.3341    579
13.3441    611
13.3541    618
13.3641    598
13.3741    573
13.3841    578
13.3941    614
13.4041    640
13.4141    614
13.4241    582
13.4341    559
13.4441    543
13.4541    515
13.4641    509
13.4741    489
13.4841    471
13.4941    451
13.5041    429
13.5141    431
13.5241    401
13.5341    381
13.5441    405
13.5541    400
13.5641    401
13.5741    399
13.5841    384
13.5941    382
13.6041    396
13.6141    389
13.6241    391
13.6341    413
13.6441    396
13.6541    378
13.6641    389
13.6741    397
13.6841    402
13.6941    418
13.7041    401
13.7141    391
13.7241    407
13.7341    417
13.7441    396
13.7541    401
13.7641    415
13.7741    400
13.7841    405
13.7941    412
13.8041    415
13.8141    417
13.8241    396
13.8341    385
13.8441    410
13.8541    425
13.8641    418
13.8741    425
13.8841    421
13.8941    409
13.9041    429
13.9141    434
13.9241    439
13.9341    456
13.9441    467
13.9541    462
13.9641    462
13.9741    485
13.9841    533
13.9941    584
14.0041    586
14.0141    575
14.0241    603
14.0341    633
14.0441    653
14.0541    680
14.0641    705
14.0741    744
14.0841    750
14.0941    784
14.1041    821
14.1141    842
14.1241    841
14.1341    843
14.1441    887
14.1541    852
14.1641    825
14.1741    823
14.1841    814
14.1941    795
14.2041    791
14.2141    761
14.2241    709
14.2341    709
14.2441    683
14.2541    637
14.2641    625
14.2741    605
14.2841    578
14.2941    584
14.3041    560
14.3141    542
14.3241    517
14.3341    487
14.3441    480
14.3541    459
14.3641    453
14.3741    470
14.3841    474
14.3941    459
14.4041    455
14.4141    461
14.4241    463
14.4341    447
14.4441    454
14.4541    469
14.4641    465
14.4741    448
14.4841    447
14.4941    450
14.5041    440
14.5141    454
14.5241    462
14.5341    461
14.5441    472
14.5541    469
14.5641    474
14.5741    457
14.5841    454
14.5941    463
14.6041    458
14.6141    468
14.6241    489
14.6341    480
14.6441    472
14.6541    486
14.6641    478
14.6741    465
14.6841    487
14.6941    483
14.7041    445
14.7141    460
14.7241    485
14.7341    500
14.7441    516
14.7541    497
14.7641    447
14.7741    461
14.7841    513
14.7941    507
14.8041    516
14.8141    531
14.8241    536
14.8341    535
14.8441    523
14.8541    509
14.8641    530
14.8741    542
14.8841    553
14.8941    545
14.9041    527
14.9141    559
14.9241    592
14.9341    557
14.9441    542
14.9541    544
14.9641    554
14.9741    581
14.9841    568
14.9941    550
15.0041    568
15.0141    548
15.0241    536
15.0341    542
15.0441    520
15.0541    541
15.0641    555
15.0741    529
15.0841    516
15.0941    531
15.1041    529
15.1141    551
15.1241    531
15.1341    515
15.1441    540
15.1541    536
15.1641    524
15.1741    523
15.1841    527
15.1941    518
15.2041    521
15.2141    505
15.2241    491
15.2341    541
15.2441    555
15.2541    534
15.2641    524
15.2741    549
15.2841    558
15.2941    549
15.3041    525
15.3141    512
15.3241    524
15.3341    513
15.3441    520
15.3541    520
15.3641    548
15.3741    532
15.3841    527
15.3941    551
15.4041    519
15.4141    515
15.4241    557
15.4341    581
15.4441    585
15.4541    561
15.4641    550
15.4741    538
15.4841    548
15.4941    553
15.5041    574
15.5141    585
15.5241    612
15.5341    602
15.5441    582
15.5541    588
15.5641    627
15.5741    654
15.5841    650
15.5941    660
15.6041    693
15.6141    701
15.6241    744
15.6341    732
15.6441    762
15.6541    802
15.6641    816
15.6741    850
15.6841    867
15.6941    872
15.7041    889
15.7141    941
15.7241    927
15.7341    914
15.7441    952
15.7541    960
15.7641    943
15.7741    925
15.7841    985
15.7941    947
15.8041    892
15.8141    913
15.8241    904
15.8341    884
15.8441    857
15.8541    841
15.8641    834
15.8741    822
15.8841    817
15.8941    834
15.9041    785
15.9141    737
15.9241    705
15.9341    694
15.9441    703
15.9541    680
15.9641    655
15.9741    643
15.9841    629
15.9941    649
16.0041    635
16.0141    631
16.0241    654
16.0341    678
16.0441    670
16.0541    662
16.0641    629
16.0741    620
16.0841    623
16.0941    632
16.1041    614
16.1141    638
16.1241    645
16.1341    603
16.1441    614
16.1541    643
16.1641    674
16.1741    638
16.1841    645
16.1941    633
16.2041    626
16.2141    626
16.2241    644
16.2341    698
16.2441    663
16.2541    624
16.2641    617
16.2741    619
16.2841    613
16.2941    626
16.3041    634
16.3141    636
16.3241    667
16.3341    651
16.3441    674
16.3541    667
16.3641    664
16.3741    671
16.3841    657
16.3941    654
16.4041    645
16.4141    635
16.4241    652
16.4341    676
16.4441    683
16.4541    690
16.4641    713
16.4741    696
16.4841    678
16.4941    682
16.5041    650
16.5141    662
16.5241    646
16.5341    690
16.5441    707
16.5541    679
16.5641    671
16.5741    683
16.5841    688
16.5941    662
16.6041    697
16.6141    704
16.6241    672
16.6341    705
16.6441    702
16.6541    687
16.6641    710
16.6741    735
16.6841    728
16.6941    702
16.7041    683
16.7141    688
16.7241    674
16.7341    687
16.7441    719
16.7541    714
16.7641    668
16.7741    700
16.7841    705
16.7941    716
16.8041    704
16.8141    721
16.8241    727
16.8341    718
16.8441    704
16.8541    705
16.8641    708
16.8741    708
16.8841    680
16.8941    716
16.9041    733
16.9141    747
16.9241    747
16.9341    725
16.9441    731
16.9541    759
16.9641    748
16.9741    682
16.9841    730
16.9941    762
17.0041    753
17.0141    741
17.0241    698
17.0341    722
17.0441    729
17.0541    747
17.0641    740
17.0741    748
17.0841    752
17.0941    767
17.1041    739
17.1141    749
17.1241    741
17.1341    733
17.1441    730
17.1541    737
17.1641    745
17.1741    764
17.1841    747
17.1941    740
17.2041    768
17.2141    752
17.2241    771
17.2341    764
17.2441    767
17.2541    776
17.2641    756
17.2741    731
17.2841    740
17.2941    742
17.3041    756
17.3141    765
17.3241    753
17.3341    768
17.3441    749
17.3541    726
17.3641    763
17.3741    777
17.3841    784
17.3941    796
17.4041    785
17.4141    774
17.4241    771
17.4341    819
17.4441    799
17.4541    798
17.4641    812
17.4741    817
17.4841    791
17.4941    806
17.5041    804
17.5141    783
17.5241    809
17.5341    808
17.5441    820
17.5541    836
17.5641    828
17.5741    824
17.5841    818
17.5941    843
17.6041    803
17.6141    817
17.6241    887
17.6341    851
17.6441    840
17.6541    851
17.6641    860
17.6741    854
17.6841    856
17.6941    822
17.7041    868
17.7141    888
17.7241    880
17.7341    880
17.7441    872
17.7541    857
17.7641    847
17.7741    840
17.7841    846
17.7941    815
17.8041    842
17.8141    844
17.8241    855
17.8341    847
17.8441    848
17.8541    864
17.8641    855
17.8741    866
17.8841    854
17.8941    842
17.9041    836
17.9141    807
17.9241    820
17.9341    870
17.9441    838
17.9541    864
17.9641    849
17.9741    861
17.9841    847
17.9941    859
18.0041    841
18.0141    869
18.0241    850
18.0341    835
18.0441    849
18.0541    839
18.0641    828
18.0741    846
18.0841    887
18.0941    857
18.1041    821
18.1141    848
18.1241    862
18.1341    855
18.1441    873
18.1541    899
18.1641    864
18.1741    852
18.1841    858
18.1941    853
18.2041    857
18.2141    876
18.2241    906
18.2341    883
18.2441    867
18.2541    850
18.2641    859
18.2741    861
18.2841    876
18.2941    887
18.3041    902
18.3141    869
18.3241    858
18.3341    953
18.3441    930
18.3541    914
18.3641    931
18.3741    887
18.3841    882
18.3941    918
18.4041    898
18.4141    895
18.4241    903
18.4341    862
18.4441    870
18.4541    875
18.4641    912
18.4741    870
18.4841    866
18.4941    883
18.5041    918
18.5141    937
18.5241    953
18.5341    902
18.5441    904
18.5541    877
18.5641    871
18.5741    866
18.5841    876
18.5941    886
18.6041    916
18.6141    942
18.6241    935
18.6341    882
18.6441    890
18.6541    937
18.6641    928
18.6741    954
18.6841    968
18.6941    921
18.7041    919
18.7141    896
18.7241    908
18.7341    921
18.7441    913
18.7541    919
18.7641    964
18.7741    964
18.7841    985
18.7941    909
18.8041    875
18.8141    922
18.8241    923
18.8341    959
18.8441    901
18.8541    924
18.8641    980
18.8741    963
18.8841    909
18.8941    900
18.9041    920
18.9141    957
18.9241    943
18.9341    919
18.9441    928
18.9541    903
18.9641    962
18.9741    960
18.9841    981
18.9941    967
19.0041    941
19.0141    902
19.0241    939
19.0341    955
19.0441    888
19.0541    941
19.0641    970
19.0741    986
19.0841   1009
19.0941    974
19.1041    966
19.1141    961
19.1241    990
19.1341    991
19.1441    963
19.1541    979
19.1641    995
19.1741    945
19.1841    952
19.1941   1014
19.2041    996
19.2141   1018
19.2241    949
19.2341    983
19.2441    959
19.2541    958
19.2641    964
19.2741   1004
19.2841    970
19.2941   1015
19.3041    995
19.3141    983
19.3241    948
19.3341    984
19.3441    990
19.3541    987
19.3641    996
19.3741    980
19.3841    995
19.3941   1033
19.4041    966
19.4141    983
19.4241   1028
19.4341   1003
19.4441    978
19.4541    991
19.4641    977
19.4741    958
19.4841    942
19.4941   1015
19.5041    948
19.5141    968
19.5241    949
19.5341   1017
19.5441   1045
19.5541   1036
19.5641    973
19.5741    973
19.5841   1000
19.5941    946
19.6041    962
19.6141   1016
19.6241   1042
19.6341   1025
19.6441    915
19.6541    941
19.6641    955
19.6741    965
19.6841   1016
19.6941    979
19.7041   1013
19.7141   1018
19.7241    938
19.7341    983
19.7441    962
19.7541    974
19.7641   1038
19.7741    998
19.7841   1025
19.7941   1004
19.8041   1008
19.8141   1051
19.8241   1038
19.8341    992
19.8441    968
19.8541    964
19.8641   1013
19.8741    997
19.8841   1005
19.8941   1015
19.9041   1000
19.9141   1080
19.9241   1017
19.9341   1057
19.9441    985
19.9541   1048
19.9641   1035
19.9741   1051
19.9841   1048
19.9941   1073
20.0041   1050
20.0141    997
20.0241    992
20.0341    984
20.0441   1030
20.0541   1039
20.0641   1026
20.0741   1008
20.0841   1062
20.0941   1029
20.1041    960
20.1141    991
20.1241   1026
20.1341   1076
20.1441   1009
20.1541   1080
20.1641   1010
20.1741    984
20.1841   1018
20.1941   1057
20.2041   1068
20.2141   1017
20.2241   1029
20.2341   1060
20.2441   1011
20.2541   1020
20.2641   1032
20.2741   1018
20.2841   1000
20.2941    999
20.3041   1029
20.3141   1077
20.3241   1004
20.3341   1048
20.3441   1064
20.3541   1072
20.3641   1062
20.3741   1035
20.3841   1072
20.3941   1062
20.4041   1053
20.4141   1031
20.4241   1038
20.4341   1043
20.4441   1051
20.4541   1056
20.4641   1049
20.4741   1086
20.4841   1053
20.4941   1041
20.5041   1081
20.5141   1049
20.5241   1005
20.5341    977
20.5441   1064
20.5541   1022
20.5641   1057
20.5741   1017
20.5841   1035
20.5941   1084
20.6041   1021
20.6141   1059
20.6241   1017
20.6341   1082
20.6441   1015
20.6541   1054
20.6641   1086
20.6741   1066
20.6841   1029
20.6941   1071
20.7041   1058
20.7141   1006
20.7241   1079
20.7341   1071
20.7441   1048
20.7541   1056
20.7641   1048
20.7741   1045
20.7841   1032
20.7941   1040
20.8041   1047
20.8141   1111
20.8241   1152
20.8341   1115
20.8441   1095
20.8541   1094
20.8641   1150
20.8741   1170
20.8841   1198
20.8941   1198
20.9041   1236
20.9141   1283
20.9241   1216
20.9341   1262
20.9441   1314
20.9541   1390
20.9641   1319
20.9741   1326
20.9841   1379
20.9941   1368
21.0041   1463
21.0141   1429
21.0241   1433
21.0341   1498
21.0441   1480
21.0541   1543
21.0641   1646
21.0741   1633
21.0841   1624
21.0941   1644
21.1041   1675
21.1141   1715
21.1241   1629
21.1341   1673
21.1441   1744
21.1541   1644
21.1641   1650
21.1741   1643
21.1841   1605
21.1941   1675
21.2041   1564
21.2141   1553
21.2241   1503
21.2341   1460
21.2441   1472
21.2541   1437
21.2641   1364
21.2741   1364
21.2841   1346
21.2941   1372
21.3041   1281
21.3141   1259
21.3241   1245
21.3341   1189
21.3441   1144
21.3541   1136
21.3641   1151
21.3741   1166
21.3841   1139
21.3941   1075
21.4041   1094
21.4141   1070
21.4241   1085
21.4341   1086
21.4441   1073
21.4541   1060
21.4641   1101
21.4741   1052
21.4841   1060
21.4941   1145
21.5041   1064
21.5141   1108
21.5241   1066
21.5341   1080
21.5441   1066
21.5541   1087
21.5641   1088
21.5741   1055
21.5841   1090
21.5941   1024
21.6041   1110
21.6141   1047
21.6241   1030
21.6341   1074
21.6441    989
21.6541   1066
21.6641   1031
21.6741   1071
21.6841   1050
21.6941   1102
21.7041   1092
21.7141   1121
21.7241   1089
21.7341   1010
21.7441   1034
21.7541   1077
21.7641   1108
21.7741   1115
21.7841   1103
21.7941   1087
21.8041   1098
21.8141   1135
21.8241   1120
21.8341   1066
21.8441   1011
21.8541   1068
21.8641   1041
21.8741   1082
21.8841   1112
21.8941   1062
21.9041   1061
21.9141   1055
21.9241   1072
21.9341   1043
21.9441   1063
21.9541   1152
21.9641   1091
21.9741   1097
21.9841   1088
21.9941   1064
22.0041   1110
22.0141   1093
22.0241   1111
22.0341   1064
22.0441   1049
22.0541   1056
22.0641   1106
22.0741   1068
22.0841   1067
22.0941   1091
22.1041   1086
22.1141   1123
22.1241   1089
22.1341   1104
22.1441   1121
22.1541   1062
22.1641   1069
22.1741   1113
22.1841   1106
22.1941   1073
22.2041   1066
22.2141   1088
22.2241   1076
22.2341   1059
22.2441   1046
22.2541   1040
22.2641   1022
22.2741   1072
22.2841   1111
22.2941   1051
22.3041   1122
22.3141   1019
22.3241   1095
22.3341   1066
22.3441    995
22.3541   1104
22.3641   1102
22.3741   1082
22.3841   1053
22.3941   1082
22.4041   1073
22.4141   1009
22.4241   1037
22.4341   1024
22.4441   1042
22.4541   1070
22.4641   1163
22.4741   1078
22.4841   1063
22.4941   1020
22.5041   1078
22.5141   1032
22.5241   1082
22.5341   1045
22.5441   1003
22.5541   1075
22.5641   1093
22.5741   1084
22.5841   1045
22.5941   1030
22.6041   1147
22.6141   1040
22.6241   1096
22.6341   1082
22.6441   1080
22.6541   1047
22.6641   1043
22.6741   1057
22.6841   1010
22.6941   1061
22.7041   1087
22.7141   1122
22.7241   1021
22.7341   1075
22.7441   1080
22.7541   1107
22.7641   1004
22.7741   1043
22.7841   1039
22.7941   1067
22.8041   1029
22.8141   1067
22.8241   1092
22.8341   1007
22.8441   1060
22.8541   1079
22.8641   1084
22.8741   1057
22.8841   1056
22.8941   1055
22.9041   1083
22.9141   1007
22.9241   1060
22.9341   1090
22.9441   1043
22.9541   1072
22.9641   1043
22.9741   1070
22.9841   1069
22.9941   1043
23.0041   1085
23.0141   1117
23.0241   1104
23.0341   1091
23.0441   1074
23.0541   1063
23.0641   1078
23.0741   1056
23.0841   1096
23.0941   1123
23.1041   1009
23.1141   1029
23.1241   1089
23.1341   1042
23.1441   1059
23.1541   1067
23.1641   1099
23.1741   1054
23.1841   1028
23.1941   1033
23.2041   1009
23.2141   1001
23.2241   1062
23.2341   1014
23.2441   1091
23.2541   1062
23.2641   1035
23.2741   1022
23.2841   1050
23.2941   1046
23.3041   1075
23.3141   1058
23.3241   1026
23.3341   1081
23.3441   1059
23.3541   1040
23.3641   1001
23.3741   1071
23.3841   1010
23.3941   1006
23.4041   1059
23.4141   1046
23.4241   1002
23.4341   1051
23.4441   1004
23.4541   1041
23.4641   1032
23.4741   1027
23.4841   1066
23.4941   1042
23.5041   1035
23.5141   1035
23.5241   1018
23.5341   1025
23.5441   1097
23.5541   1029
23.5641   1007
23.5741   1025
23.5841   1042
23.5941   1077
23.6041   1145
23.6141   1045
23.6241   1013
23.6341   1078
23.6441   1004
23.6541   1043
23.6641   1085
23.6741   1069
23.6841   1061
23.6941   1072
23.7041   1090
23.7141   1174
23.7241   1089
23.7341   1142
23.7441   1180
23.7541   1065
23.7641   1115
23.7741   1103
23.7841   1086
23.7941   1093
23.8041   1131
23.8141   1157
23.8241   1166
23.8341   1154
23.8441   1156
23.8541   1108
23.8641   1023
23.8741   1113
23.8841   1098
23.8941   1051
23.9041   1093
23.9141   1084
23.9241   1080
23.9341   1046
23.9441   1014
23.9541   1051
23.9641   1029
23.9741   1055
23.9841    972
23.9941   1002
24.0041   1008
24.0141   1029
24.0241   1072
24.0341   1025
24.0441    997
24.0541   1040
24.0641   1005
24.0741   1064
24.0841    987
24.0941   1095
24.1041   1026
24.1141   1019
24.1241   1011
24.1341   1038
24.1441    960
24.1541    989
24.1641    998
24.1741    987
24.1841   1005
24.1941   1000
24.2041   1031
24.2141   1036
24.2241    989
24.2341    964
24.2441   1031
24.2541   1034
24.2641   1009
24.2741   1037
24.2841   1005
24.2941   1022
24.3041   1031
24.3141    943
24.3241   1002
24.3341   1029
24.3441   1050
24.3541   1041
24.3641   1022
24.3741   1027
24.3841   1032
24.3941    965
24.4041    984
24.4141   1026
24.4241    998
24.4341   1015
24.4441   1028
24.4541    982
24.4641    948
24.4741    982
24.4841    995
24.4941    911
24.5041    951
24.5141    998
24.5241    972
24.5341    986
24.5441    940
24.5541   1044
24.5641   1029
24.5741    925
24.5841    949
24.5941    995
24.6041    951
24.6141   1010
24.6241    999
24.6341    979
24.6441   1011
24.6541    991
24.6641    955
24.6741    960
24.6841    951
24.6941   1016
24.7041    997
24.7141   1003
24.7241    974
24.7341   1012
24.7441    925
24.7541    987
24.7641    995
24.7741    972
24.7841    973
24.7941    973
24.8041   1010
24.8141    925
24.8241    908
24.8341    910
24.8441    956
24.8541    985
24.8641   1025
24.8741    981
24.8841    947
24.8941    962
24.9041    985
24.9141    949
24.9241    986
24.9341    956
24.9441    978
24.9541   1007
24.9641    981
24.9741    986
24.9841   1021
24.9941    994
25.0041   1013
25.0141   1018
25.0241    912
25.0341    975
25.0441    996
25.0541    957
25.0641   1000
25.0741   1039
25.0841    985
25.0941    991
25.1041    986
25.1141    969
25.1241   1002
25.1341    953
25.1441    981
25.1541    958
25.1641   1005
25.1741   1031
25.1841   1039
25.1941    962
25.2041   1012
25.2141   1029
25.2241    957
25.2341   1000
25.2441    983
25.2541    971
25.2641   1043
25.2741    977
25.2841   1022
25.2941    973
25.3041    954
25.3141    925
25.3241    993
25.3341    971
25.3441    955
25.3541    940
25.3641    953
25.3741    968
25.3841    945
25.3941    965
25.4041   1004
25.4141    966
25.4241    932
25.4341    932
25.4441    920
25.4541    893
25.4641    892
25.4741    926
25.4841    946
25.4941    953
25.5041    939
25.5141    911
25.5241    920
25.5341    885
25.5441    938
25.5541    999
25.5641    934
25.5741    922
25.5841    863
25.5941    831
25.6041    924
25.6141    930
25.6241    874
25.6341    916
25.6441    859
25.6541    868
25.6641    936
25.6741    894
25.6841    914
25.6941    899
25.7041    911
25.7141    881
25.7241    888
25.7341    868
25.7441    899
25.7541    916
25.7641    908
25.7741    888
25.7841    891
25.7941    900
25.8041    882
25.8141    880
25.8241    933
25.8341    890
25.8441    913
25.8541    914
25.8641    884
25.8741    915
25.8841    893
25.8941    906
25.9041    892
25.9141    889
25.9241    880
25.9341    878
25.9441    849
25.9541    843
25.9641    905
25.9741    851
25.9841    875
25.9941    876
26.0041    852
26.0141    874
26.0241    876
26.0341    852
26.0441    895
26.0541    842
26.0641    901
26.0741    866
26.0841    830
26.0941    899
26.1041    836
26.1141    889
26.1241    903
26.1341    912
26.1441    881
26.1541    884
26.1641    906
26.1741    877
26.1841    896
26.1941    902
26.2041    829
26.2141    865
26.2241    881
26.2341    873
26.2441    891
26.2541    867
26.2641    874
26.2741    847
26.2841    848
26.2941    863
26.3041    849
26.3141    855
26.3241    900
26.3341    850
26.3441    928
26.3541    914
26.3641    878
26.3741    874
26.3841    889
26.3941    909
26.4041    900
26.4141    849
26.4241    871
26.4341    862
26.4441    926
26.4541    858
26.4641    827
26.4741    854
26.4841    885
26.4941    875
26.5041    884
26.5141    869
26.5241    898
26.5341    888
26.5441    835
26.5541    846
26.5641    861
26.5741    839
26.5841    811
26.5941    843
26.6041    842
26.6141    859
26.6241    911
26.6341    820
26.6441    815
26.6541    803
26.6641    836
26.6741    799
26.6841    823
26.6941    863
26.7041    801
26.7141    806
26.7241    822
26.7341    844
26.7441    842
26.7541    802
26.7641    863
26.7741    866
26.7841    845
26.7941    816
26.8041    840
26.8141    797
26.8241    742
26.8341    794
26.8441    830
26.8541    823
26.8641    814
26.8741    793
26.8841    798
26.8941    801
26.9041    786
26.9141    809
26.9241    790
26.9341    820
26.9441    830
26.9541    817
26.9641    802
26.9741    845
26.9841    833
26.9941    813
27.0041    848
27.0141    803
27.0241    757
27.0341    768
27.0441    778
27.0541    755
27.0641    800
27.0741    825
27.0841    857
27.0941    815
27.1041    888
27.1141    804
27.1241    764
27.1341    826
27.1441    778
27.1541    819
27.1641    792
27.1741    814
27.1841    817
27.1941    805
27.2041    778
27.2141    795
27.2241    805
27.2341    764
27.2441    745
27.2541    771
27.2641    797
27.2741    786
27.2841    791
27.2941    814
27.3041    782
27.3141    804
27.3241    795
27.3341    793
27.3441    771
27.3541    764
27.3641    816
27.3741    791
27.3841    766
27.3941    795
27.4041    786
27.4141    792
27.4241    832
27.4341    808
27.4441    774
27.4541    799
27.4641    783
27.4741    801
27.4841    801
27.4941    775
27.5041    790
27.5141    788
27.5241    738
27.5341    776
27.5441    805
27.5541    787
27.5641    762
27.5741    743
27.5841    814
27.5941    777
27.6041    751
27.6141    730
27.6241    755
27.6341    779
27.6441    728
27.6541    729
27.6641    705
27.6741    755
27.6841    767
27.6941    741
27.7041    811
27.7141    799
27.7241    755
27.7341    723
27.7441    768
27.7541    731
27.7641    758
27.7741    752
27.7841    776
27.7941    750
27.8041    745
27.8141    779
27.8241    730
27.8341    759
27.8441    769
27.8541    778
27.8641    734
27.8741    726
27.8841    713
27.8941    699
27.9041    736
27.9141    729
27.9241    743
27.9341    734
27.9441    741
27.9541    728
27.9641    713
27.9741    711
27.9841    707
27.9941    705
28.0041    760
28.0141    721
28.0241    728
28.0341    718
28.0441    702
28.0541    765
28.0641    746
28.0741    697
28.0841    740
28.0941    744
28.1041    704
28.1141    682
28.1241    740
28.1341    737
28.1441    715
28.1541    708
28.1641    695
28.1741    721
28.1841    699
28.1941    738
28.2041    708
28.2141    753
28.2241    723
28.2341    677
28.2441    695
28.2541    718
28.2641    758
28.2741    754
28.2841    705
28.2941    709
28.3041    728
28.3141    718
28.3241    666
28.3341    700
28.3441    715
28.3541    691
28.3641    692
28.3741    716
28.3841    696
28.3941    679
28.4041    681
28.4141    720
28.4241    695
28.4341    720
28.4441    723
28.4541    685
28.4641    681
28.4741    654
28.4841    679
28.4941    656
28.5041    639
28.5141    728
28.5241    726
28.5341    679
28.5441    671
28.5541    680
28.5641    714
28.5741    618
28.5841    668
28.5941    669
28.6041    725
28.6141    681
28.6241    671
28.6341    686
28.6441    667
28.6541    639
28.6641    730
28.6741    634
28.6841    662
28.6941    716
28.7041    664
28.7141    683
28.7241    648
28.7341    660
28.7441    706
28.7541    627
28.7641    631
28.7741    692
28.7841    654
28.7941    672
28.8041    631
28.8141    650
28.8241    623
28.8341    664
28.8441    633
28.8541    662
28.8641    665
28.8741    698
28.8841    709
28.8941    661
28.9041    679
28.9141    682
28.9241    682
28.9341    690
28.9441    621
28.9541    648
28.9641    613
28.9741    674
28.9841    631
28.9941    637
29.0041    656
29.0141    595
29.0241    714
29.0341    634
29.0441    604
29.0541    645
29.0641    654
29.0741    634
29.0841    640
29.0941    673
29.1041    663
29.1141    645
29.1241    633
29.1341    579
29.1441    592
29.1541    643
29.1641    617
29.1741    617
29.1841    590
29.1941    639
29.2041    605
29.2141    628
29.2241    606
29.2341    612
29.2441    616
29.2541    632
29.2641    642
29.2741    625
29.2841    592
29.2941    587
29.3041    648
29.3141    613
29.3241    593
29.3341    594
29.3441    597
29.3541    605
29.3641    632
29.3741    640
29.3841    578
29.3941    623
29.4041    638
29.4141    656
29.4241    596
29.4341    640
29.4441    642
29.4541    595
29.4641    625
29.4741    621
29.4841    673
29.4941    613
29.5041    602
29.5141    609
29.5241    593
29.5341    623
29.5441    583
29.5541    630
29.5641    644
29.5741    609
29.5841    583
29.5941    566
29.6041    591
29.6141    589
29.6241    585
29.6341    649
29.6441    590
29.6541    606
29.6641    600
29.6741    580
29.6841    602
29.6941    610
29.7041    594
29.7141    588
29.7241    570
29.7341    579
29.7441    612
29.7541    588
29.7641    619
29.7741    587
29.7841    564
29.7941    577
29.8041    596
29.8141    574
29.8241    581
29.8341    606
29.8441    607
29.8541    596
29.8641    569
29.8741    563
29.8841    552
29.8941    580
29.9041    539
29.9141    590
29.9241    580
29.9341    566
29.9441    552
29.9541    571
29.9641    598
29.9741    573
29.9841    577
29.9941    570
30.0041    542
30.0141    595
30.0241    562
30.0341    536
30.0441    579
30.0541    546
30.0641    555
30.0741    555
30.0841    554
30.0941    583
30.1041    529
30.1141    563
30.1241    528
30.1341    523
30.1441    506
30.1541    551
30.1641    590
30.1741    555
30.1841    570
30.1941    552
30.2041    551
30.2141    523
30.2241    558
30.2341    525
30.2441    575
30.2541    539
30.2641    486
30.2741    512
30.2841    531
30.2941    535
30.3041    569
30.3141    548
30.3241    530
30.3341    537
30.3441    510
30.3541    559
30.3641    521
30.3741    519
30.3841    573
30.3941    551
30.4041    515
30.4141    541
30.4241    545
30.4341    544
30.4441    517
30.4541    497
30.4641    524
30.4741    545
30.4841    515
30.4941    521
30.5041    518
30.5141    562
30.5241    506
30.5341    525
30.5441    520
30.5541    456
30.5641    533
30.5741    522
30.5841    504
30.5941    540
30.6041    561
30.6141    536
30.6241    552
30.6341    502
30.6441    506
30.6541    512
30.6641    491
30.6741    518
30.6841    483
30.6941    505
30.7041    504
30.7141    529
30.7241    526
30.7341    534
30.7441    501
30.7541    538
30.7641    502
30.7741    514
30.7841    488
30.7941    482
30.8041    490
30.8141    531
30.8241    501
30.8341    503
30.8441    529
30.8541    518
30.8641    526
30.8741    491
30.8841    496
30.8941    505
30.9041    514
30.9141    462
30.9241    514
30.9341    501
30.9441    516
30.9541    501
30.9641    496
30.9741    483
30.9841    482
30.9941    500
31.0041    471
31.0141    522
31.0241    498
31.0341    458
31.0441    511
31.0541    485
31.0641    499
31.0741    471
31.0841    548
31.0941    474
31.1041    470
31.1141    509
31.1241    478
31.1341    506
31.1441    469
31.1541    482
31.1641    477
31.1741    491
31.1841    493
31.1941    504
31.2041    495
31.2141    496
31.2241    468
31.2341    481
31.2441    485
31.2541    503
31.2641    447
31.2741    456
31.2841    424
31.2941    476
31.3041    468
31.3141    434
31.3241    446
31.3341    478
31.3441    453
31.3541    476
31.3641    487
31.3741    465
31.3841    489
31.3941    481
31.4041    450
31.4141    456
31.4241    457
31.4341    464
31.4441    432
31.4541    459
31.4641    490
31.4741    448
31.4841    456
31.4941    468
31.5041    463
31.5141    450
31.5241    425
31.5341    432
31.5441    438
31.5541    462
31.5641    516
31.5741    462
31.5841    465
31.5941    470
31.6041    455
31.6141    475
31.6241    468
31.6341    452
31.6441    435
31.6541    458
31.6641    461
31.6741    450
31.6841    451
31.6941    477
31.7041    464
31.7141    446
31.7241    460
31.7341    443
31.7441    465
31.7541    445
31.7641    442
31.7741    470
31.7841    444
31.7941    467
31.8041    443
31.8141    437
31.8241    431
31.8341    465
31.8441    457
31.8541    489
31.8641    441
31.8741    471
31.8841    426
31.8941    438
31.9041    417
31.9141    464
31.9241    483
31.9341    455
31.9441    436
31.9541    410
31.9641    417
31.9741    440
31.9841    459
31.9941    439
32.0041    389
32.0141    403
32.0241    445
32.0341    431
32.0441    412
32.0541    390
32.0641    413
32.0741    410
32.0841    408
32.0941    445
32.1041    439
32.1141    441
32.1241    437
32.1341    439
32.1441    462
32.1541    407
32.1641    399
32.1741    396
32.1841    451
32.1941    412
32.2041    428
32.2141    425
32.2241    422
32.2341    426
32.2441    441
32.2541    436
32.2641    431
32.2741    430
32.2841    453
32.2941    375
32.3041    417
32.3141    402
32.3241    406
32.3341    422
32.3441    394
32.3541    394
32.3641    379
32.3741    412
32.3841    421
32.3941    426
32.4041    392
32.4141    384
32.4241    384
32.4341    411
32.4441    382
32.4541    364
32.4641    387
32.4741    366
32.4841    409
32.4941    398
32.5041    399
32.5141    381
32.5241    386
32.5341    371
32.5441    399
32.5541    391
32.5641    372
32.5741    414
32.5841    427
32.5941    389
32.6041    375
32.6141    393
32.6241    359
32.6341    378
32.6441    388
32.6541    357
32.6641    395
32.6741    387
32.6841    375
32.6941    381
32.7041    425
32.7141    390
32.7241    362
32.7341    380
32.7441    375
32.7541    374
32.7641    342
32.7741    376
32.7841    388
32.7941    357
32.8041    379
32.8141    371
32.8241    365
32.8341    353
32.8441    352
32.8541    388
32.8641    368
32.8741    365
32.8841    414
32.8941    382
32.9041    354
32.9141    388
32.9241    357
32.9341    339
32.9441    361
32.9541    349
32.9641    369
32.9741    356
32.9841    340
32.9941    350
33.0041    392
33.0141    371
33.0241    380
33.0341    353
33.0441    360
33.0541    364
33.0641    318
33.0741    367
33.0841    323
33.0941    341
33.1041    330
33.1141    337
33.1241    347
33.1341    372
33.1441    331
33.1541    338
33.1641    333
33.1741    350
33.1841    346
33.1941    355
33.2041    330
33.2141    335
33.2241    331
33.2341    326
33.2441    348
33.2541    308
33.2641    325
33.2741    321
33.2841    348
33.2941    344
33.3041    354
33.3141    347
33.3241    341
33.3341    336
33.3441    351
33.3541    344
33.3641    340
33.3741    313
33.3841    360
33.3941    329
33.4041    310
33.4141    314
33.4241    356
33.4341    331
33.4441    355
33.4541    352
33.4641    325
33.4741    312
33.4841    336
33.4941    320
33.5041    334
33.5141    306
33.5241    312
33.5341    293
33.5441    340
33.5541    332
33.5641    323
33.5741    344
33.5841    316
33.5941    325
33.6041    333
33.6141    300
33.6241    329
33.6341    307
33.6441    299
33.6541    305
33.6641    305
33.6741    327
33.6841    315
33.6941    339
33.7041    340
33.7141    336
33.7241    327
33.7341    285
33.7441    329
33.7541    316
33.7641    286
33.7741    287
33.7841    317
33.7941    323
33.8041    313
33.8141    308
33.8241    317
33.8341    286
33.8441    293
33.8541    295
33.8641    300
33.8741    321
33.8841    296
33.8941    307
33.9041    290
33.9141    295
33.9241    305
33.9341    306
33.9441    304
33.9541    283
33.9641    325
33.9741    308
33.9841    302
33.9941    284
34.0041    282
34.0141    320
34.0241    301
34.0341    313
34.0441    309
34.0541    289
34.0641    307
34.0741    297
34.0841    282
34.0941    312
34.1041    270
34.1141    319
34.1241    321
34.1341    310
34.1441    245
34.1541    316
34.1641    322
34.1741    291
34.1841    298
34.1941    294
34.2041    265
34.2141    257
34.2241    291
34.2341    285
34.2441    282
34.2541    281
34.2641    329
34.2741    278
34.2841    279
34.2941    283
34.3041    296
34.3141    288
34.3241    291
34.3341    293
34.3441    289
34.3541    283
34.3641    281
34.3741    258
34.3841    287
34.3941    297
34.4041    310
34.4141    305
34.4241    285
34.4341    255
34.4441    260
34.4541    264
34.4641    289
34.4741    296
34.4841    276
34.4941    239
34.5041    265
34.5141    239
34.5241    276
34.5341    291
34.5441    273
34.5541    255
34.5641    257
34.5741    270
34.5841    253
34.5941    256
34.6041    280
34.6141    261
34.6241    269
34.6341    268
34.6441    250
34.6541    258
34.6641    263
34.6741    256
34.6841    241
34.6941    249
34.7041    225
34.7141    271
34.7241    259
34.7341    265
34.7441    228
34.7541    249
34.7641    262
34.7741    244
34.7841    256
34.7941    257
34.8041    273
34.8141    270
34.8241    249
34.8341    267
34.8441    247
34.8541    263
34.8641    269
34.8741    228
34.8841    235
34.8941    252
34.9041    259
34.9141    231
34.9241    247
34.9341    249
34.9441    223
34.9541    236
34.9641    257
34.9741    241
34.9841    246
34.9941    262
35.0041    240
35.0141    227
35.0241    240
35.0341    233
35.0441    213
35.0541    238
35.0641    241
35.0741    217
35.0841    272
35.0941    271
35.1041    240
35.1141    229
35.1241    235
35.1341    229
35.1441    233
35.1541    226
35.1641    245
35.1741    220
35.1841    242
35.1941    255
35.2041    217
35.2141    257
35.2241    238
35.2341    240
35.2441    235
35.2541    208
35.2641    256
35.2741    192
35.2841    232
35.2941    224
35.3041    231
35.3141    231
35.3241    229
35.3341    227
35.3441    217
35.3541    237
35.3641    224
35.3741    242
35.3841    213
35.3941    229
35.4041    237
35.4141    224
35.4241    234
35.4341    230
35.4441    223
35.4541    214
35.4641    255
35.4741    212
35.4841    212
35.4941    211
35.5041    191
35.5141    202
35.5241    237
35.5341    233
35.5441    221
35.5541    224
35.5641    202
35.5741    214
35.5841    250
35.5941    221
35.6041    239
35.6141    219
35.6241    211
35.6341    188
35.6441    186
35.6541    209
35.6641    204
35.6741    208
35.6841    197
35.6941    222
35.7041    192
35.7141    218
35.7241    223
35.7341    211
35.7441    212
35.7541    224
35.7641    204
35.7741    209
35.7841    212
35.7941    210
35.8041    205
35.8141    210
35.8241    196
35.8341    201
35.8441    209
35.8541    211
35.8641    211
35.8741    203
35.8841    235
35.8941    208
35.9041    188
35.9141    194
35.9241    235
35.9341    216
35.9441    226
35.9541    201
35.9641    217
35.9741    209
35.9841    187
35.9941    195
36.0041    174
36.0141    191
36.0241    225
36.0341    203
36.0441    203
36.0541    213
36.0641    201
36.0741    218
36.0841    189
36.0941    203
36.1041    202
36.1141    216
36.1241    213
36.1341    214
36.1441    178
36.1541    194
36.1641    184
36.1741    176
36.1841    197
36.1941    209
36.2041    170
36.2141    186
36.2241    197
36.2341    196
36.2441    187
36.2541    198
36.2641    192
36.2741    185
36.2841    189
36.2941    193
36.3041    188
36.3141    218
36.3241    196
36.3341    175
36.3441    187
36.3541    175
36.3641    215
36.3741    182
36.3841    165
36.3941    178
36.4041    205
36.4141    184
36.4241    199
36.4341    179
36.4441    184
36.4541    168
36.4641    177
36.4741    184
36.4841    183
36.4941    180
36.5041    181
36.5141    206
36.5241    176
36.5341    180
36.5441    179
36.5541    172
36.5641    161
36.5741    196
36.5841    172
36.5941    154
36.6041    182
36.6141    159
36.6241    155
36.6341    174
36.6441    153
36.6541    178
36.6641    163
36.6741    184
36.6841    163
36.6941    176
36.7041    153
36.7141    173
36.7241    167
36.7341    161
36.7441    149
36.7541    158
36.7641    204
36.7741    161
36.7841    153
36.7941    169
36.8041    162
36.8141    152
36.8241    152
36.8341    163
36.8441    172
36.8541    179
36.8641    171
36.8741    175
36.8841    160
36.8941    162
36.9041    169
36.9141    172
36.9241    158
36.9341    149
36.9441    147
36.9541    143
36.9641    158
36.9741    144
36.9841    153
36.9941    162
37.0041    169
37.0141    183
37.0241    174
37.0341    164
37.0441    147
37.0541    168
37.0641    170
37.0741    155
37.0841    158
37.0941    163
37.1041    177
37.1141    139
37.1241    154
37.1341    123
37.1441    126
37.1541    170
37.1641    170
37.1741    150
37.1841    166
37.1941    164
37.2041    174
37.2141    151
37.2241    146
37.2341    132
37.2441    147
37.2541    131
37.2641    156
37.2741    133
37.2841    126
37.2941    129
37.3041    137
37.3141    121
37.3241    145
37.3341    117
37.3441    153
37.3541    141
37.3641    134
37.3741    145
37.3841    164
37.3941    133
37.4041    151
37.4141    152
37.4241    163
37.4341    175
37.4441    143
37.4541    114
37.4641    159
37.4741    141
37.4841    126
37.4941    133
37.5041    147
37.5141    148
37.5241    154
37.5341    134
37.5441    134
37.5541    135
37.5641    141
37.5741    153
37.5841    146
37.5941    129
37.6041    150
37.6141    144
37.6241    153
37.6341    151
37.6441    145
37.6541    136
37.6641    150
37.6741    126
37.6841    152
37.6941    137
37.7041    155
37.7141    122
37.7241    126
37.7341    127
37.7441    124
37.7541    158
37.7641    132
37.7741    123
37.7841    131
37.7941    137
37.8041    131
37.8141    133
37.8241    127
37.8341    134
37.8441    113
37.8541    136
37.8641    129
37.8741    120
37.8841    123
37.8941    111
37.9041    114
37.9141    129
37.9241    117
37.9341    129
37.9441    123
37.9541    124
37.9641    126
37.9741    116
37.9841    123
37.9941    134
38.0041    118
38.0141    122
38.0241    121
38.0341    120
38.0441    106
38.0541    123
38.0641    143
38.0741    121
38.0841    150
38.0941    110
38.1041    112
38.1141     98
38.1241     98
38.1341    118
38.1441    113
38.1541    141
38.1641    110
38.1741    109
38.1841    125
38.1941    128
38.2041    124
38.2141    110
38.2241    127
38.2341     99
38.2441    112
38.2541    105
38.2641    123
38.2741    120
38.2841     98
38.2941    125
38.3041    111
38.3141    118
38.3241    110
38.3341    111
38.3441    115
38.3541    110
38.3641    108
38.3741     97
38.3841    113
38.3941     84
38.4041    102
38.4141    121
38.4241    106
38.4341     99
38.4441    102
38.4541    107
38.4641    115
38.4741    103
38.4841    116
38.4941     91
38.5041    105
38.5141    122
38.5241    109
38.5341    102
38.5441    123
38.5541    111
38.5641    107
38.5741    100
38.5841    101
38.5941    102
38.6041    104
38.6141    101
38.6241    108
38.6341     81
38.6441    114
38.6541     99
38.6641    106
38.6741     92
38.6841    111
38.6941     93
38.7041     83
38.7141    104
38.7241     87
38.7341    105
38.7441     96
38.7541     90
38.7641    103
38.7741     90
38.7841    104
38.7941    100
38.8041     98
38.8141     85
38.8241     97
38.8341    100
38.8441     92
38.8541     98
38.8641    111
38.8741    110
38.8841    109
38.8941     89
38.9041     98
38.9141    110
38.9241     82
38.9341     76
38.9441     89
38.9541     85
38.9641     97
38.9741     95
38.9841     79
38.9941     93
39.0041    114
39.0141     96
39.0241    112
39.0341     89
39.0441     81
39.0541     91
39.0641     81
39.0741     89
39.0841     89
39.0941     86
39.1041    103
39.1141     82
39.1241     82
39.1341     93
39.1441     78
39.1541     84
39.1641     92
39.1741     78
39.1841     98
39.1941     95
39.2041     72
39.2141    103
39.2241    110
39.2341     90
39.2441     79
39.2541     73
39.2641     80
39.2741     93
39.2841     83
39.2941     91
39.3041     67
39.3141     82
39.3241     78
39.3341     82
39.3441     82
39.3541     83
39.3641     78
39.3741    108
39.3841     77
39.3941     86
39.4041    100
39.4141     80
39.4241     80
39.4341     85
39.4441     97
39.4541     88
39.4641     88
39.4741     90
39.4841     66
39.4941     89
39.5041     87
39.5141     70
39.5241     82
39.5341     81
39.5441     66
39.5541     82
39.5641     64
39.5741     73
39.5841     75
39.5941     85
39.6041     81
39.6141     70
39.6241     70
39.6341     90
39.6441     73
39.6541     71
39.6641     84
39.6741     73
39.6841     72
39.6941     73
39.7041     73
39.7141     74
39.7241     61
39.7341     81
39.7441     71
39.7541     78
39.7641     76
39.7741     75
39.7841     74
39.7941     71
39.8041     58
39.8141     87
39.8241     74
39.8341     63
39.8441     63
39.8541     72
39.8641     57
39.8741     68
39.8841     59
39.8941     56
39.9041     82
39.9141     49
39.9241     70
39.9341     74
39.9441     69
39.9541     60
39.9641     76
39.9741     64
39.9841     68
39.9941     62
