Bruker Nano GmbH Berlin, Germany
Esprit 1.9

Date: 4/21/2021 2:29:19 PM
Real time: 27273
Life time: 25541
Pulse density: 90865


Detector type: XFlash 430
Window type: Custom type
Detector thickness: 0.45
Si dead layer:0.029

Calibration, lin.: 10
Calibration, abs.: -955.9
Mn FWHM: 137.05
Fano factor: 0.121
Channels: 4096

Energy Counts
-0.9559     0
-0.9459     0
-0.9359     0
-0.9259     0
-0.9159     0
-0.9059     0
-0.8959     0
-0.8859     0
-0.8759     0
-0.8659     0
-0.8559     0
-0.8459     0
-0.8359     0
-0.8259     0
-0.8159     0
-0.8059     0
-0.7959     0
-0.7859     0
-0.7759     0
-0.7659     0
-0.7559     0
-0.7459     0
-0.7359     0
-0.7259     0
-0.7159     0
-0.7059     0
-0.6959     0
-0.6859     0
-0.6759     0
-0.6659     0
-0.6559     0
-0.6459     0
-0.6359     0
-0.6259     0
-0.6159     0
-0.6059     0
-0.5959     0
-0.5859     0
-0.5759     0
-0.5659     0
-0.5559     0
-0.5459     0
-0.5359     0
-0.5259     0
-0.5159     0
-0.5059     0
-0.4959     0
-0.4859     0
-0.4759     0
-0.4659     0
-0.4559     0
-0.4459     0
-0.4359     0
-0.4259     0
-0.4159     0
-0.4059     0
-0.3959     0
-0.3859     0
-0.3759     0
-0.3659     0
-0.3559     0
-0.3459     0
-0.3359     0
-0.3259     0
-0.3159     0
-0.3059     0
-0.2959     0
-0.2859     0
-0.2759     0
-0.2659     0
-0.2559     0
-0.2459     0
-0.2359     0
-0.2259     0
-0.2159     0
-0.2059     0
-0.1959     0
-0.1859     0
-0.1759     0
-0.1659     0
-0.1559     0
-0.1459     0
-0.1359     1
-0.1259     2
-0.1159     5
-0.1059    19
-0.0959    82
-0.0859   293
-0.0759   989
-0.0659  2898
-0.0559  7401
-0.0459 16208
-0.0359 30437
-0.0259 48517
-0.0159 66661
-0.0059 78253
 0.0041 78839
 0.0141 68037
 0.0241 49938
 0.0341 31481
 0.0441 17266
 0.0541  8006
 0.0641  3260
 0.0741  1111
 0.0841   352
 0.0941   101
 0.1041    27
 0.1141    21
 0.1241     8
 0.1341    13
 0.1441     5
 0.1541     1
 0.1641     6
 0.1741    36
 0.1841   270
 0.1941   497
 0.2041   458
 0.2141   456
 0.2241   432
 0.2341   451
 0.2441   435
 0.2541   438
 0.2641   467
 0.2741   447
 0.2841   437
 0.2941   460
 0.3041   398
 0.3141   433
 0.3241   432
 0.3341   445
 0.3441   387
 0.3541   413
 0.3641   436
 0.3741   406
 0.3841   424
 0.3941   387
 0.4041   408
 0.4141   425
 0.4241   425
 0.4341   402
 0.4441   404
 0.4541   361
 0.4641   381
 0.4741   393
 0.4841   376
 0.4941   381
 0.5041   387
 0.5141   379
 0.5241   373
 0.5341   374
 0.5441   376
 0.5541   360
 0.5641   387
 0.5741   392
 0.5841   365
 0.5941   378
 0.6041   353
 0.6141   357
 0.6241   336
 0.6341   324
 0.6441   331
 0.6541   328
 0.6641   355
 0.6741   365
 0.6841   347
 0.6941   323
 0.7041   317
 0.7141   339
 0.7241   355
 0.7341   337
 0.7441   325
 0.7541   331
 0.7641   332
 0.7741   322
 0.7841   345
 0.7941   332
 0.8041   335
 0.8141   318
 0.8241   316
 0.8341   343
 0.8441   339
 0.8541   312
 0.8641   309
 0.8741   291
 0.8841   298
 0.8941   304
 0.9041   278
 0.9141   318
 0.9241   302
 0.9341   290
 0.9441   300
 0.9541   299
 0.9641   322
 0.9741   318
 0.9841   312
 0.9941   303
 1.0041   303
 1.0141   292
 1.0241   304
 1.0341   291
 1.0441   281
 1.0541   279
 1.0641   297
 1.0741   297
 1.0841   278
 1.0941   313
 1.1041   264
 1.1141   287
 1.1241   287
 1.1341   283
 1.1441   287
 1.1541   278
 1.1641   263
 1.1741   285
 1.1841   274
 1.1941   282
 1.2041   281
 1.2141   290
 1.2241   279
 1.2341   299
 1.2441   263
 1.2541   263
 1.2641   296
 1.2741   282
 1.2841   278
 1.2941   270
 1.3041   272
 1.3141   254
 1.3241   255
 1.3341   266
 1.3441   270
 1.3541   260
 1.3641   268
 1.3741   255
 1.3841   267
 1.3941   292
 1.4041   284
 1.4141   289
 1.4241   297
 1.4341   275
 1.4441   274
 1.4541   259
 1.4641   257
 1.4741   257
 1.4841   263
 1.4941   244
 1.5041   280
 1.5141   247
 1.5241   262
 1.5341   243
 1.5441   260
 1.5541   287
 1.5641   283
 1.5741   270
 1.5841   235
 1.5941   262
 1.6041   253
 1.6141   256
 1.6241   239
 1.6341   271
 1.6441   299
 1.6541   286
 1.6641   346
 1.6741   403
 1.6841   538
 1.6941   639
 1.7041   740
 1.7141   871
 1.7241  1018
 1.7341   989
 1.7441   978
 1.7541   959
 1.7641   870
 1.7741   716
 1.7841   651
 1.7941   551
 1.8041   434
 1.8141   373
 1.8241   334
 1.8341   296
 1.8441   303
 1.8541   286
 1.8641   272
 1.8741   281
 1.8841   264
 1.8941   262
 1.9041   241
 1.9141   238
 1.9241   248
 1.9341   279
 1.9441   287
 1.9541   300
 1.9641   272
 1.9741   307
 1.9841   291
 1.9941   306
 2.0041   297
 2.0141   285
 2.0241   321
 2.0341   323
 2.0441   319
 2.0541   272
 2.0641   273
 2.0741   235
 2.0841   260
 2.0941   230
 2.1041   229
 2.1141   208
 2.1241   227
 2.1341   212
 2.1441   234
 2.1541   215
 2.1641   230
 2.1741   233
 2.1841   246
 2.1941   231
 2.2041   255
 2.2141   219
 2.2241   241
 2.2341   217
 2.2441   230
 2.2541   223
 2.2641   187
 2.2741   226
 2.2841   251
 2.2941   257
 2.3041   210
 2.3141   219
 2.3241   236
 2.3341   188
 2.3441   218
 2.3541   205
 2.3641   228
 2.3741   206
 2.3841   224
 2.3941   211
 2.4041   239
 2.4141   222
 2.4241   188
 2.4341   210
 2.4441   200
 2.4541   220
 2.4641   225
 2.4741   207
 2.4841   203
 2.4941   223
 2.5041   203
 2.5141   208
 2.5241   177
 2.5341   172
 2.5441   191
 2.5541   203
 2.5641   202
 2.5741   184
 2.5841   204
 2.5941   164
 2.6041   210
 2.6141   195
 2.6241   194
 2.6341   187
 2.6441   176
 2.6541   189
 2.6641   168
 2.6741   208
 2.6841   196
 2.6941   168
 2.7041   166
 2.7141   177
 2.7241   188
 2.7341   196
 2.7441   178
 2.7541   187
 2.7641   201
 2.7741   199
 2.7841   189
 2.7941   188
 2.8041   201
 2.8141   197
 2.8241   194
 2.8341   194
 2.8441   214
 2.8541   218
 2.8641   178
 2.8741   184
 2.8841   173
 2.8941   195
 2.9041   194
 2.9141   166
 2.9241   171
 2.9341   172
 2.9441   182
 2.9541   164
 2.9641   176
 2.9741   186
 2.9841   189
 2.9941   166
 3.0041   174
 3.0141   178
 3.0241   148
 3.0341   183
 3.0441   163
 3.0541   167
 3.0641   161
 3.0741   148
 3.0841   144
 3.0941   172
 3.1041   172
 3.1141   184
 3.1241   184
 3.1341   167
 3.1441   144
 3.1541   174
 3.1641   165
 3.1741   147
 3.1841   148
 3.1941   165
 3.2041   158
 3.2141   188
 3.2241   169
 3.2341   218
 3.2441   255
 3.2541   249
 3.2641   271
 3.2741   319
 3.2841   391
 3.2941   383
 3.3041   383
 3.3141   409
 3.3241   417
 3.3341   394
 3.3441   352
 3.3541   328
 3.3641   287
 3.3741   231
 3.3841   223
 3.3941   209
 3.4041   189
 3.4141   168
 3.4241   128
 3.4341   151
 3.4441   136
 3.4541   144
 3.4641   143
 3.4741   119
 3.4841   128
 3.4941   139
 3.5041   150
 3.5141   170
 3.5241   154
 3.5341   184
 3.5441   208
 3.5541   207
 3.5641   254
 3.5741   262
 3.5841   330
 3.5941   385
 3.6041   490
 3.6141   606
 3.6241   740
 3.6341   889
 3.6441  1079
 3.6541  1212
 3.6641  1322
 3.6741  1418
 3.6841  1433
 3.6941  1495
 3.7041  1433
 3.7141  1342
 3.7241  1182
 3.7341  1062
 3.7441   896
 3.7541   697
 3.7641   549
 3.7741   456
 3.7841   317
 3.7941   270
 3.8041   211
 3.8141   174
 3.8241   136
 3.8341   114
 3.8441   107
 3.8541   135
 3.8641   115
 3.8741   114
 3.8841   135
 3.8941   141
 3.9041   135
 3.9141   153
 3.9241   141
 3.9341   167
 3.9441   202
 3.9541   210
 3.9641   219
 3.9741   258
 3.9841   291
 3.9941   287
 4.0041   288
 4.0141   307
 4.0241   309
 4.0341   292
 4.0441   264
 4.0541   214
 4.0641   219
 4.0741   212
 4.0841   176
 4.0941   151
 4.1041   148
 4.1141   134
 4.1241   122
 4.1341   132
 4.1441   129
 4.1541   106
 4.1641   121
 4.1741   116
 4.1841   101
 4.1941   101
 4.2041   110
 4.2141   114
 4.2241   122
 4.2341   124
 4.2441    93
 4.2541   108
 4.2641   110
 4.2741   110
 4.2841   103
 4.2941   106
 4.3041   103
 4.3141   110
 4.3241   113
 4.3341   119
 4.3441   115
 4.3541   111
 4.3641   135
 4.3741   130
 4.3841   143
 4.3941   138
 4.4041   170
 4.4141   190
 4.4241   186
 4.4341   237
 4.4441   213
 4.4541   279
 4.4641   303
 4.4741   269
 4.4841   293
 4.4941   269
 4.5041   268
 4.5141   265
 4.5241   256
 4.5341   223
 4.5441   212
 4.5541   193
 4.5641   160
 4.5741   147
 4.5841   157
 4.5941   136
 4.6041   122
 4.6141   143
 4.6241   135
 4.6341   131
 4.6441   121
 4.6541   124
 4.6641   119
 4.6741   113
 4.6841   125
 4.6941   119
 4.7041   124
 4.7141   135
 4.7241   130
 4.7341   116
 4.7441   126
 4.7541   150
 4.7641   141
 4.7741   180
 4.7841   159
 4.7941   159
 4.8041   185
 4.8141   208
 4.8241   224
 4.8341   237
 4.8441   223
 4.8541   225
 4.8641   218
 4.8741   190
 4.8841   182
 4.8941   190
 4.9041   174
 4.9141   185
 4.9241   151
 4.9341   157
 4.9441   149
 4.9541   146
 4.9641   151
 4.9741   145
 4.9841   128
 4.9941   138
 5.0041   146
 5.0141   127
 5.0241   141
 5.0341   153
 5.0441   141
 5.0541   141
 5.0641   121
 5.0741   140
 5.0841   147
 5.0941   149
 5.1041   118
 5.1141   156
 5.1241   156
 5.1341   160
 5.1441   166
 5.1541   175
 5.1641   159
 5.1741   150
 5.1841   155
 5.1941   149
 5.2041   167
 5.2141   150
 5.2241   154
 5.2341   122
 5.2441   170
 5.2541   117
 5.2641   143
 5.2741   144
 5.2841   188
 5.2941   198
 5.3041   228
 5.3141   257
 5.3241   297
 5.3341   333
 5.3441   424
 5.3541   525
 5.3641   550
 5.3741   583
 5.3841   621
 5.3941   670
 5.4041   689
 5.4141   703
 5.4241   734
 5.4341   680
 5.4441   616
 5.4541   546
 5.4641   488
 5.4741   460
 5.4841   358
 5.4941   332
 5.5041   308
 5.5141   250
 5.5241   222
 5.5341   206
 5.5441   168
 5.5541   169
 5.5641   151
 5.5741   164
 5.5841   155
 5.5941   143
 5.6041   160
 5.6141   137
 5.6241   134
 5.6341   136
 5.6441   126
 5.6541   142
 5.6641   142
 5.6741   147
 5.6841   119
 5.6941   139
 5.7041   166
 5.7141   145
 5.7241   139
 5.7341   156
 5.7441   169
 5.7541   156
 5.7641   162
 5.7741   184
 5.7841   185
 5.7941   214
 5.8041   203
 5.8141   229
 5.8241   245
 5.8341   313
 5.8441   299
 5.8541   336
 5.8641   337
 5.8741   430
 5.8841   385
 5.8941   391
 5.9041   415
 5.9141   394
 5.9241   436
 5.9341   407
 5.9441   408
 5.9541   350
 5.9641   334
 5.9741   286
 5.9841   283
 5.9941   268
 6.0041   245
 6.0141   234
 6.0241   196
 6.0341   189
 6.0441   183
 6.0541   182
 6.0641   163
 6.0741   147
 6.0841   174
 6.0941   158
 6.1041   176
 6.1141   171
 6.1241   173
 6.1341   168
 6.1441   160
 6.1541   188
 6.1641   173
 6.1741   186
 6.1841   199
 6.1941   203
 6.2041   235
 6.2141   260
 6.2241   312
 6.2341   441
 6.2441   554
 6.2541   690
 6.2641   950
 6.2741  1259
 6.2841  1604
 6.2941  2093
 6.3041  2674
 6.3141  3469
 6.3241  4200
 6.3341  5024
 6.3441  6063
 6.3541  6825
 6.3641  7733
 6.3741  8164
 6.3841  8605
 6.3941  8913
 6.4041  8713
 6.4141  8649
 6.4241  8022
 6.4341  7473
 6.4441  6740
 6.4541  5901
 6.4641  4954
 6.4741  4178
 6.4841  3345
 6.4941  2649
 6.5041  2082
 6.5141  1601
 6.5241  1212
 6.5341   873
 6.5441   674
 6.5541   497
 6.5641   392
 6.5741   316
 6.5841   266
 6.5941   223
 6.6041   233
 6.6141   186
 6.6241   198
 6.6341   183
 6.6441   197
 6.6541   213
 6.6641   195
 6.6741   192
 6.6841   186
 6.6941   201
 6.7041   157
 6.7141   197
 6.7241   199
 6.7341   176
 6.7441   196
 6.7541   206
 6.7641   208
 6.7741   215
 6.7841   210
 6.7941   188
 6.8041   221
 6.8141   231
 6.8241   230
 6.8341   246
 6.8441   223
 6.8541   259
 6.8641   269
 6.8741   281
 6.8841   290
 6.8941   320
 6.9041   363
 6.9141   396
 6.9241   406
 6.9341   515
 6.9441   569
 6.9541   723
 6.9641   835
 6.9741   915
 6.9841  1092
 6.9941  1195
 7.0041  1356
 7.0141  1520
 7.0241  1556
 7.0341  1683
 7.0441  1759
 7.0541  1677
 7.0641  1751
 7.0741  1608
 7.0841  1593
 7.0941  1429
 7.1041  1270
 7.1141  1217
 7.1241  1104
 7.1341   891
 7.1441   846
 7.1541   694
 7.1641   663
 7.1741   547
 7.1841   441
 7.1941   378
 7.2041   389
 7.2141   338
 7.2241   291
 7.2341   317
 7.2441   270
 7.2541   302
 7.2641   295
 7.2741   304
 7.2841   337
 7.2941   320
 7.3041   386
 7.3141   405
 7.3241   414
 7.3341   479
 7.3441   548
 7.3541   653
 7.3641   748
 7.3741   843
 7.3841   917
 7.3941  1077
 7.4041  1192
 7.4141  1266
 7.4241  1391
 7.4341  1476
 7.4441  1568
 7.4541  1568
 7.4641  1669
 7.4741  1659
 7.4841  1650
 7.4941  1579
 7.5041  1481
 7.5141  1410
 7.5241  1273
 7.5341  1158
 7.5441   976
 7.5541   864
 7.5641   794
 7.5741   622
 7.5841   599
 7.5941   535
 7.6041   474
 7.6141   398
 7.6241   363
 7.6341   352
 7.6441   355
 7.6541   342
 7.6641   342
 7.6741   356
 7.6841   320
 7.6941   331
 7.7041   330
 7.7141   332
 7.7241   350
 7.7341   365
 7.7441   376
 7.7541   359
 7.7641   366
 7.7741   378
 7.7841   408
 7.7941   369
 7.8041   391
 7.8141   379
 7.8241   391
 7.8341   434
 7.8441   420
 7.8541   446
 7.8641   438
 7.8741   485
 7.8841   496
 7.8941   522
 7.9041   528
 7.9141   559
 7.9241   536
 7.9341   572
 7.9441   596
 7.9541   633
 7.9641   674
 7.9741   756
 7.9841   772
 7.9941   855
 8.0041   860
 8.0141   975
 8.0241  1099
 8.0341  1114
 8.0441  1216
 8.0541  1276
 8.0641  1344
 8.0741  1445
 8.0841  1471
 8.0941  1583
 8.1041  1648
 8.1141  1724
 8.1241  1876
 8.1341  1884
 8.1441  1875
 8.1541  1993
 8.1641  2067
 8.1741  2083
 8.1841  2240
 8.1941  2231
 8.2041  2245
 8.2141  2285
 8.2241  2367
 8.2341  2405
 8.2441  2503
 8.2541  2559
 8.2641  2654
 8.2741  2853
 8.2841  3052
 8.2941  3184
 8.3041  3376
 8.3141  3672
 8.3241  3943
 8.3341  4233
 8.3441  4459
 8.3541  4720
 8.3641  4822
 8.3741  4886
 8.3841  4945
 8.3941  5132
 8.4041  4854
 8.4141  4628
 8.4241  4500
 8.4341  4176
 8.4441  3720
 8.4541  3388
 8.4641  2997
 8.4741  2644
 8.4841  2263
 8.4941  1893
 8.5041  1589
 8.5141  1402
 8.5241  1206
 8.5341  1046
 8.5441   846
 8.5541   719
 8.5641   665
 8.5741   614
 8.5841   595
 8.5941   553
 8.6041   539
 8.6141   522
 8.6241   546
 8.6341   528
 8.6441   524
 8.6541   552
 8.6641   505
 8.6741   545
 8.6841   527
 8.6941   536
 8.7041   531
 8.7141   515
 8.7241   515
 8.7341   539
 8.7441   527
 8.7541   491
 8.7641   485
 8.7741   494
 8.7841   522
 8.7941   518
 8.8041   505
 8.8141   473
 8.8241   480
 8.8341   475
 8.8441   488
 8.8541   491
 8.8641   489
 8.8741   475
 8.8841   481
 8.8941   516
 8.9041   542
 8.9141   537
 8.9241   520
 8.9341   518
 8.9441   527
 8.9541   551
 8.9641   566
 8.9741   533
 8.9841   571
 8.9941   577
 9.0041   565
 9.0141   566
 9.0241   612
 9.0341   623
 9.0441   615
 9.0541   656
 9.0641   642
 9.0741   674
 9.0841   673
 9.0941   707
 9.1041   761
 9.1141   764
 9.1241   812
 9.1341   795
 9.1441   832
 9.1541   901
 9.1641   915
 9.1741   958
 9.1841   970
 9.1941  1020
 9.2041  1122
 9.2141  1135
 9.2241  1240
 9.2341  1263
 9.2441  1380
 9.2541  1378
 9.2641  1406
 9.2741  1542
 9.2841  1552
 9.2941  1660
 9.3041  1712
 9.3141  1720
 9.3241  1826
 9.3341  1929
 9.3441  1961
 9.3541  1950
 9.3641  2005
 9.3741  2015
 9.3841  2053
 9.3941  2064
 9.4041  2079
 9.4141  2110
 9.4241  2195
 9.4341  2234
 9.4441  2240
 9.4541  2300
 9.4641  2349
 9.4741  2294
 9.4841  2365
 9.4941  2384
 9.5041  2517
 9.5141  2511
 9.5241  2638
 9.5341  2746
 9.5441  2841
 9.5541  3009
 9.5641  3161
 9.5741  3277
 9.5841  3546
 9.5941  3784
 9.6041  3989
 9.6141  4156
 9.6241  4346
 9.6341  4427
 9.6441  4577
 9.6541  4776
 9.6641  4697
 9.6741  4842
 9.6841  4713
 9.6941  4468
 9.7041  4471
 9.7141  4148
 9.7241  3971
 9.7341  3728
 9.7441  3533
 9.7541  3294
 9.7641  3040
 9.7741  2773
 9.7841  2507
 9.7941  2326
 9.8041  2187
 9.8141  2201
 9.8241  2115
 9.8341  1944
 9.8441  1869
 9.8541  1878
 9.8641  1918
 9.8741  1972
 9.8841  2035
 9.8941  2011
 9.9041  2082
 9.9141  2189
 9.9241  2226
 9.9341  2195
 9.9441  2259
 9.9541  2194
 9.9641  2169
 9.9741  2135
 9.9841  2073
 9.9941  2001
10.0041  1820
10.0141  1757
10.0241  1563
10.0341  1443
10.0441  1272
10.0541  1165
10.0641  1095
10.0741   960
10.0841   864
10.0941   761
10.1041   720
10.1141   657
10.1241   610
10.1341   546
10.1441   484
10.1541   456
10.1641   473
10.1741   423
10.1841   395
10.1941   380
10.2041   352
10.2141   319
10.2241   315
10.2341   340
10.2441   305
10.2541   321
10.2641   337
10.2741   320
10.2841   312
10.2941   306
10.3041   275
10.3141   272
10.3241   269
10.3341   274
10.3441   264
10.3541   274
10.3641   264
10.3741   274
10.3841   280
10.3941   272
10.4041   266
10.4141   266
10.4241   271
10.4341   265
10.4441   274
10.4541   280
10.4641   280
10.4741   301
10.4841   300
10.4941   274
10.5041   268
10.5141   305
10.5241   303
10.5341   291
10.5441   281
10.5541   305
10.5641   314
10.5741   312
10.5841   304
10.5941   313
10.6041   292
10.6141   308
10.6241   323
10.6341   321
10.6441   300
10.6541   317
10.6641   315
10.6741   313
10.6841   357
10.6941   359
10.7041   364
10.7141   338
10.7241   356
10.7341   397
10.7441   397
10.7541   391
10.7641   392
10.7741   412
10.7841   398
10.7941   421
10.8041   391
10.8141   406
10.8241   436
10.8341   432
10.8441   422
10.8541   446
10.8641   460
10.8741   451
10.8841   455
10.8941   441
10.9041   462
10.9141   477
10.9241   498
10.9341   484
10.9441   501
10.9541   494
10.9641   471
10.9741   458
10.9841   473
10.9941   480
11.0041   469
11.0141   466
11.0241   491
11.0341   468
11.0441   433
11.0541   405
11.0641   430
11.0741   399
11.0841   388
11.0941   409
11.1041   409
11.1141   413
11.1241   409
11.1341   436
11.1441   419
11.1541   431
11.1641   465
11.1741   481
11.1841   518
11.1941   505
11.2041   535
11.2141   583
11.2241   608
11.2341   648
11.2441   653
11.2541   682
11.2641   664
11.2741   673
11.2841   693
11.2941   657
11.3041   644
11.3141   647
11.3241   651
11.3341   607
11.3441   590
11.3541   531
11.3641   524
11.3741   495
11.3841   482
11.3941   463
11.4041   424
11.4141   413
11.4241   428
11.4341   398
11.4441   367
11.4541   360
11.4641   336
11.4741   357
11.4841   324
11.4941   315
11.5041   320
11.5141   302
11.5241   312
11.5341   333
11.5441   320
11.5541   335
11.5641   351
11.5741   328
11.5841   353
11.5941   381
11.6041   373
11.6141   367
11.6241   380
11.6341   350
11.6441   358
11.6541   349
11.6641   354
11.6741   366
11.6841   370
11.6941   336
11.7041   304
11.7141   302
11.7241   308
11.7341   288
11.7441   287
11.7541   302
11.7641   285
11.7741   277
11.7841   254
11.7941   262
11.8041   256
11.8141   245
11.8241   254
11.8341   262
11.8441   268
11.8541   280
11.8641   237
11.8741   243
11.8841   246
11.8941   249
11.9041   253
11.9141   244
11.9241   251
11.9341   261
11.9441   256
11.9541   252
11.9641   254
11.9741   253
11.9841   237
11.9941   251
12.0041   254
12.0141   242
12.0241   257
12.0341   266
12.0441   273
12.0541   280
12.0641   270
12.0741   250
12.0841   256
12.0941   272
12.1041   255
12.1141   247
12.1241   251
12.1341   252
12.1441   297
12.1541   276
12.1641   264
12.1741   248
12.1841   236
12.1941   251
12.2041   258
12.2141   258
12.2241   244
12.2341   255
12.2441   243
12.2541   241
12.2641   242
12.2741   255
12.2841   252
12.2941   247
12.3041   258
12.3141   251
12.3241   231
12.3341   237
12.3441   250
12.3541   241
12.3641   231
12.3741   248
12.3841   251
12.3941   240
12.4041   271
12.4141   273
12.4241   267
12.4341   267
12.4441   251
12.4541   236
12.4641   221
12.4741   238
12.4841   272
12.4941   279
12.5041   255
12.5141   269
12.5241   306
12.5341   301
12.5441   272
12.5541   258
12.5641   277
12.5741   289
12.5841   271
12.5941   270
12.6041   266
12.6141   268
12.6241   281
12.6341   292
12.6441   283
12.6541   293
12.6641   292
12.6741   295
12.6841   283
12.6941   286
12.7041   288
12.7141   274
12.7241   269
12.7341   267
12.7441   293
12.7541   288
12.7641   269
12.7741   249
12.7841   262
12.7941   280
12.8041   269
12.8141   278
12.8241   287
12.8341   275
12.8441   289
12.8541   303
12.8641   292
12.8741   282
12.8841   278
12.8941   288
12.9041   296
12.9141   292
12.9241   276
12.9341   291
12.9441   309
12.9541   295
12.9641   287
12.9741   291
12.9841   287
12.9941   271
13.0041   283
13.0141   282
13.0241   293
13.0341   302
13.0441   301
13.0541   289
13.0641   304
13.0741   300
13.0841   306
13.0941   321
13.1041   312
13.1141   296
13.1241   304
13.1341   304
13.1441   291
13.1541   306
13.1641   303
13.1741   312
13.1841   318
13.1941   337
13.2041   355
13.2141   341
13.2241   338
13.2341   358
13.2441   371
13.2541   395
13.2641   415
13.2741   436
13.2841   439
13.2941   449
13.3041   465
13.3141   484
13.3241   512
13.3341   504
13.3441   503
13.3541   515
13.3641   510
13.3741   516
13.3841   505
13.3941   496
13.4041   522
13.4141   541
13.4241   498
13.4341   443
13.4441   459
13.4541   458
13.4641   438
13.4741   449
13.4841   433
13.4941   432
13.5041   426
13.5141   409
13.5241   392
13.5341   375
13.5441   397
13.5541   397
13.5641   384
13.5741   383
13.5841   376
13.5941   364
13.6041   350
13.6141   340
13.6241   353
13.6341   362
13.6441   355
13.6541   372
13.6641   361
13.6741   349
13.6841   350
13.6941   351
13.7041   366
13.7141   370
13.7241   361
13.7341   347
13.7441   358
13.7541   387
13.7641   374
13.7741   369
13.7841   381
13.7941   379
13.8041   405
13.8141   404
13.8241   380
13.8341   399
13.8441   395
13.8541   386
13.8641   389
13.8741   380
13.8841   399
13.8941   420
13.9041   427
13.9141   442
13.9241   454
13.9341   458
13.9441   487
13.9541   541
13.9641   584
13.9741   599
13.9841   635
13.9941   676
14.0041   710
14.0141   771
14.0241   822
14.0341   902
14.0441   970
14.0541  1025
14.0641  1127
14.0741  1183
14.0841  1223
14.0941  1313
14.1041  1380
14.1141  1426
14.1241  1448
14.1341  1432
14.1441  1432
14.1541  1419
14.1641  1408
14.1741  1386
14.1841  1326
14.1941  1285
14.2041  1251
14.2141  1177
14.2241  1123
14.2341  1060
14.2441   992
14.2541   925
14.2641   832
14.2741   758
14.2841   716
14.2941   706
14.3041   644
14.3141   584
14.3241   552
14.3341   521
14.3441   501
14.3541   477
14.3641   470
14.3741   470
14.3841   464
14.3941   451
14.4041   433
14.4141   448
14.4241   424
14.4341   432
14.4441   452
14.4541   433
14.4641   433
14.4741   431
14.4841   452
14.4941   455
14.5041   435
14.5141   420
14.5241   420
14.5341   437
14.5441   450
14.5541   445
14.5641   434
14.5741   449
14.5841   447
14.5941   431
14.6041   414
14.6141   434
14.6241   460
14.6341   433
14.6441   446
14.6541   428
14.6641   408
14.6741   424
14.6841   435
14.6941   442
14.7041   435
14.7141   455
14.7241   440
14.7341   443
14.7441   455
14.7541   469
14.7641   467
14.7741   445
14.7841   449
14.7941   464
14.8041   468
14.8141   480
14.8241   477
14.8341   465
14.8441   454
14.8541   479
14.8641   486
14.8741   483
14.8841   507
14.8941   513
14.9041   503
14.9141   485
14.9241   477
14.9341   463
14.9441   496
14.9541   515
14.9641   520
14.9741   510
14.9841   490
14.9941   480
15.0041   485
15.0141   485
15.0241   485
15.0341   499
15.0441   473
15.0541   467
15.0641   495
15.0741   518
15.0841   496
15.0941   501
15.1041   485
15.1141   487
15.1241   491
15.1341   492
15.1441   485
15.1541   463
15.1641   480
15.1741   495
15.1841   494
15.1941   502
15.2041   494
15.2141   477
15.2241   482
15.2341   493
15.2441   477
15.2541   495
15.2641   499
15.2741   505
15.2841   523
15.2941   525
15.3041   513
15.3141   511
15.3241   539
15.3341   520
15.3441   506
15.3541   538
15.3641   548
15.3741   534
15.3841   527
15.3941   524
15.4041   504
15.4141   490
15.4241   510
15.4341   511
15.4441   526
15.4541   527
15.4641   536
15.4741   522
15.4841   531
15.4941   557
15.5041   557
15.5141   565
15.5241   539
15.5341   543
15.5441   574
15.5541   573
15.5641   590
15.5741   573
15.5841   565
15.5941   584
15.6041   593
15.6141   605
15.6241   618
15.6341   655
15.6441   698
15.6541   696
15.6641   703
15.6741   762
15.6841   763
15.6941   730
15.7041   788
15.7141   815
15.7241   851
15.7341   823
15.7441   799
15.7541   823
15.7641   877
15.7741   891
15.7841   883
15.7941   888
15.8041   880
15.8141   833
15.8241   884
15.8341   885
15.8441   862
15.8541   824
15.8641   814
15.8741   819
15.8841   791
15.8941   775
15.9041   750
15.9141   728
15.9241   755
15.9341   691
15.9441   672
15.9541   684
15.9641   653
15.9741   620
15.9841   625
15.9941   634
16.0041   595
16.0141   596
16.0241   618
16.0341   611
16.0441   618
16.0541   602
16.0641   607
16.0741   620
16.0841   601
16.0941   559
16.1041   582
16.1141   605
16.1241   629
16.1341   618
16.1441   588
16.1541   584
16.1641   597
16.1741   605
16.1841   609
16.1941   619
16.2041   601
16.2141   615
16.2241   634
16.2341   605
16.2441   613
16.2541   604
16.2641   584
16.2741   602
16.2841   611
16.2941   600
16.3041   620
16.3141   614
16.3241   620
16.3341   592
16.3441   614
16.3541   606
16.3641   602
16.3741   597
16.3841   612
16.3941   594
16.4041   561
16.4141   603
16.4241   629
16.4341   640
16.4441   638
16.4541   596
16.4641   614
16.4741   610
16.4841   637
16.4941   626
16.5041   630
16.5141   646
16.5241   658
16.5341   665
16.5441   632
16.5541   620
16.5641   637
16.5741   631
16.5841   640
16.5941   607
16.6041   609
16.6141   675
16.6241   669
16.6341   671
16.6441   657
16.6541   653
16.6641   656
16.6741   685
16.6841   648
16.6941   668
16.7041   657
16.7141   660
16.7241   666
16.7341   695
16.7441   694
16.7541   664
16.7641   673
16.7741   663
16.7841   659
16.7941   649
16.8041   662
16.8141   677
16.8241   688
16.8341   675
16.8441   676
16.8541   657
16.8641   653
16.8741   658
16.8841   682
16.8941   688
16.9041   679
16.9141   691
16.9241   715
16.9341   696
16.9441   692
16.9541   672
16.9641   702
16.9741   668
16.9841   685
16.9941   692
17.0041   646
17.0141   658
17.0241   691
17.0341   695
17.0441   690
17.0541   749
17.0641   728
17.0741   694
17.0841   694
17.0941   723
17.1041   720
17.1141   702
17.1241   725
17.1341   709
17.1441   682
17.1541   706
17.1641   757
17.1741   716
17.1841   689
17.1941   707
17.2041   703
17.2141   710
17.2241   736
17.2341   725
17.2441   758
17.2541   730
17.2641   707
17.2741   780
17.2841   791
17.2941   762
17.3041   771
17.3141   767
17.3241   810
17.3341   839
17.3441   853
17.3541   819
17.3641   845
17.3741   851
17.3841   856
17.3941   863
17.4041   852
17.4141   871
17.4241   890
17.4341   912
17.4441   893
17.4541   909
17.4641   917
17.4741   887
17.4841   880
17.4941   887
17.5041   913
17.5141   859
17.5241   839
17.5341   835
17.5441   838
17.5541   862
17.5641   825
17.5741   791
17.5841   823
17.5941   843
17.6041   811
17.6141   823
17.6241   847
17.6341   830
17.6441   770
17.6541   772
17.6641   812
17.6741   803
17.6841   820
17.6941   814
17.7041   773
17.7141   773
17.7241   762
17.7341   807
17.7441   774
17.7541   811
17.7641   790
17.7741   769
17.7841   792
17.7941   780
17.8041   764
17.8141   805
17.8241   829
17.8341   793
17.8441   779
17.8541   801
17.8641   796
17.8741   754
17.8841   736
17.8941   739
17.9041   772
17.9141   759
17.9241   769
17.9341   788
17.9441   764
17.9541   770
17.9641   768
17.9741   747
17.9841   788
17.9941   826
18.0041   832
18.0141   773
18.0241   763
18.0341   764
18.0441   826
18.0541   822
18.0641   805
18.0741   787
18.0841   731
18.0941   790
18.1041   790
18.1141   781
18.1241   804
18.1341   818
18.1441   825
18.1541   773
18.1641   807
18.1741   769
18.1841   788
18.1941   823
18.2041   807
18.2141   806
18.2241   779
18.2341   789
18.2441   818
18.2541   819
18.2641   795
18.2741   768
18.2841   778
18.2941   820
18.3041   826
18.3141   790
18.3241   788
18.3341   812
18.3441   828
18.3541   826
18.3641   820
18.3741   805
18.3841   793
18.3941   830
18.4041   843
18.4141   810
18.4241   825
18.4341   827
18.4441   822
18.4541   822
18.4641   811
18.4741   815
18.4841   812
18.4941   811
18.5041   817
18.5141   804
18.5241   803
18.5341   840
18.5441   856
18.5541   834
18.5641   870
18.5741   856
18.5841   841
18.5941   810
18.6041   800
18.6141   872
18.6241   819
18.6341   776
18.6441   800
18.6541   827
18.6641   845
18.6741   873
18.6841   850
18.6941   877
18.7041   841
18.7141   813
18.7241   837
18.7341   832
18.7441   856
18.7541   860
18.7641   825
18.7741   900
18.7841   828
18.7941   864
18.8041   865
18.8141   859
18.8241   868
18.8341   842
18.8441   861
18.8541   892
18.8641   886
18.8741   856
18.8841   821
18.8941   836
18.9041   857
18.9141   870
18.9241   873
18.9341   903
18.9441   867
18.9541   875
18.9641   876
18.9741   840
18.9841   864
18.9941   842
19.0041   855
19.0141   814
19.0241   815
19.0341   830
19.0441   837
19.0541   835
19.0641   849
19.0741   865
19.0841   842
19.0941   864
19.1041   890
19.1141   889
19.1241   872
19.1341   830
19.1441   893
19.1541   867
19.1641   854
19.1741   823
19.1841   845
19.1941   876
19.2041   828
19.2141   847
19.2241   845
19.2341   847
19.2441   838
19.2541   874
19.2641   894
19.2741   863
19.2841   891
19.2941   872
19.3041   872
19.3141   871
19.3241   900
19.3341   943
19.3441   853
19.3541   854
19.3641   874
19.3741   879
19.3841   868
19.3941   863
19.4041   887
19.4141   879
19.4241   876
19.4341   890
19.4441   885
19.4541   846
19.4641   871
19.4741   904
19.4841   877
19.4941   868
19.5041   909
19.5141   907
19.5241   918
19.5341   899
19.5441   895
19.5541   899
19.5641   911
19.5741   893
19.5841   896
19.5941   877
19.6041   886
19.6141   893
19.6241   863
19.6341   924
19.6441   912
19.6541   902
19.6641   919
19.6741   913
19.6841   888
19.6941   871
19.7041   894
19.7141   877
19.7241   908
19.7341   910
19.7441   899
19.7541   881
19.7641   925
19.7741   927
19.7841   925
19.7941   933
19.8041   916
19.8141   866
19.8241   913
19.8341   907
19.8441   907
19.8541   920
19.8641   861
19.8741   907
19.8841   908
19.8941   865
19.9041   883
19.9141   899
19.9241   898
19.9341   935
19.9441   887
19.9541   886
19.9641   918
19.9741   895
19.9841   908
19.9941   902
20.0041   912
20.0141   966
20.0241   947
20.0341   865
20.0441   943
20.0541   930
20.0641   897
20.0741   920
20.0841   898
20.0941   942
20.1041   886
20.1141   877
20.1241   906
20.1341   925
20.1441   876
20.1541   908
20.1641   869
20.1741   912
20.1841   943
20.1941   923
20.2041   939
20.2141   901
20.2241   906
20.2341   876
20.2441   865
20.2541   966
20.2641   884
20.2741   894
20.2841   908
20.2941   926
20.3041   928
20.3141   927
20.3241   925
20.3341   933
20.3441   930
20.3541   908
20.3641   882
20.3741   876
20.3841   929
20.3941   915
20.4041   877
20.4141   873
20.4241   887
20.4341   897
20.4441   920
20.4541   959
20.4641   917
20.4741   896
20.4841   886
20.4941   903
20.5041   912
20.5141   898
20.5241   895
20.5341   903
20.5441   901
20.5541   894
20.5641   904
20.5741   913
20.5841   887
20.5941   905
20.6041   940
20.6141   919
20.6241   902
20.6341   900
20.6441   915
20.6541   893
20.6641   923
20.6741   870
20.6841   927
20.6941   889
20.7041   915
20.7141   944
20.7241   904
20.7341   929
20.7441   921
20.7541   885
20.7641   920
20.7741   928
20.7841   892
20.7941   937
20.8041   975
20.8141   945
20.8241   965
20.8341   990
20.8441   951
20.8541   929
20.8641  1015
20.8741   982
20.8841   963
20.8941  1010
20.9041  1063
20.9141  1029
20.9241  1060
20.9341  1039
20.9441  1137
20.9541  1104
20.9641  1120
20.9741  1116
20.9841  1137
20.9941  1115
21.0041  1157
21.0141  1214
21.0241  1208
21.0341  1233
21.0441  1265
21.0541  1315
21.0641  1275
21.0741  1323
21.0841  1332
21.0941  1322
21.1041  1394
21.1141  1311
21.1241  1309
21.1341  1376
21.1441  1323
21.1541  1322
21.1641  1282
21.1741  1356
21.1841  1280
21.1941  1228
21.2041  1284
21.2141  1245
21.2241  1276
21.2341  1250
21.2441  1204
21.2541  1199
21.2641  1181
21.2741  1127
21.2841  1109
21.2941  1037
21.3041  1081
21.3141  1061
21.3241  1081
21.3341  1076
21.3441  1002
21.3541   973
21.3641   949
21.3741   923
21.3841   923
21.3941   951
21.4041   886
21.4141   942
21.4241   931
21.4341   895
21.4441   880
21.4541   919
21.4641   917
21.4741   960
21.4841   941
21.4941   914
21.5041   872
21.5141   912
21.5241   932
21.5341   935
21.5441   923
21.5541   919
21.5641   890
21.5741   921
21.5841   854
21.5941   940
21.6041   919
21.6141   894
21.6241   896
21.6341   953
21.6441   912
21.6541   916
21.6641   853
21.6741   926
21.6841   863
21.6941   920
21.7041   906
21.7141   910
21.7241   842
21.7341   923
21.7441   916
21.7541   925
21.7641   902
21.7741   941
21.7841   902
21.7941   878
21.8041   892
21.8141   886
21.8241   843
21.8341   887
21.8441   951
21.8541   899
21.8641   896
21.8741   908
21.8841   917
21.8941   972
21.9041   890
21.9141   880
21.9241   912
21.9341   943
21.9441   945
21.9541   927
21.9641   889
21.9741   899
21.9841   904
21.9941   885
22.0041   882
22.0141   959
22.0241   876
22.0341   943
22.0441   921
22.0541   907
22.0641   911
22.0741   911
22.0841   894
22.0941   867
22.1041   906
22.1141   907
22.1241   959
22.1341   891
22.1441   926
22.1541   939
22.1641   914
22.1741   881
22.1841   949
22.1941   963
22.2041   909
22.2141   927
22.2241   901
22.2341   931
22.2441   900
22.2541   917
22.2641   872
22.2741   902
22.2841   918
22.2941   897
22.3041   935
22.3141   872
22.3241   919
22.3341   867
22.3441   904
22.3541   871
22.3641   848
22.3741   906
22.3841   854
22.3941   896
22.4041   883
22.4141   891
22.4241   924
22.4341   920
22.4441   866
22.4541   894
22.4641   882
22.4741   845
22.4841   922
22.4941   891
22.5041   911
22.5141   891
22.5241   913
22.5341   888
22.5441   894
22.5541   824
22.5641   905
22.5741   900
22.5841   929
22.5941   851
22.6041   918
22.6141   878
22.6241   896
22.6341   872
22.6441   898
22.6541   890
22.6641   874
22.6741   914
22.6841   902
22.6941   853
22.7041   884
22.7141   869
22.7241   914
22.7341   837
22.7441   871
22.7541   853
22.7641   848
22.7741   911
22.7841   903
22.7941   890
22.8041   838
22.8141   873
22.8241   842
22.8341   853
22.8441   872
22.8541   934
22.8641   931
22.8741   864
22.8841   933
22.8941   870
22.9041   900
22.9141   872
22.9241   824
22.9341   865
22.9441   907
22.9541   888
22.9641   887
22.9741   840
22.9841   856
22.9941   856
23.0041   842
23.0141   863
23.0241   818
23.0341   847
23.0441   895
23.0541   842
23.0641   867
23.0741   887
23.0841   884
23.0941   830
23.1041   886
23.1141   875
23.1241   862
23.1341   790
23.1441   832
23.1541   847
23.1641   923
23.1741   876
23.1841   853
23.1941   852
23.2041   850
23.2141   850
23.2241   861
23.2341   885
23.2441   863
23.2541   881
23.2641   878
23.2741   848
23.2841   882
23.2941   847
23.3041   842
23.3141   920
23.3241   845
23.3341   833
23.3441   911
23.3541   867
23.3641   883
23.3741   856
23.3841   848
23.3941   830
23.4041   850
23.4141   890
23.4241   881
23.4341   839
23.4441   825
23.4541   860
23.4641   863
23.4741   843
23.4841   902
23.4941   878
23.5041   856
23.5141   843
23.5241   767
23.5341   824
23.5441   845
23.5541   848
23.5641   792
23.5741   900
23.5841   804
23.5941   856
23.6041   864
23.6141   866
23.6241   886
23.6341   822
23.6441   848
23.6541   870
23.6641   806
23.6741   914
23.6841   917
23.6941   857
23.7041   883
23.7141   923
23.7241   878
23.7341   912
23.7441   887
23.7541   870
23.7641   909
23.7741   856
23.7841   907
23.7941   877
23.8041   922
23.8141   953
23.8241   917
23.8341   959
23.8441   907
23.8541   893
23.8641   887
23.8741   915
23.8841   867
23.8941   881
23.9041   904
23.9141   877
23.9241   884
23.9341   883
23.9441   855
23.9541   833
23.9641   821
23.9741   849
23.9841   818
23.9941   816
24.0041   817
24.0141   869
24.0241   832
24.0341   816
24.0441   846
24.0541   828
24.0641   804
24.0741   911
24.0841   809
24.0941   829
24.1041   838
24.1141   802
24.1241   833
24.1341   823
24.1441   814
24.1541   874
24.1641   820
24.1741   828
24.1841   858
24.1941   834
24.2041   823
24.2141   801
24.2241   792
24.2341   812
24.2441   791
24.2541   817
24.2641   804
24.2741   799
24.2841   814
24.2941   799
24.3041   799
24.3141   807
24.3241   793
24.3341   793
24.3441   836
24.3541   843
24.3641   848
24.3741   820
24.3841   826
24.3941   789
24.4041   767
24.4141   803
24.4241   793
24.4341   791
24.4441   781
24.4541   777
24.4641   801
24.4741   771
24.4841   769
24.4941   771
24.5041   823
24.5141   809
24.5241   783
24.5341   763
24.5441   729
24.5541   775
24.5641   747
24.5741   808
24.5841   793
24.5941   791
24.6041   769
24.6141   732
24.6241   815
24.6341   769
24.6441   789
24.6541   800
24.6641   818
24.6741   783
24.6841   735
24.6941   745
24.7041   731
24.7141   754
24.7241   780
24.7341   829
24.7441   778
24.7541   791
24.7641   785
24.7741   789
24.7841   757
24.7941   782
24.8041   738
24.8141   780
24.8241   728
24.8341   776
24.8441   791
24.8541   745
24.8641   780
24.8741   776
24.8841   774
24.8941   791
24.9041   748
24.9141   777
24.9241   810
24.9341   780
24.9441   747
24.9541   761
24.9641   761
24.9741   786
24.9841   697
24.9941   824
25.0041   755
25.0141   826
25.0241   767
25.0341   806
25.0441   794
25.0541   733
25.0641   759
25.0741   741
25.0841   775
25.0941   770
25.1041   810
25.1141   767
25.1241   757
25.1341   741
25.1441   771
25.1541   720
25.1641   724
25.1741   745
25.1841   752
25.1941   772
25.2041   750
25.2141   754
25.2241   766
25.2341   778
25.2441   758
25.2541   798
25.2641   726
25.2741   722
25.2841   795
25.2941   785
25.3041   756
25.3141   754
25.3241   788
25.3341   783
25.3441   768
25.3541   734
25.3641   732
25.3741   763
25.3841   758
25.3941   744
25.4041   735
25.4141   755
25.4241   783
25.4341   740
25.4441   765
25.4541   774
25.4641   712
25.4741   775
25.4841   714
25.4941   711
25.5041   720
25.5141   698
25.5241   708
25.5341   759
25.5441   713
25.5541   707
25.5641   721
25.5741   741
25.5841   697
25.5941   767
25.6041   713
25.6141   718
25.6241   695
25.6341   754
25.6441   680
25.6541   704
25.6641   725
25.6741   692
25.6841   688
25.6941   696
25.7041   685
25.7141   731
25.7241   685
25.7341   710
25.7441   746
25.7541   723
25.7641   692
25.7741   710
25.7841   655
25.7941   711
25.8041   728
25.8141   691
25.8241   700
25.8341   687
25.8441   732
25.8541   705
25.8641   686
25.8741   691
25.8841   673
25.8941   662
25.9041   688
25.9141   696
25.9241   661
25.9341   678
25.9441   679
25.9541   675
25.9641   762
25.9741   713
25.9841   687
25.9941   653
26.0041   697
26.0141   671
26.0241   712
26.0341   737
26.0441   698
26.0541   674
26.0641   680
26.0741   669
26.0841   719
26.0941   676
26.1041   697
26.1141   702
26.1241   700
26.1341   706
26.1441   673
26.1541   681
26.1641   681
26.1741   718
26.1841   687
26.1941   702
26.2041   676
26.2141   655
26.2241   666
26.2341   681
26.2441   669
26.2541   693
26.2641   634
26.2741   666
26.2841   656
26.2941   657
26.3041   699
26.3141   646
26.3241   685
26.3341   682
26.3441   720
26.3541   668
26.3641   681
26.3741   673
26.3841   662
26.3941   649
26.4041   639
26.4141   604
26.4241   658
26.4341   643
26.4441   651
26.4541   660
26.4641   661
26.4741   677
26.4841   684
26.4941   624
26.5041   622
26.5141   633
26.5241   646
26.5341   624
26.5441   673
26.5541   640
26.5641   653
26.5741   673
26.5841   671
26.5941   638
26.6041   637
26.6141   642
26.6241   638
26.6341   686
26.6441   632
26.6541   629
26.6641   613
26.6741   617
26.6841   631
26.6941   601
26.7041   663
26.7141   629
26.7241   653
26.7341   652
26.7441   686
26.7541   663
26.7641   644
26.7741   600
26.7841   606
26.7941   634
26.8041   609
26.8141   617
26.8241   669
26.8341   652
26.8441   643
26.8541   650
26.8641   641
26.8741   627
26.8841   623
26.8941   628
26.9041   637
26.9141   637
26.9241   640
26.9341   608
26.9441   599
26.9541   647
26.9641   663
26.9741   659
26.9841   607
26.9941   661
27.0041   620
27.0141   613
27.0241   632
27.0341   604
27.0441   602
27.0541   618
27.0641   594
27.0741   647
27.0841   640
27.0941   592
27.1041   608
27.1141   589
27.1241   608
27.1341   618
27.1441   600
27.1541   667
27.1641   608
27.1741   610
27.1841   599
27.1941   601
27.2041   586
27.2141   637
27.2241   607
27.2341   619
27.2441   638
27.2541   589
27.2641   595
27.2741   622
27.2841   570
27.2941   589
27.3041   603
27.3141   584
27.3241   609
27.3341   588
27.3441   590
27.3541   652
27.3641   609
27.3741   591
27.3841   589
27.3941   622
27.4041   636
27.4141   612
27.4241   616
27.4341   589
27.4441   591
27.4541   620
27.4641   592
27.4741   576
27.4841   604
27.4941   584
27.5041   607
27.5141   601
27.5241   601
27.5341   558
27.5441   543
27.5541   553
27.5641   568
27.5741   596
27.5841   591
27.5941   587
27.6041   598
27.6141   558
27.6241   529
27.6341   577
27.6441   595
27.6541   552
27.6641   583
27.6741   568
27.6841   570
27.6941   566
27.7041   562
27.7141   582
27.7241   601
27.7341   582
27.7441   570
27.7541   595
27.7641   563
27.7741   560
27.7841   533
27.7941   533
27.8041   551
27.8141   559
27.8241   552
27.8341   554
27.8441   580
27.8541   570
27.8641   564
27.8741   541
27.8841   571
27.8941   539
27.9041   562
27.9141   533
27.9241   554
27.9341   566
27.9441   543
27.9541   583
27.9641   556
27.9741   572
27.9841   542
27.9941   555
28.0041   560
28.0141   545
28.0241   576
28.0341   566
28.0441   554
28.0541   579
28.0641   537
28.0741   529
28.0841   522
28.0941   558
28.1041   547
28.1141   528
28.1241   558
28.1341   528
28.1441   521
28.1541   520
28.1641   577
28.1741   549
28.1841   553
28.1941   543
28.2041   552
28.2141   583
28.2241   562
28.2341   515
28.2441   534
28.2541   543
28.2641   537
28.2741   548
28.2841   543
28.2941   558
28.3041   527
28.3141   510
28.3241   560
28.3341   522
28.3441   540
28.3541   527
28.3641   540
28.3741   602
28.3841   549
28.3941   516
28.4041   510
28.4141   535
28.4241   531
28.4341   520
28.4441   522
28.4541   545
28.4641   533
28.4741   537
28.4841   508
28.4941   498
28.5041   531
28.5141   533
28.5241   531
28.5341   511
28.5441   510
28.5541   509
28.5641   526
28.5741   566
28.5841   485
28.5941   529
28.6041   528
28.6141   528
28.6241   523
28.6341   507
28.6441   512
28.6541   500
28.6641   517
28.6741   493
28.6841   476
28.6941   487
28.7041   510
28.7141   509
28.7241   506
28.7341   535
28.7441   485
28.7541   482
28.7641   528
28.7741   495
28.7841   548
28.7941   512
28.8041   444
28.8141   509
28.8241   479
28.8341   496
28.8441   471
28.8541   478
28.8641   506
28.8741   474
28.8841   440
28.8941   498
28.9041   490
28.9141   481
28.9241   458
28.9341   480
28.9441   531
28.9541   471
28.9641   484
28.9741   490
28.9841   519
28.9941   484
29.0041   465
29.0141   452
29.0241   494
29.0341   436
29.0441   488
29.0541   429
29.0641   472
29.0741   464
29.0841   472
29.0941   485
29.1041   484
29.1141   493
29.1241   486
29.1341   517
29.1441   492
29.1541   475
29.1641   501
29.1741   478
29.1841   470
29.1941   484
29.2041   478
29.2141   476
29.2241   481
29.2341   478
29.2441   487
29.2541   466
29.2641   450
29.2741   456
29.2841   475
29.2941   483
29.3041   467
29.3141   451
29.3241   468
29.3341   513
29.3441   471
29.3541   435
29.3641   446
29.3741   447
29.3841   458
29.3941   455
29.4041   444
29.4141   414
29.4241   487
29.4341   490
29.4441   465
29.4541   454
29.4641   428
29.4741   485
29.4841   427
29.4941   455
29.5041   460
29.5141   452
29.5241   461
29.5341   439
29.5441   467
29.5541   442
29.5641   451
29.5741   479
29.5841   485
29.5941   416
29.6041   443
29.6141   464
29.6241   462
29.6341   447
29.6441   449
29.6541   454
29.6641   466
29.6741   461
29.6841   432
29.6941   430
29.7041   409
29.7141   407
29.7241   406
29.7341   431
29.7441   453
29.7541   406
29.7641   442
29.7741   460
29.7841   446
29.7941   473
29.8041   461
29.8141   406
29.8241   431
29.8341   457
29.8441   434
29.8541   445
29.8641   444
29.8741   398
29.8841   400
29.8941   458
29.9041   407
29.9141   438
29.9241   445
29.9341   412
29.9441   454
29.9541   436
29.9641   452
29.9741   436
29.9841   436
29.9941   421
30.0041   431
30.0141   413
30.0241   401
30.0341   405
30.0441   401
30.0541   432
30.0641   386
30.0741   418
30.0841   443
30.0941   404
30.1041   395
30.1141   413
30.1241   407
30.1341   403
30.1441   381
30.1541   376
30.1641   383
30.1741   425
30.1841   422
30.1941   413
30.2041   411
30.2141   404
30.2241   429
30.2341   442
30.2441   382
30.2541   405
30.2641   407
30.2741   400
30.2841   435
30.2941   381
30.3041   384
30.3141   398
30.3241   403
30.3341   373
30.3441   401
30.3541   388
30.3641   433
30.3741   395
30.3841   379
30.3941   400
30.4041   405
30.4141   399
30.4241   393
30.4341   405
30.4441   385
30.4541   394
30.4641   387
30.4741   412
30.4841   411
30.4941   382
30.5041   397
30.5141   356
30.5241   398
30.5341   357
30.5441   396
30.5541   358
30.5641   361
30.5741   404
30.5841   390
30.5941   383
30.6041   378
30.6141   364
30.6241   354
30.6341   383
30.6441   385
30.6541   347
30.6641   382
30.6741   375
30.6841   393
30.6941   362
30.7041   391
30.7141   372
30.7241   382
30.7341   391
30.7441   382
30.7541   378
30.7641   373
30.7741   385
30.7841   335
30.7941   364
30.8041   387
30.8141   401
30.8241   351
30.8341   370
30.8441   361
30.8541   350
30.8641   381
30.8741   382
30.8841   339
30.8941   390
30.9041   345
30.9141   372
30.9241   362
30.9341   392
30.9441   363
30.9541   372
30.9641   345
30.9741   363
30.9841   358
30.9941   359
31.0041   353
31.0141   318
31.0241   378
31.0341   356
31.0441   344
31.0541   354
31.0641   359
31.0741   365
31.0841   362
31.0941   370
31.1041   316
31.1141   370
31.1241   334
31.1341   343
31.1441   346
31.1541   373
31.1641   368
31.1741   334
31.1841   391
31.1941   379
31.2041   361
31.2141   365
31.2241   366
31.2341   348
31.2441   379
31.2541   370
31.2641   323
31.2741   322
31.2841   357
31.2941   330
31.3041   367
31.3141   341
31.3241   334
31.3341   342
31.3441   342
31.3541   312
31.3641   357
31.3741   346
31.3841   327
31.3941   315
31.4041   334
31.4141   321
31.4241   382
31.4341   344
31.4441   326
31.4541   352
31.4641   337
31.4741   314
31.4841   320
31.4941   328
31.5041   339
31.5141   322
31.5241   310
31.5341   348
31.5441   330
31.5541   303
31.5641   332
31.5741   349
31.5841   321
31.5941   328
31.6041   318
31.6141   337
31.6241   323
31.6341   335
31.6441   333
31.6541   364
31.6641   357
31.6741   359
31.6841   372
31.6941   346
31.7041   361
31.7141   344
31.7241   369
31.7341   347
31.7441   358
31.7541   345
31.7641   360
31.7741   369
31.7841   365
31.7941   346
31.8041   351
31.8141   359
31.8241   363
31.8341   319
31.8441   364
31.8541   364
31.8641   334
31.8741   340
31.8841   322
31.8941   336
31.9041   358
31.9141   344
31.9241   352
31.9341   353
31.9441   360
31.9541   319
31.9641   344
31.9741   310
31.9841   321
31.9941   353
32.0041   321
32.0141   332
32.0241   340
32.0341   358
32.0441   358
32.0541   352
32.0641   338
32.0741   356
32.0841   342
32.0941   386
32.1041   372
32.1141   351
32.1241   345
32.1341   335
32.1441   339
32.1541   361
32.1641   346
32.1741   374
32.1841   390
32.1941   356
32.2041   323
32.2141   352
32.2241   363
32.2341   401
32.2441   371
32.2541   342
32.2641   368
32.2741   361
32.2841   329
32.2941   362
32.3041   319
32.3141   340
32.3241   341
32.3341   341
32.3441   363
32.3541   339
32.3641   330
32.3741   311
32.3841   311
32.3941   286
32.4041   338
32.4141   300
32.4241   320
32.4341   331
32.4441   301
32.4541   325
32.4641   316
32.4741   291
32.4841   284
32.4941   296
32.5041   293
32.5141   277
32.5241   289
32.5341   285
32.5441   287
32.5541   282
32.5641   274
32.5741   282
32.5841   260
32.5941   269
32.6041   287
32.6141   248
32.6241   267
32.6341   284
32.6441   280
32.6541   251
32.6641   255
32.6741   263
32.6841   285
32.6941   282
32.7041   260
32.7141   263
32.7241   285
32.7341   275
32.7441   266
32.7541   262
32.7641   240
32.7741   252
32.7841   269
32.7941   251
32.8041   251
32.8141   240
32.8241   281
32.8341   268
32.8441   260
32.8541   248
32.8641   259
32.8741   248
32.8841   271
32.8941   305
32.9041   237
32.9141   284
32.9241   241
32.9341   242
32.9441   247
32.9541   268
32.9641   237
32.9741   240
32.9841   273
32.9941   247
33.0041   269
33.0141   263
33.0241   237
33.0341   232
33.0441   236
33.0541   262
33.0641   267
33.0741   249
33.0841   258
33.0941   237
33.1041   282
33.1141   259
33.1241   237
33.1341   277
33.1441   254
33.1541   243
33.1641   262
33.1741   222
33.1841   239
33.1941   269
33.2041   234
33.2141   258
33.2241   238
33.2341   242
33.2441   274
33.2541   223
33.2641   245
33.2741   250
33.2841   223
33.2941   226
33.3041   234
33.3141   252
33.3241   214
33.3341   245
33.3441   224
33.3541   236
33.3641   250
33.3741   232
33.3841   254
33.3941   253
33.4041   229
33.4141   221
33.4241   248
33.4341   230
33.4441   232
33.4541   219
33.4641   243
33.4741   200
33.4841   207
33.4941   245
33.5041   240
33.5141   241
33.5241   228
33.5341   228
33.5441   243
33.5541   243
33.5641   245
33.5741   222
33.5841   225
33.5941   205
33.6041   241
33.6141   226
33.6241   213
33.6341   229
33.6441   242
33.6541   216
33.6641   245
33.6741   217
33.6841   225
33.6941   231
33.7041   219
33.7141   210
33.7241   216
33.7341   217
33.7441   208
33.7541   217
33.7641   211
33.7741   190
33.7841   214
33.7941   216
33.8041   212
33.8141   238
33.8241   240
33.8341   227
33.8441   228
33.8541   226
33.8641   216
33.8741   214
33.8841   201
33.8941   196
33.9041   225
33.9141   205
33.9241   217
33.9341   213
33.9441   216
33.9541   214
33.9641   190
33.9741   220
33.9841   216
33.9941   217
34.0041   222
34.0141   222
34.0241   214
34.0341   237
34.0441   225
34.0541   203
34.0641   205
34.0741   209
34.0841   221
34.0941   205
34.1041   210
34.1141   182
34.1241   203
34.1341   227
34.1441   204
34.1541   220
34.1641   197
34.1741   171
34.1841   233
34.1941   195
34.2041   208
34.2141   194
34.2241   220
34.2341   208
34.2441   197
34.2541   168
34.2641   227
34.2741   190
34.2841   214
34.2941   189
34.3041   197
34.3141   186
34.3241   167
34.3341   175
34.3441   195
34.3541   196
34.3641   200
34.3741   201
34.3841   197
34.3941   176
34.4041   197
34.4141   198
34.4241   204
34.4341   208
34.4441   193
34.4541   181
34.4641   196
34.4741   199
34.4841   192
34.4941   173
34.5041   196
34.5141   183
34.5241   181
34.5341   173
34.5441   191
34.5541   191
34.5641   185
34.5741   183
34.5841   199
34.5941   185
34.6041   199
34.6141   186
34.6241   184
34.6341   178
34.6441   194
34.6541   208
34.6641   183
34.6741   201
34.6841   210
34.6941   161
34.7041   188
34.7141   203
34.7241   210
34.7341   187
34.7441   187
34.7541   187
34.7641   212
34.7741   187
34.7841   194
34.7941   173
34.8041   186
34.8141   184
34.8241   202
34.8341   181
34.8441   178
34.8541   186
34.8641   188
34.8741   179
34.8841   168
34.8941   170
34.9041   201
34.9141   184
34.9241   198
34.9341   174
34.9441   162
34.9541   172
34.9641   194
34.9741   183
34.9841   186
34.9941   173
35.0041   157
35.0141   176
35.0241   163
35.0341   166
35.0441   181
35.0541   175
35.0641   174
35.0741   184
35.0841   155
35.0941   166
35.1041   174
35.1141   157
35.1241   165
35.1341   183
35.1441   178
35.1541   181
35.1641   152
35.1741   157
35.1841   175
35.1941   143
35.2041   171
35.2141   166
35.2241   148
35.2341   165
35.2441   147
35.2541   167
35.2641   163
35.2741   172
35.2841   181
35.2941   159
35.3041   166
35.3141   164
35.3241   180
35.3341   164
35.3441   175
35.3541   181
35.3641   204
35.3741   156
35.3841   136
35.3941   172
35.4041   184
35.4141   151
35.4241   175
35.4341   153
35.4441   140
35.4541   163
35.4641   152
35.4741   172
35.4841   156
35.4941   150
35.5041   142
35.5141   139
35.5241   177
35.5341   156
35.5441   164
35.5541   149
35.5641   137
35.5741   151
35.5841   142
35.5941   164
35.6041   161
35.6141   165
35.6241   161
35.6341   148
35.6441   145
35.6541   141
35.6641   139
35.6741   145
35.6841   147
35.6941   152
35.7041   163
35.7141   149
35.7241   152
35.7341   153
35.7441   160
35.7541   136
35.7641   117
35.7741   151
35.7841   143
35.7941   160
35.8041   154
35.8141   130
35.8241   139
35.8341   134
35.8441   138
35.8541   142
35.8641   125
35.8741   149
35.8841   146
35.8941   131
35.9041   147
35.9141   151
35.9241   110
35.9341   138
35.9441   133
35.9541   142
35.9641   146
35.9741   122
35.9841   138
35.9941   138
36.0041   144
36.0141   142
36.0241   147
36.0341   139
36.0441   118
36.0541   143
36.0641   156
36.0741   158
36.0841   129
36.0941   144
36.1041   138
36.1141   143
36.1241   131
36.1341   161
36.1441   140
36.1541   132
36.1641   123
36.1741   140
36.1841   159
36.1941   151
36.2041   131
36.2141   159
36.2241   162
36.2341   161
36.2441   128
36.2541   135
36.2641   125
36.2741   132
36.2841   143
36.2941   129
36.3041   139
36.3141   154
36.3241   167
36.3341   138
36.3441   139
36.3541   138
36.3641   131
36.3741   136
36.3841   122
36.3941   146
36.4041   140
36.4141   126
36.4241   133
36.4341   135
36.4441   131
36.4541   140
36.4641   135
36.4741   122
36.4841   131
36.4941   119
36.5041   127
36.5141   110
36.5241   134
36.5341   128
36.5441   135
36.5541   133
36.5641   139
36.5741   137
36.5841   114
36.5941   137
36.6041   121
36.6141   124
36.6241   122
36.6341   107
36.6441   109
36.6541   104
36.6641   135
36.6741   129
36.6841   125
36.6941   138
36.7041   140
36.7141   139
36.7241   117
36.7341   100
36.7441   120
36.7541   135
36.7641   139
36.7741   109
36.7841   104
36.7941   105
36.8041   122
36.8141   107
36.8241    98
36.8341   100
36.8441   113
36.8541   107
36.8641   102
36.8741   112
36.8841   122
36.8941   128
36.9041   102
36.9141   118
36.9241   111
36.9341    99
36.9441   101
36.9541    97
36.9641   118
36.9741   122
36.9841   123
36.9941   128
37.0041   113
37.0141    91
37.0241   125
37.0341   125
37.0441   105
37.0541   120
37.0641   107
37.0741   107
37.0841   108
37.0941   121
37.1041   113
37.1141   107
37.1241   117
37.1341   128
37.1441   112
37.1541   103
37.1641   108
37.1741   113
37.1841   125
37.1941   118
37.2041   117
37.2141   116
37.2241    98
37.2341   107
37.2441   121
37.2541   110
37.2641   103
37.2741   119
37.2841   110
37.2941   101
37.3041   102
37.3141   116
37.3241   118
37.3341   103
37.3441   106
37.3541   111
37.3641   119
37.3741   111
37.3841   114
37.3941   118
37.4041   100
37.4141    91
37.4241   110
37.4341   103
37.4441    95
37.4541    97
37.4641    96
37.4741    88
37.4841   116
37.4941   102
37.5041    98
37.5141    92
37.5241   105
37.5341    87
37.5441   102
37.5541    99
37.5641   101
37.5741   106
37.5841   104
37.5941   112
37.6041    95
37.6141   100
37.6241    98
37.6341   100
37.6441    92
37.6541    95
37.6641   106
37.6741   103
37.6841   113
37.6941    96
37.7041   102
37.7141   108
37.7241   103
37.7341    89
37.7441    91
37.7541    95
37.7641    83
37.7741   102
37.7841    95
37.7941    85
37.8041    90
37.8141    97
37.8241    88
37.8341   103
37.8441    84
37.8541    75
37.8641    87
37.8741    91
37.8841   100
37.8941    88
37.9041    87
37.9141    99
37.9241    85
37.9341    70
37.9441    85
37.9541    74
37.9641    77
37.9741   102
37.9841    90
37.9941    78
38.0041    84
38.0141    75
38.0241    84
38.0341    83
38.0441    79
38.0541    73
38.0641    80
38.0741    88
38.0841    86
38.0941    84
38.1041    84
38.1141    97
38.1241    95
38.1341    81
38.1441    88
38.1541   112
38.1641    66
38.1741    90
38.1841    88
38.1941    76
38.2041    70
38.2141    85
38.2241    83
38.2341    84
38.2441    73
38.2541    79
38.2641    82
38.2741    73
38.2841    76
38.2941    68
38.3041    90
38.3141    96
38.3241    76
38.3341    70
38.3441    82
38.3541    75
38.3641    78
38.3741    65
38.3841    72
38.3941    87
38.4041    63
38.4141    73
38.4241    75
38.4341    82
38.4441    74
38.4541    75
38.4641    73
38.4741    78
38.4841    69
38.4941    69
38.5041    69
38.5141    68
38.5241    85
38.5341    75
38.5441    78
38.5541    80
38.5641    81
38.5741    75
38.5841    62
38.5941    75
38.6041    71
38.6141    75
38.6241    72
38.6341    82
38.6441    82
38.6541    65
38.6641    72
38.6741    63
38.6841    53
38.6941    68
38.7041    61
38.7141    66
38.7241    67
38.7341    62
38.7441    81
38.7541    73
38.7641    64
38.7741    74
38.7841    57
38.7941    63
38.8041    64
38.8141    65
38.8241    63
38.8341    71
38.8441    65
38.8541    56
38.8641    67
38.8741    74
38.8841    66
38.8941    68
38.9041    79
38.9141    68
38.9241    58
38.9341    70
38.9441    62
38.9541    74
38.9641    65
38.9741    63
38.9841    43
38.9941    70
39.0041    74
39.0141    62
39.0241    73
39.0341    56
39.0441    55
39.0541    55
39.0641    52
39.0741    61
39.0841    65
39.0941    62
39.1041    69
39.1141    53
39.1241    63
39.1341    65
39.1441    57
39.1541    63
39.1641    51
39.1741    54
39.1841    52
39.1941    64
39.2041    70
39.2141    57
39.2241    53
39.2341    73
39.2441    57
39.2541    67
39.2641    59
39.2741    60
39.2841    70
39.2941    58
39.3041    58
39.3141    58
39.3241    52
39.3341    59
39.3441    52
39.3541    57
39.3641    61
39.3741    57
39.3841    58
39.3941    48
39.4041    61
39.4141    57
39.4241    55
39.4341    70
39.4441    50
39.4541    48
39.4641    51
39.4741    62
39.4841    62
39.4941    65
39.5041    54
39.5141    63
39.5241    48
39.5341    60
39.5441    49
39.5541    45
39.5641    43
39.5741    51
39.5841    41
39.5941    48
39.6041    47
39.6141    43
39.6241    61
39.6341    51
39.6441    44
39.6541    38
39.6641    46
39.6741    55
39.6841    58
39.6941    49
39.7041    52
39.7141    51
39.7241    48
39.7341    61
39.7441    57
39.7541    51
39.7641    46
39.7741    52
39.7841    46
39.7941    60
39.8041    59
39.8141    57
39.8241    57
39.8341    57
39.8441    48
39.8541    57
39.8641    58
39.8741    50
39.8841    46
39.8941    42
39.9041    48
39.9141    46
39.9241    51
39.9341    64
39.9441    36
39.9541    37
39.9641    47
39.9741    45
39.9841    46
39.9941    53
