Bruker Nano GmbH Berlin, Germany
Esprit 1.9

Date: 5/14/2021 1:38:19 PM
Real time: 20021
Life time: 18870
Pulse density: 84173


Detector type: XFlash 430
Window type: Custom type
Detector thickness: 0.45
Si dead layer:0.029

Calibration, lin.: 10
Calibration, abs.: -955.9
Mn FWHM: 137.05
Fano factor: 0.121
Channels: 4096

Energy Counts
-0.9559     0
-0.9459     0
-0.9359     0
-0.9259     0
-0.9159     0
-0.9059     0
-0.8959     0
-0.8859     0
-0.8759     0
-0.8659     0
-0.8559     0
-0.8459     0
-0.8359     0
-0.8259     0
-0.8159     0
-0.8059     0
-0.7959     0
-0.7859     0
-0.7759     0
-0.7659     0
-0.7559     0
-0.7459     0
-0.7359     0
-0.7259     0
-0.7159     0
-0.7059     0
-0.6959     0
-0.6859     0
-0.6759     0
-0.6659     0
-0.6559     0
-0.6459     0
-0.6359     0
-0.6259     0
-0.6159     0
-0.6059     0
-0.5959     0
-0.5859     0
-0.5759     0
-0.5659     0
-0.5559     0
-0.5459     0
-0.5359     0
-0.5259     0
-0.5159     0
-0.5059     0
-0.4959     0
-0.4859     0
-0.4759     0
-0.4659     0
-0.4559     0
-0.4459     0
-0.4359     0
-0.4259     0
-0.4159     0
-0.4059     0
-0.3959     0
-0.3859     0
-0.3759     0
-0.3659     0
-0.3559     0
-0.3459     0
-0.3359     0
-0.3259     0
-0.3159     0
-0.3059     0
-0.2959     0
-0.2859     0
-0.2759     0
-0.2659     0
-0.2559     0
-0.2459     0
-0.2359     0
-0.2259     0
-0.2159     0
-0.2059     0
-0.1959     0
-0.1859     0
-0.1759     0
-0.1659     0
-0.1559     0
-0.1459     0
-0.1359     0
-0.1259     2
-0.1159     2
-0.1059    13
-0.0959    56
-0.0859   215
-0.0759   708
-0.0659  2255
-0.0559  5479
-0.0459 11865
-0.0359 22419
-0.0259 35569
-0.0159 49264
-0.0059 57830
 0.0041 58084
 0.0141 50443
 0.0241 36877
 0.0341 23571
 0.0441 12817
 0.0541  5874
 0.0641  2300
 0.0741   782
 0.0841   217
 0.0941    68
 0.1041    19
 0.1141    13
 0.1241     7
 0.1341     5
 0.1441     6
 0.1541     3
 0.1641     0
 0.1741    17
 0.1841   150
 0.1941   296
 0.2041   267
 0.2141   266
 0.2241   280
 0.2341   281
 0.2441   275
 0.2541   265
 0.2641   284
 0.2741   266
 0.2841   279
 0.2941   284
 0.3041   246
 0.3141   256
 0.3241   261
 0.3341   262
 0.3441   257
 0.3541   259
 0.3641   278
 0.3741   272
 0.3841   261
 0.3941   253
 0.4041   258
 0.4141   238
 0.4241   249
 0.4341   255
 0.4441   241
 0.4541   239
 0.4641   242
 0.4741   243
 0.4841   260
 0.4941   238
 0.5041   241
 0.5141   225
 0.5241   224
 0.5341   235
 0.5441   237
 0.5541   243
 0.5641   249
 0.5741   243
 0.5841   239
 0.5941   236
 0.6041   239
 0.6141   242
 0.6241   224
 0.6341   209
 0.6441   213
 0.6541   210
 0.6641   208
 0.6741   195
 0.6841   208
 0.6941   220
 0.7041   214
 0.7141   208
 0.7241   211
 0.7341   220
 0.7441   201
 0.7541   187
 0.7641   198
 0.7741   210
 0.7841   202
 0.7941   191
 0.8041   219
 0.8141   212
 0.8241   205
 0.8341   197
 0.8441   202
 0.8541   195
 0.8641   187
 0.8741   191
 0.8841   193
 0.8941   190
 0.9041   181
 0.9141   197
 0.9241   187
 0.9341   207
 0.9441   187
 0.9541   190
 0.9641   173
 0.9741   178
 0.9841   173
 0.9941   198
 1.0041   190
 1.0141   190
 1.0241   196
 1.0341   201
 1.0441   190
 1.0541   178
 1.0641   187
 1.0741   174
 1.0841   172
 1.0941   186
 1.1041   166
 1.1141   174
 1.1241   178
 1.1341   173
 1.1441   184
 1.1541   191
 1.1641   186
 1.1741   167
 1.1841   184
 1.1941   189
 1.2041   185
 1.2141   164
 1.2241   183
 1.2341   182
 1.2441   160
 1.2541   174
 1.2641   174
 1.2741   180
 1.2841   187
 1.2941   176
 1.3041   166
 1.3141   167
 1.3241   171
 1.3341   157
 1.3441   168
 1.3541   169
 1.3641   169
 1.3741   162
 1.3841   164
 1.3941   149
 1.4041   162
 1.4141   183
 1.4241   182
 1.4341   180
 1.4441   165
 1.4541   146
 1.4641   165
 1.4741   160
 1.4841   166
 1.4941   164
 1.5041   157
 1.5141   180
 1.5241   164
 1.5341   154
 1.5441   189
 1.5541   145
 1.5641   171
 1.5741   144
 1.5841   157
 1.5941   143
 1.6041   126
 1.6141   153
 1.6241   171
 1.6341   185
 1.6441   169
 1.6541   219
 1.6641   250
 1.6741   292
 1.6841   340
 1.6941   456
 1.7041   551
 1.7141   681
 1.7241   710
 1.7341   715
 1.7441   749
 1.7541   678
 1.7641   594
 1.7741   519
 1.7841   447
 1.7941   364
 1.8041   309
 1.8141   280
 1.8241   224
 1.8341   212
 1.8441   203
 1.8541   212
 1.8641   209
 1.8741   190
 1.8841   168
 1.8941   172
 1.9041   186
 1.9141   152
 1.9241   178
 1.9341   167
 1.9441   171
 1.9541   150
 1.9641   189
 1.9741   169
 1.9841   192
 1.9941   191
 2.0041   195
 2.0141   188
 2.0241   179
 2.0341   185
 2.0441   194
 2.0541   171
 2.0641   149
 2.0741   162
 2.0841   176
 2.0941   158
 2.1041   165
 2.1141   149
 2.1241   153
 2.1341   142
 2.1441   165
 2.1541   155
 2.1641   152
 2.1741   152
 2.1841   143
 2.1941   138
 2.2041   164
 2.2141   132
 2.2241   144
 2.2341   148
 2.2441   151
 2.2541   141
 2.2641   151
 2.2741   128
 2.2841   128
 2.2941   149
 2.3041   122
 2.3141   129
 2.3241   142
 2.3341   125
 2.3441   141
 2.3541   146
 2.3641   150
 2.3741   134
 2.3841   125
 2.3941   126
 2.4041   109
 2.4141   118
 2.4241   112
 2.4341   113
 2.4441   155
 2.4541   132
 2.4641   129
 2.4741   117
 2.4841   137
 2.4941   137
 2.5041   112
 2.5141   137
 2.5241   108
 2.5341   122
 2.5441   126
 2.5541   126
 2.5641   110
 2.5741   118
 2.5841   107
 2.5941   113
 2.6041   105
 2.6141   114
 2.6241    94
 2.6341   130
 2.6441   136
 2.6541   107
 2.6641   127
 2.6741   107
 2.6841   113
 2.6941   114
 2.7041   119
 2.7141   108
 2.7241   122
 2.7341   104
 2.7441   130
 2.7541   119
 2.7641   106
 2.7741   117
 2.7841   112
 2.7941   101
 2.8041   107
 2.8141   122
 2.8241   130
 2.8341   120
 2.8441   119
 2.8541   112
 2.8641   104
 2.8741   126
 2.8841   115
 2.8941   122
 2.9041   107
 2.9141    95
 2.9241   124
 2.9341   113
 2.9441   129
 2.9541   114
 2.9641   111
 2.9741   113
 2.9841   127
 2.9941   105
 3.0041   110
 3.0141   108
 3.0241   108
 3.0341   112
 3.0441   109
 3.0541    84
 3.0641   109
 3.0741    79
 3.0841    81
 3.0941    90
 3.1041    99
 3.1141    88
 3.1241    86
 3.1341   117
 3.1441   109
 3.1541    94
 3.1641   108
 3.1741    86
 3.1841   110
 3.1941   102
 3.2041   112
 3.2141   124
 3.2241   133
 3.2341   176
 3.2441   195
 3.2541   249
 3.2641   288
 3.2741   325
 3.2841   330
 3.2941   425
 3.3041   429
 3.3141   411
 3.3241   449
 3.3341   414
 3.3441   357
 3.3541   329
 3.3641   276
 3.3741   233
 3.3841   170
 3.3941   155
 3.4041   129
 3.4141   139
 3.4241    96
 3.4341   109
 3.4441   110
 3.4541    67
 3.4641    85
 3.4741    92
 3.4841    81
 3.4941   109
 3.5041   118
 3.5141   128
 3.5241   161
 3.5341   126
 3.5441   148
 3.5541   177
 3.5641   193
 3.5741   217
 3.5841   265
 3.5941   314
 3.6041   368
 3.6141   425
 3.6241   505
 3.6341   603
 3.6441   769
 3.6541   871
 3.6641   989
 3.6741  1058
 3.6841  1046
 3.6941  1057
 3.7041   988
 3.7141   929
 3.7241   885
 3.7341   742
 3.7441   584
 3.7541   485
 3.7641   421
 3.7741   300
 3.7841   235
 3.7941   152
 3.8041   144
 3.8141   111
 3.8241   108
 3.8341    99
 3.8441    81
 3.8541    75
 3.8641    75
 3.8741    73
 3.8841    89
 3.8941    85
 3.9041   104
 3.9141   123
 3.9241   107
 3.9341   118
 3.9441   125
 3.9541   137
 3.9641   170
 3.9741   165
 3.9841   172
 3.9941   185
 4.0041   213
 4.0141   215
 4.0241   235
 4.0341   200
 4.0441   162
 4.0541   154
 4.0641   157
 4.0741   123
 4.0841   128
 4.0941   124
 4.1041    98
 4.1141    81
 4.1241    89
 4.1341    92
 4.1441    84
 4.1541    89
 4.1641    76
 4.1741    80
 4.1841    77
 4.1941    63
 4.2041    68
 4.2141    63
 4.2241    61
 4.2341    68
 4.2441    74
 4.2541    75
 4.2641    86
 4.2741    81
 4.2841    67
 4.2941    60
 4.3041    79
 4.3141    67
 4.3241    73
 4.3341    61
 4.3441    74
 4.3541    67
 4.3641    79
 4.3741    92
 4.3841   112
 4.3941   105
 4.4041   132
 4.4141   138
 4.4241   186
 4.4341   181
 4.4441   210
 4.4541   248
 4.4641   270
 4.4741   322
 4.4841   343
 4.4941   340
 4.5041   350
 4.5141   368
 4.5241   311
 4.5341   331
 4.5441   294
 4.5541   282
 4.5641   237
 4.5741   196
 4.5841   170
 4.5941   146
 4.6041   115
 4.6141   118
 4.6241   101
 4.6341    97
 4.6441    92
 4.6541    85
 4.6641    95
 4.6741    89
 4.6841    72
 4.6941    75
 4.7041    69
 4.7141    90
 4.7241    78
 4.7341    93
 4.7441    83
 4.7541    73
 4.7641    88
 4.7741    83
 4.7841    95
 4.7941    97
 4.8041   104
 4.8141    99
 4.8241   112
 4.8341   116
 4.8441   123
 4.8541   121
 4.8641   123
 4.8741   105
 4.8841   138
 4.8941   148
 4.9041   125
 4.9141   128
 4.9241   147
 4.9341   120
 4.9441   128
 4.9541   139
 4.9641   126
 4.9741   131
 4.9841   121
 4.9941   124
 5.0041   105
 5.0141   105
 5.0241   102
 5.0341   106
 5.0441    96
 5.0541    88
 5.0641    96
 5.0741    97
 5.0841    73
 5.0941    78
 5.1041    88
 5.1141    94
 5.1241   100
 5.1341    87
 5.1441   102
 5.1541    91
 5.1641    96
 5.1741    81
 5.1841    86
 5.1941    77
 5.2041    98
 5.2141   101
 5.2241    85
 5.2341    88
 5.2441   100
 5.2541   104
 5.2641    95
 5.2741    90
 5.2841    93
 5.2941    97
 5.3041   100
 5.3141   107
 5.3241    98
 5.3341   118
 5.3441   125
 5.3541   129
 5.3641   139
 5.3741   116
 5.3841   150
 5.3941   149
 5.4041   160
 5.4141   141
 5.4241   148
 5.4341   139
 5.4441   137
 5.4541   134
 5.4641   141
 5.4741   138
 5.4841   115
 5.4941   103
 5.5041   128
 5.5141   125
 5.5241    96
 5.5341   107
 5.5441   107
 5.5541   103
 5.5641   118
 5.5741   104
 5.5841   111
 5.5941    93
 5.6041   109
 5.6141    96
 5.6241    99
 5.6341    91
 5.6441    88
 5.6541   106
 5.6641    93
 5.6741   108
 5.6841   106
 5.6941   115
 5.7041   109
 5.7141   119
 5.7241   106
 5.7341    92
 5.7441   117
 5.7541   119
 5.7641   147
 5.7741   183
 5.7841   194
 5.7941   232
 5.8041   295
 5.8141   296
 5.8241   324
 5.8341   363
 5.8441   411
 5.8541   489
 5.8641   531
 5.8741   515
 5.8841   584
 5.8941   606
 5.9041   558
 5.9141   559
 5.9241   492
 5.9341   505
 5.9441   447
 5.9541   379
 5.9641   353
 5.9741   315
 5.9841   246
 5.9941   232
 6.0041   193
 6.0141   170
 6.0241   131
 6.0341   134
 6.0441   121
 6.0541   117
 6.0641   131
 6.0741   124
 6.0841   115
 6.0941   127
 6.1041   106
 6.1141   111
 6.1241   138
 6.1341   121
 6.1441   147
 6.1541   125
 6.1641   143
 6.1741   142
 6.1841   181
 6.1941   183
 6.2041   229
 6.2141   277
 6.2241   380
 6.2341   489
 6.2441   598
 6.2541   868
 6.2641  1176
 6.2741  1566
 6.2841  2134
 6.2941  2808
 6.3041  3516
 6.3141  4550
 6.3241  5437
 6.3341  6694
 6.3441  7715
 6.3541  8688
 6.3641  9954
 6.3741 10705
 6.3841 11226
 6.3941 11423
 6.4041 11580
 6.4141 11092
 6.4241 10721
 6.4341  9605
 6.4441  8650
 6.4541  7553
 6.4641  6352
 6.4741  5239
 6.4841  4218
 6.4941  3343
 6.5041  2578
 6.5141  1971
 6.5241  1411
 6.5341  1043
 6.5441   797
 6.5541   602
 6.5641   426
 6.5741   310
 6.5841   252
 6.5941   219
 6.6041   200
 6.6141   178
 6.6241   160
 6.6341   153
 6.6441   147
 6.6541   155
 6.6641   140
 6.6741   157
 6.6841   138
 6.6941   140
 6.7041   145
 6.7141   153
 6.7241   116
 6.7341   160
 6.7441   134
 6.7541   148
 6.7641   166
 6.7741   166
 6.7841   135
 6.7941   161
 6.8041   164
 6.8141   155
 6.8241   134
 6.8341   200
 6.8441   161
 6.8541   203
 6.8641   186
 6.8741   223
 6.8841   227
 6.8941   280
 6.9041   332
 6.9141   371
 6.9241   397
 6.9341   530
 6.9441   649
 6.9541   708
 6.9641   862
 6.9741  1034
 6.9841  1204
 6.9941  1393
 7.0041  1463
 7.0141  1670
 7.0241  1851
 7.0341  1897
 7.0441  2017
 7.0541  2003
 7.0641  1949
 7.0741  1947
 7.0841  1802
 7.0941  1695
 7.1041  1574
 7.1141  1336
 7.1241  1167
 7.1341  1003
 7.1441   869
 7.1541   707
 7.1641   562
 7.1741   483
 7.1841   388
 7.1941   371
 7.2041   308
 7.2141   263
 7.2241   254
 7.2341   222
 7.2441   214
 7.2541   230
 7.2641   223
 7.2741   193
 7.2841   208
 7.2941   215
 7.3041   201
 7.3141   218
 7.3241   222
 7.3341   257
 7.3441   263
 7.3541   260
 7.3641   298
 7.3741   333
 7.3841   333
 7.3941   343
 7.4041   329
 7.4141   321
 7.4241   331
 7.4341   347
 7.4441   323
 7.4541   350
 7.4641   341
 7.4741   313
 7.4841   298
 7.4941   306
 7.5041   293
 7.5141   270
 7.5241   303
 7.5341   269
 7.5441   233
 7.5541   237
 7.5641   244
 7.5741   257
 7.5841   258
 7.5941   219
 7.6041   204
 7.6141   217
 7.6241   212
 7.6341   198
 7.6441   219
 7.6541   218
 7.6641   213
 7.6741   217
 7.6841   207
 7.6941   251
 7.7041   224
 7.7141   220
 7.7241   222
 7.7341   229
 7.7441   226
 7.7541   220
 7.7641   222
 7.7741   250
 7.7841   256
 7.7941   241
 7.8041   246
 7.8141   258
 7.8241   257
 7.8341   245
 7.8441   284
 7.8541   294
 7.8641   287
 7.8741   330
 7.8841   322
 7.8941   369
 7.9041   373
 7.9141   352
 7.9241   389
 7.9341   416
 7.9441   392
 7.9541   469
 7.9641   498
 7.9741   483
 7.9841   531
 7.9941   588
 8.0041   632
 8.0141   687
 8.0241   743
 8.0341   764
 8.0441   822
 8.0541   931
 8.0641   895
 8.0741  1003
 8.0841  1060
 8.0941  1126
 8.1041  1092
 8.1141  1180
 8.1241  1259
 8.1341  1251
 8.1441  1266
 8.1541  1293
 8.1641  1378
 8.1741  1454
 8.1841  1389
 8.1941  1439
 8.2041  1424
 8.2141  1515
 8.2241  1490
 8.2341  1492
 8.2441  1503
 8.2541  1560
 8.2641  1644
 8.2741  1729
 8.2841  1901
 8.2941  2017
 8.3041  2207
 8.3141  2483
 8.3241  2540
 8.3341  2811
 8.3441  2939
 8.3541  3118
 8.3641  3280
 8.3741  3375
 8.3841  3350
 8.3941  3342
 8.4041  3291
 8.4141  3170
 8.4241  3025
 8.4341  2757
 8.4441  2552
 8.4541  2367
 8.4641  2056
 8.4741  1770
 8.4841  1511
 8.4941  1315
 8.5041  1126
 8.5141   916
 8.5241   782
 8.5341   683
 8.5441   570
 8.5541   494
 8.5641   498
 8.5741   444
 8.5841   412
 8.5941   403
 8.6041   385
 8.6141   430
 8.6241   385
 8.6341   381
 8.6441   386
 8.6541   392
 8.6641   390
 8.6741   385
 8.6841   377
 8.6941   377
 8.7041   368
 8.7141   386
 8.7241   359
 8.7341   358
 8.7441   331
 8.7541   332
 8.7641   327
 8.7741   367
 8.7841   338
 8.7941   324
 8.8041   366
 8.8141   323
 8.8241   313
 8.8341   300
 8.8441   330
 8.8541   287
 8.8641   325
 8.8741   316
 8.8841   321
 8.8941   303
 8.9041   309
 8.9141   318
 8.9241   355
 8.9341   353
 8.9441   357
 8.9541   371
 8.9641   353
 8.9741   375
 8.9841   395
 8.9941   353
 9.0041   371
 9.0141   384
 9.0241   406
 9.0341   407
 9.0441   431
 9.0541   436
 9.0641   435
 9.0741   481
 9.0841   489
 9.0941   481
 9.1041   475
 9.1141   489
 9.1241   539
 9.1341   557
 9.1441   572
 9.1541   605
 9.1641   618
 9.1741   629
 9.1841   705
 9.1941   724
 9.2041   808
 9.2141   803
 9.2241   839
 9.2341   880
 9.2441   942
 9.2541   942
 9.2641   944
 9.2741  1015
 9.2841  1062
 9.2941  1150
 9.3041  1144
 9.3141  1215
 9.3241  1208
 9.3341  1329
 9.3441  1304
 9.3541  1360
 9.3641  1374
 9.3741  1425
 9.3841  1390
 9.3941  1410
 9.4041  1389
 9.4141  1449
 9.4241  1468
 9.4341  1457
 9.4441  1480
 9.4541  1543
 9.4641  1571
 9.4741  1506
 9.4841  1519
 9.4941  1622
 9.5041  1643
 9.5141  1667
 9.5241  1745
 9.5341  1791
 9.5441  1904
 9.5541  1962
 9.5641  2087
 9.5741  2224
 9.5841  2295
 9.5941  2458
 9.6041  2626
 9.6141  2657
 9.6241  2812
 9.6341  2959
 9.6441  3070
 9.6541  3150
 9.6641  3092
 9.6741  3096
 9.6841  3074
 9.6941  3028
 9.7041  2863
 9.7141  2679
 9.7241  2568
 9.7341  2416
 9.7441  2251
 9.7541  2054
 9.7641  1871
 9.7741  1708
 9.7841  1625
 9.7941  1573
 9.8041  1398
 9.8141  1309
 9.8241  1311
 9.8341  1273
 9.8441  1271
 9.8541  1225
 9.8641  1239
 9.8741  1186
 9.8841  1224
 9.8941  1222
 9.9041  1294
 9.9141  1318
 9.9241  1372
 9.9341  1380
 9.9441  1345
 9.9541  1394
 9.9641  1357
 9.9741  1348
 9.9841  1292
 9.9941  1280
10.0041  1170
10.0141  1068
10.0241   983
10.0341   910
10.0441   819
10.0541   740
10.0641   644
10.0741   580
10.0841   535
10.0941   473
10.1041   434
10.1141   376
10.1241   339
10.1341   336
10.1441   320
10.1541   317
10.1641   285
10.1741   278
10.1841   284
10.1941   266
10.2041   241
10.2141   259
10.2241   234
10.2341   215
10.2441   232
10.2541   224
10.2641   205
10.2741   213
10.2841   197
10.2941   192
10.3041   181
10.3141   205
10.3241   172
10.3341   178
10.3441   162
10.3541   160
10.3641   154
10.3741   170
10.3841   185
10.3941   195
10.4041   192
10.4141   173
10.4241   178
10.4341   181
10.4441   183
10.4541   185
10.4641   197
10.4741   197
10.4841   207
10.4941   194
10.5041   188
10.5141   201
10.5241   196
10.5341   188
10.5441   206
10.5541   212
10.5641   223
10.5741   215
10.5841   215
10.5941   215
10.6041   221
10.6141   216
10.6241   216
10.6341   216
10.6441   205
10.6541   222
10.6641   226
10.6741   226
10.6841   216
10.6941   238
10.7041   224
10.7141   222
10.7241   215
10.7341   249
10.7441   272
10.7541   236
10.7641   240
10.7741   283
10.7841   275
10.7941   271
10.8041   265
10.8141   279
10.8241   297
10.8341   261
10.8441   250
10.8541   303
10.8641   319
10.8741   302
10.8841   326
10.8941   321
10.9041   309
10.9141   300
10.9241   306
10.9341   305
10.9441   315
10.9541   312
10.9641   311
10.9741   329
10.9841   317
10.9941   307
11.0041   287
11.0141   294
11.0241   286
11.0341   285
11.0441   290
11.0541   273
11.0641   284
11.0741   275
11.0841   278
11.0941   268
11.1041   281
11.1141   283
11.1241   281
11.1341   267
11.1441   278
11.1541   301
11.1641   310
11.1741   300
11.1841   336
11.1941   358
11.2041   382
11.2141   380
11.2241   391
11.2341   415
11.2441   437
11.2541   416
11.2641   425
11.2741   438
11.2841   424
11.2941   421
11.3041   407
11.3141   426
11.3241   413
11.3341   415
11.3441   400
11.3541   359
11.3641   355
11.3741   321
11.3841   306
11.3941   297
11.4041   281
11.4141   254
11.4241   240
11.4341   243
11.4441   236
11.4541   239
11.4641   230
11.4741   231
11.4841   229
11.4941   219
11.5041   212
11.5141   210
11.5241   222
11.5341   225
11.5441   237
11.5541   219
11.5641   229
11.5741   227
11.5841   225
11.5941   239
11.6041   228
11.6141   233
11.6241   237
11.6341   215
11.6441   201
11.6541   210
11.6641   224
11.6741   216
11.6841   228
11.6941   206
11.7041   207
11.7141   221
11.7241   210
11.7341   203
11.7441   192
11.7541   189
11.7641   189
11.7741   186
11.7841   178
11.7941   171
11.8041   178
11.8141   179
11.8241   181
11.8341   178
11.8441   175
11.8541   170
11.8641   177
11.8741   171
11.8841   168
11.8941   151
11.9041   151
11.9141   161
11.9241   169
11.9341   181
11.9441   184
11.9541   182
11.9641   179
11.9741   188
11.9841   175
11.9941   183
12.0041   187
12.0141   178
12.0241   179
12.0341   163
12.0441   161
12.0541   167
12.0641   174
12.0741   183
12.0841   176
12.0941   176
12.1041   178
12.1141   171
12.1241   163
12.1341   177
12.1441   185
12.1541   188
12.1641   181
12.1741   178
12.1841   187
12.1941   192
12.2041   173
12.2141   159
12.2241   161
12.2341   180
12.2441   176
12.2541   170
12.2641   158
12.2741   149
12.2841   164
12.2941   170
12.3041   175
12.3141   178
12.3241   174
12.3341   162
12.3441   165
12.3541   183
12.3641   172
12.3741   164
12.3841   166
12.3941   165
12.4041   158
12.4141   164
12.4241   168
12.4341   173
12.4441   179
12.4541   178
12.4641   173
12.4741   164
12.4841   184
12.4941   192
12.5041   182
12.5141   175
12.5241   178
12.5341   176
12.5441   191
12.5541   196
12.5641   184
12.5741   190
12.5841   182
12.5941   178
12.6041   202
12.6141   195
12.6241   178
12.6341   168
12.6441   174
12.6541   188
12.6641   197
12.6741   196
12.6841   219
12.6941   208
12.7041   186
12.7141   208
12.7241   203
12.7341   193
12.7441   177
12.7541   177
12.7641   180
12.7741   181
12.7841   187
12.7941   196
12.8041   205
12.8141   207
12.8241   195
12.8341   178
12.8441   193
12.8541   207
12.8641   202
12.8741   193
12.8841   194
12.8941   194
12.9041   216
12.9141   214
12.9241   200
12.9341   203
12.9441   200
12.9541   191
12.9641   194
12.9741   194
12.9841   182
12.9941   184
13.0041   213
13.0141   225
13.0241   221
13.0341   224
13.0441   215
13.0541   205
13.0641   208
13.0741   196
13.0841   193
13.0941   196
13.1041   187
13.1141   196
13.1241   209
13.1341   212
13.1441   220
13.1541   232
13.1641   240
13.1741   219
13.1841   192
13.1941   197
13.2041   236
13.2141   235
13.2241   234
13.2341   243
13.2441   258
13.2541   278
13.2641   274
13.2741   287
13.2841   304
13.2941   300
13.3041   312
13.3141   330
13.3241   340
13.3341   351
13.3441   370
13.3541   358
13.3641   352
13.3741   353
13.3841   353
13.3941   371
13.4041   365
13.4141   363
13.4241   353
13.4341   335
13.4441   336
13.4541   332
13.4641   322
13.4741   307
13.4841   283
13.4941   290
13.5041   287
13.5141   264
13.5241   255
13.5341   254
13.5441   257
13.5541   248
13.5641   252
13.5741   244
13.5841   228
13.5941   241
13.6041   237
13.6141   247
13.6241   252
13.6341   248
13.6441   248
13.6541   243
13.6641   250
13.6741   231
13.6841   229
13.6941   252
13.7041   253
13.7141   248
13.7241   236
13.7341   238
13.7441   252
13.7541   255
13.7641   253
13.7741   256
13.7841   260
13.7941   264
13.8041   263
13.8141   257
13.8241   245
13.8341   241
13.8441   253
13.8541   253
13.8641   253
13.8741   253
13.8841   255
13.8941   272
13.9041   280
13.9141   269
13.9241   287
13.9341   298
13.9441   293
13.9541   311
13.9641   313
13.9741   300
13.9841   291
13.9941   318
14.0041   342
14.0141   331
14.0241   338
14.0341   370
14.0441   403
14.0541   408
14.0641   416
14.0741   424
14.0841   436
14.0941   465
14.1041   497
14.1141   536
14.1241   517
14.1341   492
14.1441   489
14.1541   505
14.1641   512
14.1741   489
14.1841   500
14.1941   491
14.2041   470
14.2141   472
14.2241   450
14.2341   422
14.2441   424
14.2541   408
14.2641   367
14.2741   358
14.2841   364
14.2941   349
14.3041   335
14.3141   318
14.3241   312
14.3341   314
14.3441   304
14.3541   294
14.3641   300
14.3741   303
14.3841   306
14.3941   299
14.4041   287
14.4141   283
14.4241   269
14.4341   275
14.4441   288
14.4541   285
14.4641   296
14.4741   283
14.4841   272
14.4941   283
14.5041   286
14.5141   294
14.5241   275
14.5341   278
14.5441   295
14.5541   292
14.5641   294
14.5741   295
14.5841   287
14.5941   298
14.6041   297
14.6141   284
14.6241   280
14.6341   295
14.6441   301
14.6541   298
14.6641   306
14.6741   292
14.6841   286
14.6941   292
14.7041   293
14.7141   302
14.7241   299
14.7341   311
14.7441   320
14.7541   305
14.7641   319
14.7741   339
14.7841   333
14.7941   310
14.8041   321
14.8141   326
14.8241   325
14.8341   337
14.8441   326
14.8541   341
14.8641   365
14.8741   371
14.8841   355
14.8941   375
14.9041   375
14.9141   373
14.9241   365
14.9341   382
14.9441   372
14.9541   351
14.9641   365
14.9741   388
14.9841   408
14.9941   394
15.0041   342
15.0141   341
15.0241   361
15.0341   359
15.0441   359
15.0541   367
15.0641   364
15.0741   342
15.0841   332
15.0941   336
15.1041   354
15.1141   348
15.1241   340
15.1341   323
15.1441   324
15.1541   334
15.1641   321
15.1741   333
15.1841   332
15.1941   323
15.2041   313
15.2141   315
15.2241   345
15.2341   366
15.2441   373
15.2541   363
15.2641   339
15.2741   325
15.2841   344
15.2941   342
15.3041   364
15.3141   348
15.3241   348
15.3341   351
15.3441   349
15.3541   348
15.3641   338
15.3741   346
15.3841   339
15.3941   347
15.4041   345
15.4141   357
15.4241   354
15.4341   364
15.4441   352
15.4541   346
15.4641   376
15.4741   380
15.4841   376
15.4941   390
15.5041   364
15.5141   385
15.5241   412
15.5341   417
15.5441   423
15.5541   424
15.5641   447
15.5741   454
15.5841   461
15.5941   487
15.6041   516
15.6141   548
15.6241   607
15.6341   620
15.6441   641
15.6541   658
15.6641   681
15.6741   728
15.6841   758
15.6941   761
15.7041   790
15.7141   830
15.7241   817
15.7341   811
15.7441   849
15.7541   864
15.7641   866
15.7741   838
15.7841   834
15.7941   818
15.8041   777
15.8141   760
15.8241   767
15.8341   749
15.8441   726
15.8541   689
15.8641   643
15.8741   631
15.8841   635
15.8941   583
15.9041   549
15.9141   530
15.9241   520
15.9341   484
15.9441   435
15.9541   429
15.9641   436
15.9741   423
15.9841   384
15.9941   407
16.0041   431
16.0141   436
16.0241   401
16.0341   405
16.0441   431
16.0541   405
16.0641   386
16.0741   410
16.0841   421
16.0941   398
16.1041   406
16.1141   428
16.1241   436
16.1341   395
16.1441   388
16.1541   393
16.1641   412
16.1741   434
16.1841   414
16.1941   405
16.2041   415
16.2141   433
16.2241   432
16.2341   443
16.2441   435
16.2541   429
16.2641   414
16.2741   399
16.2841   401
16.2941   405
16.3041   403
16.3141   403
16.3241   416
16.3341   428
16.3441   436
16.3541   429
16.3641   421
16.3741   442
16.3841   442
16.3941   423
16.4041   410
16.4141   404
16.4241   429
16.4341   435
16.4441   417
16.4541   413
16.4641   433
16.4741   426
16.4841   445
16.4941   482
16.5041   470
16.5141   442
16.5241   448
16.5341   443
16.5441   457
16.5541   471
16.5641   473
16.5741   481
16.5841   477
16.5941   479
16.6041   475
16.6141   447
16.6241   479
16.6341   486
16.6441   470
16.6541   476
16.6641   483
16.6741   452
16.6841   468
16.6941   492
16.7041   470
16.7141   456
16.7241   448
16.7341   460
16.7441   440
16.7541   456
16.7641   451
16.7741   454
16.7841   416
16.7941   439
16.8041   456
16.8141   425
16.8241   432
16.8341   446
16.8441   438
16.8541   444
16.8641   460
16.8741   483
16.8841   468
16.8941   457
16.9041   429
16.9141   476
16.9241   462
16.9341   424
16.9441   472
16.9541   491
16.9641   456
16.9741   470
16.9841   466
16.9941   471
17.0041   449
17.0141   458
17.0241   466
17.0341   449
17.0441   454
17.0541   481
17.0641   461
17.0741   457
17.0841   480
17.0941   478
17.1041   460
17.1141   475
17.1241   461
17.1341   431
17.1441   451
17.1541   449
17.1641   471
17.1741   482
17.1841   472
17.1941   484
17.2041   480
17.2141   469
17.2241   470
17.2341   490
17.2441   471
17.2541   450
17.2641   454
17.2741   474
17.2841   491
17.2941   490
17.3041   491
17.3141   483
17.3241   467
17.3341   465
17.3441   471
17.3541   455
17.3641   481
17.3741   522
17.3841   498
17.3941   499
17.4041   521
17.4141   472
17.4241   457
17.4341   536
17.4441   516
17.4541   493
17.4641   486
17.4741   501
17.4841   502
17.4941   494
17.5041   518
17.5141   503
17.5241   521
17.5341   539
17.5441   537
17.5541   542
17.5641   537
17.5741   530
17.5841   544
17.5941   555
17.6041   572
17.6141   574
17.6241   584
17.6341   576
17.6441   555
17.6541   547
17.6641   584
17.6741   592
17.6841   600
17.6941   590
17.7041   572
17.7141   601
17.7241   601
17.7341   548
17.7441   535
17.7541   563
17.7641   546
17.7741   524
17.7841   516
17.7941   529
17.8041   570
17.8141   539
17.8241   513
17.8341   512
17.8441   497
17.8541   519
17.8641   516
17.8741   520
17.8841   490
17.8941   523
17.9041   535
17.9141   536
17.9241   557
17.9341   514
17.9441   500
17.9541   547
17.9641   538
17.9741   536
17.9841   541
17.9941   549
18.0041   547
18.0141   520
18.0241   537
18.0341   544
18.0441   551
18.0541   527
18.0641   523
18.0741   503
18.0841   525
18.0941   543
18.1041   532
18.1141   521
18.1241   517
18.1341   502
18.1441   509
18.1541   509
18.1641   551
18.1741   517
18.1841   513
18.1941   522
18.2041   533
18.2141   567
18.2241   574
18.2341   552
18.2441   552
18.2541   521
18.2641   527
18.2741   529
18.2841   506
18.2941   516
18.3041   523
18.3141   525
18.3241   529
18.3341   505
18.3441   544
18.3541   537
18.3641   549
18.3741   545
18.3841   543
18.3941   578
18.4041   539
18.4141   513
18.4241   514
18.4341   523
18.4441   547
18.4541   567
18.4641   563
18.4741   550
18.4841   580
18.4941   561
18.5041   536
18.5141   544
18.5241   540
18.5341   544
18.5441   571
18.5541   550
18.5641   539
18.5741   543
18.5841   546
18.5941   549
18.6041   588
18.6141   542
18.6241   518
18.6341   563
18.6441   557
18.6541   583
18.6641   574
18.6741   547
18.6841   523
18.6941   556
18.7041   559
18.7141   530
18.7241   544
18.7341   518
18.7441   540
18.7541   545
18.7641   534
18.7741   545
18.7841   560
18.7941   553
18.8041   543
18.8141   547
18.8241   542
18.8341   541
18.8441   565
18.8541   589
18.8641   581
18.8741   545
18.8841   542
18.8941   564
18.9041   586
18.9141   550
18.9241   587
18.9341   567
18.9441   597
18.9541   570
18.9641   539
18.9741   529
18.9841   554
18.9941   506
19.0041   517
19.0141   560
19.0241   599
19.0341   589
19.0441   580
19.0541   582
19.0641   569
19.0741   575
19.0841   586
19.0941   517
19.1041   563
19.1141   576
19.1241   544
19.1341   556
19.1441   555
19.1541   595
19.1641   571
19.1741   543
19.1841   580
19.1941   588
19.2041   571
19.2141   558
19.2241   560
19.2341   554
19.2441   583
19.2541   591
19.2641   552
19.2741   560
19.2841   577
19.2941   585
19.3041   543
19.3141   538
19.3241   551
19.3341   544
19.3441   581
19.3541   584
19.3641   564
19.3741   552
19.3841   568
19.3941   575
19.4041   567
19.4141   554
19.4241   550
19.4341   582
19.4441   585
19.4541   567
19.4641   599
19.4741   575
19.4841   581
19.4941   570
19.5041   580
19.5141   576
19.5241   580
19.5341   582
19.5441   565
19.5541   596
19.5641   536
19.5741   589
19.5841   575
19.5941   595
19.6041   551
19.6141   584
19.6241   592
19.6341   582
19.6441   567
19.6541   598
19.6641   565
19.6741   559
19.6841   550
19.6941   584
19.7041   587
19.7141   537
19.7241   574
19.7341   578
19.7441   576
19.7541   550
19.7641   569
19.7741   578
19.7841   563
19.7941   621
19.8041   570
19.8141   530
19.8241   589
19.8341   568
19.8441   617
19.8541   601
19.8641   599
19.8741   619
19.8841   602
19.8941   541
19.9041   568
19.9141   595
19.9241   631
19.9341   591
19.9441   576
19.9541   547
19.9641   548
19.9741   594
19.9841   585
19.9941   592
20.0041   578
20.0141   557
20.0241   584
20.0341   566
20.0441   561
20.0541   561
20.0641   612
20.0741   578
20.0841   589
20.0941   595
20.1041   556
20.1141   590
20.1241   602
20.1341   580
20.1441   552
20.1541   594
20.1641   569
20.1741   595
20.1841   590
20.1941   576
20.2041   600
20.2141   576
20.2241   590
20.2341   605
20.2441   564
20.2541   560
20.2641   579
20.2741   597
20.2841   579
20.2941   556
20.3041   583
20.3141   615
20.3241   560
20.3341   543
20.3441   607
20.3541   560
20.3641   574
20.3741   594
20.3841   580
20.3941   584
20.4041   606
20.4141   569
20.4241   585
20.4341   586
20.4441   555
20.4541   588
20.4641   577
20.4741   598
20.4841   544
20.4941   575
20.5041   571
20.5141   592
20.5241   577
20.5341   584
20.5441   608
20.5541   608
20.5641   599
20.5741   639
20.5841   580
20.5941   559
20.6041   561
20.6141   574
20.6241   586
20.6341   583
20.6441   610
20.6541   623
20.6641   591
20.6741   615
20.6841   577
20.6941   602
20.7041   592
20.7141   513
20.7241   571
20.7341   551
20.7441   597
20.7541   633
20.7641   593
20.7741   620
20.7841   620
20.7941   601
20.8041   634
20.8141   602
20.8241   636
20.8341   594
20.8441   631
20.8541   641
20.8641   606
20.8741   637
20.8841   638
20.8941   669
20.9041   673
20.9141   668
20.9241   701
20.9341   667
20.9441   660
20.9541   708
20.9641   717
20.9741   730
20.9841   736
20.9941   756
21.0041   763
21.0141   788
21.0241   749
21.0341   799
21.0441   764
21.0541   752
21.0641   790
21.0741   781
21.0841   811
21.0941   819
21.1041   828
21.1141   786
21.1241   842
21.1341   801
21.1441   870
21.1541   828
21.1641   827
21.1741   792
21.1841   830
21.1941   771
21.2041   802
21.2141   813
21.2241   762
21.2341   723
21.2441   738
21.2541   753
21.2641   756
21.2741   684
21.2841   702
21.2941   679
21.3041   703
21.3141   617
21.3241   636
21.3341   629
21.3441   608
21.3541   651
21.3641   598
21.3741   581
21.3841   603
21.3941   601
21.4041   583
21.4141   604
21.4241   566
21.4341   604
21.4441   590
21.4541   622
21.4641   576
21.4741   622
21.4841   587
21.4941   585
21.5041   544
21.5141   548
21.5241   559
21.5341   579
21.5441   585
21.5541   552
21.5641   578
21.5741   607
21.5841   558
21.5941   585
21.6041   614
21.6141   608
21.6241   581
21.6341   577
21.6441   576
21.6541   598
21.6641   554
21.6741   586
21.6841   548
21.6941   558
21.7041   558
21.7141   564
21.7241   594
21.7341   566
21.7441   583
21.7541   574
21.7641   603
21.7741   575
21.7841   589
21.7941   571
21.8041   577
21.8141   569
21.8241   562
21.8341   570
21.8441   572
21.8541   568
21.8641   580
21.8741   617
21.8841   615
21.8941   535
21.9041   610
21.9141   592
21.9241   588
21.9341   585
21.9441   593
21.9541   602
21.9641   583
21.9741   580
21.9841   597
21.9941   591
22.0041   568
22.0141   556
22.0241   600
22.0341   579
22.0441   569
22.0541   604
22.0641   545
22.0741   564
22.0841   550
22.0941   596
22.1041   620
22.1141   571
22.1241   578
22.1341   545
22.1441   544
22.1541   575
22.1641   578
22.1741   564
22.1841   598
22.1941   571
22.2041   584
22.2141   567
22.2241   559
22.2341   556
22.2441   591
22.2541   555
22.2641   557
22.2741   576
22.2841   584
22.2941   596
22.3041   544
22.3141   539
22.3241   569
22.3341   568
22.3441   578
22.3541   571
22.3641   573
22.3741   603
22.3841   567
22.3941   577
22.4041   606
22.4141   528
22.4241   582
22.4341   530
22.4441   560
22.4541   563
22.4641   580
22.4741   569
22.4841   585
22.4941   581
22.5041   573
22.5141   546
22.5241   546
22.5341   536
22.5441   568
22.5541   586
22.5641   542
22.5741   595
22.5841   580
22.5941   550
22.6041   594
22.6141   516
22.6241   536
22.6341   556
22.6441   569
22.6541   583
22.6641   606
22.6741   558
22.6841   562
22.6941   552
22.7041   547
22.7141   554
22.7241   560
22.7341   550
22.7441   564
22.7541   552
22.7641   552
22.7741   545
22.7841   536
22.7941   525
22.8041   542
22.8141   570
22.8241   585
22.8341   550
22.8441   566
22.8541   572
22.8641   566
22.8741   514
22.8841   521
22.8941   539
22.9041   521
22.9141   519
22.9241   584
22.9341   534
22.9441   590
22.9541   536
22.9641   542
22.9741   541
22.9841   570
22.9941   543
23.0041   584
23.0141   595
23.0241   552
23.0341   551
23.0441   561
23.0541   527
23.0641   609
23.0741   592
23.0841   534
23.0941   573
23.1041   534
23.1141   558
23.1241   550
23.1341   507
23.1441   567
23.1541   545
23.1641   542
23.1741   532
23.1841   570
23.1941   579
23.2041   519
23.2141   523
23.2241   545
23.2341   538
23.2441   526
23.2541   560
23.2641   528
23.2741   522
23.2841   502
23.2941   541
23.3041   587
23.3141   555
23.3241   487
23.3341   522
23.3441   479
23.3541   527
23.3641   515
23.3741   578
23.3841   529
23.3941   569
23.4041   570
23.4141   530
23.4241   534
23.4341   544
23.4441   507
23.4541   530
23.4641   518
23.4741   553
23.4841   536
23.4941   564
23.5041   550
23.5141   541
23.5241   558
23.5341   571
23.5441   525
23.5541   541
23.5641   540
23.5741   551
23.5841   510
23.5941   537
23.6041   559
23.6141   554
23.6241   528
23.6341   554
23.6441   514
23.6541   549
23.6641   604
23.6741   557
23.6841   580
23.6941   572
23.7041   575
23.7141   567
23.7241   545
23.7341   573
23.7441   557
23.7541   539
23.7641   538
23.7741   589
23.7841   592
23.7941   584
23.8041   555
23.8141   567
23.8241   583
23.8341   576
23.8441   571
23.8541   552
23.8641   585
23.8741   542
23.8841   546
23.8941   565
23.9041   574
23.9141   526
23.9241   559
23.9341   583
23.9441   509
23.9541   577
23.9641   524
23.9741   520
23.9841   515
23.9941   518
24.0041   559
24.0141   561
24.0241   552
24.0341   548
24.0441   512
24.0541   517
24.0641   520
24.0741   491
24.0841   542
24.0941   522
24.1041   490
24.1141   509
24.1241   519
24.1341   515
24.1441   471
24.1541   520
24.1641   513
24.1741   484
24.1841   476
24.1941   490
24.2041   518
24.2141   495
24.2241   504
24.2341   525
24.2441   527
24.2541   548
24.2641   504
24.2741   515
24.2841   501
24.2941   508
24.3041   505
24.3141   503
24.3241   510
24.3341   488
24.3441   522
24.3541   471
24.3641   483
24.3741   506
24.3841   546
24.3941   520
24.4041   472
24.4141   472
24.4241   509
24.4341   518
24.4441   504
24.4541   499
24.4641   496
24.4741   499
24.4841   474
24.4941   525
24.5041   511
24.5141   528
24.5241   505
24.5341   476
24.5441   490
24.5541   510
24.5641   505
24.5741   509
24.5841   538
24.5941   469
24.6041   493
24.6141   475
24.6241   470
24.6341   474
24.6441   493
24.6541   523
24.6641   470
24.6741   475
24.6841   522
24.6941   492
24.7041   462
24.7141   495
24.7241   455
24.7341   492
24.7441   449
24.7541   473
24.7641   457
24.7741   483
24.7841   459
24.7941   487
24.8041   479
24.8141   494
24.8241   449
24.8341   477
24.8441   494
24.8541   482
24.8641   444
24.8741   475
24.8841   480
24.8941   493
24.9041   502
24.9141   494
24.9241   490
24.9341   465
24.9441   495
24.9541   481
24.9641   480
24.9741   473
24.9841   525
24.9941   531
25.0041   473
25.0141   507
25.0241   529
25.0341   480
25.0441   490
25.0541   469
25.0641   480
25.0741   473
25.0841   438
25.0941   439
25.1041   455
25.1141   443
25.1241   508
25.1341   475
25.1441   454
25.1541   461
25.1641   487
25.1741   467
25.1841   467
25.1941   472
25.2041   476
25.2141   490
25.2241   473
25.2341   475
25.2441   458
25.2541   511
25.2641   494
25.2741   463
25.2841   493
25.2941   475
25.3041   452
25.3141   489
25.3241   481
25.3341   455
25.3441   497
25.3541   495
25.3641   470
25.3741   435
25.3841   517
25.3941   500
25.4041   517
25.4141   455
25.4241   474
25.4341   428
25.4441   486
25.4541   457
25.4641   433
25.4741   436
25.4841   451
25.4941   462
25.5041   445
25.5141   465
25.5241   456
25.5341   434
25.5441   438
25.5541   469
25.5641   445
25.5741   430
25.5841   465
25.5941   431
25.6041   432
25.6141   441
25.6241   429
25.6341   476
25.6441   441
25.6541   477
25.6641   435
25.6741   464
25.6841   438
25.6941   454
25.7041   445
25.7141   464
25.7241   435
25.7341   474
25.7441   450
25.7541   455
25.7641   421
25.7741   442
25.7841   414
25.7941   436
25.8041   421
25.8141   488
25.8241   426
25.8341   466
25.8441   440
25.8541   440
25.8641   444
25.8741   434
25.8841   402
25.8941   428
25.9041   430
25.9141   436
25.9241   420
25.9341   433
25.9441   429
25.9541   446
25.9641   420
25.9741   404
25.9841   459
25.9941   401
26.0041   427
26.0141   407
26.0241   397
26.0341   469
26.0441   449
26.0541   457
26.0641   403
26.0741   395
26.0841   410
26.0941   418
26.1041   414
26.1141   454
26.1241   422
26.1341   415
26.1441   421
26.1541   435
26.1641   390
26.1741   400
26.1841   441
26.1941   432
26.2041   398
26.2141   428
26.2241   439
26.2341   409
26.2441   432
26.2541   419
26.2641   446
26.2741   427
26.2841   394
26.2941   404
26.3041   406
26.3141   394
26.3241   399
26.3341   418
26.3441   424
26.3541   429
26.3641   433
26.3741   412
26.3841   439
26.3941   399
26.4041   402
26.4141   379
26.4241   410
26.4341   368
26.4441   412
26.4541   397
26.4641   402
26.4741   377
26.4841   400
26.4941   411
26.5041   429
26.5141   376
26.5241   399
26.5341   366
26.5441   408
26.5541   406
26.5641   412
26.5741   401
26.5841   396
26.5941   404
26.6041   402
26.6141   442
26.6241   404
26.6341   405
26.6441   379
26.6541   372
26.6641   396
26.6741   390
26.6841   384
26.6941   437
26.7041   382
26.7141   389
26.7241   436
26.7341   385
26.7441   377
26.7541   383
26.7641   380
26.7741   378
26.7841   405
26.7941   399
26.8041   423
26.8141   402
26.8241   385
26.8341   389
26.8441   422
26.8541   412
26.8641   383
26.8741   367
26.8841   386
26.8941   357
26.9041   412
26.9141   406
26.9241   387
26.9341   409
26.9441   392
26.9541   391
26.9641   388
26.9741   363
26.9841   388
26.9941   387
27.0041   412
27.0141   375
27.0241   400
27.0341   429
27.0441   396
27.0541   385
27.0641   376
27.0741   379
27.0841   403
27.0941   377
27.1041   378
27.1141   362
27.1241   363
27.1341   386
27.1441   397
27.1541   364
27.1641   384
27.1741   372
27.1841   375
27.1941   364
27.2041   387
27.2141   385
27.2241   371
27.2341   372
27.2441   377
27.2541   371
27.2641   352
27.2741   341
27.2841   377
27.2941   358
27.3041   362
27.3141   378
27.3241   355
27.3341   366
27.3441   360
27.3541   358
27.3641   375
27.3741   359
27.3841   393
27.3941   370
27.4041   381
27.4141   367
27.4241   342
27.4341   369
27.4441   375
27.4541   350
27.4641   370
27.4741   388
27.4841   367
27.4941   371
27.5041   351
27.5141   346
27.5241   345
27.5341   382
27.5441   359
27.5541   365
27.5641   340
27.5741   387
27.5841   385
27.5941   360
27.6041   393
27.6141   360
27.6241   327
27.6341   331
27.6441   362
27.6541   343
27.6641   381
27.6741   364
27.6841   376
27.6941   386
27.7041   376
27.7141   341
27.7241   335
27.7341   333
27.7441   347
27.7541   334
27.7641   343
27.7741   370
27.7841   343
27.7941   379
27.8041   380
27.8141   340
27.8241   354
27.8341   333
27.8441   327
27.8541   328
27.8641   358
27.8741   362
27.8841   325
27.8941   350
27.9041   351
27.9141   362
27.9241   357
27.9341   318
27.9441   356
27.9541   341
27.9641   353
27.9741   358
27.9841   352
27.9941   347
28.0041   359
28.0141   339
28.0241   292
28.0341   306
28.0441   322
28.0541   338
28.0641   344
28.0741   351
28.0841   322
28.0941   312
28.1041   333
28.1141   315
28.1241   336
28.1341   314
28.1441   334
28.1541   338
28.1641   355
28.1741   301
28.1841   339
28.1941   331
28.2041   355
28.2141   348
28.2241   339
28.2341   300
28.2441   333
28.2541   285
28.2641   323
28.2741   342
28.2841   320
28.2941   325
28.3041   354
28.3141   314
28.3241   316
28.3341   361
28.3441   341
28.3541   324
28.3641   332
28.3741   329
28.3841   322
28.3941   335
28.4041   326
28.4141   342
28.4241   324
28.4341   312
28.4441   359
28.4541   319
28.4641   284
28.4741   302
28.4841   337
28.4941   325
28.5041   332
28.5141   319
28.5241   324
28.5341   319
28.5441   311
28.5541   322
28.5641   286
28.5741   310
28.5841   325
28.5941   339
28.6041   269
28.6141   313
28.6241   297
28.6341   325
28.6441   313
28.6541   310
28.6641   299
28.6741   306
28.6841   329
28.6941   305
28.7041   340
28.7141   321
28.7241   322
28.7341   313
28.7441   308
28.7541   303
28.7641   307
28.7741   311
28.7841   328
28.7941   311
28.8041   274
28.8141   290
28.8241   302
28.8341   326
28.8441   302
28.8541   284
28.8641   302
28.8741   275
28.8841   336
28.8941   309
28.9041   294
28.9141   278
28.9241   298
28.9341   259
28.9441   308
28.9541   273
28.9641   310
28.9741   304
28.9841   307
28.9941   297
29.0041   281
29.0141   296
29.0241   289
29.0341   279
29.0441   274
29.0541   303
29.0641   302
29.0741   282
29.0841   306
29.0941   265
29.1041   251
29.1141   302
29.1241   302
29.1341   302
29.1441   291
29.1541   330
29.1641   301
29.1741   283
29.1841   276
29.1941   291
29.2041   296
29.2141   295
29.2241   285
29.2341   267
29.2441   273
29.2541   265
29.2641   311
29.2741   274
29.2841   285
29.2941   261
29.3041   269
29.3141   279
29.3241   269
29.3341   322
29.3441   279
29.3541   318
29.3641   287
29.3741   280
29.3841   253
29.3941   287
29.4041   300
29.4141   264
29.4241   273
29.4341   279
29.4441   274
29.4541   277
29.4641   271
29.4741   276
29.4841   264
29.4941   268
29.5041   253
29.5141   290
29.5241   264
29.5341   274
29.5441   280
29.5541   267
29.5641   290
29.5741   279
29.5841   258
29.5941   284
29.6041   277
29.6141   280
29.6241   259
29.6341   260
29.6441   274
29.6541   303
29.6641   259
29.6741   271
29.6841   269
29.6941   264
29.7041   274
29.7141   257
29.7241   262
29.7341   293
29.7441   294
29.7541   266
29.7641   258
29.7741   243
29.7841   275
29.7941   274
29.8041   279
29.8141   247
29.8241   249
29.8341   286
29.8441   231
29.8541   267
29.8641   271
29.8741   240
29.8841   269
29.8941   252
29.9041   266
29.9141   260
29.9241   274
29.9341   250
29.9441   251
29.9541   242
29.9641   252
29.9741   251
29.9841   261
29.9941   246
30.0041   270
30.0141   265
30.0241   258
30.0341   254
30.0441   231
30.0541   246
30.0641   256
30.0741   280
30.0841   276
30.0941   195
30.1041   262
30.1141   262
30.1241   241
30.1341   247
30.1441   241
30.1541   246
30.1641   251
30.1741   239
30.1841   279
30.1941   281
30.2041   253
30.2141   252
30.2241   261
30.2341   241
30.2441   234
30.2541   267
30.2641   206
30.2741   243
30.2841   242
30.2941   260
30.3041   222
30.3141   228
30.3241   236
30.3341   264
30.3441   249
30.3541   253
30.3641   247
30.3741   247
30.3841   219
30.3941   230
30.4041   228
30.4141   252
30.4241   263
30.4341   247
30.4441   224
30.4541   244
30.4641   248
30.4741   250
30.4841   232
30.4941   229
30.5041   220
30.5141   245
30.5241   266
30.5341   252
30.5441   230
30.5541   250
30.5641   250
30.5741   233
30.5841   238
30.5941   242
30.6041   230
30.6141   233
30.6241   236
30.6341   249
30.6441   224
30.6541   220
30.6641   258
30.6741   257
30.6841   198
30.6941   253
30.7041   222
30.7141   230
30.7241   242
30.7341   211
30.7441   234
30.7541   226
30.7641   230
30.7741   218
30.7841   213
30.7941   216
30.8041   221
30.8141   230
30.8241   232
30.8341   226
30.8441   255
30.8541   248
30.8641   214
30.8741   214
30.8841   217
30.8941   221
30.9041   215
30.9141   261
30.9241   229
30.9341   215
30.9441   209
30.9541   205
30.9641   209
30.9741   256
30.9841   225
30.9941   229
31.0041   249
31.0141   213
31.0241   221
31.0341   217
31.0441   211
31.0541   219
31.0641   225
31.0741   206
31.0841   220
31.0941   231
31.1041   215
31.1141   211
31.1241   223
31.1341   208
31.1441   210
31.1541   195
31.1641   211
31.1741   209
31.1841   211
31.1941   203
31.2041   206
31.2141   228
31.2241   227
31.2341   226
31.2441   206
31.2541   187
31.2641   192
31.2741   206
31.2841   181
31.2941   193
31.3041   191
31.3141   216
31.3241   202
31.3341   219
31.3441   210
31.3541   184
31.3641   211
31.3741   204
31.3841   199
31.3941   213
31.4041   209
31.4141   193
31.4241   174
31.4341   242
31.4441   196
31.4541   191
31.4641   189
31.4741   199
31.4841   192
31.4941   202
31.5041   195
31.5141   204
31.5241   194
31.5341   221
31.5441   216
31.5541   209
31.5641   192
31.5741   198
31.5841   189
31.5941   195
31.6041   177
31.6141   195
31.6241   212
31.6341   181
31.6441   198
31.6541   193
31.6641   208
31.6741   175
31.6841   221
31.6941   187
31.7041   205
31.7141   202
31.7241   176
31.7341   193
31.7441   196
31.7541   209
31.7641   192
31.7741   212
31.7841   197
31.7941   186
31.8041   202
31.8141   220
31.8241   211
31.8341   192
31.8441   217
31.8541   222
31.8641   209
31.8741   191
31.8841   217
31.8941   196
31.9041   202
31.9141   168
31.9241   215
31.9341   187
31.9441   210
31.9541   212
31.9641   181
31.9741   194
31.9841   191
31.9941   211
32.0041   171
32.0141   190
32.0241   185
32.0341   194
32.0441   189
32.0541   188
32.0641   194
32.0741   174
32.0841   207
32.0941   198
32.1041   195
32.1141   207
32.1241   190
32.1341   209
32.1441   200
32.1541   207
32.1641   196
32.1741   193
32.1841   227
32.1941   198
32.2041   200
32.2141   170
32.2241   194
32.2341   216
32.2441   188
32.2541   191
32.2641   195
32.2741   191
32.2841   179
32.2941   193
32.3041   172
32.3141   172
32.3241   182
32.3341   181
32.3441   215
32.3541   200
32.3641   187
32.3741   195
32.3841   181
32.3941   190
32.4041   188
32.4141   173
32.4241   175
32.4341   171
32.4441   164
32.4541   167
32.4641   177
32.4741   148
32.4841   196
32.4941   165
32.5041   168
32.5141   168
32.5241   174
32.5341   197
32.5441   158
32.5541   180
32.5641   174
32.5741   181
32.5841   163
32.5941   148
32.6041   173
32.6141   190
32.6241   165
32.6341   159
32.6441   188
32.6541   181
32.6641   156
32.6741   181
32.6841   169
32.6941   181
32.7041   190
32.7141   143
32.7241   166
32.7341   174
32.7441   156
32.7541   159
32.7641   158
32.7741   170
32.7841   165
32.7941   203
32.8041   165
32.8141   166
32.8241   162
32.8341   165
32.8441   174
32.8541   167
32.8641   166
32.8741   172
32.8841   156
32.8941   140
32.9041   152
32.9141   186
32.9241   174
32.9341   152
32.9441   152
32.9541   142
32.9641   149
32.9741   171
32.9841   180
32.9941   153
33.0041   126
33.0141   149
33.0241   171
33.0341   167
33.0441   172
33.0541   172
33.0641   176
33.0741   157
33.0841   164
33.0941   164
33.1041   146
33.1141   146
33.1241   145
33.1341   141
33.1441   178
33.1541   175
33.1641   154
33.1741   152
33.1841   139
33.1941   152
33.2041   138
33.2141   138
33.2241   141
33.2341   140
33.2441   111
33.2541   157
33.2641   132
33.2741   126
33.2841   142
33.2941   171
33.3041   164
33.3141   135
33.3241   150
33.3341   154
33.3441   136
33.3541   160
33.3641   159
33.3741   172
33.3841   146
33.3941   153
33.4041   161
33.4141   143
33.4241   148
33.4341   133
33.4441   156
33.4541   133
33.4641   144
33.4741   141
33.4841   131
33.4941   145
33.5041   145
33.5141   140
33.5241   142
33.5341   151
33.5441   135
33.5541   137
33.5641   155
33.5741   136
33.5841   124
33.5941   148
33.6041   126
33.6141   131
33.6241   142
33.6341   130
33.6441   138
33.6541   134
33.6641   154
33.6741   149
33.6841   142
33.6941   143
33.7041   132
33.7141   151
33.7241   135
33.7341   134
33.7441   144
33.7541   147
33.7641   135
33.7741   140
33.7841   156
33.7941   125
33.8041   145
33.8141   126
33.8241   147
33.8341   138
33.8441   131
33.8541   136
33.8641   135
33.8741   134
33.8841   122
33.8941   141
33.9041   121
33.9141   103
33.9241   140
33.9341   114
33.9441   134
33.9541   128
33.9641   121
33.9741   142
33.9841   135
33.9941   133
34.0041   140
34.0141   132
34.0241   121
34.0341   120
34.0441   122
34.0541   132
34.0641   117
34.0741   126
34.0841   115
34.0941   119
34.1041   136
34.1141   141
34.1241   125
34.1341   133
34.1441   138
34.1541   133
34.1641   124
34.1741   134
34.1841   129
34.1941   107
34.2041   119
34.2141   132
34.2241   111
34.2341   125
34.2441   137
34.2541   110
34.2641   129
34.2741   120
34.2841   139
34.2941   127
34.3041   130
34.3141   136
34.3241   128
34.3341   120
34.3441   125
34.3541   112
34.3641   132
34.3741   126
34.3841    86
34.3941   136
34.4041   127
34.4141   116
34.4241   123
34.4341   122
34.4441   114
34.4541   112
34.4641   123
34.4741   120
34.4841   130
34.4941   123
34.5041   112
34.5141   115
34.5241   109
34.5341   113
34.5441   126
34.5541   117
34.5641    98
34.5741   112
34.5841   110
34.5941   120
34.6041   121
34.6141   105
34.6241   115
34.6341   120
34.6441   118
34.6541   102
34.6641   114
34.6741   118
34.6841   113
34.6941   117
34.7041   116
34.7141   110
34.7241   104
34.7341   104
34.7441   105
34.7541   103
34.7641   108
34.7741   111
34.7841    93
34.7941   100
34.8041   109
34.8141   102
34.8241    98
34.8341   109
34.8441   107
34.8541   116
34.8641   128
34.8741   104
34.8841   134
34.8941    99
34.9041   102
34.9141   122
34.9241   109
34.9341   113
34.9441   106
34.9541   107
34.9641   121
34.9741    97
34.9841   116
34.9941   110
35.0041   102
35.0141   106
35.0241    94
35.0341   101
35.0441   115
35.0541   111
35.0641   107
35.0741   102
35.0841    93
35.0941    91
35.1041   103
35.1141    95
35.1241   106
35.1341    87
35.1441    88
35.1541   112
35.1641   112
35.1741    93
35.1841   113
35.1941    91
35.2041   110
35.2141    89
35.2241    80
35.2341    89
35.2441   103
35.2541   107
35.2641   103
35.2741   108
35.2841    99
35.2941   101
35.3041   110
35.3141   103
35.3241   112
35.3341    96
35.3441    88
35.3541    99
35.3641    96
35.3741    93
35.3841    95
35.3941    98
35.4041   100
35.4141   106
35.4241   109
35.4341   104
35.4441    90
35.4541    85
35.4641    82
35.4741    98
35.4841    83
35.4941    94
35.5041   102
35.5141    93
35.5241   109
35.5341    88
35.5441   107
35.5541    86
35.5641    78
35.5741    91
35.5841    98
35.5941   100
35.6041    88
35.6141   106
35.6241   102
35.6341    88
35.6441    87
35.6541    99
35.6641    94
35.6741   108
35.6841   105
35.6941   104
35.7041    92
35.7141    75
35.7241    76
35.7341    95
35.7441   101
35.7541   109
35.7641   101
35.7741    81
35.7841    68
35.7941    63
35.8041    91
35.8141    88
35.8241    88
35.8341    84
35.8441    79
35.8541    94
35.8641    83
35.8741    71
35.8841    73
35.8941    84
35.9041    93
35.9141    95
35.9241    95
35.9341    84
35.9441    82
35.9541    92
35.9641    72
35.9741   100
35.9841    89
35.9941    88
36.0041    96
36.0141    88
36.0241    80
36.0341    88
36.0441    90
36.0541    95
36.0641    95
36.0741    75
36.0841    86
36.0941    82
36.1041    95
36.1141    90
36.1241    78
36.1341    80
36.1441   100
36.1541    87
36.1641    69
36.1741    89
36.1841    94
36.1941   106
36.2041    73
36.2141    77
36.2241    99
36.2341    93
36.2441    91
36.2541    75
36.2641    83
36.2741    81
36.2841    73
36.2941    78
36.3041    82
36.3141    83
36.3241    91
36.3341    79
36.3441    81
36.3541    90
36.3641    86
36.3741    88
36.3841    78
36.3941    95
36.4041    88
36.4141    80
36.4241    80
36.4341    68
36.4441    65
36.4541    81
36.4641   109
36.4741    80
36.4841    68
36.4941    76
36.5041    83
36.5141    98
36.5241    77
36.5341    77
36.5441    93
36.5541    84
36.5641    59
36.5741    72
36.5841    80
36.5941    80
36.6041    75
36.6141    76
36.6241    85
36.6341    85
36.6441    78
36.6541    77
36.6641    89
36.6741    81
36.6841    65
36.6941    78
36.7041    63
36.7141    65
36.7241    70
36.7341    65
36.7441    72
36.7541    77
36.7641    75
36.7741    54
36.7841    75
36.7941    65
36.8041    71
36.8141    67
36.8241    69
36.8341    67
36.8441    62
36.8541    66
36.8641    68
36.8741    54
36.8841    70
36.8941    70
36.9041    66
36.9141    73
36.9241    68
36.9341    57
36.9441    71
36.9541    74
36.9641    74
36.9741    69
36.9841    74
36.9941    80
37.0041    74
37.0141    72
37.0241    73
37.0341    69
37.0441    77
37.0541    81
37.0641    63
37.0741    71
37.0841    71
37.0941    67
37.1041    61
37.1141    63
37.1241    60
37.1341    70
37.1441    74
37.1541    67
37.1641    75
37.1741    72
37.1841    70
37.1941    71
37.2041    62
37.2141    57
37.2241    55
37.2341    65
37.2441    61
37.2541    69
37.2641    80
37.2741    56
37.2841    47
37.2941    72
37.3041    69
37.3141    61
37.3241    67
37.3341    67
37.3441    61
37.3541    71
37.3641    54
37.3741    65
37.3841    54
37.3941    61
37.4041    69
37.4141    60
37.4241    74
37.4341    54
37.4441    69
37.4541    63
37.4641    58
37.4741    57
37.4841    49
37.4941    59
37.5041    59
37.5141    57
37.5241    56
37.5341    58
37.5441    65
37.5541    48
37.5641    53
37.5741    67
37.5841    63
37.5941    59
37.6041    57
37.6141    47
37.6241    76
37.6341    52
37.6441    45
37.6541    61
37.6641    57
37.6741    40
37.6841    56
37.6941    56
37.7041    59
37.7141    55
37.7241    61
37.7341    53
37.7441    56
37.7541    48
37.7641    58
37.7741    58
37.7841    56
37.7941    55
37.8041    60
37.8141    56
37.8241    53
37.8341    66
37.8441    48
37.8541    50
37.8641    75
37.8741    50
37.8841    44
37.8941    74
37.9041    55
37.9141    46
37.9241    56
37.9341    41
37.9441    60
37.9541    38
37.9641    50
37.9741    63
37.9841    63
37.9941    53
38.0041    51
38.0141    45
38.0241    46
38.0341    44
38.0441    57
38.0541    59
38.0641    47
38.0741    59
38.0841    63
38.0941    54
38.1041    49
38.1141    61
38.1241    62
38.1341    48
38.1441    53
38.1541    47
38.1641    40
38.1741    46
38.1841    55
38.1941    61
38.2041    57
38.2141    38
38.2241    50
38.2341    52
38.2441    52
38.2541    39
38.2641    56
38.2741    62
38.2841    48
38.2941    43
38.3041    41
38.3141    66
38.3241    58
38.3341    53
38.3441    57
38.3541    56
38.3641    59
38.3741    49
38.3841    47
38.3941    42
38.4041    53
38.4141    45
38.4241    47
38.4341    46
38.4441    43
38.4541    55
38.4641    47
38.4741    52
38.4841    46
38.4941    39
38.5041    34
38.5141    50
38.5241    41
38.5341    40
38.5441    37
38.5541    39
38.5641    47
38.5741    34
38.5841    44
38.5941    47
38.6041    51
38.6141    42
38.6241    40
38.6341    34
38.6441    42
38.6541    42
38.6641    38
38.6741    36
38.6841    38
38.6941    51
38.7041    48
38.7141    43
38.7241    39
38.7341    44
38.7441    47
38.7541    43
38.7641    42
38.7741    41
38.7841    39
38.7941    54
38.8041    33
38.8141    53
38.8241    52
38.8341    32
38.8441    37
38.8541    42
38.8641    52
38.8741    39
38.8841    29
38.8941    43
38.9041    48
38.9141    37
38.9241    41
38.9341    36
38.9441    26
38.9541    45
38.9641    37
38.9741    31
38.9841    48
38.9941    36
39.0041    33
39.0141    44
39.0241    40
39.0341    45
39.0441    31
39.0541    34
39.0641    39
39.0741    37
39.0841    41
39.0941    41
39.1041    41
39.1141    35
39.1241    34
39.1341    50
39.1441    37
39.1541    26
39.1641    35
39.1741    35
39.1841    44
39.1941    38
39.2041    32
39.2141    40
39.2241    36
39.2341    36
39.2441    44
39.2541    35
39.2641    41
39.2741    37
39.2841    37
39.2941    33
39.3041    41
39.3141    37
39.3241    33
39.3341    40
39.3441    40
39.3541    33
39.3641    35
39.3741    34
39.3841    46
39.3941    39
39.4041    29
39.4141    38
39.4241    35
39.4341    28
39.4441    37
39.4541    37
39.4641    36
39.4741    29
39.4841    36
39.4941    34
39.5041    36
39.5141    41
39.5241    32
39.5341    29
39.5441    35
39.5541    36
39.5641    36
39.5741    38
39.5841    37
39.5941    25
39.6041    33
39.6141    41
39.6241    29
39.6341    34
39.6441    30
39.6541    31
39.6641    40
39.6741    31
39.6841    31
39.6941    35
39.7041    38
39.7141    30
39.7241    34
39.7341    31
39.7441    32
39.7541    40
39.7641    31
39.7741    36
39.7841    34
39.7941    37
39.8041    29
39.8141    26
39.8241    23
39.8341    27
39.8441    30
39.8541    23
39.8641    26
39.8741    16
39.8841    26
39.8941    34
39.9041    23
39.9141    21
39.9241    21
39.9341    29
39.9441    28
39.9541    31
39.9641    29
39.9741    33
39.9841    29
39.9941    27
