Bruker Nano GmbH Berlin, Germany
Esprit 1.9

Date: 4/21/2021 1:36:15 PM
Real time: 16884
Life time: 15556
Pulse density: 116504


Detector type: XFlash 430
Window type: Custom type
Detector thickness: 0.45
Si dead layer:0.029

Calibration, lin.: 10
Calibration, abs.: -955.9
Mn FWHM: 137.05
Fano factor: 0.121
Channels: 4095

Energy Counts
-0.9559     0
-0.9459     0
-0.9359     0
-0.9259     0
-0.9159     0
-0.9059     0
-0.8959     0
-0.8859     0
-0.8759     0
-0.8659     0
-0.8559     0
-0.8459     0
-0.8359     0
-0.8259     0
-0.8159     0
-0.8059     0
-0.7959     0
-0.7859     0
-0.7759     0
-0.7659     0
-0.7559     0
-0.7459     0
-0.7359     0
-0.7259     0
-0.7159     0
-0.7059     0
-0.6959     0
-0.6859     0
-0.6759     0
-0.6659     0
-0.6559     0
-0.6459     0
-0.6359     0
-0.6259     0
-0.6159     0
-0.6059     0
-0.5959     0
-0.5859     0
-0.5759     0
-0.5659     0
-0.5559     0
-0.5459     0
-0.5359     0
-0.5259     0
-0.5159     0
-0.5059     0
-0.4959     0
-0.4859     0
-0.4759     0
-0.4659     0
-0.4559     0
-0.4459     0
-0.4359     0
-0.4259     0
-0.4159     0
-0.4059     0
-0.3959     0
-0.3859     0
-0.3759     0
-0.3659     0
-0.3559     0
-0.3459     0
-0.3359     0
-0.3259     0
-0.3159     0
-0.3059     0
-0.2959     0
-0.2859     0
-0.2759     0
-0.2659     0
-0.2559     0
-0.2459     0
-0.2359     0
-0.2259     0
-0.2159     0
-0.2059     0
-0.1959     0
-0.1859     0
-0.1759     0
-0.1659     0
-0.1559     0
-0.1459     0
-0.1359     1
-0.1259     0
-0.1159     1
-0.1059     9
-0.0959    42
-0.0859   201
-0.0759   618
-0.0659  1777
-0.0559  4588
-0.0459  9813
-0.0359 18529
-0.0259 29315
-0.0159 40658
-0.0059 47508
 0.0041 48033
 0.0141 41461
 0.0241 30711
 0.0341 19147
 0.0441 10504
 0.0541  4867
 0.0641  1976
 0.0741   670
 0.0841   209
 0.0941    52
 0.1041    14
 0.1141     8
 0.1241    12
 0.1341     5
 0.1441     6
 0.1541    10
 0.1641     1
 0.1741     0
 0.1841   163
 0.1941   315
 0.2041   286
 0.2141   267
 0.2241   240
 0.2341   265
 0.2441   260
 0.2541   285
 0.2641   261
 0.2741   253
 0.2841   253
 0.2941   275
 0.3041   272
 0.3141   273
 0.3241   255
 0.3341   260
 0.3441   251
 0.3541   244
 0.3641   252
 0.3741   242
 0.3841   238
 0.3941   232
 0.4041   262
 0.4141   225
 0.4241   234
 0.4341   242
 0.4441   244
 0.4541   250
 0.4641   226
 0.4741   231
 0.4841   231
 0.4941   211
 0.5041   225
 0.5141   235
 0.5241   248
 0.5341   233
 0.5441   224
 0.5541   235
 0.5641   231
 0.5741   216
 0.5841   210
 0.5941   228
 0.6041   220
 0.6141   224
 0.6241   231
 0.6341   220
 0.6441   219
 0.6541   211
 0.6641   203
 0.6741   206
 0.6841   204
 0.6941   204
 0.7041   214
 0.7141   212
 0.7241   212
 0.7341   215
 0.7441   213
 0.7541   204
 0.7641   206
 0.7741   198
 0.7841   195
 0.7941   202
 0.8041   201
 0.8141   202
 0.8241   191
 0.8341   187
 0.8441   193
 0.8541   181
 0.8641   181
 0.8741   177
 0.8841   182
 0.8941   186
 0.9041   186
 0.9141   186
 0.9241   175
 0.9341   183
 0.9441   182
 0.9541   196
 0.9641   193
 0.9741   182
 0.9841   168
 0.9941   181
 1.0041   191
 1.0141   195
 1.0241   193
 1.0341   166
 1.0441   154
 1.0541   175
 1.0641   172
 1.0741   173
 1.0841   159
 1.0941   152
 1.1041   172
 1.1141   163
 1.1241   154
 1.1341   174
 1.1441   173
 1.1541   164
 1.1641   172
 1.1741   170
 1.1841   163
 1.1941   170
 1.2041   175
 1.2141   176
 1.2241   155
 1.2341   171
 1.2441   152
 1.2541   165
 1.2641   165
 1.2741   165
 1.2841   172
 1.2941   171
 1.3041   157
 1.3141   151
 1.3241   159
 1.3341   154
 1.3441   164
 1.3541   167
 1.3641   137
 1.3741   151
 1.3841   154
 1.3941   152
 1.4041   152
 1.4141   160
 1.4241   136
 1.4341   153
 1.4441   150
 1.4541   149
 1.4641   154
 1.4741   189
 1.4841   152
 1.4941   157
 1.5041   140
 1.5141   146
 1.5241   151
 1.5341   138
 1.5441   133
 1.5541   158
 1.5641   146
 1.5741   140
 1.5841   139
 1.5941   156
 1.6041   135
 1.6141   149
 1.6241   138
 1.6341   158
 1.6441   175
 1.6541   195
 1.6641   214
 1.6741   271
 1.6841   340
 1.6941   398
 1.7041   461
 1.7141   578
 1.7241   642
 1.7341   659
 1.7441   634
 1.7541   594
 1.7641   557
 1.7741   474
 1.7841   421
 1.7941   340
 1.8041   282
 1.8141   224
 1.8241   212
 1.8341   219
 1.8441   214
 1.8541   166
 1.8641   154
 1.8741   152
 1.8841   155
 1.8941   156
 1.9041   147
 1.9141   161
 1.9241   152
 1.9341   131
 1.9441   168
 1.9541   174
 1.9641   164
 1.9741   188
 1.9841   171
 1.9941   174
 2.0041   194
 2.0141   212
 2.0241   155
 2.0341   170
 2.0441   192
 2.0541   144
 2.0641   162
 2.0741   150
 2.0841   159
 2.0941   152
 2.1041   140
 2.1141   147
 2.1241   158
 2.1341   129
 2.1441   157
 2.1541   136
 2.1641   131
 2.1741   147
 2.1841   143
 2.1941   148
 2.2041   132
 2.2141   132
 2.2241   127
 2.2341   125
 2.2441   124
 2.2541   145
 2.2641   140
 2.2741   161
 2.2841   140
 2.2941   121
 2.3041   132
 2.3141   115
 2.3241   120
 2.3341   141
 2.3441   133
 2.3541   122
 2.3641   140
 2.3741   128
 2.3841   123
 2.3941   137
 2.4041   120
 2.4141   123
 2.4241   104
 2.4341   133
 2.4441   124
 2.4541   135
 2.4641   124
 2.4741   111
 2.4841   130
 2.4941   120
 2.5041   103
 2.5141   118
 2.5241   125
 2.5341   110
 2.5441   117
 2.5541   129
 2.5641   122
 2.5741   127
 2.5841   123
 2.5941   114
 2.6041   123
 2.6141   112
 2.6241   142
 2.6341   112
 2.6441   109
 2.6541   109
 2.6641   114
 2.6741   121
 2.6841   113
 2.6941   121
 2.7041   117
 2.7141   103
 2.7241   110
 2.7341   111
 2.7441   119
 2.7541    99
 2.7641   107
 2.7741   105
 2.7841   117
 2.7941   115
 2.8041   121
 2.8141   105
 2.8241   110
 2.8341   119
 2.8441   109
 2.8541   134
 2.8641   127
 2.8741   130
 2.8841   132
 2.8941   104
 2.9041   129
 2.9141   117
 2.9241   102
 2.9341   114
 2.9441   106
 2.9541   105
 2.9641   103
 2.9741   111
 2.9841   110
 2.9941   102
 3.0041    94
 3.0141   126
 3.0241   130
 3.0341   102
 3.0441   105
 3.0541   101
 3.0641    90
 3.0741    71
 3.0841    96
 3.0941   104
 3.1041    90
 3.1141    89
 3.1241    96
 3.1341    95
 3.1441   100
 3.1541    90
 3.1641    98
 3.1741    96
 3.1841   103
 3.1941   121
 3.2041    93
 3.2141   108
 3.2241   112
 3.2341   153
 3.2441   143
 3.2541   153
 3.2641   180
 3.2741   181
 3.2841   224
 3.2941   216
 3.3041   244
 3.3141   246
 3.3241   247
 3.3341   233
 3.3441   194
 3.3541   188
 3.3641   171
 3.3741   151
 3.3841   143
 3.3941   129
 3.4041   113
 3.4141    92
 3.4241   107
 3.4341    83
 3.4441    76
 3.4541   109
 3.4641    90
 3.4741    93
 3.4841    78
 3.4941    97
 3.5041    86
 3.5141    94
 3.5241   114
 3.5341   112
 3.5441   123
 3.5541   140
 3.5641   156
 3.5741   171
 3.5841   216
 3.5941   247
 3.6041   346
 3.6141   395
 3.6241   492
 3.6341   626
 3.6441   746
 3.6541   891
 3.6641   974
 3.6741  1031
 3.6841  1115
 3.6941  1115
 3.7041  1031
 3.7141   920
 3.7241   873
 3.7341   747
 3.7441   640
 3.7541   499
 3.7641   372
 3.7741   294
 3.7841   225
 3.7941   167
 3.8041   155
 3.8141   115
 3.8241   106
 3.8341    89
 3.8441    73
 3.8541    82
 3.8641    82
 3.8741    74
 3.8841    80
 3.8941    88
 3.9041    99
 3.9141   101
 3.9241   113
 3.9341   121
 3.9441   127
 3.9541   143
 3.9641   152
 3.9741   199
 3.9841   205
 3.9941   229
 4.0041   216
 4.0141   233
 4.0241   225
 4.0341   198
 4.0441   221
 4.0541   185
 4.0641   178
 4.0741   144
 4.0841   130
 4.0941   110
 4.1041    94
 4.1141    95
 4.1241    83
 4.1341    68
 4.1441    60
 4.1541    69
 4.1641    81
 4.1741    60
 4.1841    58
 4.1941    70
 4.2041    70
 4.2141    69
 4.2241    76
 4.2341    72
 4.2441    65
 4.2541    71
 4.2641    54
 4.2741    64
 4.2841    62
 4.2941    62
 4.3041    68
 4.3141    72
 4.3241    79
 4.3341    58
 4.3441    76
 4.3541    72
 4.3641    83
 4.3741    85
 4.3841   100
 4.3941   109
 4.4041   139
 4.4141   178
 4.4241   221
 4.4341   243
 4.4441   259
 4.4541   334
 4.4641   373
 4.4741   456
 4.4841   459
 4.4941   531
 4.5041   512
 4.5141   518
 4.5241   467
 4.5341   461
 4.5441   403
 4.5541   337
 4.5641   308
 4.5741   287
 4.5841   214
 4.5941   173
 4.6041   155
 4.6141   133
 4.6241   117
 4.6341   116
 4.6441    78
 4.6541    96
 4.6641    75
 4.6741    69
 4.6841    80
 4.6941    75
 4.7041    79
 4.7141    60
 4.7241    78
 4.7341    64
 4.7441    81
 4.7541    70
 4.7641    88
 4.7741    85
 4.7841    84
 4.7941    85
 4.8041    88
 4.8141   101
 4.8241   113
 4.8341   112
 4.8441   106
 4.8541   130
 4.8641   147
 4.8741   152
 4.8841   136
 4.8941   164
 4.9041   178
 4.9141   165
 4.9241   175
 4.9341   160
 4.9441   175
 4.9541   168
 4.9641   146
 4.9741   153
 4.9841   130
 4.9941   116
 5.0041   110
 5.0141   101
 5.0241    90
 5.0341    84
 5.0441   103
 5.0541    92
 5.0641    66
 5.0741    77
 5.0841    70
 5.0941    83
 5.1041    92
 5.1141    78
 5.1241    70
 5.1341    96
 5.1441    88
 5.1541    82
 5.1641    83
 5.1741    84
 5.1841    77
 5.1941    87
 5.2041    87
 5.2141    96
 5.2241    72
 5.2341    91
 5.2441    81
 5.2541    88
 5.2641    84
 5.2741    97
 5.2841    98
 5.2941   113
 5.3041   100
 5.3141   133
 5.3241   124
 5.3341   134
 5.3441   154
 5.3541   206
 5.3641   198
 5.3741   231
 5.3841   233
 5.3941   278
 5.4041   273
 5.4141   260
 5.4241   289
 5.4341   234
 5.4441   261
 5.4541   216
 5.4641   217
 5.4741   186
 5.4841   162
 5.4941   153
 5.5041   120
 5.5141   118
 5.5241   101
 5.5341   107
 5.5441   121
 5.5541    96
 5.5641    90
 5.5741    89
 5.5841    98
 5.5941   102
 5.6041    99
 5.6141    84
 5.6241    99
 5.6341    80
 5.6441    87
 5.6541    86
 5.6641    96
 5.6741    98
 5.6841    84
 5.6941    94
 5.7041    92
 5.7141   102
 5.7241   111
 5.7341   117
 5.7441   129
 5.7541   161
 5.7641   203
 5.7741   224
 5.7841   318
 5.7941   353
 5.8041   471
 5.8141   577
 5.8241   626
 5.8341   732
 5.8441   925
 5.8541  1004
 5.8641  1101
 5.8741  1135
 5.8841  1232
 5.8941  1227
 5.9041  1204
 5.9141  1147
 5.9241  1121
 5.9341   991
 5.9441   865
 5.9541   774
 5.9641   678
 5.9741   565
 5.9841   503
 5.9941   384
 6.0041   299
 6.0141   275
 6.0241   217
 6.0341   176
 6.0441   155
 6.0541   145
 6.0641   132
 6.0741   157
 6.0841   142
 6.0941   124
 6.1041   169
 6.1141   133
 6.1241   167
 6.1341   165
 6.1441   155
 6.1541   171
 6.1641   180
 6.1741   243
 6.1841   285
 6.1941   293
 6.2041   369
 6.2141   549
 6.2241   718
 6.2341   939
 6.2441  1370
 6.2541  1957
 6.2641  2632
 6.2741  3648
 6.2841  4883
 6.2941  6548
 6.3041  8451
 6.3141 10650
 6.3241 13231
 6.3341 15762
 6.3441 18594
 6.3541 21370
 6.3641 23681
 6.3741 25512
 6.3841 27012
 6.3941 27775
 6.4041 27570
 6.4141 26682
 6.4241 25120
 6.4341 23476
 6.4441 20893
 6.4541 18071
 6.4641 15333
 6.4741 12463
 6.4841 10172
 6.4941  7941
 6.5041  6164
 6.5141  4549
 6.5241  3307
 6.5341  2422
 6.5441  1706
 6.5541  1280
 6.5641   835
 6.5741   649
 6.5841   447
 6.5941   354
 6.6041   255
 6.6141   244
 6.6241   200
 6.6341   176
 6.6441   158
 6.6541   162
 6.6641   156
 6.6741   174
 6.6841   142
 6.6941   161
 6.7041   172
 6.7141   139
 6.7241   173
 6.7341   158
 6.7441   169
 6.7541   189
 6.7641   197
 6.7741   196
 6.7841   168
 6.7941   179
 6.8041   205
 6.8141   224
 6.8241   213
 6.8341   198
 6.8441   243
 6.8541   312
 6.8641   330
 6.8741   356
 6.8841   410
 6.8941   504
 6.9041   620
 6.9141   712
 6.9241   912
 6.9341  1082
 6.9441  1347
 6.9541  1588
 6.9641  1988
 6.9741  2314
 6.9841  2758
 6.9941  3169
 7.0041  3543
 7.0141  3846
 7.0241  4240
 7.0341  4484
 7.0441  4472
 7.0541  4685
 7.0641  4635
 7.0741  4395
 7.0841  4130
 7.0941  3879
 7.1041  3579
 7.1141  3153
 7.1241  2619
 7.1341  2206
 7.1441  1889
 7.1541  1529
 7.1641  1122
 7.1741   977
 7.1841   716
 7.1941   591
 7.2041   458
 7.2141   367
 7.2241   294
 7.2341   255
 7.2441   193
 7.2541   213
 7.2641   190
 7.2741   194
 7.2841   184
 7.2941   186
 7.3041   194
 7.3141   238
 7.3241   228
 7.3341   233
 7.3441   261
 7.3541   313
 7.3641   305
 7.3741   309
 7.3841   367
 7.3941   382
 7.4041   398
 7.4141   465
 7.4241   476
 7.4341   514
 7.4441   478
 7.4541   518
 7.4641   492
 7.4741   516
 7.4841   501
 7.4941   485
 7.5041   472
 7.5141   396
 7.5241   382
 7.5341   360
 7.5441   349
 7.5541   326
 7.5641   285
 7.5741   244
 7.5841   235
 7.5941   218
 7.6041   188
 7.6141   219
 7.6241   197
 7.6341   202
 7.6441   186
 7.6541   196
 7.6641   185
 7.6741   205
 7.6841   194
 7.6941   185
 7.7041   205
 7.7141   180
 7.7241   205
 7.7341   197
 7.7441   212
 7.7541   194
 7.7641   216
 7.7741   239
 7.7841   211
 7.7941   219
 7.8041   245
 7.8141   250
 7.8241   236
 7.8341   238
 7.8441   234
 7.8541   240
 7.8641   278
 7.8741   265
 7.8841   281
 7.8941   298
 7.9041   271
 7.9141   325
 7.9241   308
 7.9341   321
 7.9441   341
 7.9541   389
 7.9641   425
 7.9741   426
 7.9841   470
 7.9941   514
 8.0041   530
 8.0141   586
 8.0241   625
 8.0341   682
 8.0441   767
 8.0541   788
 8.0641   797
 8.0741   847
 8.0841   933
 8.0941   949
 8.1041   983
 8.1141  1000
 8.1241  1068
 8.1341  1173
 8.1441  1124
 8.1541  1198
 8.1641  1196
 8.1741  1251
 8.1841  1282
 8.1941  1343
 8.2041  1251
 8.2141  1343
 8.2241  1356
 8.2341  1361
 8.2441  1393
 8.2541  1403
 8.2641  1543
 8.2741  1575
 8.2841  1646
 8.2941  1812
 8.3041  1960
 8.3141  2089
 8.3241  2224
 8.3341  2268
 8.3441  2362
 8.3541  2668
 8.3641  2838
 8.3741  2845
 8.3841  2864
 8.3941  2828
 8.4041  2915
 8.4141  2681
 8.4241  2681
 8.4341  2453
 8.4441  2181
 8.4541  1957
 8.4641  1744
 8.4741  1504
 8.4841  1342
 8.4941  1142
 8.5041   984
 8.5141   839
 8.5241   701
 8.5341   641
 8.5441   598
 8.5541   552
 8.5641   522
 8.5741   533
 8.5841   545
 8.5941   517
 8.6041   528
 8.6141   540
 8.6241   499
 8.6341   495
 8.6441   533
 8.6541   518
 8.6641   507
 8.6741   462
 8.6841   419
 8.6941   428
 8.7041   419
 8.7141   418
 8.7241   356
 8.7341   355
 8.7441   330
 8.7541   327
 8.7641   310
 8.7741   297
 8.7841   295
 8.7941   282
 8.8041   286
 8.8141   277
 8.8241   276
 8.8341   286
 8.8441   269
 8.8541   266
 8.8641   273
 8.8741   255
 8.8841   267
 8.8941   288
 8.9041   282
 8.9141   272
 8.9241   291
 8.9341   281
 8.9441   290
 8.9541   303
 8.9641   309
 8.9741   310
 8.9841   325
 8.9941   324
 9.0041   329
 9.0141   317
 9.0241   333
 9.0341   323
 9.0441   317
 9.0541   327
 9.0641   353
 9.0741   347
 9.0841   401
 9.0941   422
 9.1041   410
 9.1141   411
 9.1241   450
 9.1341   477
 9.1441   473
 9.1541   502
 9.1641   581
 9.1741   570
 9.1841   558
 9.1941   616
 9.2041   640
 9.2141   677
 9.2241   732
 9.2341   707
 9.2441   765
 9.2541   815
 9.2641   853
 9.2741   926
 9.2841   968
 9.2941   989
 9.3041   977
 9.3141  1031
 9.3241  1037
 9.3341  1093
 9.3441  1109
 9.3541  1133
 9.3641  1156
 9.3741  1152
 9.3841  1163
 9.3941  1220
 9.4041  1201
 9.4141  1298
 9.4241  1247
 9.4341  1262
 9.4441  1311
 9.4541  1360
 9.4641  1338
 9.4741  1374
 9.4841  1395
 9.4941  1359
 9.5041  1389
 9.5141  1486
 9.5241  1499
 9.5341  1538
 9.5441  1650
 9.5541  1672
 9.5641  1742
 9.5741  1863
 9.5841  2072
 9.5941  2160
 9.6041  2208
 9.6141  2254
 9.6241  2397
 9.6341  2493
 9.6441  2518
 9.6541  2518
 9.6641  2500
 9.6741  2574
 9.6841  2484
 9.6941  2467
 9.7041  2397
 9.7141  2230
 9.7241  2197
 9.7341  1997
 9.7441  1852
 9.7541  1684
 9.7641  1532
 9.7741  1397
 9.7841  1329
 9.7941  1209
 9.8041  1135
 9.8141  1072
 9.8241  1047
 9.8341  1031
 9.8441  1014
 9.8541   984
 9.8641  1006
 9.8741  1005
 9.8841  1047
 9.8941  1059
 9.9041  1051
 9.9141  1104
 9.9241  1101
 9.9341  1153
 9.9441  1154
 9.9541  1122
 9.9641  1130
 9.9741  1088
 9.9841  1054
 9.9941   989
10.0041   964
10.0141   851
10.0241   795
10.0341   757
10.0441   649
10.0541   609
10.0641   537
10.0741   485
10.0841   429
10.0941   405
10.1041   356
10.1141   330
10.1241   304
10.1341   261
10.1441   239
10.1541   244
10.1641   247
10.1741   226
10.1841   234
10.1941   229
10.2041   202
10.2141   209
10.2241   188
10.2341   188
10.2441   185
10.2541   164
10.2641   161
10.2741   165
10.2841   159
10.2941   150
10.3041   164
10.3141   144
10.3241   149
10.3341   148
10.3441   149
10.3541   147
10.3641   146
10.3741   150
10.3841   143
10.3941   151
10.4041   157
10.4141   170
10.4241   170
10.4341   182
10.4441   181
10.4541   174
10.4641   185
10.4741   199
10.4841   192
10.4941   186
10.5041   193
10.5141   214
10.5241   227
10.5341   229
10.5441   227
10.5541   231
10.5641   233
10.5741   221
10.5841   205
10.5941   203
10.6041   206
10.6141   221
10.6241   227
10.6341   200
10.6441   208
10.6541   217
10.6641   211
10.6741   201
10.6841   206
10.6941   205
10.7041   205
10.7141   210
10.7241   208
10.7341   203
10.7441   216
10.7541   214
10.7641   217
10.7741   212
10.7841   238
10.7941   245
10.8041   255
10.8141   243
10.8241   257
10.8341   243
10.8441   258
10.8541   273
10.8641   292
10.8741   257
10.8841   244
10.8941   275
10.9041   272
10.9141   273
10.9241   271
10.9341   274
10.9441   287
10.9541   302
10.9641   285
10.9741   262
10.9841   261
10.9941   289
11.0041   273
11.0141   274
11.0241   256
11.0341   246
11.0441   247
11.0541   253
11.0641   263
11.0741   265
11.0841   248
11.0941   229
11.1041   232
11.1141   221
11.1241   247
11.1341   242
11.1441   245
11.1541   262
11.1641   257
11.1741   272
11.1841   306
11.1941   313
11.2041   310
11.2141   324
11.2241   352
11.2341   355
11.2441   375
11.2541   384
11.2641   361
11.2741   355
11.2841   386
11.2941   384
11.3041   375
11.3141   354
11.3241   356
11.3341   343
11.3441   319
11.3541   299
11.3641   312
11.3741   290
11.3841   253
11.3941   253
11.4041   245
11.4141   238
11.4241   223
11.4341   211
11.4441   205
11.4541   208
11.4641   195
11.4741   196
11.4841   202
11.4941   193
11.5041   187
11.5141   179
11.5241   195
11.5341   211
11.5441   193
11.5541   185
11.5641   205
11.5741   202
11.5841   207
11.5941   208
11.6041   217
11.6141   221
11.6241   215
11.6341   212
11.6441   210
11.6541   212
11.6641   224
11.6741   217
11.6841   205
11.6941   201
11.7041   188
11.7141   190
11.7241   196
11.7341   203
11.7441   192
11.7541   180
11.7641   167
11.7741   162
11.7841   166
11.7941   168
11.8041   160
11.8141   158
11.8241   152
11.8341   149
11.8441   149
11.8541   160
11.8641   150
11.8741   139
11.8841   137
11.8941   154
11.9041   155
11.9141   151
11.9241   161
11.9341   151
11.9441   147
11.9541   156
11.9641   160
11.9741   158
11.9841   162
11.9941   159
12.0041   156
12.0141   160
12.0241   163
12.0341   163
12.0441   167
12.0541   154
12.0641   151
12.0741   154
12.0841   147
12.0941   145
12.1041   149
12.1141   164
12.1241   147
12.1341   133
12.1441   138
12.1541   145
12.1641   149
12.1741   152
12.1841   149
12.1941   145
12.2041   144
12.2141   136
12.2241   141
12.2341   147
12.2441   142
12.2541   146
12.2641   146
12.2741   134
12.2841   144
12.2941   142
12.3041   141
12.3141   152
12.3241   172
12.3341   157
12.3441   136
12.3541   143
12.3641   148
12.3741   160
12.3841   153
12.3941   150
12.4041   153
12.4141   145
12.4241   141
12.4341   143
12.4441   150
12.4541   161
12.4641   165
12.4741   164
12.4841   153
12.4941   153
12.5041   162
12.5141   172
12.5241   178
12.5341   175
12.5441   175
12.5541   186
12.5641   182
12.5741   188
12.5841   202
12.5941   198
12.6041   194
12.6141   196
12.6241   194
12.6341   187
12.6441   197
12.6541   186
12.6641   172
12.6741   176
12.6841   180
12.6941   183
12.7041   192
12.7141   196
12.7241   189
12.7341   183
12.7441   187
12.7541   188
12.7641   188
12.7741   186
12.7841   179
12.7941   175
12.8041   179
12.8141   186
12.8241   184
12.8341   177
12.8441   176
12.8541   181
12.8641   189
12.8741   193
12.8841   187
12.8941   178
12.9041   178
12.9141   188
12.9241   199
12.9341   196
12.9441   183
12.9541   183
12.9641   197
12.9741   204
12.9841   202
12.9941   190
13.0041   188
13.0141   180
13.0241   196
13.0341   194
13.0441   181
13.0541   196
13.0641   190
13.0741   183
13.0841   203
13.0941   203
13.1041   200
13.1141   207
13.1241   191
13.1341   184
13.1441   192
13.1541   203
13.1641   209
13.1741   219
13.1841   213
13.1941   214
13.2041   207
13.2141   201
13.2241   221
13.2341   235
13.2441   239
13.2541   255
13.2641   253
13.2741   249
13.2841   274
13.2941   279
13.3041   273
13.3141   286
13.3241   296
13.3341   296
13.3441   302
13.3541   313
13.3641   315
13.3741   310
13.3841   312
13.3941   318
13.4041   322
13.4141   326
13.4241   324
13.4341   308
13.4441   283
13.4541   270
13.4641   276
13.4741   285
13.4841   282
13.4941   271
13.5041   263
13.5141   253
13.5241   237
13.5341   222
13.5441   217
13.5541   221
13.5641   222
13.5741   218
13.5841   217
13.5941   223
13.6041   232
13.6141   233
13.6241   229
13.6341   221
13.6441   213
13.6541   221
13.6641   222
13.6741   224
13.6841   223
13.6941   222
13.7041   217
13.7141   222
13.7241   232
13.7341   224
13.7441   235
13.7541   252
13.7641   237
13.7741   241
13.7841   252
13.7941   233
13.8041   235
13.8141   246
13.8241   243
13.8341   244
13.8441   236
13.8541   227
13.8641   237
13.8741   245
13.8841   239
13.8941   232
13.9041   232
13.9141   233
13.9241   240
13.9341   257
13.9441   267
13.9541   265
13.9641   256
13.9741   251
13.9841   263
13.9941   283
14.0041   294
14.0141   304
14.0241   324
14.0341   339
14.0441   344
14.0541   353
14.0641   369
14.0741   380
14.0841   385
14.0941   392
14.1041   398
14.1141   405
14.1241   414
14.1341   422
14.1441   423
14.1541   413
14.1641   405
14.1741   411
14.1841   411
14.1941   397
14.2041   389
14.2141   383
14.2241   378
14.2341   379
14.2441   370
14.2541   351
14.2641   336
14.2741   328
14.2841   319
14.2941   315
14.3041   298
14.3141   286
14.3241   295
14.3341   287
14.3441   269
14.3541   266
14.3641   269
14.3741   281
14.3841   300
14.3941   291
14.4041   281
14.4141   285
14.4241   280
14.4341   268
14.4441   267
14.4541   265
14.4641   266
14.4741   270
14.4841   279
14.4941   295
14.5041   279
14.5141   281
14.5241   278
14.5341   276
14.5441   280
14.5541   260
14.5641   270
14.5741   283
14.5841   299
14.5941   293
14.6041   276
14.6141   277
14.6241   274
14.6341   274
14.6441   277
14.6541   296
14.6641   301
14.6741   291
14.6841   289
14.6941   290
14.7041   292
14.7141   301
14.7241   291
14.7341   287
14.7441   280
14.7541   287
14.7641   297
14.7741   296
14.7841   320
14.7941   318
14.8041   310
14.8141   317
14.8241   312
14.8341   315
14.8441   336
14.8541   325
14.8641   332
14.8741   369
14.8841   351
14.8941   344
14.9041   365
14.9141   366
14.9241   358
14.9341   338
14.9441   346
14.9541   354
14.9641   326
14.9741   349
14.9841   359
14.9941   340
15.0041   333
15.0141   330
15.0241   333
15.0341   338
15.0441   348
15.0541   364
15.0641   344
15.0741   319
15.0841   340
15.0941   337
15.1041   318
15.1141   332
15.1241   317
15.1341   316
15.1441   311
15.1541   304
15.1641   317
15.1741   330
15.1841   341
15.1941   336
15.2041   321
15.2141   319
15.2241   321
15.2341   342
15.2441   343
15.2541   345
15.2641   335
15.2741   324
15.2841   311
15.2941   301
15.3041   328
15.3141   349
15.3241   339
15.3341   325
15.3441   329
15.3541   303
15.3641   311
15.3741   340
15.3841   331
15.3941   356
15.4041   356
15.4141   350
15.4241   344
15.4341   346
15.4441   347
15.4541   330
15.4641   342
15.4741   343
15.4841   338
15.4941   341
15.5041   348
15.5141   324
15.5241   335
15.5341   370
15.5441   401
15.5541   402
15.5641   368
15.5741   372
15.5841   407
15.5941   432
15.6041   430
15.6141   442
15.6241   460
15.6341   494
15.6441   525
15.6541   523
15.6641   525
15.6741   556
15.6841   542
15.6941   557
15.7041   586
15.7141   614
15.7241   618
15.7341   619
15.7441   611
15.7541   603
15.7641   597
15.7741   608
15.7841   631
15.7941   624
15.8041   629
15.8141   596
15.8241   553
15.8341   550
15.8441   562
15.8541   531
15.8641   522
15.8741   500
15.8841   487
15.8941   462
15.9041   458
15.9141   446
15.9241   428
15.9341   429
15.9441   413
15.9541   382
15.9641   389
15.9741   409
15.9841   403
15.9941   380
16.0041   389
16.0141   391
16.0241   378
16.0341   385
16.0441   407
16.0541   399
16.0641   393
16.0741   386
16.0841   379
16.0941   382
16.1041   385
16.1141   387
16.1241   391
16.1341   387
16.1441   382
16.1541   399
16.1641   382
16.1741   393
16.1841   393
16.1941   392
16.2041   402
16.2141   396
16.2241   383
16.2341   398
16.2441   405
16.2541   394
16.2641   385
16.2741   404
16.2841   415
16.2941   415
16.3041   401
16.3141   395
16.3241   402
16.3341   409
16.3441   395
16.3541   384
16.3641   393
16.3741   403
16.3841   414
16.3941   400
16.4041   400
16.4141   441
16.4241   440
16.4341   430
16.4441   430
16.4541   437
16.4641   437
16.4741   423
16.4841   421
16.4941   439
16.5041   409
16.5141   388
16.5241   402
16.5341   414
16.5441   440
16.5541   435
16.5641   406
16.5741   405
16.5841   438
16.5941   448
16.6041   450
16.6141   437
16.6241   411
16.6341   393
16.6441   415
16.6541   430
16.6641   435
16.6741   452
16.6841   430
16.6941   445
16.7041   436
16.7141   436
16.7241   437
16.7341   451
16.7441   438
16.7541   429
16.7641   433
16.7741   426
16.7841   439
16.7941   457
16.8041   475
16.8141   470
16.8241   459
16.8341   436
16.8441   430
16.8541   450
16.8641   432
16.8741   453
16.8841   424
16.8941   443
16.9041   458
16.9141   468
16.9241   431
16.9341   450
16.9441   456
16.9541   439
16.9641   440
16.9741   458
16.9841   440
16.9941   417
17.0041   432
17.0141   453
17.0241   444
17.0341   445
17.0441   461
17.0541   461
17.0641   437
17.0741   431
17.0841   455
17.0941   456
17.1041   432
17.1141   437
17.1241   439
17.1341   428
17.1441   466
17.1541   482
17.1641   472
17.1741   462
17.1841   482
17.1941   465
17.2041   497
17.2141   466
17.2241   439
17.2341   451
17.2441   464
17.2541   441
17.2641   477
17.2741   459
17.2841   471
17.2941   480
17.3041   502
17.3141   494
17.3241   483
17.3341   477
17.3441   481
17.3541   460
17.3641   459
17.3741   504
17.3841   504
17.3941   503
17.4041   495
17.4141   475
17.4241   470
17.4341   503
17.4441   515
17.4541   504
17.4641   508
17.4741   505
17.4841   489
17.4941   528
17.5041   545
17.5141   513
17.5241   483
17.5341   508
17.5441   529
17.5541   536
17.5641   503
17.5741   523
17.5841   532
17.5941   555
17.6041   529
17.6141   514
17.6241   549
17.6341   526
17.6441   513
17.6541   529
17.6641   521
17.6741   503
17.6841   503
17.6941   523
17.7041   518
17.7141   519
17.7241   524
17.7341   551
17.7441   526
17.7541   517
17.7641   505
17.7741   528
17.7841   524
17.7941   530
17.8041   511
17.8141   522
17.8241   540
17.8341   523
17.8441   497
17.8541   508
17.8641   503
17.8741   492
17.8841   468
17.8941   478
17.9041   488
17.9141   487
17.9241   495
17.9341   506
17.9441   519
17.9541   516
17.9641   495
17.9741   503
17.9841   525
17.9941   482
18.0041   502
18.0141   543
18.0241   527
18.0341   479
18.0441   491
18.0541   474
18.0641   522
18.0741   528
18.0841   535
18.0941   507
18.1041   528
18.1141   508
18.1241   508
18.1341   522
18.1441   512
18.1541   501
18.1641   551
18.1741   509
18.1841   525
18.1941   524
18.2041   505
18.2141   516
18.2241   522
18.2341   536
18.2441   491
18.2541   495
18.2641   515
18.2741   506
18.2841   522
18.2941   520
18.3041   544
18.3141   518
18.3241   494
18.3341   511
18.3441   501
18.3541   535
18.3641   529
18.3741   492
18.3841   519
18.3941   545
18.4041   520
18.4141   531
18.4241   524
18.4341   508
18.4441   532
18.4541   545
18.4641   558
18.4741   526
18.4841   511
18.4941   525
18.5041   533
18.5141   534
18.5241   514
18.5341   499
18.5441   521
18.5541   530
18.5641   512
18.5741   501
18.5841   512
18.5941   523
18.6041   519
18.6141   517
18.6241   487
18.6341   521
18.6441   529
18.6541   554
18.6641   533
18.6741   489
18.6841   507
18.6941   530
18.7041   543
18.7141   564
18.7241   542
18.7341   556
18.7441   518
18.7541   540
18.7641   583
18.7741   547
18.7841   555
18.7941   551
18.8041   538
18.8141   518
18.8241   567
18.8341   545
18.8441   518
18.8541   515
18.8641   544
18.8741   557
18.8841   548
18.8941   547
18.9041   555
18.9141   558
18.9241   530
18.9341   534
18.9441   548
18.9541   547
18.9641   567
18.9741   541
18.9841   539
18.9941   556
19.0041   521
19.0141   546
19.0241   533
19.0341   510
19.0441   520
19.0541   551
19.0641   530
19.0741   535
19.0841   562
19.0941   566
19.1041   559
19.1141   531
19.1241   521
19.1341   544
19.1441   535
19.1541   527
19.1641   584
19.1741   591
19.1841   546
19.1941   558
19.2041   552
19.2141   544
19.2241   518
19.2341   544
19.2441   573
19.2541   542
19.2641   565
19.2741   579
19.2841   550
19.2941   530
19.3041   542
19.3141   568
19.3241   535
19.3341   549
19.3441   542
19.3541   540
19.3641   563
19.3741   556
19.3841   521
19.3941   548
19.4041   542
19.4141   547
19.4241   573
19.4341   560
19.4441   520
19.4541   565
19.4641   567
19.4741   543
19.4841   561
19.4941   552
19.5041   538
19.5141   614
19.5241   580
19.5341   536
19.5441   527
19.5541   520
19.5641   537
19.5741   544
19.5841   559
19.5941   558
19.6041   574
19.6141   548
19.6241   548
19.6341   559
19.6441   563
19.6541   566
19.6641   593
19.6741   542
19.6841   585
19.6941   578
19.7041   555
19.7141   556
19.7241   584
19.7341   571
19.7441   576
19.7541   561
19.7641   563
19.7741   527
19.7841   537
19.7941   532
19.8041   555
19.8141   550
19.8241   544
19.8341   565
19.8441   524
19.8541   537
19.8641   586
19.8741   545
19.8841   547
19.8941   576
19.9041   565
19.9141   568
19.9241   555
19.9341   552
19.9441   591
19.9541   563
19.9641   549
19.9741   577
19.9841   565
19.9941   586
20.0041   541
20.0141   547
20.0241   569
20.0341   560
20.0441   544
20.0541   531
20.0641   513
20.0741   570
20.0841   580
20.0941   567
20.1041   561
20.1141   541
20.1241   574
20.1341   566
20.1441   572
20.1541   557
20.1641   539
20.1741   527
20.1841   577
20.1941   598
20.2041   602
20.2141   571
20.2241   588
20.2341   584
20.2441   503
20.2541   586
20.2641   583
20.2741   570
20.2841   577
20.2941   549
20.3041   554
20.3141   556
20.3241   546
20.3341   564
20.3441   527
20.3541   572
20.3641   531
20.3741   562
20.3841   580
20.3941   555
20.4041   565
20.4141   565
20.4241   547
20.4341   560
20.4441   582
20.4541   578
20.4641   572
20.4741   563
20.4841   584
20.4941   537
20.5041   557
20.5141   576
20.5241   580
20.5341   536
20.5441   550
20.5541   614
20.5641   556
20.5741   566
20.5841   602
20.5941   569
20.6041   621
20.6141   595
20.6241   519
20.6341   562
20.6441   607
20.6541   578
20.6641   563
20.6741   583
20.6841   567
20.6941   632
20.7041   563
20.7141   556
20.7241   578
20.7341   587
20.7441   546
20.7541   576
20.7641   572
20.7741   583
20.7841   567
20.7941   572
20.8041   590
20.8141   569
20.8241   582
20.8341   575
20.8441   615
20.8541   624
20.8641   631
20.8741   611
20.8841   638
20.8941   618
20.9041   659
20.9141   617
20.9241   668
20.9341   680
20.9441   634
20.9541   685
20.9641   728
20.9741   684
20.9841   725
20.9941   755
21.0041   747
21.0141   733
21.0241   734
21.0341   754
21.0441   806
21.0541   777
21.0641   776
21.0741   806
21.0841   762
21.0941   804
21.1041   861
21.1141   845
21.1241   838
21.1341   782
21.1441   803
21.1541   783
21.1641   810
21.1741   799
21.1841   813
21.1941   784
21.2041   772
21.2141   772
21.2241   798
21.2341   730
21.2441   754
21.2541   686
21.2641   691
21.2741   719
21.2841   688
21.2941   665
21.3041   649
21.3141   643
21.3241   617
21.3341   677
21.3441   584
21.3541   615
21.3641   659
21.3741   600
21.3841   566
21.3941   583
21.4041   599
21.4141   594
21.4241   562
21.4341   576
21.4441   560
21.4541   562
21.4641   568
21.4741   564
21.4841   578
21.4941   562
21.5041   591
21.5141   553
21.5241   611
21.5341   515
21.5441   570
21.5541   568
21.5641   570
21.5741   590
21.5841   577
21.5941   543
21.6041   561
21.6141   598
21.6241   530
21.6341   594
21.6441   571
21.6541   514
21.6641   540
21.6741   547
21.6841   601
21.6941   598
21.7041   513
21.7141   575
21.7241   530
21.7341   558
21.7441   543
21.7541   577
21.7641   560
21.7741   558
21.7841   579
21.7941   544
21.8041   545
21.8141   589
21.8241   582
21.8341   565
21.8441   551
21.8541   575
21.8641   561
21.8741   562
21.8841   529
21.8941   577
21.9041   512
21.9141   532
21.9241   583
21.9341   566
21.9441   533
21.9541   528
21.9641   581
21.9741   543
21.9841   557
21.9941   572
22.0041   564
22.0141   536
22.0241   545
22.0341   553
22.0441   555
22.0541   518
22.0641   582
22.0741   549
22.0841   531
22.0941   564
22.1041   534
22.1141   554
22.1241   560
22.1341   555
22.1441   571
22.1541   540
22.1641   574
22.1741   553
22.1841   579
22.1941   567
22.2041   557
22.2141   552
22.2241   575
22.2341   566
22.2441   581
22.2541   552
22.2641   601
22.2741   545
22.2841   516
22.2941   525
22.3041   563
22.3141   548
22.3241   560
22.3341   550
22.3441   534
22.3541   555
22.3641   596
22.3741   514
22.3841   498
22.3941   513
22.4041   544
22.4141   578
22.4241   509
22.4341   564
22.4441   524
22.4541   538
22.4641   510
22.4741   535
22.4841   531
22.4941   548
22.5041   563
22.5141   538
22.5241   580
22.5341   591
22.5441   499
22.5541   543
22.5641   546
22.5741   527
22.5841   517
22.5941   558
22.6041   529
22.6141   516
22.6241   602
22.6341   545
22.6441   539
22.6541   523
22.6641   533
22.6741   514
22.6841   543
22.6941   562
22.7041   536
22.7141   529
22.7241   527
22.7341   537
22.7441   511
22.7541   562
22.7641   549
22.7741   592
22.7841   526
22.7941   561
22.8041   532
22.8141   558
22.8241   500
22.8341   519
22.8441   518
22.8541   546
22.8641   496
22.8741   526
22.8841   542
22.8941   546
22.9041   539
22.9141   486
22.9241   498
22.9341   534
22.9441   529
22.9541   535
22.9641   536
22.9741   516
22.9841   534
22.9941   510
23.0041   522
23.0141   533
23.0241   534
23.0341   553
23.0441   581
23.0541   536
23.0641   536
23.0741   535
23.0841   551
23.0941   526
23.1041   553
23.1141   539
23.1241   525
23.1341   589
23.1441   506
23.1541   515
23.1641   489
23.1741   526
23.1841   496
23.1941   520
23.2041   487
23.2141   499
23.2241   524
23.2341   543
23.2441   509
23.2541   515
23.2641   521
23.2741   516
23.2841   528
23.2941   500
23.3041   530
23.3141   514
23.3241   496
23.3341   486
23.3441   533
23.3541   518
23.3641   557
23.3741   493
23.3841   526
23.3941   507
23.4041   511
23.4141   544
23.4241   512
23.4341   497
23.4441   529
23.4541   520
23.4641   476
23.4741   497
23.4841   493
23.4941   514
23.5041   515
23.5141   551
23.5241   464
23.5341   518
23.5441   495
23.5541   473
23.5641   490
23.5741   498
23.5841   567
23.5941   514
23.6041   485
23.6141   537
23.6241   505
23.6341   509
23.6441   509
23.6541   573
23.6641   539
23.6741   523
23.6841   507
23.6941   543
23.7041   550
23.7141   513
23.7241   536
23.7341   543
23.7441   561
23.7541   538
23.7641   554
23.7741   575
23.7841   525
23.7941   551
23.8041   470
23.8141   542
23.8241   552
23.8341   553
23.8441   530
23.8541   557
23.8641   539
23.8741   537
23.8841   520
23.8941   542
23.9041   543
23.9141   542
23.9241   515
23.9341   558
23.9441   506
23.9541   542
23.9641   536
23.9741   508
23.9841   523
23.9941   483
24.0041   481
24.0141   537
24.0241   513
24.0341   482
24.0441   471
24.0541   497
24.0641   507
24.0741   491
24.0841   533
24.0941   485
24.1041   484
24.1141   473
24.1241   523
24.1341   484
24.1441   522
24.1541   474
24.1641   520
24.1741   487
24.1841   487
24.1941   497
24.2041   498
24.2141   498
24.2241   495
24.2341   473
24.2441   466
24.2541   486
24.2641   470
24.2741   517
24.2841   510
24.2941   531
24.3041   496
24.3141   495
24.3241   458
24.3341   473
24.3441   495
24.3541   529
24.3641   502
24.3741   457
24.3841   490
24.3941   488
24.4041   459
24.4141   478
24.4241   476
24.4341   481
24.4441   501
24.4541   527
24.4641   481
24.4741   508
24.4841   502
24.4941   490
24.5041   534
24.5141   449
24.5241   470
24.5341   486
24.5441   454
24.5541   447
24.5641   468
24.5741   476
24.5841   477
24.5941   459
24.6041   484
24.6141   467
24.6241   464
24.6341   488
24.6441   499
24.6541   472
24.6641   446
24.6741   484
24.6841   477
24.6941   460
24.7041   431
24.7141   485
24.7241   466
24.7341   445
24.7441   480
24.7541   459
24.7641   461
24.7741   440
24.7841   468
24.7941   457
24.8041   455
24.8141   491
24.8241   501
24.8341   472
24.8441   451
24.8541   477
24.8641   495
24.8741   479
24.8841   480
24.8941   458
24.9041   444
24.9141   472
24.9241   470
24.9341   478
24.9441   478
24.9541   457
24.9641   445
24.9741   478
24.9841   444
24.9941   451
25.0041   467
25.0141   472
25.0241   475
25.0341   504
25.0441   488
25.0541   476
25.0641   490
25.0741   426
25.0841   448
25.0941   481
25.1041   487
25.1141   448
25.1241   478
25.1341   469
25.1441   452
25.1541   433
25.1641   436
25.1741   449
25.1841   505
25.1941   466
25.2041   470
25.2141   429
25.2241   459
25.2341   446
25.2441   437
25.2541   458
25.2641   435
25.2741   454
25.2841   463
25.2941   450
25.3041   448
25.3141   452
25.3241   463
25.3341   436
25.3441   465
25.3541   460
25.3641   417
25.3741   431
25.3841   431
25.3941   442
25.4041   436
25.4141   439
25.4241   443
25.4341   425
25.4441   483
25.4541   442
25.4641   432
25.4741   422
25.4841   451
25.4941   456
25.5041   438
25.5141   428
25.5241   421
25.5341   440
25.5441   465
25.5541   414
25.5641   423
25.5741   431
25.5841   412
25.5941   432
25.6041   443
25.6141   438
25.6241   444
25.6341   460
25.6441   408
25.6541   446
25.6641   449
25.6741   419
25.6841   418
25.6941   437
25.7041   414
25.7141   439
25.7241   400
25.7341   420
25.7441   418
25.7541   370
25.7641   424
25.7741   433
25.7841   389
25.7941   405
25.8041   428
25.8141   434
25.8241   397
25.8341   419
25.8441   362
25.8541   419
25.8641   404
25.8741   377
25.8841   422
25.8941   439
25.9041   403
25.9141   438
25.9241   397
25.9341   407
25.9441   429
25.9541   413
25.9641   411
25.9741   420
25.9841   408
25.9941   414
26.0041   457
26.0141   437
26.0241   389
26.0341   404
26.0441   390
26.0541   438
26.0641   405
26.0741   437
26.0841   387
26.0941   422
26.1041   415
26.1141   435
26.1241   386
26.1341   407
26.1441   399
26.1541   412
26.1641   433
26.1741   409
26.1841   400
26.1941   394
26.2041   408
26.2141   405
26.2241   441
26.2341   426
26.2441   386
26.2541   404
26.2641   395
26.2741   380
26.2841   391
26.2941   391
26.3041   416
26.3141   420
26.3241   381
26.3341   370
26.3441   412
26.3541   372
26.3641   406
26.3741   397
26.3841   416
26.3941   409
26.4041   374
26.4141   424
26.4241   429
26.4341   410
26.4441   411
26.4541   392
26.4641   407
26.4741   398
26.4841   397
26.4941   395
26.5041   379
26.5141   402
26.5241   375
26.5341   383
26.5441   372
26.5541   403
26.5641   395
26.5741   420
26.5841   402
26.5941   402
26.6041   413
26.6141   395
26.6241   380
26.6341   384
26.6441   388
26.6541   391
26.6641   374
26.6741   388
26.6841   411
26.6941   346
26.7041   364
26.7141   361
26.7241   406
26.7341   375
26.7441   378
26.7541   400
26.7641   376
26.7741   392
26.7841   393
26.7941   388
26.8041   363
26.8141   407
26.8241   364
26.8341   361
26.8441   384
26.8541   347
26.8641   379
26.8741   381
26.8841   380
26.8941   395
26.9041   379
26.9141   392
26.9241   402
26.9341   381
26.9441   383
26.9541   372
26.9641   367
26.9741   394
26.9841   393
26.9941   363
27.0041   379
27.0141   350
27.0241   392
27.0341   415
27.0441   353
27.0541   384
27.0641   384
27.0741   378
27.0841   346
27.0941   382
27.1041   337
27.1141   341
27.1241   348
27.1341   366
27.1441   374
27.1541   374
27.1641   402
27.1741   371
27.1841   355
27.1941   361
27.2041   348
27.2141   330
27.2241   382
27.2341   387
27.2441   386
27.2541   380
27.2641   346
27.2741   373
27.2841   377
27.2941   374
27.3041   350
27.3141   350
27.3241   347
27.3341   326
27.3441   347
27.3541   351
27.3641   359
27.3741   374
27.3841   336
27.3941   383
27.4041   394
27.4141   387
27.4241   376
27.4341   347
27.4441   375
27.4541   368
27.4641   346
27.4741   384
27.4841   358
27.4941   349
27.5041   329
27.5141   348
27.5241   337
27.5341   367
27.5441   388
27.5541   334
27.5641   343
27.5741   349
27.5841   328
27.5941   341
27.6041   357
27.6141   349
27.6241   357
27.6341   354
27.6441   335
27.6541   332
27.6641   327
27.6741   351
27.6841   334
27.6941   322
27.7041   332
27.7141   321
27.7241   368
27.7341   348
27.7441   367
27.7541   349
27.7641   336
27.7741   355
27.7841   339
27.7941   307
27.8041   348
27.8141   325
27.8241   345
27.8341   325
27.8441   325
27.8541   341
27.8641   340
27.8741   325
27.8841   337
27.8941   346
27.9041   357
27.9141   325
27.9241   308
27.9341   297
27.9441   332
27.9541   333
27.9641   339
27.9741   329
27.9841   331
27.9941   312
28.0041   349
28.0141   345
28.0241   328
28.0341   305
28.0441   324
28.0541   314
28.0641   346
28.0741   327
28.0841   310
28.0941   311
28.1041   320
28.1141   292
28.1241   302
28.1341   312
28.1441   343
28.1541   321
28.1641   314
28.1741   314
28.1841   336
28.1941   314
28.2041   287
28.2141   364
28.2241   346
28.2341   317
28.2441   302
28.2541   325
28.2641   300
28.2741   321
28.2841   322
28.2941   326
28.3041   322
28.3141   312
28.3241   299
28.3341   295
28.3441   302
28.3541   303
28.3641   314
28.3741   281
28.3841   302
28.3941   305
28.4041   336
28.4141   318
28.4241   359
28.4341   303
28.4441   304
28.4541   329
28.4641   305
28.4741   326
28.4841   280
28.4941   308
28.5041   317
28.5141   324
28.5241   292
28.5341   296
28.5441   307
28.5541   322
28.5641   313
28.5741   314
28.5841   310
28.5941   304
28.6041   301
28.6141   324
28.6241   315
28.6341   299
28.6441   310
28.6541   275
28.6641   316
28.6741   312
28.6841   322
28.6941   290
28.7041   293
28.7141   300
28.7241   261
28.7341   290
28.7441   319
28.7541   308
28.7641   298
28.7741   308
28.7841   265
28.7941   300
28.8041   284
28.8141   309
28.8241   283
28.8341   300
28.8441   297
28.8541   272
28.8641   294
28.8741   295
28.8841   289
28.8941   310
28.9041   275
28.9141   295
28.9241   267
28.9341   295
28.9441   291
28.9541   299
28.9641   272
28.9741   278
28.9841   296
28.9941   299
29.0041   279
29.0141   276
29.0241   268
29.0341   284
29.0441   255
29.0541   264
29.0641   274
29.0741   302
29.0841   278
29.0941   328
29.1041   300
29.1141   280
29.1241   265
29.1341   277
29.1441   259
29.1541   266
29.1641   278
29.1741   312
29.1841   247
29.1941   308
29.2041   267
29.2141   303
29.2241   324
29.2341   302
29.2441   254
29.2541   269
29.2641   272
29.2741   302
29.2841   271
29.2941   282
29.3041   280
29.3141   261
29.3241   277
29.3341   273
29.3441   268
29.3541   278
29.3641   297
29.3741   296
29.3841   249
29.3941   256
29.4041   284
29.4141   262
29.4241   277
29.4341   276
29.4441   259
29.4541   274
29.4641   262
29.4741   276
29.4841   267
29.4941   258
29.5041   255
29.5141   279
29.5241   288
29.5341   276
29.5441   255
29.5541   283
29.5641   258
29.5741   264
29.5841   257
29.5941   258
29.6041   246
29.6141   283
29.6241   286
29.6341   267
29.6441   270
29.6541   254
29.6641   272
29.6741   270
29.6841   245
29.6941   246
29.7041   277
29.7141   284
29.7241   270
29.7341   257
29.7441   261
29.7541   251
29.7641   236
29.7741   260
29.7841   260
29.7941   250
29.8041   233
29.8141   267
29.8241   238
29.8341   257
29.8441   266
29.8541   283
29.8641   238
29.8741   266
29.8841   261
29.8941   267
29.9041   250
29.9141   258
29.9241   232
29.9341   213
29.9441   240
29.9541   252
29.9641   261
29.9741   248
29.9841   247
29.9941   242
30.0041   255
30.0141   241
30.0241   260
30.0341   229
30.0441   222
30.0541   236
30.0641   270
30.0741   242
30.0841   255
30.0941   262
30.1041   249
30.1141   232
30.1241   250
30.1341   244
30.1441   253
30.1541   216
30.1641   234
30.1741   270
30.1841   232
30.1941   227
30.2041   265
30.2141   238
30.2241   236
30.2341   220
30.2441   256
30.2541   225
30.2641   261
30.2741   243
30.2841   228
30.2941   240
30.3041   267
30.3141   245
30.3241   229
30.3341   226
30.3441   229
30.3541   236
30.3641   222
30.3741   217
30.3841   234
30.3941   245
30.4041   220
30.4141   213
30.4241   246
30.4341   220
30.4441   215
30.4541   253
30.4641   218
30.4741   235
30.4841   229
30.4941   225
30.5041   240
30.5141   195
30.5241   262
30.5341   232
30.5441   240
30.5541   253
30.5641   195
30.5741   230
30.5841   220
30.5941   206
30.6041   211
30.6141   234
30.6241   213
30.6341   232
30.6441   233
30.6541   245
30.6641   222
30.6741   203
30.6841   219
30.6941   237
30.7041   242
30.7141   228
30.7241   223
30.7341   222
30.7441   229
30.7541   204
30.7641   224
30.7741   205
30.7841   209
30.7941   200
30.8041   214
30.8141   220
30.8241   221
30.8341   219
30.8441   228
30.8541   231
30.8641   220
30.8741   207
30.8841   216
30.8941   200
30.9041   222
30.9141   192
30.9241   233
30.9341   219
30.9441   229
30.9541   220
30.9641   212
30.9741   209
30.9841   222
30.9941   187
31.0041   201
31.0141   214
31.0241   210
31.0341   191
31.0441   225
31.0541   209
31.0641   226
31.0741   215
31.0841   225
31.0941   209
31.1041   198
31.1141   196
31.1241   199
31.1341   199
31.1441   207
31.1541   205
31.1641   226
31.1741   203
31.1841   206
31.1941   210
31.2041   203
31.2141   222
31.2241   208
31.2341   198
31.2441   189
31.2541   197
31.2641   201
31.2741   204
31.2841   177
31.2941   178
31.3041   200
31.3141   199
31.3241   211
31.3341   206
31.3441   204
31.3541   203
31.3641   202
31.3741   181
31.3841   173
31.3941   184
31.4041   180
31.4141   194
31.4241   195
31.4341   200
31.4441   201
31.4541   211
31.4641   197
31.4741   205
31.4841   181
31.4941   192
31.5041   202
31.5141   186
31.5241   185
31.5341   191
31.5441   193
31.5541   197
31.5641   184
31.5741   174
31.5841   174
31.5941   205
31.6041   195
31.6141   181
31.6241   200
31.6341   200
31.6441   186
31.6541   198
31.6641   208
31.6741   184
31.6841   171
31.6941   170
31.7041   185
31.7141   174
31.7241   210
31.7341   196
31.7441   188
31.7541   190
31.7641   181
31.7741   206
31.7841   167
31.7941   200
31.8041   192
31.8141   178
31.8241   168
31.8341   181
31.8441   213
31.8541   183
31.8641   166
31.8741   179
31.8841   195
31.8941   213
31.9041   185
31.9141   184
31.9241   181
31.9341   171
31.9441   195
31.9541   185
31.9641   186
31.9741   192
31.9841   197
31.9941   192
32.0041   192
32.0141   161
32.0241   185
32.0341   161
32.0441   173
32.0541   188
32.0641   177
32.0741   187
32.0841   187
32.0941   173
32.1041   154
32.1141   165
32.1241   193
32.1341   166
32.1441   167
32.1541   174
32.1641   172
32.1741   165
32.1841   166
32.1941   160
32.2041   173
32.2141   195
32.2241   187
32.2341   172
32.2441   176
32.2541   179
32.2641   177
32.2741   177
32.2841   176
32.2941   160
32.3041   175
32.3141   169
32.3241   178
32.3341   167
32.3441   181
32.3541   173
32.3641   186
32.3741   175
32.3841   162
32.3941   149
32.4041   161
32.4141   150
32.4241   167
32.4341   172
32.4441   187
32.4541   172
32.4641   170
32.4741   182
32.4841   157
32.4941   155
32.5041   181
32.5141   161
32.5241   141
32.5341   171
32.5441   167
32.5541   162
32.5641   176
32.5741   148
32.5841   153
32.5941   148
32.6041   162
32.6141   168
32.6241   189
32.6341   169
32.6441   166
32.6541   169
32.6641   143
32.6741   154
32.6841   174
32.6941   180
32.7041   157
32.7141   149
32.7241   165
32.7341   156
32.7441   153
32.7541   171
32.7641   142
32.7741   158
32.7841   167
32.7941   148
32.8041   163
32.8141   189
32.8241   140
32.8341   171
32.8441   164
32.8541   143
32.8641   164
32.8741   140
32.8841   165
32.8941   135
32.9041   156
32.9141   172
32.9241   150
32.9341   163
32.9441   144
32.9541   154
32.9641   159
32.9741   157
32.9841   145
32.9941   148
33.0041   160
33.0141   156
33.0241   155
33.0341   147
33.0441   156
33.0541   162
33.0641   136
33.0741   182
33.0841   133
33.0941   160
33.1041   152
33.1141   144
33.1241   152
33.1341   157
33.1441   160
33.1541   144
33.1641   125
33.1741   152
33.1841   146
33.1941   138
33.2041   131
33.2141   145
33.2241   174
33.2341   156
33.2441   150
33.2541   125
33.2641   153
33.2741   128
33.2841   125
33.2941   140
33.3041   140
33.3141   135
33.3241   137
33.3341   154
33.3441   140
33.3541   139
33.3641   132
33.3741   135
33.3841   158
33.3941   132
33.4041   133
33.4141   136
33.4241   158
33.4341   134
33.4441   131
33.4541   132
33.4641   139
33.4741   136
33.4841   122
33.4941   118
33.5041   142
33.5141   164
33.5241   129
33.5341   147
33.5441   131
33.5541   122
33.5641   123
33.5741   123
33.5841   125
33.5941   141
33.6041   157
33.6141   134
33.6241   125
33.6341   138
33.6441   133
33.6541   134
33.6641   121
33.6741   129
33.6841   129
33.6941   137
33.7041   142
33.7141   123
33.7241   140
33.7341   131
33.7441   126
33.7541   119
33.7641   126
33.7741   137
33.7841   142
33.7941   123
33.8041   129
33.8141   129
33.8241   132
33.8341   120
33.8441   124
33.8541   131
33.8641   110
33.8741   123
33.8841   128
33.8941   104
33.9041   121
33.9141   112
33.9241   130
33.9341   130
33.9441   118
33.9541   125
33.9641   111
33.9741   125
33.9841   136
33.9941   125
34.0041   119
34.0141   130
34.0241   114
34.0341   112
34.0441   129
34.0541   125
34.0641   112
34.0741   141
34.0841   142
34.0941   136
34.1041   142
34.1141   134
34.1241   139
34.1341   112
34.1441   126
34.1541   144
34.1641   123
34.1741   120
34.1841   116
34.1941   108
34.2041   106
34.2141   119
34.2241   118
34.2341   130
34.2441   114
34.2541   117
34.2641   102
34.2741   110
34.2841   101
34.2941   112
34.3041   111
34.3141   127
34.3241   103
34.3341    94
34.3441   122
34.3541   127
34.3641   104
34.3741   130
34.3841   129
34.3941   114
34.4041   105
34.4141   130
34.4241   119
34.4341   131
34.4441   119
34.4541   116
34.4641   127
34.4741   102
34.4841   116
34.4941   103
34.5041   113
34.5141   105
34.5241   119
34.5341   102
34.5441   102
34.5541   115
34.5641   104
34.5741   106
34.5841   113
34.5941   112
34.6041   113
34.6141   125
34.6241   114
34.6341    93
34.6441   124
34.6541   118
34.6641   102
34.6741   107
34.6841    91
34.6941   108
34.7041   106
34.7141    92
34.7241    95
34.7341   115
34.7441   107
34.7541   108
34.7641   100
34.7741   130
34.7841   112
34.7941    98
34.8041   111
34.8141   107
34.8241   118
34.8341   104
34.8441   105
34.8541   105
34.8641   116
34.8741   103
34.8841    90
34.8941   101
34.9041    95
34.9141   105
34.9241   115
34.9341   126
34.9441   100
34.9541    90
34.9641   102
34.9741   109
34.9841   100
34.9941    88
35.0041    97
35.0141    93
35.0241    98
35.0341   101
35.0441    95
35.0541   102
35.0641    91
35.0741   106
35.0841   100
35.0941   108
35.1041    91
35.1141   108
35.1241    92
35.1341    93
35.1441    96
35.1541   101
35.1641    88
35.1741    97
35.1841   105
35.1941    99
35.2041    91
35.2141    98
35.2241   115
35.2341   113
35.2441    95
35.2541    94
35.2641    99
35.2741    81
35.2841    97
35.2941    92
35.3041   100
35.3141    88
35.3241    96
35.3341    92
35.3441    88
35.3541    87
35.3641   109
35.3741    85
35.3841   101
35.3941    92
35.4041    88
35.4141   101
35.4241    82
35.4341    96
35.4441    91
35.4541   100
35.4641    95
35.4741   105
35.4841    93
35.4941    91
35.5041    86
35.5141    81
35.5241   101
35.5341    86
35.5441    89
35.5541   103
35.5641    78
35.5741    73
35.5841    82
35.5941    81
35.6041    94
35.6141    86
35.6241    98
35.6341    76
35.6441    96
35.6541    97
35.6641    88
35.6741    83
35.6841    99
35.6941    82
35.7041    76
35.7141    74
35.7241    84
35.7341    92
35.7441    90
35.7541    86
35.7641    81
35.7741    88
35.7841   101
35.7941    89
35.8041    86
35.8141    69
35.8241    66
35.8341    70
35.8441    87
35.8541    65
35.8641    95
35.8741    87
35.8841    79
35.8941    70
35.9041    96
35.9141    80
35.9241    82
35.9341    85
35.9441    82
35.9541    72
35.9641    95
35.9741    79
35.9841    87
35.9941    84
36.0041    86
36.0141    93
36.0241    76
36.0341    73
36.0441    83
36.0541    62
36.0641    81
36.0741    77
36.0841    68
36.0941    83
36.1041    63
36.1141    88
36.1241    83
36.1341    77
36.1441    75
36.1541    67
36.1641    94
36.1741    82
36.1841    87
36.1941    74
36.2041    77
36.2141    84
36.2241    78
36.2341    73
36.2441    67
36.2541    81
36.2641    77
36.2741    77
36.2841    66
36.2941    83
36.3041    74
36.3141    77
36.3241    79
36.3341    77
36.3441    88
36.3541    80
36.3641    73
36.3741    68
36.3841    84
36.3941    80
36.4041    63
36.4141    63
36.4241    76
36.4341    91
36.4441    65
36.4541    73
36.4641    70
36.4741    71
36.4841    73
36.4941    88
36.5041    65
36.5141    68
36.5241    87
36.5341    71
36.5441    80
36.5541    73
36.5641    63
36.5741    61
36.5841    63
36.5941    79
36.6041    74
36.6141    74
36.6241    71
36.6341    74
36.6441    60
36.6541    60
36.6641    64
36.6741    66
36.6841    71
36.6941    68
36.7041    66
36.7141    61
36.7241    80
36.7341    72
36.7441    53
36.7541    71
36.7641    66
36.7741    50
36.7841    48
36.7941    61
36.8041    67
36.8141    60
36.8241    66
36.8341    69
36.8441    73
36.8541    68
36.8641    58
36.8741    70
36.8841    53
36.8941    68
36.9041    68
36.9141    82
36.9241    73
36.9341    58
36.9441    66
36.9541    70
36.9641    64
36.9741    61
36.9841    72
36.9941    67
37.0041    59
37.0141    68
37.0241    61
37.0341    64
37.0441    66
37.0541    73
37.0641    70
37.0741    58
37.0841    61
37.0941    61
37.1041    65
37.1141    66
37.1241    67
37.1341    55
37.1441    71
37.1541    68
37.1641    78
37.1741    62
37.1841    57
37.1941    60
37.2041    68
37.2141    67
37.2241    72
37.2341    59
37.2441    63
37.2541    68
37.2641    51
37.2741    52
37.2841    69
37.2941    64
37.3041    59
37.3141    68
37.3241    55
37.3341    52
37.3441    59
37.3541    53
37.3641    59
37.3741    72
37.3841    64
37.3941    72
37.4041    55
37.4141    53
37.4241    48
37.4341    48
37.4441    57
37.4541    53
37.4641    57
37.4741    53
37.4841    61
37.4941    53
37.5041    57
37.5141    49
37.5241    60
37.5341    53
37.5441    59
37.5541    52
37.5641    59
37.5741    44
37.5841    53
37.5941    67
37.6041    47
37.6141    62
37.6241    54
37.6341    54
37.6441    53
37.6541    50
37.6641    42
37.6741    53
37.6841    57
37.6941    47
37.7041    63
37.7141    60
37.7241    57
37.7341    61
37.7441    47
37.7541    40
37.7641    58
37.7741    51
37.7841    51
37.7941    44
37.8041    47
37.8141    48
37.8241    47
37.8341    44
37.8441    52
37.8541    41
37.8641    51
37.8741    58
37.8841    31
37.8941    40
37.9041    56
37.9141    66
37.9241    50
37.9341    45
37.9441    47
37.9541    49
37.9641    42
37.9741    52
37.9841    57
37.9941    38
38.0041    42
38.0141    39
38.0241    55
38.0341    48
38.0441    55
38.0541    54
38.0641    33
38.0741    39
38.0841    42
38.0941    47
38.1041    45
38.1141    47
38.1241    50
38.1341    37
38.1441    38
38.1541    39
38.1641    40
38.1741    64
38.1841    52
38.1941    48
38.2041    45
38.2141    45
38.2241    46
38.2341    52
38.2441    46
38.2541    32
38.2641    33
38.2741    42
38.2841    40
38.2941    37
38.3041    42
38.3141    47
38.3241    45
38.3341    44
38.3441    42
38.3541    56
38.3641    44
38.3741    45
38.3841    51
38.3941    47
38.4041    45
38.4141    47
38.4241    54
38.4341    40
38.4441    49
38.4541    43
38.4641    41
38.4741    45
38.4841    46
38.4941    51
38.5041    44
38.5141    50
38.5241    50
38.5341    40
38.5441    35
38.5541    36
38.5641    49
38.5741    34
38.5841    39
38.5941    44
38.6041    31
38.6141    45
38.6241    45
38.6341    46
38.6441    33
38.6541    25
38.6641    28
38.6741    48
38.6841    41
38.6941    44
38.7041    32
38.7141    35
38.7241    34
38.7341    28
38.7441    52
38.7541    35
38.7641    43
38.7741    41
38.7841    36
38.7941    31
38.8041    35
38.8141    35
38.8241    44
38.8341    35
38.8441    33
38.8541    38
38.8641    30
38.8741    36
38.8841    37
38.8941    33
38.9041    31
38.9141    33
38.9241    52
38.9341    30
38.9441    37
38.9541    36
38.9641    35
38.9741    29
38.9841    35
38.9941    34
39.0041    31
39.0141    34
39.0241    34
39.0341    32
39.0441    41
39.0541    37
39.0641    33
39.0741    32
39.0841    27
39.0941    23
39.1041    28
39.1141    41
39.1241    39
39.1341    37
39.1441    32
39.1541    36
39.1641    41
39.1741    30
39.1841    36
39.1941    37
39.2041    38
39.2141    34
39.2241    33
39.2341    45
39.2441    37
39.2541    39
39.2641    39
39.2741    20
39.2841    41
39.2941    29
39.3041    28
39.3141    33
39.3241    26
39.3341    25
39.3441    27
39.3541    27
39.3641    31
39.3741    21
39.3841    30
39.3941    30
39.4041    33
39.4141    38
39.4241    37
39.4341    26
39.4441    34
39.4541    31
39.4641    30
39.4741    27
39.4841    23
39.4941    33
39.5041    25
39.5141    25
39.5241    26
39.5341    28
39.5441    23
39.5541    32
39.5641    31
39.5741    33
39.5841    28
39.5941    38
39.6041    34
39.6141    30
39.6241    32
39.6341    31
39.6441    27
39.6541    31
39.6641    18
39.6741    29
39.6841    21
39.6941    24
39.7041    25
39.7141    33
39.7241    25
39.7341    29
39.7441    20
39.7541    22
39.7641    34
39.7741    24
39.7841    35
39.7941    37
39.8041    29
39.8141    25
39.8241    26
39.8341    24
39.8441    29
39.8541    31
39.8641    33
39.8741    31
39.8841    24
39.8941    17
39.9041    29
39.9141    30
39.9241    26
39.9341    26
39.9441    18
39.9541    21
39.9641    27
39.9741    22
39.9841    28
