Bruker Nano GmbH Berlin, Germany
Esprit 1.9

Date: 5/14/2021 1:31:05 PM
Real time: 16008
Life time: 14878
Pulse density: 103421


Detector type: XFlash 430
Window type: Custom type
Detector thickness: 0.45
Si dead layer:0.029

Calibration, lin.: 10
Calibration, abs.: -955.9
Mn FWHM: 137.05
Fano factor: 0.121
Channels: 4095

Energy Counts
-0.9559     0
-0.9459     0
-0.9359     0
-0.9259     0
-0.9159     0
-0.9059     0
-0.8959     0
-0.8859     0
-0.8759     0
-0.8659     0
-0.8559     0
-0.8459     0
-0.8359     0
-0.8259     0
-0.8159     0
-0.8059     0
-0.7959     0
-0.7859     0
-0.7759     0
-0.7659     0
-0.7559     0
-0.7459     0
-0.7359     0
-0.7259     0
-0.7159     0
-0.7059     0
-0.6959     0
-0.6859     0
-0.6759     0
-0.6659     0
-0.6559     0
-0.6459     0
-0.6359     0
-0.6259     0
-0.6159     0
-0.6059     0
-0.5959     0
-0.5859     0
-0.5759     0
-0.5659     0
-0.5559     0
-0.5459     0
-0.5359     0
-0.5259     0
-0.5159     0
-0.5059     0
-0.4959     0
-0.4859     0
-0.4759     0
-0.4659     0
-0.4559     0
-0.4459     0
-0.4359     0
-0.4259     0
-0.4159     0
-0.4059     0
-0.3959     0
-0.3859     0
-0.3759     0
-0.3659     0
-0.3559     0
-0.3459     0
-0.3359     0
-0.3259     0
-0.3159     0
-0.3059     0
-0.2959     0
-0.2859     0
-0.2759     0
-0.2659     0
-0.2559     0
-0.2459     0
-0.2359     0
-0.2259     0
-0.2159     0
-0.2059     0
-0.1959     0
-0.1859     0
-0.1759     0
-0.1659     0
-0.1559     0
-0.1459     0
-0.1359     0
-0.1259     0
-0.1159     6
-0.1059     9
-0.0959    55
-0.0859   173
-0.0759   572
-0.0659  1634
-0.0559  4312
-0.0459  9394
-0.0359 17903
-0.0259 28330
-0.0159 39022
-0.0059 45492
 0.0041 45688
 0.0141 39348
 0.0241 29248
 0.0341 18660
 0.0441  9869
 0.0541  4650
 0.0641  1887
 0.0741   638
 0.0841   195
 0.0941    70
 0.1041    17
 0.1141     8
 0.1241     8
 0.1341     8
 0.1441     3
 0.1541     1
 0.1641     8
 0.1741     0
 0.1841   152
 0.1941   287
 0.2041   269
 0.2141   245
 0.2241   243
 0.2341   252
 0.2441   282
 0.2541   262
 0.2641   273
 0.2741   256
 0.2841   253
 0.2941   269
 0.3041   266
 0.3141   262
 0.3241   251
 0.3341   238
 0.3441   236
 0.3541   226
 0.3641   230
 0.3741   233
 0.3841   239
 0.3941   225
 0.4041   217
 0.4141   230
 0.4241   226
 0.4341   215
 0.4441   219
 0.4541   223
 0.4641   219
 0.4741   223
 0.4841   214
 0.4941   217
 0.5041   214
 0.5141   207
 0.5241   205
 0.5341   220
 0.5441   220
 0.5541   222
 0.5641   209
 0.5741   195
 0.5841   204
 0.5941   206
 0.6041   195
 0.6141   207
 0.6241   208
 0.6341   193
 0.6441   197
 0.6541   187
 0.6641   182
 0.6741   194
 0.6841   193
 0.6941   178
 0.7041   187
 0.7141   185
 0.7241   165
 0.7341   181
 0.7441   179
 0.7541   173
 0.7641   196
 0.7741   188
 0.7841   182
 0.7941   186
 0.8041   197
 0.8141   199
 0.8241   183
 0.8341   172
 0.8441   175
 0.8541   170
 0.8641   167
 0.8741   159
 0.8841   158
 0.8941   175
 0.9041   174
 0.9141   174
 0.9241   160
 0.9341   155
 0.9441   172
 0.9541   159
 0.9641   164
 0.9741   166
 0.9841   161
 0.9941   153
 1.0041   185
 1.0141   181
 1.0241   162
 1.0341   150
 1.0441   173
 1.0541   193
 1.0641   172
 1.0741   167
 1.0841   180
 1.0941   179
 1.1041   149
 1.1141   161
 1.1241   152
 1.1341   155
 1.1441   166
 1.1541   174
 1.1641   171
 1.1741   161
 1.1841   158
 1.1941   143
 1.2041   156
 1.2141   161
 1.2241   176
 1.2341   154
 1.2441   151
 1.2541   156
 1.2641   147
 1.2741   164
 1.2841   171
 1.2941   159
 1.3041   154
 1.3141   163
 1.3241   155
 1.3341   145
 1.3441   142
 1.3541   141
 1.3641   150
 1.3741   147
 1.3841   163
 1.3941   145
 1.4041   135
 1.4141   148
 1.4241   159
 1.4341   146
 1.4441   116
 1.4541   147
 1.4641   144
 1.4741   154
 1.4841   141
 1.4941   144
 1.5041   137
 1.5141   133
 1.5241   155
 1.5341   141
 1.5441   128
 1.5541   157
 1.5641   155
 1.5741   158
 1.5841   145
 1.5941   138
 1.6041   130
 1.6141   137
 1.6241   141
 1.6341   158
 1.6441   172
 1.6541   201
 1.6641   203
 1.6741   260
 1.6841   296
 1.6941   369
 1.7041   443
 1.7141   539
 1.7241   583
 1.7341   581
 1.7441   606
 1.7541   571
 1.7641   540
 1.7741   445
 1.7841   382
 1.7941   316
 1.8041   258
 1.8141   248
 1.8241   209
 1.8341   200
 1.8441   173
 1.8541   183
 1.8641   168
 1.8741   152
 1.8841   156
 1.8941   139
 1.9041   149
 1.9141   142
 1.9241   140
 1.9341   157
 1.9441   143
 1.9541   172
 1.9641   165
 1.9741   167
 1.9841   157
 1.9941   163
 2.0041   182
 2.0141   195
 2.0241   188
 2.0341   156
 2.0441   165
 2.0541   161
 2.0641   140
 2.0741   155
 2.0841   143
 2.0941   141
 2.1041   146
 2.1141   139
 2.1241   145
 2.1341   135
 2.1441   137
 2.1541   138
 2.1641   150
 2.1741   141
 2.1841   134
 2.1941   120
 2.2041   129
 2.2141   125
 2.2241   111
 2.2341   131
 2.2441   115
 2.2541   116
 2.2641   104
 2.2741   113
 2.2841   121
 2.2941   135
 2.3041   122
 2.3141   136
 2.3241   108
 2.3341   124
 2.3441   116
 2.3541   110
 2.3641   124
 2.3741   128
 2.3841   101
 2.3941   101
 2.4041   121
 2.4141   107
 2.4241   116
 2.4341   130
 2.4441   101
 2.4541    95
 2.4641   104
 2.4741   114
 2.4841   122
 2.4941   119
 2.5041    97
 2.5141   116
 2.5241   106
 2.5341   127
 2.5441    93
 2.5541   124
 2.5641   110
 2.5741   128
 2.5841   101
 2.5941    98
 2.6041   106
 2.6141   124
 2.6241   116
 2.6341   100
 2.6441    96
 2.6541   111
 2.6641   100
 2.6741   120
 2.6841   103
 2.6941   105
 2.7041   104
 2.7141   107
 2.7241    82
 2.7341    96
 2.7441    99
 2.7541   105
 2.7641   103
 2.7741   106
 2.7841    97
 2.7941   105
 2.8041    99
 2.8141   106
 2.8241   132
 2.8341   102
 2.8441    91
 2.8541    98
 2.8641   116
 2.8741   122
 2.8841   104
 2.8941   104
 2.9041    81
 2.9141    95
 2.9241   111
 2.9341   104
 2.9441    96
 2.9541   105
 2.9641    97
 2.9741   105
 2.9841    94
 2.9941   100
 3.0041    93
 3.0141   101
 3.0241    94
 3.0341    94
 3.0441    93
 3.0541    86
 3.0641    94
 3.0741    81
 3.0841    96
 3.0941    93
 3.1041    93
 3.1141    97
 3.1241    71
 3.1341    98
 3.1441    82
 3.1541    94
 3.1641   103
 3.1741    85
 3.1841    97
 3.1941    82
 3.2041    88
 3.2141   101
 3.2241   112
 3.2341   124
 3.2441   149
 3.2541   133
 3.2641   176
 3.2741   188
 3.2841   198
 3.2941   191
 3.3041   204
 3.3141   208
 3.3241   185
 3.3341   227
 3.3441   194
 3.3541   176
 3.3641   148
 3.3741   133
 3.3841   111
 3.3941   123
 3.4041    95
 3.4141    94
 3.4241    92
 3.4341    82
 3.4441    80
 3.4541    88
 3.4641    86
 3.4741   116
 3.4841    70
 3.4941    92
 3.5041    78
 3.5141    92
 3.5241   100
 3.5341   106
 3.5441   108
 3.5541   132
 3.5641   159
 3.5741   171
 3.5841   200
 3.5941   252
 3.6041   318
 3.6141   385
 3.6241   541
 3.6341   605
 3.6441   665
 3.6541   791
 3.6641   958
 3.6741  1047
 3.6841  1032
 3.6941  1060
 3.7041  1030
 3.7141   936
 3.7241   806
 3.7341   685
 3.7441   607
 3.7541   475
 3.7641   369
 3.7741   302
 3.7841   232
 3.7941   169
 3.8041   149
 3.8141    96
 3.8241   104
 3.8341    88
 3.8441    71
 3.8541    76
 3.8641    84
 3.8741    71
 3.8841    82
 3.8941    77
 3.9041    95
 3.9141    92
 3.9241   103
 3.9341   119
 3.9441   119
 3.9541   153
 3.9641   160
 3.9741   168
 3.9841   190
 3.9941   207
 4.0041   202
 4.0141   211
 4.0241   208
 4.0341   204
 4.0441   189
 4.0541   165
 4.0641   162
 4.0741   148
 4.0841   135
 4.0941   112
 4.1041    90
 4.1141    72
 4.1241    81
 4.1341    65
 4.1441    71
 4.1541    68
 4.1641    54
 4.1741    69
 4.1841    67
 4.1941    64
 4.2041    54
 4.2141    67
 4.2241    65
 4.2341    65
 4.2441    49
 4.2541    52
 4.2641    53
 4.2741    62
 4.2841    65
 4.2941    61
 4.3041    57
 4.3141    57
 4.3241    48
 4.3341    63
 4.3441    80
 4.3541    67
 4.3641    75
 4.3741    77
 4.3841    89
 4.3941   115
 4.4041   118
 4.4141   136
 4.4241   184
 4.4341   209
 4.4441   227
 4.4541   281
 4.4641   330
 4.4741   337
 4.4841   331
 4.4941   394
 4.5041   393
 4.5141   408
 4.5241   366
 4.5341   374
 4.5441   311
 4.5541   294
 4.5641   241
 4.5741   216
 4.5841   192
 4.5941   149
 4.6041   115
 4.6141   103
 4.6241    98
 4.6341    92
 4.6441    60
 4.6541    95
 4.6641    57
 4.6741    67
 4.6841    78
 4.6941    88
 4.7041    51
 4.7141    78
 4.7241    50
 4.7341    66
 4.7441    66
 4.7541    66
 4.7641    73
 4.7741    71
 4.7841    62
 4.7941    74
 4.8041    86
 4.8141    85
 4.8241    82
 4.8341   102
 4.8441   106
 4.8541    87
 4.8641   130
 4.8741   129
 4.8841   112
 4.8941   128
 4.9041   134
 4.9141   161
 4.9241   147
 4.9341   139
 4.9441   153
 4.9541   151
 4.9641   133
 4.9741   138
 4.9841   112
 4.9941   108
 5.0041    91
 5.0141   106
 5.0241   111
 5.0341    90
 5.0441    82
 5.0541    85
 5.0641    89
 5.0741    70
 5.0841    74
 5.0941    75
 5.1041    69
 5.1141    64
 5.1241    62
 5.1341    84
 5.1441    78
 5.1541    71
 5.1641    82
 5.1741    80
 5.1841    74
 5.1941    75
 5.2041    69
 5.2141    75
 5.2241    72
 5.2341    77
 5.2441    93
 5.2541    85
 5.2641    61
 5.2741    59
 5.2841    74
 5.2941   101
 5.3041   116
 5.3141   100
 5.3241   111
 5.3341   115
 5.3441   134
 5.3541   131
 5.3641   139
 5.3741   166
 5.3841   176
 5.3941   213
 5.4041   191
 5.4141   201
 5.4241   188
 5.4341   201
 5.4441   182
 5.4541   186
 5.4641   148
 5.4741   144
 5.4841   132
 5.4941   112
 5.5041   120
 5.5141   119
 5.5241    88
 5.5341    85
 5.5441    76
 5.5541    77
 5.5641    72
 5.5741    82
 5.5841    71
 5.5941    76
 5.6041    78
 5.6141    81
 5.6241    85
 5.6341    93
 5.6441    88
 5.6541    87
 5.6641    83
 5.6741    94
 5.6841    92
 5.6941    81
 5.7041    77
 5.7141    94
 5.7241    93
 5.7341   101
 5.7441   105
 5.7541   145
 5.7641   124
 5.7741   173
 5.7841   208
 5.7941   266
 5.8041   309
 5.8141   344
 5.8241   451
 5.8341   533
 5.8441   557
 5.8541   679
 5.8641   711
 5.8741   700
 5.8841   772
 5.8941   798
 5.9041   755
 5.9141   784
 5.9241   724
 5.9341   642
 5.9441   585
 5.9541   529
 5.9641   433
 5.9741   382
 5.9841   300
 5.9941   261
 6.0041   226
 6.0141   178
 6.0241   171
 6.0341   145
 6.0441   133
 6.0541   119
 6.0641   134
 6.0741   102
 6.0841   115
 6.0941   113
 6.1041   116
 6.1141   125
 6.1241   147
 6.1341   133
 6.1441   111
 6.1541   132
 6.1641   154
 6.1741   155
 6.1841   196
 6.1941   219
 6.2041   246
 6.2141   338
 6.2241   424
 6.2341   640
 6.2441   820
 6.2541  1144
 6.2641  1603
 6.2741  2232
 6.2841  2876
 6.2941  3957
 6.3041  4976
 6.3141  6347
 6.3241  7839
 6.3341  9463
 6.3441 10915
 6.3541 12538
 6.3641 13956
 6.3741 14986
 6.3841 16081
 6.3941 16391
 6.4041 16015
 6.4141 15798
 6.4241 15009
 6.4341 13689
 6.4441 12361
 6.4541 10843
 6.4641  9125
 6.4741  7484
 6.4841  5911
 6.4941  4683
 6.5041  3647
 6.5141  2706
 6.5241  1958
 6.5341  1479
 6.5441   987
 6.5541   689
 6.5641   573
 6.5741   380
 6.5841   293
 6.5941   234
 6.6041   189
 6.6141   177
 6.6241   139
 6.6341   147
 6.6441   152
 6.6541   152
 6.6641   140
 6.6741   122
 6.6841   155
 6.6941   145
 6.7041   130
 6.7141   129
 6.7241   143
 6.7341   104
 6.7441   133
 6.7541   145
 6.7641   138
 6.7741   146
 6.7841   148
 6.7941   146
 6.8041   145
 6.8141   152
 6.8241   185
 6.8341   192
 6.8441   205
 6.8541   186
 6.8641   239
 6.8741   282
 6.8841   270
 6.8941   323
 6.9041   419
 6.9141   490
 6.9241   534
 6.9341   687
 6.9441   793
 6.9541  1001
 6.9641  1166
 6.9741  1433
 6.9841  1714
 6.9941  1874
 7.0041  2159
 7.0141  2355
 7.0241  2613
 7.0341  2802
 7.0441  2735
 7.0541  2899
 7.0641  2823
 7.0741  2671
 7.0841  2509
 7.0941  2318
 7.1041  2134
 7.1141  1873
 7.1241  1617
 7.1341  1360
 7.1441  1137
 7.1541   853
 7.1641   730
 7.1741   650
 7.1841   507
 7.1941   406
 7.2041   322
 7.2141   266
 7.2241   242
 7.2341   223
 7.2441   182
 7.2541   193
 7.2641   200
 7.2741   174
 7.2841   185
 7.2941   193
 7.3041   222
 7.3141   193
 7.3241   214
 7.3341   228
 7.3441   246
 7.3541   252
 7.3641   254
 7.3741   276
 7.3841   306
 7.3941   345
 7.4041   349
 7.4141   376
 7.4241   398
 7.4341   406
 7.4441   388
 7.4541   423
 7.4641   377
 7.4741   386
 7.4841   406
 7.4941   396
 7.5041   337
 7.5141   343
 7.5241   351
 7.5341   290
 7.5441   295
 7.5541   226
 7.5641   248
 7.5741   224
 7.5841   220
 7.5941   214
 7.6041   218
 7.6141   188
 7.6241   190
 7.6341   181
 7.6441   178
 7.6541   178
 7.6641   174
 7.6741   173
 7.6841   193
 7.6941   187
 7.7041   198
 7.7141   203
 7.7241   199
 7.7341   205
 7.7441   222
 7.7541   199
 7.7641   211
 7.7741   208
 7.7841   196
 7.7941   218
 7.8041   244
 7.8141   217
 7.8241   243
 7.8341   226
 7.8441   230
 7.8541   244
 7.8641   248
 7.8741   265
 7.8841   288
 7.8941   271
 7.9041   277
 7.9141   326
 7.9241   349
 7.9341   377
 7.9441   347
 7.9541   388
 7.9641   475
 7.9741   424
 7.9841   472
 7.9941   518
 8.0041   554
 8.0141   616
 8.0241   567
 8.0341   651
 8.0441   681
 8.0541   794
 8.0641   810
 8.0741   897
 8.0841   905
 8.0941   966
 8.1041   990
 8.1141  1092
 8.1241  1076
 8.1341  1159
 8.1441  1166
 8.1541  1197
 8.1641  1211
 8.1741  1266
 8.1841  1158
 8.1941  1237
 8.2041  1259
 8.2141  1249
 8.2241  1305
 8.2341  1332
 8.2441  1394
 8.2541  1389
 8.2641  1395
 8.2741  1525
 8.2841  1614
 8.2941  1775
 8.3041  1898
 8.3141  2019
 8.3241  2212
 8.3341  2435
 8.3441  2548
 8.3541  2666
 8.3641  2896
 8.3741  2920
 8.3841  2934
 8.3941  2963
 8.4041  2945
 8.4141  2804
 8.4241  2565
 8.4341  2454
 8.4441  2305
 8.4541  2091
 8.4641  1792
 8.4741  1512
 8.4841  1305
 8.4941  1164
 8.5041   971
 8.5141   852
 8.5241   713
 8.5341   618
 8.5441   549
 8.5541   509
 8.5641   443
 8.5741   440
 8.5841   434
 8.5941   437
 8.6041   413
 8.6141   394
 8.6241   411
 8.6341   393
 8.6441   377
 8.6541   400
 8.6641   385
 8.6741   370
 8.6841   400
 8.6941   373
 8.7041   340
 8.7141   340
 8.7241   328
 8.7341   342
 8.7441   307
 8.7541   304
 8.7641   301
 8.7741   290
 8.7841   289
 8.7941   255
 8.8041   237
 8.8141   261
 8.8241   286
 8.8341   280
 8.8441   273
 8.8541   279
 8.8641   264
 8.8741   284
 8.8841   292
 8.8941   278
 8.9041   287
 8.9141   296
 8.9241   289
 8.9341   278
 8.9441   285
 8.9541   275
 8.9641   302
 8.9741   303
 8.9841   326
 8.9941   340
 9.0041   327
 9.0141   351
 9.0241   320
 9.0341   345
 9.0441   368
 9.0541   377
 9.0641   375
 9.0741   385
 9.0841   400
 9.0941   399
 9.1041   430
 9.1141   424
 9.1241   481
 9.1341   447
 9.1441   465
 9.1541   488
 9.1641   545
 9.1741   563
 9.1841   608
 9.1941   626
 9.2041   696
 9.2141   684
 9.2241   750
 9.2341   757
 9.2441   784
 9.2541   808
 9.2641   870
 9.2741   931
 9.2841   946
 9.2941   995
 9.3041  1055
 9.3141  1049
 9.3241  1101
 9.3341  1106
 9.3441  1142
 9.3541  1128
 9.3641  1193
 9.3741  1190
 9.3841  1245
 9.3941  1248
 9.4041  1212
 9.4141  1270
 9.4241  1265
 9.4341  1173
 9.4441  1266
 9.4541  1295
 9.4641  1306
 9.4741  1325
 9.4841  1299
 9.4941  1342
 9.5041  1420
 9.5141  1444
 9.5241  1530
 9.5341  1559
 9.5441  1568
 9.5541  1697
 9.5641  1695
 9.5741  1834
 9.5841  1963
 9.5941  2049
 9.6041  2186
 9.6141  2359
 9.6241  2434
 9.6341  2438
 9.6441  2503
 9.6541  2601
 9.6641  2636
 9.6741  2567
 9.6841  2549
 9.6941  2458
 9.7041  2396
 9.7141  2351
 9.7241  2222
 9.7341  2045
 9.7441  1945
 9.7541  1723
 9.7641  1598
 9.7741  1487
 9.7841  1419
 9.7941  1232
 9.8041  1152
 9.8141  1116
 9.8241  1061
 9.8341  1039
 9.8441  1012
 9.8541  1005
 9.8641   980
 9.8741  1074
 9.8841  1072
 9.8941  1072
 9.9041  1178
 9.9141  1140
 9.9241  1092
 9.9341  1196
 9.9441  1214
 9.9541  1187
 9.9641  1104
 9.9741  1104
 9.9841  1090
 9.9941  1057
10.0041   986
10.0141   888
10.0241   833
10.0341   741
10.0441   710
10.0541   657
10.0641   563
10.0741   504
10.0841   424
10.0941   394
10.1041   368
10.1141   304
10.1241   299
10.1341   290
10.1441   266
10.1541   235
10.1641   229
10.1741   238
10.1841   218
10.1941   202
10.2041   215
10.2141   204
10.2241   205
10.2341   192
10.2441   175
10.2541   166
10.2641   181
10.2741   176
10.2841   172
10.2941   185
10.3041   169
10.3141   168
10.3241   139
10.3341   149
10.3441   151
10.3541   161
10.3641   148
10.3741   150
10.3841   174
10.3941   155
10.4041   140
10.4141   135
10.4241   162
10.4341   150
10.4441   159
10.4541   154
10.4641   183
10.4741   190
10.4841   201
10.4941   194
10.5041   191
10.5141   198
10.5241   211
10.5341   210
10.5441   206
10.5541   206
10.5641   206
10.5741   199
10.5841   192
10.5941   206
10.6041   216
10.6141   195
10.6241   208
10.6341   208
10.6441   207
10.6541   204
10.6641   198
10.6741   206
10.6841   208
10.6941   195
10.7041   206
10.7141   192
10.7241   193
10.7341   219
10.7441   217
10.7541   214
10.7641   208
10.7741   212
10.7841   218
10.7941   246
10.8041   263
10.8141   229
10.8241   234
10.8341   235
10.8441   247
10.8541   268
10.8641   268
10.8741   280
10.8841   290
10.8941   279
10.9041   294
10.9141   284
10.9241   269
10.9341   291
10.9441   257
10.9541   243
10.9641   267
10.9741   269
10.9841   264
10.9941   280
11.0041   267
11.0141   238
11.0241   237
11.0341   237
11.0441   234
11.0541   224
11.0641   234
11.0741   224
11.0841   216
11.0941   241
11.1041   233
11.1141   223
11.1241   220
11.1341   253
11.1441   251
11.1541   254
11.1641   254
11.1741   298
11.1841   306
11.1941   303
11.2041   333
11.2141   315
11.2241   305
11.2341   341
11.2441   369
11.2541   380
11.2641   391
11.2741   393
11.2841   362
11.2941   350
11.3041   341
11.3141   362
11.3241   354
11.3341   300
11.3441   299
11.3541   297
11.3641   311
11.3741   288
11.3841   267
11.3941   240
11.4041   213
11.4141   221
11.4241   226
11.4341   215
11.4441   192
11.4541   200
11.4641   204
11.4741   188
11.4841   190
11.4941   190
11.5041   191
11.5141   178
11.5241   185
11.5341   188
11.5441   186
11.5541   189
11.5641   196
11.5741   197
11.5841   205
11.5941   202
11.6041   201
11.6141   224
11.6241   223
11.6341   200
11.6441   190
11.6541   200
11.6641   196
11.6741   197
11.6841   203
11.6941   193
11.7041   180
11.7141   182
11.7241   174
11.7341   176
11.7441   182
11.7541   173
11.7641   169
11.7741   167
11.7841   166
11.7941   159
11.8041   169
11.8141   164
11.8241   146
11.8341   139
11.8441   143
11.8541   169
11.8641   169
11.8741   166
11.8841   169
11.8941   168
11.9041   157
11.9141   153
11.9241   141
11.9341   132
11.9441   147
11.9541   152
11.9641   145
11.9741   156
11.9841   161
11.9941   149
12.0041   149
12.0141   148
12.0241   168
12.0341   177
12.0441   151
12.0541   145
12.0641   147
12.0741   151
12.0841   158
12.0941   146
12.1041   151
12.1141   163
12.1241   148
12.1341   137
12.1441   141
12.1541   151
12.1641   164
12.1741   148
12.1841   152
12.1941   157
12.2041   144
12.2141   145
12.2241   135
12.2341   130
12.2441   139
12.2541   135
12.2641   140
12.2741   144
12.2841   144
12.2941   134
12.3041   132
12.3141   139
12.3241   142
12.3341   141
12.3441   142
12.3541   136
12.3641   143
12.3741   141
12.3841   138
12.3941   142
12.4041   150
12.4141   151
12.4241   149
12.4341   148
12.4441   150
12.4541   148
12.4641   152
12.4741   153
12.4841   152
12.4941   167
12.5041   174
12.5141   177
12.5241   182
12.5341   164
12.5441   157
12.5541   161
12.5641   183
12.5741   175
12.5841   176
12.5941   174
12.6041   160
12.6141   166
12.6241   176
12.6341   172
12.6441   179
12.6541   185
12.6641   182
12.6741   189
12.6841   190
12.6941   179
12.7041   168
12.7141   178
12.7241   187
12.7341   176
12.7441   173
12.7541   176
12.7641   174
12.7741   170
12.7841   165
12.7941   159
12.8041   159
12.8141   170
12.8241   178
12.8341   173
12.8441   167
12.8541   167
12.8641   168
12.8741   164
12.8841   164
12.8941   170
12.9041   176
12.9141   172
12.9241   167
12.9341   171
12.9441   172
12.9541   162
12.9641   154
12.9741   161
12.9841   185
12.9941   192
13.0041   164
13.0141   168
13.0241   175
13.0341   179
13.0441   173
13.0541   178
13.0641   189
13.0741   197
13.0841   202
13.0941   210
13.1041   200
13.1141   190
13.1241   190
13.1341   178
13.1441   172
13.1541   188
13.1641   206
13.1741   206
13.1841   214
13.1941   219
13.2041   210
13.2141   220
13.2241   218
13.2341   242
13.2441   245
13.2541   241
13.2641   250
13.2741   251
13.2841   275
13.2941   286
13.3041   277
13.3141   286
13.3241   289
13.3341   275
13.3441   292
13.3541   313
13.3641   326
13.3741   324
13.3841   321
13.3941   316
13.4041   321
13.4141   322
13.4241   319
13.4341   313
13.4441   304
13.4541   288
13.4641   272
13.4741   279
13.4841   270
13.4941   258
13.5041   253
13.5141   237
13.5241   240
13.5341   243
13.5441   222
13.5541   223
13.5641   240
13.5741   219
13.5841   210
13.5941   212
13.6041   222
13.6141   225
13.6241   195
13.6341   193
13.6441   193
13.6541   207
13.6641   222
13.6741   228
13.6841   231
13.6941   225
13.7041   219
13.7141   226
13.7241   228
13.7341   213
13.7441   210
13.7541   216
13.7641   228
13.7741   219
13.7841   218
13.7941   227
13.8041   217
13.8141   223
13.8241   226
13.8341   218
13.8441   214
13.8541   222
13.8641   237
13.8741   241
13.8841   228
13.8941   226
13.9041   223
13.9141   230
13.9241   234
13.9341   237
13.9441   248
13.9541   239
13.9641   251
13.9741   271
13.9841   296
13.9941   311
14.0041   316
14.0141   332
14.0241   334
14.0341   338
14.0441   344
14.0541   358
14.0641   367
14.0741   372
14.0841   389
14.0941   390
14.1041   409
14.1141   432
14.1241   425
14.1341   452
14.1441   449
14.1541   434
14.1641   445
14.1741   455
14.1841   447
14.1941   405
14.2041   418
14.2141   417
14.2241   382
14.2341   375
14.2441   372
14.2541   357
14.2641   328
14.2741   306
14.2841   311
14.2941   293
14.3041   275
14.3141   274
14.3241   269
14.3341   252
14.3441   243
14.3541   254
14.3641   245
14.3741   251
14.3841   261
14.3941   250
14.4041   251
14.4141   253
14.4241   254
14.4341   254
14.4441   271
14.4541   279
14.4641   247
14.4741   247
14.4841   257
14.4941   259
14.5041   273
14.5141   258
14.5241   258
14.5341   261
14.5441   266
14.5541   274
14.5641   264
14.5741   251
14.5841   243
14.5941   249
14.6041   251
14.6141   243
14.6241   257
14.6341   274
14.6441   285
14.6541   282
14.6641   277
14.6741   275
14.6841   266
14.6941   277
14.7041   296
14.7141   285
14.7241   278
14.7341   273
14.7441   288
14.7541   302
14.7641   301
14.7741   301
14.7841   313
14.7941   328
14.8041   311
14.8141   304
14.8241   302
14.8341   290
14.8441   289
14.8541   303
14.8641   293
14.8741   309
14.8841   314
14.8941   296
14.9041   331
14.9141   341
14.9241   325
14.9341   331
14.9441   321
14.9541   308
14.9641   314
14.9741   321
14.9841   308
14.9941   311
15.0041   315
15.0141   309
15.0241   294
15.0341   295
15.0441   315
15.0541   307
15.0641   287
15.0741   295
15.0841   302
15.0941   305
15.1041   293
15.1141   302
15.1241   319
15.1341   317
15.1441   302
15.1541   306
15.1641   334
15.1741   321
15.1841   316
15.1941   300
15.2041   308
15.2141   303
15.2241   298
15.2341   293
15.2441   287
15.2541   302
15.2641   304
15.2741   303
15.2841   320
15.2941   321
15.3041   315
15.3141   318
15.3241   329
15.3341   311
15.3441   303
15.3541   317
15.3641   311
15.3741   302
15.3841   298
15.3941   303
15.4041   320
15.4141   312
15.4241   302
15.4341   321
15.4441   325
15.4541   292
15.4641   329
15.4741   346
15.4841   318
15.4941   319
15.5041   321
15.5141   356
15.5241   367
15.5341   352
15.5441   351
15.5541   361
15.5641   390
15.5741   374
15.5841   395
15.5941   443
15.6041   452
15.6141   460
15.6241   482
15.6341   524
15.6441   527
15.6541   535
15.6641   547
15.6741   566
15.6841   586
15.6941   586
15.7041   597
15.7141   617
15.7241   643
15.7341   660
15.7441   650
15.7541   670
15.7641   698
15.7741   694
15.7841   661
15.7941   650
15.8041   616
15.8141   619
15.8241   643
15.8341   597
15.8441   566
15.8541   556
15.8641   550
15.8741   522
15.8841   492
15.8941   496
15.9041   452
15.9141   415
15.9241   441
15.9341   406
15.9441   377
15.9541   386
15.9641   386
15.9741   388
15.9841   383
15.9941   342
16.0041   355
16.0141   365
16.0241   363
16.0341   366
16.0441   369
16.0541   374
16.0641   364
16.0741   356
16.0841   359
16.0941   362
16.1041   372
16.1141   380
16.1241   371
16.1341   369
16.1441   366
16.1541   354
16.1641   370
16.1741   370
16.1841   368
16.1941   382
16.2041   359
16.2141   351
16.2241   361
16.2341   379
16.2441   402
16.2541   394
16.2641   367
16.2741   372
16.2841   349
16.2941   327
16.3041   348
16.3141   378
16.3241   371
16.3341   355
16.3441   360
16.3541   382
16.3641   388
16.3741   384
16.3841   384
16.3941   371
16.4041   385
16.4141   385
16.4241   374
16.4341   364
16.4441   404
16.4541   383
16.4641   375
16.4741   410
16.4841   394
16.4941   383
16.5041   391
16.5141   399
16.5241   386
16.5341   405
16.5441   412
16.5541   392
16.5641   404
16.5741   402
16.5841   404
16.5941   409
16.6041   393
16.6141   401
16.6241   400
16.6341   398
16.6441   373
16.6541   398
16.6641   406
16.6741   426
16.6841   431
16.6941   425
16.7041   398
16.7141   397
16.7241   392
16.7341   400
16.7441   414
16.7541   427
16.7641   408
16.7741   393
16.7841   393
16.7941   409
16.8041   379
16.8141   369
16.8241   382
16.8341   379
16.8441   372
16.8541   392
16.8641   415
16.8741   394
16.8841   393
16.8941   425
16.9041   412
16.9141   391
16.9241   414
16.9341   405
16.9441   400
16.9541   420
16.9641   415
16.9741   380
16.9841   408
16.9941   411
17.0041   426
17.0141   426
17.0241   409
17.0341   404
17.0441   421
17.0541   414
17.0641   435
17.0741   442
17.0841   431
17.0941   426
17.1041   439
17.1141   433
17.1241   411
17.1341   407
17.1441   418
17.1541   423
17.1641   423
17.1741   440
17.1841   429
17.1941   423
17.2041   418
17.2141   411
17.2241   417
17.2341   420
17.2441   416
17.2541   402
17.2641   431
17.2741   428
17.2841   416
17.2941   426
17.3041   474
17.3141   468
17.3241   443
17.3341   456
17.3441   445
17.3541   419
17.3641   434
17.3741   460
17.3841   448
17.3941   460
17.4041   460
17.4141   426
17.4241   445
17.4341   460
17.4441   469
17.4541   502
17.4641   486
17.4741   481
17.4841   473
17.4941   453
17.5041   467
17.5141   469
17.5241   451
17.5341   487
17.5441   487
17.5541   501
17.5641   446
17.5741   478
17.5841   500
17.5941   494
17.6041   486
17.6141   491
17.6241   483
17.6341   508
17.6441   519
17.6541   506
17.6641   500
17.6741   492
17.6841   490
17.6941   485
17.7041   501
17.7141   505
17.7241   501
17.7341   448
17.7441   452
17.7541   461
17.7641   470
17.7741   478
17.7841   491
17.7941   493
17.8041   493
17.8141   469
17.8241   467
17.8341   489
17.8441   488
17.8541   474
17.8641   463
17.8741   462
17.8841   460
17.8941   464
17.9041   461
17.9141   473
17.9241   497
17.9341   481
17.9441   470
17.9541   451
17.9641   460
17.9741   490
17.9841   499
17.9941   470
18.0041   472
18.0141   481
18.0241   461
18.0341   453
18.0441   440
18.0541   460
18.0641   480
18.0741   499
18.0841   467
18.0941   487
18.1041   478
18.1141   497
18.1241   480
18.1341   465
18.1441   477
18.1541   478
18.1641   484
18.1741   506
18.1841   476
18.1941   451
18.2041   464
18.2141   452
18.2241   489
18.2341   479
18.2441   475
18.2541   471
18.2641   495
18.2741   476
18.2841   495
18.2941   521
18.3041   461
18.3141   463
18.3241   481
18.3341   469
18.3441   493
18.3541   482
18.3641   471
18.3741   447
18.3841   469
18.3941   499
18.4041   483
18.4141   449
18.4241   460
18.4341   517
18.4441   505
18.4541   479
18.4641   491
18.4741   478
18.4841   466
18.4941   477
18.5041   507
18.5141   482
18.5241   469
18.5341   493
18.5441   499
18.5541   506
18.5641   522
18.5741   501
18.5841   512
18.5941   530
18.6041   492
18.6141   521
18.6241   502
18.6341   475
18.6441   514
18.6541   498
18.6641   501
18.6741   493
18.6841   515
18.6941   530
18.7041   525
18.7141   522
18.7241   506
18.7341   514
18.7441   509
18.7541   479
18.7641   463
18.7741   526
18.7841   490
18.7941   529
18.8041   499
18.8141   488
18.8241   513
18.8341   510
18.8441   496
18.8541   506
18.8641   488
18.8741   520
18.8841   495
18.8941   494
18.9041   532
18.9141   492
18.9241   477
18.9341   489
18.9441   556
18.9541   494
18.9641   494
18.9741   472
18.9841   513
18.9941   520
19.0041   495
19.0141   504
19.0241   468
19.0341   478
19.0441   486
19.0541   498
19.0641   493
19.0741   490
19.0841   502
19.0941   491
19.1041   517
19.1141   514
19.1241   497
19.1341   508
19.1441   483
19.1541   507
19.1641   513
19.1741   497
19.1841   523
19.1941   522
19.2041   489
19.2141   507
19.2241   500
19.2341   470
19.2441   488
19.2541   464
19.2641   504
19.2741   512
19.2841   498
19.2941   505
19.3041   505
19.3141   473
19.3241   498
19.3341   505
19.3441   548
19.3541   534
19.3641   559
19.3741   501
19.3841   498
19.3941   510
19.4041   496
19.4141   517
19.4241   487
19.4341   501
19.4441   514
19.4541   518
19.4641   503
19.4741   536
19.4841   542
19.4941   533
19.5041   521
19.5141   506
19.5241   484
19.5341   481
19.5441   545
19.5541   535
19.5641   517
19.5741   508
19.5841   544
19.5941   505
19.6041   487
19.6141   485
19.6241   508
19.6341   533
19.6441   526
19.6541   505
19.6641   556
19.6741   553
19.6841   555
19.6941   530
19.7041   495
19.7141   516
19.7241   499
19.7341   514
19.7441   503
19.7541   496
19.7641   485
19.7741   501
19.7841   502
19.7941   503
19.8041   530
19.8141   541
19.8241   514
19.8341   545
19.8441   540
19.8541   514
19.8641   534
19.8741   502
19.8841   530
19.8941   504
19.9041   545
19.9141   538
19.9241   550
19.9341   535
19.9441   498
19.9541   526
19.9641   514
19.9741   517
19.9841   515
19.9941   533
20.0041   534
20.0141   518
20.0241   499
20.0341   527
20.0441   551
20.0541   505
20.0641   496
20.0741   505
20.0841   508
20.0941   528
20.1041   529
20.1141   498
20.1241   500
20.1341   526
20.1441   513
20.1541   500
20.1641   532
20.1741   529
20.1841   501
20.1941   533
20.2041   517
20.2141   501
20.2241   520
20.2341   511
20.2441   502
20.2541   509
20.2641   539
20.2741   540
20.2841   572
20.2941   554
20.3041   509
20.3141   520
20.3241   546
20.3341   537
20.3441   567
20.3541   572
20.3641   518
20.3741   500
20.3841   529
20.3941   516
20.4041   513
20.4141   498
20.4241   510
20.4341   554
20.4441   532
20.4541   508
20.4641   516
20.4741   522
20.4841   516
20.4941   560
20.5041   536
20.5141   503
20.5241   527
20.5341   537
20.5441   518
20.5541   534
20.5641   514
20.5741   510
20.5841   528
20.5941   555
20.6041   565
20.6141   552
20.6241   508
20.6341   517
20.6441   537
20.6541   522
20.6641   533
20.6741   552
20.6841   508
20.6941   503
20.7041   532
20.7141   563
20.7241   556
20.7341   545
20.7441   525
20.7541   503
20.7641   513
20.7741   544
20.7841   540
20.7941   490
20.8041   534
20.8141   536
20.8241   509
20.8341   581
20.8441   604
20.8541   559
20.8641   585
20.8741   572
20.8841   581
20.8941   600
20.9041   589
20.9141   680
20.9241   621
20.9341   629
20.9441   633
20.9541   658
20.9641   644
20.9741   666
20.9841   694
20.9941   743
21.0041   685
21.0141   691
21.0241   693
21.0341   712
21.0441   726
21.0541   778
21.0641   734
21.0741   663
21.0841   742
21.0941   709
21.1041   758
21.1141   786
21.1241   748
21.1341   763
21.1441   806
21.1541   748
21.1641   808
21.1741   754
21.1841   740
21.1941   696
21.2041   700
21.2141   692
21.2241   705
21.2341   701
21.2441   675
21.2541   681
21.2641   654
21.2741   643
21.2841   636
21.2941   621
21.3041   640
21.3141   573
21.3241   571
21.3341   602
21.3441   613
21.3541   602
21.3641   564
21.3741   520
21.3841   517
21.3941   534
21.4041   530
21.4141   538
21.4241   522
21.4341   531
21.4441   537
21.4541   542
21.4641   567
21.4741   508
21.4841   530
21.4941   534
21.5041   527
21.5141   559
21.5241   538
21.5341   562
21.5441   518
21.5541   508
21.5641   484
21.5741   514
21.5841   517
21.5941   548
21.6041   541
21.6141   508
21.6241   516
21.6341   531
21.6441   567
21.6541   516
21.6641   503
21.6741   489
21.6841   510
21.6941   500
21.7041   529
21.7141   545
21.7241   482
21.7341   532
21.7441   530
21.7541   484
21.7641   452
21.7741   481
21.7841   498
21.7941   523
21.8041   509
21.8141   521
21.8241   524
21.8341   531
21.8441   536
21.8541   532
21.8641   541
21.8741   503
21.8841   535
21.8941   513
21.9041   528
21.9141   548
21.9241   538
21.9341   515
21.9441   495
21.9541   539
21.9641   507
21.9741   520
21.9841   522
21.9941   522
22.0041   500
22.0141   510
22.0241   518
22.0341   542
22.0441   532
22.0541   500
22.0641   517
22.0741   504
22.0841   540
22.0941   528
22.1041   516
22.1141   513
22.1241   529
22.1341   521
22.1441   533
22.1541   506
22.1641   518
22.1741   499
22.1841   495
22.1941   497
22.2041   500
22.2141   513
22.2241   541
22.2341   541
22.2441   518
22.2541   490
22.2641   525
22.2741   480
22.2841   519
22.2941   478
22.3041   521
22.3141   527
22.3241   491
22.3341   532
22.3441   527
22.3541   488
22.3641   522
22.3741   510
22.3841   541
22.3941   495
22.4041   537
22.4141   520
22.4241   533
22.4341   540
22.4441   491
22.4541   525
22.4641   496
22.4741   521
22.4841   528
22.4941   515
22.5041   494
22.5141   511
22.5241   501
22.5341   497
22.5441   503
22.5541   514
22.5641   506
22.5741   530
22.5841   520
22.5941   492
22.6041   534
22.6141   484
22.6241   504
22.6341   500
22.6441   478
22.6541   481
22.6641   510
22.6741   484
22.6841   486
22.6941   498
22.7041   496
22.7141   490
22.7241   519
22.7341   474
22.7441   494
22.7541   490
22.7641   529
22.7741   505
22.7841   482
22.7941   505
22.8041   461
22.8141   504
22.8241   505
22.8341   508
22.8441   530
22.8541   506
22.8641   558
22.8741   494
22.8841   494
22.8941   504
22.9041   505
22.9141   509
22.9241   518
22.9341   478
22.9441   515
22.9541   525
22.9641   521
22.9741   526
22.9841   485
22.9941   470
23.0041   552
23.0141   477
23.0241   474
23.0341   509
23.0441   488
23.0541   470
23.0641   479
23.0741   484
23.0841   493
23.0941   501
23.1041   540
23.1141   452
23.1241   523
23.1341   487
23.1441   487
23.1541   484
23.1641   460
23.1741   480
23.1841   496
23.1941   489
23.2041   473
23.2141   510
23.2241   490
23.2341   491
23.2441   492
23.2541   465
23.2641   447
23.2741   506
23.2841   516
23.2941   469
23.3041   517
23.3141   480
23.3241   513
23.3341   480
23.3441   517
23.3541   456
23.3641   531
23.3741   472
23.3841   466
23.3941   507
23.4041   511
23.4141   500
23.4241   488
23.4341   477
23.4441   508
23.4541   505
23.4641   482
23.4741   470
23.4841   470
23.4941   514
23.5041   428
23.5141   520
23.5241   508
23.5341   471
23.5441   466
23.5541   467
23.5641   452
23.5741   469
23.5841   460
23.5941   473
23.6041   463
23.6141   488
23.6241   495
23.6341   464
23.6441   502
23.6541   501
23.6641   502
23.6741   512
23.6841   512
23.6941   493
23.7041   498
23.7141   521
23.7241   491
23.7341   493
23.7441   517
23.7541   527
23.7641   516
23.7741   502
23.7841   539
23.7941   538
23.8041   523
23.8141   518
23.8241   528
23.8341   544
23.8441   536
23.8541   514
23.8641   523
23.8741   523
23.8841   453
23.8941   470
23.9041   486
23.9141   537
23.9241   482
23.9341   507
23.9441   511
23.9541   496
23.9641   502
23.9741   481
23.9841   463
23.9941   455
24.0041   455
24.0141   470
24.0241   491
24.0341   507
24.0441   465
24.0541   473
24.0641   476
24.0741   474
24.0841   496
24.0941   471
24.1041   471
24.1141   470
24.1241   452
24.1341   447
24.1441   452
24.1541   470
24.1641   444
24.1741   464
24.1841   476
24.1941   427
24.2041   419
24.2141   426
24.2241   492
24.2341   487
24.2441   468
24.2541   457
24.2641   473
24.2741   486
24.2841   454
24.2941   449
24.3041   473
24.3141   456
24.3241   442
24.3341   456
24.3441   449
24.3541   443
24.3641   461
24.3741   435
24.3841   427
24.3941   439
24.4041   449
24.4141   474
24.4241   462
24.4341   481
24.4441   465
24.4541   442
24.4641   446
24.4741   453
24.4841   469
24.4941   451
24.5041   439
24.5141   440
24.5241   465
24.5341   476
24.5441   442
24.5541   466
24.5641   433
24.5741   440
24.5841   417
24.5941   445
24.6041   453
24.6141   474
24.6241   446
24.6341   436
24.6441   464
24.6541   439
24.6641   451
24.6741   454
24.6841   425
24.6941   456
24.7041   448
24.7141   471
24.7241   439
24.7341   437
24.7441   457
24.7541   421
24.7641   433
24.7741   452
24.7841   487
24.7941   456
24.8041   448
24.8141   422
24.8241   449
24.8341   458
24.8441   434
24.8541   446
24.8641   451
24.8741   436
24.8841   429
24.8941   425
24.9041   428
24.9141   457
24.9241   457
24.9341   436
24.9441   464
24.9541   441
24.9641   446
24.9741   414
24.9841   452
24.9941   450
25.0041   437
25.0141   426
25.0241   429
25.0341   443
25.0441   432
25.0541   414
25.0641   411
25.0741   443
25.0841   447
25.0941   445
25.1041   422
25.1141   420
25.1241   434
25.1341   424
25.1441   455
25.1541   414
25.1641   407
25.1741   414
25.1841   437
25.1941   405
25.2041   435
25.2141   409
25.2241   436
25.2341   426
25.2441   436
25.2541   435
25.2641   420
25.2741   432
25.2841   433
25.2941   403
25.3041   433
25.3141   407
25.3241   427
25.3341   412
25.3441   409
25.3541   419
25.3641   403
25.3741   426
25.3841   417
25.3941   406
25.4041   408
25.4141   429
25.4241   464
25.4341   413
25.4441   421
25.4541   442
25.4641   443
25.4741   401
25.4841   413
25.4941   404
25.5041   423
25.5141   418
25.5241   456
25.5341   438
25.5441   435
25.5541   412
25.5641   398
25.5741   376
25.5841   437
25.5941   442
25.6041   415
25.6141   399
25.6241   435
25.6341   372
25.6441   408
25.6541   437
25.6641   385
25.6741   387
25.6841   377
25.6941   420
25.7041   381
25.7141   398
25.7241   350
25.7341   355
25.7441   405
25.7541   394
25.7641   399
25.7741   413
25.7841   420
25.7941   408
25.8041   404
25.8141   364
25.8241   394
25.8341   375
25.8441   422
25.8541   411
25.8641   377
25.8741   379
25.8841   396
25.8941   392
25.9041   385
25.9141   366
25.9241   402
25.9341   384
25.9441   360
25.9541   394
25.9641   392
25.9741   387
25.9841   385
25.9941   392
26.0041   378
26.0141   377
26.0241   408
26.0341   388
26.0441   359
26.0541   395
26.0641   400
26.0741   393
26.0841   378
26.0941   397
26.1041   400
26.1141   369
26.1241   399
26.1341   384
26.1441   370
26.1541   390
26.1641   365
26.1741   363
26.1841   382
26.1941   391
26.2041   397
26.2141   371
26.2241   401
26.2341   396
26.2441   370
26.2541   345
26.2641   373
26.2741   389
26.2841   364
26.2941   381
26.3041   393
26.3141   381
26.3241   400
26.3341   360
26.3441   393
26.3541   389
26.3641   381
26.3741   357
26.3841   373
26.3941   381
26.4041   402
26.4141   406
26.4241   370
26.4341   379
26.4441   387
26.4541   374
26.4641   362
26.4741   383
26.4841   338
26.4941   350
26.5041   357
26.5141   373
26.5241   360
26.5341   408
26.5441   420
26.5541   387
26.5641   389
26.5741   374
26.5841   369
26.5941   360
26.6041   375
26.6141   370
26.6241   375
26.6341   372
26.6441   373
26.6541   392
26.6641   345
26.6741   363
26.6841   374
26.6941   361
26.7041   325
26.7141   340
26.7241   355
26.7341   355
26.7441   381
26.7541   380
26.7641   361
26.7741   377
26.7841   387
26.7941   372
26.8041   355
26.8141   334
26.8241   379
26.8341   350
26.8441   332
26.8541   339
26.8641   380
26.8741   369
26.8841   359
26.8941   364
26.9041   363
26.9141   367
26.9241   324
26.9341   329
26.9441   330
26.9541   346
26.9641   337
26.9741   350
26.9841   350
26.9941   348
27.0041   358
27.0141   317
27.0241   338
27.0341   350
27.0441   347
27.0541   353
27.0641   353
27.0741   370
27.0841   365
27.0941   352
27.1041   366
27.1141   330
27.1241   352
27.1341   328
27.1441   360
27.1541   342
27.1641   322
27.1741   375
27.1841   336
27.1941   338
27.2041   334
27.2141   340
27.2241   337
27.2341   348
27.2441   344
27.2541   336
27.2641   338
27.2741   344
27.2841   339
27.2941   364
27.3041   371
27.3141   363
27.3241   329
27.3341   354
27.3441   344
27.3541   343
27.3641   373
27.3741   332
27.3841   333
27.3941   374
27.4041   375
27.4141   334
27.4241   345
27.4341   308
27.4441   317
27.4541   361
27.4641   337
27.4741   300
27.4841   324
27.4941   334
27.5041   334
27.5141   359
27.5241   307
27.5341   330
27.5441   320
27.5541   314
27.5641   332
27.5741   333
27.5841   353
27.5941   346
27.6041   333
27.6141   318
27.6241   327
27.6341   311
27.6441   353
27.6541   303
27.6641   321
27.6741   328
27.6841   329
27.6941   311
27.7041   313
27.7141   328
27.7241   310
27.7341   310
27.7441   304
27.7541   318
27.7641   325
27.7741   299
27.7841   293
27.7941   321
27.8041   298
27.8141   305
27.8241   342
27.8341   301
27.8441   311
27.8541   351
27.8641   306
27.8741   365
27.8841   328
27.8941   318
27.9041   320
27.9141   288
27.9241   333
27.9341   307
27.9441   298
27.9541   304
27.9641   327
27.9741   345
27.9841   318
27.9941   307
28.0041   311
28.0141   310
28.0241   319
28.0341   288
28.0441   314
28.0541   338
28.0641   321
28.0741   302
28.0841   340
28.0941   298
28.1041   307
28.1141   319
28.1241   327
28.1341   313
28.1441   320
28.1541   288
28.1641   305
28.1741   274
28.1841   291
28.1941   310
28.2041   298
28.2141   315
28.2241   318
28.2341   319
28.2441   280
28.2541   296
28.2641   314
28.2741   291
28.2841   307
28.2941   309
28.3041   306
28.3141   323
28.3241   301
28.3341   279
28.3441   283
28.3541   311
28.3641   274
28.3741   281
28.3841   283
28.3941   284
28.4041   291
28.4141   294
28.4241   306
28.4341   292
28.4441   301
28.4541   278
28.4641   276
28.4741   281
28.4841   301
28.4941   297
28.5041   334
28.5141   280
28.5241   268
28.5341   269
28.5441   274
28.5541   276
28.5641   290
28.5741   280
28.5841   305
28.5941   287
28.6041   289
28.6141   301
28.6241   301
28.6341   289
28.6441   282
28.6541   278
28.6641   291
28.6741   302
28.6841   267
28.6941   276
28.7041   286
28.7141   271
28.7241   307
28.7341   263
28.7441   300
28.7541   304
28.7641   289
28.7741   303
28.7841   291
28.7941   272
28.8041   265
28.8141   301
28.8241   258
28.8341   269
28.8441   303
28.8541   272
28.8641   283
28.8741   309
28.8841   290
28.8941   283
28.9041   284
28.9141   266
28.9241   278
28.9341   266
28.9441   262
28.9541   275
28.9641   281
28.9741   264
28.9841   266
28.9941   269
29.0041   274
29.0141   257
29.0241   257
29.0341   234
29.0441   292
29.0541   292
29.0641   274
29.0741   280
29.0841   272
29.0941   289
29.1041   264
29.1141   255
29.1241   282
29.1341   279
29.1441   305
29.1541   258
29.1641   284
29.1741   249
29.1841   245
29.1941   265
29.2041   270
29.2141   266
29.2241   269
29.2341   274
29.2441   258
29.2541   259
29.2641   290
29.2741   290
29.2841   263
29.2941   257
29.3041   264
29.3141   267
29.3241   269
29.3341   271
29.3441   259
29.3541   241
29.3641   244
29.3741   239
29.3841   265
29.3941   253
29.4041   267
29.4141   262
29.4241   245
29.4341   261
29.4441   242
29.4541   254
29.4641   227
29.4741   227
29.4841   227
29.4941   298
29.5041   258
29.5141   257
29.5241   264
29.5341   256
29.5441   259
29.5541   247
29.5641   249
29.5741   266
29.5841   255
29.5941   264
29.6041   248
29.6141   282
29.6241   249
29.6341   240
29.6441   260
29.6541   250
29.6641   271
29.6741   238
29.6841   232
29.6941   264
29.7041   271
29.7141   236
29.7241   225
29.7341   258
29.7441   259
29.7541   237
29.7641   241
29.7741   253
29.7841   261
29.7941   241
29.8041   259
29.8141   219
29.8241   247
29.8341   244
29.8441   239
29.8541   233
29.8641   258
29.8741   231
29.8841   249
29.8941   262
29.9041   248
29.9141   223
29.9241   225
29.9341   228
29.9441   240
29.9541   236
29.9641   244
29.9741   213
29.9841   232
29.9941   240
30.0041   241
30.0141   250
30.0241   230
30.0341   225
30.0441   231
30.0541   211
30.0641   243
30.0741   218
30.0841   231
30.0941   237
30.1041   279
30.1141   238
30.1241   235
30.1341   238
30.1441   223
30.1541   234
30.1641   227
30.1741   211
30.1841   225
30.1941   214
30.2041   254
30.2141   235
30.2241   209
30.2341   231
30.2441   209
30.2541   222
30.2641   217
30.2741   224
30.2841   224
30.2941   231
30.3041   225
30.3141   229
30.3241   229
30.3341   229
30.3441   221
30.3541   231
30.3641   203
30.3741   218
30.3841   228
30.3941   226
30.4041   241
30.4141   224
30.4241   210
30.4341   237
30.4441   223
30.4541   218
30.4641   227
30.4741   224
30.4841   223
30.4941   191
30.5041   222
30.5141   225
30.5241   235
30.5341   224
30.5441   248
30.5541   221
30.5641   195
30.5741   214
30.5841   220
30.5941   226
30.6041   234
30.6141   221
30.6241   234
30.6341   206
30.6441   223
30.6541   221
30.6641   215
30.6741   198
30.6841   204
30.6941   204
30.7041   222
30.7141   217
30.7241   188
30.7341   200
30.7441   199
30.7541   236
30.7641   202
30.7741   210
30.7841   210
30.7941   220
30.8041   222
30.8141   194
30.8241   199
30.8341   199
30.8441   193
30.8541   231
30.8641   222
30.8741   198
30.8841   179
30.8941   195
30.9041   198
30.9141   192
30.9241   211
30.9341   196
30.9441   205
30.9541   204
30.9641   202
30.9741   196
30.9841   209
30.9941   206
31.0041   194
31.0141   207
31.0241   190
31.0341   201
31.0441   197
31.0541   223
31.0641   183
31.0741   218
31.0841   204
31.0941   190
31.1041   199
31.1141   192
31.1241   180
31.1341   185
31.1441   212
31.1541   184
31.1641   208
31.1741   193
31.1841   180
31.1941   212
31.2041   227
31.2141   199
31.2241   181
31.2341   204
31.2441   212
31.2541   206
31.2641   202
31.2741   184
31.2841   166
31.2941   193
31.3041   173
31.3141   207
31.3241   200
31.3341   179
31.3441   190
31.3541   164
31.3641   177
31.3741   229
31.3841   186
31.3941   223
31.4041   205
31.4141   216
31.4241   185
31.4341   204
31.4441   165
31.4541   186
31.4641   184
31.4741   181
31.4841   188
31.4941   179
31.5041   173
31.5141   205
31.5241   179
31.5341   183
31.5441   178
31.5541   214
31.5641   196
31.5741   192
31.5841   194
31.5941   201
31.6041   190
31.6141   184
31.6241   201
31.6341   184
31.6441   212
31.6541   185
31.6641   195
31.6741   200
31.6841   190
31.6941   202
31.7041   192
31.7141   163
31.7241   205
31.7341   181
31.7441   172
31.7541   154
31.7641   176
31.7741   187
31.7841   156
31.7941   189
31.8041   181
31.8141   159
31.8241   167
31.8341   180
31.8441   186
31.8541   207
31.8641   202
31.8741   188
31.8841   204
31.8941   184
31.9041   169
31.9141   184
31.9241   187
31.9341   170
31.9441   172
31.9541   180
31.9641   192
31.9741   176
31.9841   186
31.9941   181
32.0041   180
32.0141   170
32.0241   175
32.0341   155
32.0441   178
32.0541   163
32.0641   157
32.0741   185
32.0841   186
32.0941   169
32.1041   162
32.1141   168
32.1241   172
32.1341   164
32.1441   174
32.1541   165
32.1641   186
32.1741   187
32.1841   164
32.1941   170
32.2041   172
32.2141   179
32.2241   169
32.2341   164
32.2441   165
32.2541   172
32.2641   146
32.2741   191
32.2841   168
32.2941   175
32.3041   158
32.3141   173
32.3241   163
32.3341   174
32.3441   159
32.3541   167
32.3641   163
32.3741   171
32.3841   170
32.3941   164
32.4041   146
32.4141   168
32.4241   146
32.4341   167
32.4441   172
32.4541   160
32.4641   161
32.4741   159
32.4841   163
32.4941   145
32.5041   165
32.5141   136
32.5241   165
32.5341   160
32.5441   133
32.5541   168
32.5641   164
32.5741   169
32.5841   128
32.5941   138
32.6041   147
32.6141   156
32.6241   138
32.6341   159
32.6441   135
32.6541   159
32.6641   159
32.6741   169
32.6841   145
32.6941   154
32.7041   152
32.7141   147
32.7241   171
32.7341   173
32.7441   153
32.7541   173
32.7641   142
32.7741   145
32.7841   163
32.7941   148
32.8041   148
32.8141   128
32.8241   146
32.8341   145
32.8441   155
32.8541   130
32.8641   149
32.8741   152
32.8841   172
32.8941   165
32.9041   138
32.9141   157
32.9241   145
32.9341   131
32.9441   146
32.9541   149
32.9641   139
32.9741   151
32.9841   151
32.9941   160
33.0041   143
33.0141   157
33.0241   153
33.0341   138
33.0441   148
33.0541   139
33.0641   136
33.0741   133
33.0841   128
33.0941   139
33.1041   149
33.1141   145
33.1241   146
33.1341   146
33.1441   155
33.1541   149
33.1641   145
33.1741   155
33.1841   157
33.1941   141
33.2041   129
33.2141   131
33.2241   162
33.2341   133
33.2441   150
33.2541   153
33.2641   155
33.2741   145
33.2841   139
33.2941   145
33.3041   144
33.3141   153
33.3241   135
33.3341   128
33.3441   121
33.3541   144
33.3641   129
33.3741   152
33.3841   138
33.3941   122
33.4041   159
33.4141   126
33.4241   121
33.4341   146
33.4441   131
33.4541   146
33.4641   131
33.4741   113
33.4841   137
33.4941   138
33.5041   127
33.5141   150
33.5241   131
33.5341   112
33.5441   122
33.5541   129
33.5641   134
33.5741   115
33.5841   139
33.5941   121
33.6041   137
33.6141   121
33.6241   124
33.6341   119
33.6441   134
33.6541   135
33.6641   139
33.6741   120
33.6841   121
33.6941   118
33.7041   122
33.7141   128
33.7241   130
33.7341   120
33.7441   123
33.7541   135
33.7641   145
33.7741   121
33.7841   109
33.7941   145
33.8041   139
33.8141   127
33.8241   136
33.8341   103
33.8441   126
33.8541   122
33.8641   128
33.8741   113
33.8841   115
33.8941   125
33.9041   115
33.9141   116
33.9241   128
33.9341   126
33.9441    84
33.9541   109
33.9641   123
33.9741   117
33.9841   112
33.9941   128
34.0041   115
34.0141   112
34.0241   116
34.0341   111
34.0441   109
34.0541    99
34.0641   118
34.0741   117
34.0841   141
34.0941   135
34.1041   116
34.1141   115
34.1241   100
34.1341   107
34.1441   113
34.1541    99
34.1641   115
34.1741   119
34.1841   110
34.1941   105
34.2041    99
34.2141   106
34.2241   121
34.2341   125
34.2441    90
34.2541   128
34.2641   118
34.2741   126
34.2841   127
34.2941   101
34.3041   119
34.3141   128
34.3241   118
34.3341   105
34.3441   101
34.3541    99
34.3641   127
34.3741   132
34.3841   104
34.3941   107
34.4041    98
34.4141   120
34.4241   102
34.4341   103
34.4441   111
34.4541   103
34.4641   112
34.4741   113
34.4841    96
34.4941   109
34.5041   116
34.5141   100
34.5241   116
34.5341    91
34.5441   114
34.5541   120
34.5641   112
34.5741   114
34.5841   109
34.5941   118
34.6041   111
34.6141   120
34.6241   103
34.6341   120
34.6441   123
34.6541    99
34.6641   120
34.6741   103
34.6841    87
34.6941   119
34.7041   115
34.7141   101
34.7241    94
34.7341   106
34.7441   110
34.7541   108
34.7641    91
34.7741    93
34.7841    87
34.7941   104
34.8041    98
34.8141   104
34.8241    72
34.8341   116
34.8441   121
34.8541    92
34.8641    99
34.8741    97
34.8841    96
34.8941    82
34.9041   119
34.9141    83
34.9241    93
34.9341   110
34.9441    92
34.9541   100
34.9641    96
34.9741   105
34.9841   106
34.9941   102
35.0041    99
35.0141    82
35.0241    99
35.0341    84
35.0441   100
35.0541    85
35.0641   118
35.0741    95
35.0841    73
35.0941    94
35.1041   101
35.1141    98
35.1241   106
35.1341    83
35.1441   105
35.1541    93
35.1641   103
35.1741    91
35.1841   106
35.1941    77
35.2041    94
35.2141   100
35.2241    99
35.2341    82
35.2441    87
35.2541    86
35.2641    85
35.2741    97
35.2841    87
35.2941    87
35.3041    95
35.3141    91
35.3241    89
35.3341    86
35.3441    74
35.3541    87
35.3641    83
35.3741    98
35.3841    81
35.3941    80
35.4041    84
35.4141   108
35.4241    82
35.4341    86
35.4441    84
35.4541    79
35.4641    97
35.4741    81
35.4841   107
35.4941    79
35.5041    99
35.5141    83
35.5241    88
35.5341    87
35.5441    73
35.5541    87
35.5641    89
35.5741    82
35.5841    91
35.5941    87
35.6041   107
35.6141    76
35.6241   113
35.6341    82
35.6441   100
35.6541    96
35.6641    75
35.6741    89
35.6841    86
35.6941    94
35.7041    83
35.7141    88
35.7241    76
35.7341    88
35.7441    87
35.7541    89
35.7641    75
35.7741    88
35.7841    81
35.7941    80
35.8041    59
35.8141    69
35.8241    85
35.8341   101
35.8441   102
35.8541    79
35.8641    66
35.8741    93
35.8841    70
35.8941    92
35.9041    75
35.9141    80
35.9241    80
35.9341    84
35.9441    74
35.9541    90
35.9641    85
35.9741    94
35.9841   104
35.9941    83
36.0041    68
36.0141    71
36.0241    80
36.0341    65
36.0441    86
36.0541    74
36.0641    75
36.0741    68
36.0841    81
36.0941    82
36.1041    86
36.1141    72
36.1241    84
36.1341    89
36.1441    89
36.1541    63
36.1641    59
36.1741    87
36.1841    73
36.1941    67
36.2041    83
36.2141   100
36.2241    71
36.2341    82
36.2441    83
36.2541    80
36.2641    74
36.2741    73
36.2841    82
36.2941    76
36.3041    85
36.3141    84
36.3241    79
36.3341    82
36.3441    64
36.3541    65
36.3641    69
36.3741    79
36.3841    76
36.3941    79
36.4041    79
36.4141    70
36.4241    70
36.4341    70
36.4441    60
36.4541    82
36.4641    66
36.4741    71
36.4841    66
36.4941    58
36.5041    82
36.5141    76
36.5241    63
36.5341    67
36.5441    89
36.5541    73
36.5641    67
36.5741    60
36.5841    71
36.5941    77
36.6041    71
36.6141    78
36.6241    63
36.6341    72
36.6441    69
36.6541    58
36.6641    61
36.6741    75
36.6841    66
36.6941    61
36.7041    65
36.7141    56
36.7241    67
36.7341    67
36.7441    62
36.7541    61
36.7641    68
36.7741    75
36.7841    71
36.7941    62
36.8041    66
36.8141    76
36.8241    78
36.8341    62
36.8441    65
36.8541    65
36.8641    70
36.8741    76
36.8841    84
36.8941    55
36.9041    90
36.9141    73
36.9241    68
36.9341    70
36.9441    58
36.9541    66
36.9641    58
36.9741    57
36.9841    60
36.9941    76
37.0041    67
37.0141    75
37.0241    58
37.0341    62
37.0441    51
37.0541    51
37.0641    42
37.0741    68
37.0841    60
37.0941    42
37.1041    60
37.1141    56
37.1241    59
37.1341    68
37.1441    61
37.1541    71
37.1641    73
37.1741    72
37.1841    45
37.1941    66
37.2041    55
37.2141    57
37.2241    55
37.2341    49
37.2441    61
37.2541    56
37.2641    58
37.2741    49
37.2841    52
37.2941    50
37.3041    67
37.3141    52
37.3241    62
37.3341    73
37.3441    56
37.3541    59
37.3641    52
37.3741    55
37.3841    44
37.3941    51
37.4041    50
37.4141    55
37.4241    55
37.4341    56
37.4441    48
37.4541    52
37.4641    54
37.4741    68
37.4841    55
37.4941    47
37.5041    54
37.5141    46
37.5241    52
37.5341    56
37.5441    62
37.5541    58
37.5641    54
37.5741    62
37.5841    50
37.5941    49
37.6041    42
37.6141    48
37.6241    55
37.6341    52
37.6441    53
37.6541    55
37.6641    46
37.6741    56
37.6841    44
37.6941    52
37.7041    43
37.7141    41
37.7241    47
37.7341    64
37.7441    49
37.7541    48
37.7641    50
37.7741    41
37.7841    42
37.7941    43
37.8041    64
37.8141    52
37.8241    45
37.8341    58
37.8441    52
37.8541    55
37.8641    55
37.8741    44
37.8841    44
37.8941    55
37.9041    43
37.9141    38
37.9241    53
37.9341    49
37.9441    46
37.9541    39
37.9641    52
37.9741    39
37.9841    42
37.9941    64
38.0041    59
38.0141    45
38.0241    45
38.0341    47
38.0441    49
38.0541    49
38.0641    47
38.0741    41
38.0841    45
38.0941    47
38.1041    40
38.1141    42
38.1241    39
38.1341    43
38.1441    44
38.1541    41
38.1641    41
38.1741    43
38.1841    51
38.1941    37
38.2041    43
38.2141    46
38.2241    54
38.2341    46
38.2441    48
38.2541    45
38.2641    50
38.2741    49
38.2841    43
38.2941    42
38.3041    38
38.3141    38
38.3241    42
38.3341    49
38.3441    28
38.3541    52
38.3641    34
38.3741    52
38.3841    41
38.3941    44
38.4041    42
38.4141    44
38.4241    47
38.4341    48
38.4441    38
38.4541    38
38.4641    53
38.4741    40
38.4841    35
38.4941    46
38.5041    47
38.5141    32
38.5241    35
38.5341    27
38.5441    37
38.5541    41
38.5641    41
38.5741    36
38.5841    42
38.5941    38
38.6041    32
38.6141    39
38.6241    36
38.6341    48
38.6441    31
38.6541    40
38.6641    43
38.6741    33
38.6841    41
38.6941    41
38.7041    33
38.7141    38
38.7241    39
38.7341    32
38.7441    41
38.7541    28
38.7641    32
38.7741    28
38.7841    42
38.7941    36
38.8041    32
38.8141    40
38.8241    35
38.8341    37
38.8441    33
38.8541    27
38.8641    33
38.8741    37
38.8841    34
38.8941    26
38.9041    35
38.9141    22
38.9241    30
38.9341    36
38.9441    35
38.9541    35
38.9641    33
38.9741    40
38.9841    45
38.9941    35
39.0041    27
39.0141    36
39.0241    38
39.0341    30
39.0441    37
39.0541    34
39.0641    38
39.0741    35
39.0841    32
39.0941    39
39.1041    35
39.1141    41
39.1241    34
39.1341    36
39.1441    35
39.1541    32
39.1641    40
39.1741    39
39.1841    33
39.1941    30
39.2041    36
39.2141    24
39.2241    39
39.2341    29
39.2441    26
39.2541    41
39.2641    39
39.2741    34
39.2841    16
39.2941    29
39.3041    40
39.3141    34
39.3241    20
39.3341    26
39.3441    26
39.3541    29
39.3641    31
39.3741    26
39.3841    27
39.3941    31
39.4041    22
39.4141    34
39.4241    38
39.4341    33
39.4441    28
39.4541    28
39.4641    33
39.4741    25
39.4841    29
39.4941    32
39.5041    22
39.5141    36
39.5241    20
39.5341    29
39.5441    25
39.5541    34
39.5641    32
39.5741    37
39.5841    33
39.5941    24
39.6041    22
39.6141    39
39.6241    28
39.6341    21
39.6441    26
39.6541    22
39.6641    29
39.6741    17
39.6841    14
39.6941    23
39.7041    25
39.7141    27
39.7241    23
39.7341    28
39.7441    27
39.7541    26
39.7641    19
39.7741    37
39.7841    20
39.7941    21
39.8041    25
39.8141    29
39.8241    38
39.8341    27
39.8441    29
39.8541    22
39.8641    38
39.8741    29
39.8841    21
39.8941    21
39.9041    27
39.9141    21
39.9241    27
39.9341    24
39.9441    16
39.9541    30
39.9641    16
39.9741    22
39.9841    26
