Bruker Nano GmbH Berlin, Germany
Esprit 1.9

Date: 4/21/2021 2:22:37 PM
Real time: 15297
Life time: 14102
Pulse density: 117560


Detector type: XFlash 430
Window type: Custom type
Detector thickness: 0.45
Si dead layer:0.029

Calibration, lin.: 10
Calibration, abs.: -955.9
Mn FWHM: 137.05
Fano factor: 0.121
Channels: 4095

Energy Counts
-0.9559     0
-0.9459     0
-0.9359     0
-0.9259     0
-0.9159     0
-0.9059     0
-0.8959     0
-0.8859     0
-0.8759     0
-0.8659     0
-0.8559     0
-0.8459     0
-0.8359     0
-0.8259     0
-0.8159     0
-0.8059     0
-0.7959     0
-0.7859     0
-0.7759     0
-0.7659     0
-0.7559     0
-0.7459     0
-0.7359     0
-0.7259     0
-0.7159     0
-0.7059     0
-0.6959     0
-0.6859     0
-0.6759     0
-0.6659     0
-0.6559     0
-0.6459     0
-0.6359     0
-0.6259     0
-0.6159     0
-0.6059     0
-0.5959     0
-0.5859     0
-0.5759     0
-0.5659     0
-0.5559     0
-0.5459     0
-0.5359     0
-0.5259     0
-0.5159     0
-0.5059     0
-0.4959     0
-0.4859     0
-0.4759     0
-0.4659     0
-0.4559     0
-0.4459     0
-0.4359     0
-0.4259     0
-0.4159     0
-0.4059     0
-0.3959     0
-0.3859     0
-0.3759     0
-0.3659     0
-0.3559     0
-0.3459     0
-0.3359     0
-0.3259     0
-0.3159     0
-0.3059     0
-0.2959     0
-0.2859     0
-0.2759     0
-0.2659     0
-0.2559     0
-0.2459     0
-0.2359     0
-0.2259     0
-0.2159     0
-0.2059     0
-0.1959     0
-0.1859     0
-0.1759     0
-0.1659     0
-0.1559     0
-0.1459     1
-0.1359     0
-0.1259     0
-0.1159     4
-0.1059    12
-0.0959    35
-0.0859   147
-0.0759   560
-0.0659  1626
-0.0559  3981
-0.0459  9259
-0.0359 16844
-0.0259 27022
-0.0159 36554
-0.0059 42998
 0.0041 43649
 0.0141 37096
 0.0241 27943
 0.0341 17290
 0.0441  9499
 0.0541  4493
 0.0641  1748
 0.0741   596
 0.0841   168
 0.0941    66
 0.1041    17
 0.1141     8
 0.1241     8
 0.1341     0
 0.1441     7
 0.1541     1
 0.1641    11
 0.1741     9
 0.1841   121
 0.1941   258
 0.2041   260
 0.2141   224
 0.2241   236
 0.2341   256
 0.2441   235
 0.2541   235
 0.2641   239
 0.2741   235
 0.2841   257
 0.2941   238
 0.3041   242
 0.3141   234
 0.3241   234
 0.3341   237
 0.3441   224
 0.3541   219
 0.3641   217
 0.3741   215
 0.3841   233
 0.3941   219
 0.4041   229
 0.4141   231
 0.4241   216
 0.4341   211
 0.4441   197
 0.4541   207
 0.4641   202
 0.4741   207
 0.4841   211
 0.4941   207
 0.5041   206
 0.5141   197
 0.5241   207
 0.5341   202
 0.5441   207
 0.5541   207
 0.5641   197
 0.5741   205
 0.5841   202
 0.5941   218
 0.6041   192
 0.6141   183
 0.6241   194
 0.6341   192
 0.6441   184
 0.6541   192
 0.6641   201
 0.6741   183
 0.6841   184
 0.6941   185
 0.7041   193
 0.7141   195
 0.7241   174
 0.7341   171
 0.7441   168
 0.7541   180
 0.7641   180
 0.7741   167
 0.7841   160
 0.7941   161
 0.8041   174
 0.8141   179
 0.8241   175
 0.8341   176
 0.8441   179
 0.8541   175
 0.8641   183
 0.8741   172
 0.8841   162
 0.8941   170
 0.9041   158
 0.9141   162
 0.9241   141
 0.9341   153
 0.9441   151
 0.9541   155
 0.9641   172
 0.9741   150
 0.9841   162
 0.9941   170
 1.0041   190
 1.0141   183
 1.0241   163
 1.0341   148
 1.0441   156
 1.0541   129
 1.0641   167
 1.0741   183
 1.0841   145
 1.0941   161
 1.1041   155
 1.1141   151
 1.1241   161
 1.1341   131
 1.1441   138
 1.1541   156
 1.1641   132
 1.1741   132
 1.1841   155
 1.1941   153
 1.2041   155
 1.2141   162
 1.2241   149
 1.2341   151
 1.2441   157
 1.2541   143
 1.2641   151
 1.2741   146
 1.2841   134
 1.2941   136
 1.3041   131
 1.3141   155
 1.3241   131
 1.3341   133
 1.3441   144
 1.3541   153
 1.3641   140
 1.3741   136
 1.3841   150
 1.3941   145
 1.4041   142
 1.4141   137
 1.4241   134
 1.4341   137
 1.4441   144
 1.4541   151
 1.4641   144
 1.4741   152
 1.4841   141
 1.4941   140
 1.5041   143
 1.5141   128
 1.5241   144
 1.5341   142
 1.5441   160
 1.5541   140
 1.5641   145
 1.5741   130
 1.5841   132
 1.5941   125
 1.6041   119
 1.6141   141
 1.6241   132
 1.6341   126
 1.6441   156
 1.6541   178
 1.6641   219
 1.6741   234
 1.6841   276
 1.6941   338
 1.7041   391
 1.7141   482
 1.7241   521
 1.7341   581
 1.7441   599
 1.7541   557
 1.7641   476
 1.7741   416
 1.7841   347
 1.7941   296
 1.8041   248
 1.8141   230
 1.8241   204
 1.8341   183
 1.8441   165
 1.8541   169
 1.8641   151
 1.8741   151
 1.8841   167
 1.8941   120
 1.9041   170
 1.9141   161
 1.9241   136
 1.9341   147
 1.9441   153
 1.9541   164
 1.9641   152
 1.9741   140
 1.9841   146
 1.9941   182
 2.0041   179
 2.0141   162
 2.0241   180
 2.0341   155
 2.0441   144
 2.0541   172
 2.0641   169
 2.0741   131
 2.0841   115
 2.0941   122
 2.1041   152
 2.1141   140
 2.1241   118
 2.1341   142
 2.1441   125
 2.1541   124
 2.1641   131
 2.1741   135
 2.1841   120
 2.1941   112
 2.2041   126
 2.2141   107
 2.2241   120
 2.2341   110
 2.2441   124
 2.2541   127
 2.2641   133
 2.2741   119
 2.2841   113
 2.2941   114
 2.3041   124
 2.3141   133
 2.3241   120
 2.3341   107
 2.3441   114
 2.3541    92
 2.3641   108
 2.3741   109
 2.3841   120
 2.3941   124
 2.4041   127
 2.4141   122
 2.4241   107
 2.4341   108
 2.4441   115
 2.4541    96
 2.4641   108
 2.4741   107
 2.4841   106
 2.4941   109
 2.5041   112
 2.5141   118
 2.5241   125
 2.5341   109
 2.5441   117
 2.5541   117
 2.5641   114
 2.5741    97
 2.5841    92
 2.5941   116
 2.6041   124
 2.6141   101
 2.6241   126
 2.6341   126
 2.6441   113
 2.6541   105
 2.6641   107
 2.6741   127
 2.6841   114
 2.6941    94
 2.7041   113
 2.7141    94
 2.7241   100
 2.7341   113
 2.7441   100
 2.7541   123
 2.7641   103
 2.7741   113
 2.7841   112
 2.7941   126
 2.8041   105
 2.8141   127
 2.8241   131
 2.8341   110
 2.8441   102
 2.8541   137
 2.8641   104
 2.8741   115
 2.8841   106
 2.8941    93
 2.9041   102
 2.9141   120
 2.9241   116
 2.9341    94
 2.9441    97
 2.9541    94
 2.9641   104
 2.9741   113
 2.9841   105
 2.9941    93
 3.0041    95
 3.0141   109
 3.0241    89
 3.0341    99
 3.0441   110
 3.0541    91
 3.0641    94
 3.0741    96
 3.0841    78
 3.0941    88
 3.1041    85
 3.1141    81
 3.1241    90
 3.1341    98
 3.1441    93
 3.1541    92
 3.1641    95
 3.1741    84
 3.1841    82
 3.1941    98
 3.2041    97
 3.2141   112
 3.2241   109
 3.2341   104
 3.2441   125
 3.2541   148
 3.2641   148
 3.2741   170
 3.2841   194
 3.2941   192
 3.3041   232
 3.3141   179
 3.3241   216
 3.3341   216
 3.3441   184
 3.3541   188
 3.3641   139
 3.3741   117
 3.3841   110
 3.3941   111
 3.4041   108
 3.4141    91
 3.4241    92
 3.4341    85
 3.4441    83
 3.4541    84
 3.4641    70
 3.4741    98
 3.4841    91
 3.4941    80
 3.5041    94
 3.5141    96
 3.5241   112
 3.5341    93
 3.5441   110
 3.5541   127
 3.5641   131
 3.5741   149
 3.5841   183
 3.5941   223
 3.6041   297
 3.6141   368
 3.6241   414
 3.6341   538
 3.6441   661
 3.6541   735
 3.6641   811
 3.6741   870
 3.6841   919
 3.6941   920
 3.7041   871
 3.7141   793
 3.7241   707
 3.7341   655
 3.7441   543
 3.7541   380
 3.7641   324
 3.7741   279
 3.7841   225
 3.7941   157
 3.8041   126
 3.8141    93
 3.8241    95
 3.8341    80
 3.8441    81
 3.8541    81
 3.8641    76
 3.8741    67
 3.8841    66
 3.8941    76
 3.9041    86
 3.9141    96
 3.9241    84
 3.9341    96
 3.9441   102
 3.9541   124
 3.9641   141
 3.9741   137
 3.9841   149
 3.9941   160
 4.0041   173
 4.0141   195
 4.0241   172
 4.0341   158
 4.0441   129
 4.0541   153
 4.0641   127
 4.0741   118
 4.0841   121
 4.0941    84
 4.1041    78
 4.1141    83
 4.1241    80
 4.1341    63
 4.1441    76
 4.1541    73
 4.1641    74
 4.1741    69
 4.1841    79
 4.1941    63
 4.2041    68
 4.2141    53
 4.2241    72
 4.2341    56
 4.2441    55
 4.2541    58
 4.2641    74
 4.2741    60
 4.2841    76
 4.2941    73
 4.3041    67
 4.3141    71
 4.3241    65
 4.3341    61
 4.3441    65
 4.3541    74
 4.3641    83
 4.3741    91
 4.3841   109
 4.3941   116
 4.4041   139
 4.4141   155
 4.4241   221
 4.4341   245
 4.4441   288
 4.4541   333
 4.4641   413
 4.4741   459
 4.4841   482
 4.4941   506
 4.5041   561
 4.5141   512
 4.5241   505
 4.5341   440
 4.5441   453
 4.5541   358
 4.5641   331
 4.5741   269
 4.5841   202
 4.5941   184
 4.6041   137
 4.6141   147
 4.6241   120
 4.6341    99
 4.6441    98
 4.6541   120
 4.6641    85
 4.6741    95
 4.6841    70
 4.6941    93
 4.7041    78
 4.7141    75
 4.7241    74
 4.7341   103
 4.7441    79
 4.7541    75
 4.7641    81
 4.7741    74
 4.7841    94
 4.7941   101
 4.8041   120
 4.8141    97
 4.8241    97
 4.8341   127
 4.8441   108
 4.8541   139
 4.8641   134
 4.8741   154
 4.8841   143
 4.8941   162
 4.9041   169
 4.9141   190
 4.9241   172
 4.9341   167
 4.9441   184
 4.9541   195
 4.9641   161
 4.9741   154
 4.9841   140
 4.9941   149
 5.0041    96
 5.0141    98
 5.0241    94
 5.0341   107
 5.0441    81
 5.0541    76
 5.0641    85
 5.0741    77
 5.0841    83
 5.0941    87
 5.1041    69
 5.1141    73
 5.1241    74
 5.1341    77
 5.1441    71
 5.1541    83
 5.1641    74
 5.1741    83
 5.1841    87
 5.1941    85
 5.2041    85
 5.2141    94
 5.2241    88
 5.2341    87
 5.2441    69
 5.2541    79
 5.2641    74
 5.2741    84
 5.2841    79
 5.2941    83
 5.3041    82
 5.3141    85
 5.3241   103
 5.3341    96
 5.3441   100
 5.3541   111
 5.3641    96
 5.3741   109
 5.3841   115
 5.3941   112
 5.4041   144
 5.4141   138
 5.4241   112
 5.4341   126
 5.4441   116
 5.4541   106
 5.4641   115
 5.4741   122
 5.4841   102
 5.4941   109
 5.5041   102
 5.5141    90
 5.5241    97
 5.5341    87
 5.5441   101
 5.5541   107
 5.5641    98
 5.5741    81
 5.5841    87
 5.5941    98
 5.6041    80
 5.6141    92
 5.6241    72
 5.6341    79
 5.6441    72
 5.6541    85
 5.6641    75
 5.6741    85
 5.6841    82
 5.6941    84
 5.7041    85
 5.7141    94
 5.7241   112
 5.7341   113
 5.7441   106
 5.7541   107
 5.7641    98
 5.7741   155
 5.7841   190
 5.7941   222
 5.8041   229
 5.8141   262
 5.8241   312
 5.8341   337
 5.8441   360
 5.8541   421
 5.8641   440
 5.8741   500
 5.8841   505
 5.8941   467
 5.9041   503
 5.9141   452
 5.9241   471
 5.9341   432
 5.9441   405
 5.9541   350
 5.9641   296
 5.9741   260
 5.9841   231
 5.9941   188
 6.0041   175
 6.0141   146
 6.0241   120
 6.0341   128
 6.0441   135
 6.0541   147
 6.0641   134
 6.0741   126
 6.0841   131
 6.0941   140
 6.1041   147
 6.1141   129
 6.1241   141
 6.1341   148
 6.1441   166
 6.1541   189
 6.1641   232
 6.1741   260
 6.1841   280
 6.1941   343
 6.2041   448
 6.2141   584
 6.2241   733
 6.2341  1073
 6.2441  1534
 6.2541  2173
 6.2641  3033
 6.2741  4172
 6.2841  5532
 6.2941  7498
 6.3041  9735
 6.3141 12345
 6.3241 15681
 6.3341 18685
 6.3441 21718
 6.3541 24890
 6.3641 27832
 6.3741 29939
 6.3841 31460
 6.3941 32203
 6.4041 31996
 6.4141 31353
 6.4241 29605
 6.4341 27444
 6.4441 24403
 6.4541 21201
 6.4641 17745
 6.4741 14808
 6.4841 11818
 6.4941  9216
 6.5041  7081
 6.5141  5180
 6.5241  3742
 6.5341  2618
 6.5441  1866
 6.5541  1239
 6.5641   892
 6.5741   653
 6.5841   442
 6.5941   314
 6.6041   248
 6.6141   212
 6.6241   169
 6.6341   168
 6.6441   178
 6.6541   164
 6.6641   166
 6.6741   144
 6.6841   153
 6.6941   173
 6.7041   153
 6.7141   157
 6.7241   147
 6.7341   171
 6.7441   172
 6.7541   173
 6.7641   182
 6.7741   178
 6.7841   187
 6.7941   199
 6.8041   187
 6.8141   204
 6.8241   251
 6.8341   257
 6.8441   259
 6.8541   314
 6.8641   323
 6.8741   362
 6.8841   486
 6.8941   482
 6.9041   608
 6.9141   837
 6.9241   936
 6.9341  1257
 6.9441  1530
 6.9541  1930
 6.9641  2101
 6.9741  2619
 6.9841  3149
 6.9941  3635
 7.0041  4180
 7.0141  4568
 7.0241  4912
 7.0341  5261
 7.0441  5511
 7.0541  5511
 7.0641  5523
 7.0741  5220
 7.0841  5054
 7.0941  4545
 7.1041  4107
 7.1141  3482
 7.1241  3105
 7.1341  2645
 7.1441  1970
 7.1541  1708
 7.1641  1367
 7.1741  1058
 7.1841   815
 7.1941   606
 7.2041   467
 7.2141   387
 7.2241   308
 7.2341   235
 7.2441   223
 7.2541   172
 7.2641   198
 7.2741   175
 7.2841   171
 7.2941   179
 7.3041   191
 7.3141   188
 7.3241   180
 7.3341   197
 7.3441   205
 7.3541   202
 7.3641   214
 7.3741   199
 7.3841   219
 7.3941   228
 7.4041   244
 7.4141   244
 7.4241   242
 7.4341   239
 7.4441   249
 7.4541   259
 7.4641   216
 7.4741   228
 7.4841   207
 7.4941   210
 7.5041   219
 7.5141   184
 7.5241   191
 7.5341   203
 7.5441   182
 7.5541   195
 7.5641   177
 7.5741   157
 7.5841   157
 7.5941   179
 7.6041   158
 7.6141   156
 7.6241   162
 7.6341   165
 7.6441   140
 7.6541   145
 7.6641   161
 7.6741   176
 7.6841   150
 7.6941   149
 7.7041   190
 7.7141   155
 7.7241   182
 7.7341   164
 7.7441   166
 7.7541   174
 7.7641   195
 7.7741   171
 7.7841   184
 7.7941   185
 7.8041   192
 7.8141   186
 7.8241   212
 7.8341   200
 7.8441   185
 7.8541   209
 7.8641   223
 7.8741   237
 7.8841   211
 7.8941   246
 7.9041   248
 7.9141   267
 7.9241   297
 7.9341   281
 7.9441   306
 7.9541   356
 7.9641   361
 7.9741   427
 7.9841   445
 7.9941   435
 8.0041   512
 8.0141   469
 8.0241   533
 8.0341   578
 8.0441   643
 8.0541   649
 8.0641   636
 8.0741   736
 8.0841   792
 8.0941   800
 8.1041   832
 8.1141   941
 8.1241   922
 8.1341   975
 8.1441  1006
 8.1541   963
 8.1641  1009
 8.1741  1020
 8.1841  1007
 8.1941  1074
 8.2041  1075
 8.2141  1121
 8.2241  1097
 8.2341  1102
 8.2441  1186
 8.2541  1275
 8.2641  1253
 8.2741  1323
 8.2841  1410
 8.2941  1519
 8.3041  1570
 8.3141  1743
 8.3241  1932
 8.3341  1958
 8.3441  2144
 8.3541  2211
 8.3641  2356
 8.3741  2345
 8.3841  2441
 8.3941  2382
 8.4041  2377
 8.4141  2320
 8.4241  2142
 8.4341  2027
 8.4441  1857
 8.4541  1731
 8.4641  1558
 8.4741  1317
 8.4841  1132
 8.4941   936
 8.5041   796
 8.5141   729
 8.5241   581
 8.5341   493
 8.5441   480
 8.5541   431
 8.5641   374
 8.5741   364
 8.5841   362
 8.5941   363
 8.6041   338
 8.6141   358
 8.6241   341
 8.6341   327
 8.6441   364
 8.6541   333
 8.6641   344
 8.6741   343
 8.6841   316
 8.6941   299
 8.7041   272
 8.7141   279
 8.7241   257
 8.7341   266
 8.7441   268
 8.7541   248
 8.7641   266
 8.7741   250
 8.7841   211
 8.7941   240
 8.8041   241
 8.8141   245
 8.8241   264
 8.8341   250
 8.8441   223
 8.8541   227
 8.8641   230
 8.8741   234
 8.8841   258
 8.8941   244
 8.9041   223
 8.9141   243
 8.9241   233
 8.9341   221
 8.9441   249
 8.9541   271
 8.9641   267
 8.9741   272
 8.9841   259
 8.9941   255
 9.0041   269
 9.0141   241
 9.0241   277
 9.0341   291
 9.0441   322
 9.0541   322
 9.0641   312
 9.0741   296
 9.0841   337
 9.0941   364
 9.1041   376
 9.1141   357
 9.1241   396
 9.1341   422
 9.1441   439
 9.1541   422
 9.1641   469
 9.1741   476
 9.1841   499
 9.1941   537
 9.2041   561
 9.2141   553
 9.2241   590
 9.2341   610
 9.2441   675
 9.2541   691
 9.2641   691
 9.2741   709
 9.2841   757
 9.2941   805
 9.3041   843
 9.3141   870
 9.3241   928
 9.3341   874
 9.3441   939
 9.3541   973
 9.3641   960
 9.3741  1013
 9.3841  1077
 9.3941  1106
 9.4041  1039
 9.4141  1085
 9.4241  1062
 9.4341  1074
 9.4441  1121
 9.4541  1110
 9.4641  1095
 9.4741  1182
 9.4841  1196
 9.4941  1190
 9.5041  1227
 9.5141  1284
 9.5241  1332
 9.5341  1394
 9.5441  1445
 9.5541  1475
 9.5641  1595
 9.5741  1674
 9.5841  1814
 9.5941  1827
 9.6041  1930
 9.6141  2032
 9.6241  2079
 9.6341  2181
 9.6441  2248
 9.6541  2320
 9.6641  2365
 9.6741  2311
 9.6841  2302
 9.6941  2281
 9.7041  2138
 9.7141  1968
 9.7241  1884
 9.7341  1769
 9.7441  1640
 9.7541  1562
 9.7641  1439
 9.7741  1328
 9.7841  1231
 9.7941  1127
 9.8041  1053
 9.8141   977
 9.8241   975
 9.8341   924
 9.8441   907
 9.8541   912
 9.8641   925
 9.8741   891
 9.8841   911
 9.8941   952
 9.9041   986
 9.9141   970
 9.9241  1016
 9.9341   998
 9.9441  1024
 9.9541  1044
 9.9641   999
 9.9741   998
 9.9841   901
 9.9941   869
10.0041   851
10.0141   815
10.0241   741
10.0341   674
10.0441   595
10.0541   500
10.0641   470
10.0741   450
10.0841   398
10.0941   333
10.1041   309
10.1141   275
10.1241   268
10.1341   247
10.1441   254
10.1541   196
10.1641   191
10.1741   207
10.1841   203
10.1941   188
10.2041   185
10.2141   166
10.2241   172
10.2341   162
10.2441   158
10.2541   161
10.2641   151
10.2741   143
10.2841   143
10.2941   141
10.3041   131
10.3141   125
10.3241   134
10.3341   135
10.3441   129
10.3541   121
10.3641   132
10.3741   130
10.3841   131
10.3941   123
10.4041   132
10.4141   141
10.4241   151
10.4341   131
10.4441   133
10.4541   152
10.4641   152
10.4741   144
10.4841   151
10.4941   124
10.5041   145
10.5141   131
10.5241   136
10.5341   151
10.5441   151
10.5541   167
10.5641   162
10.5741   135
10.5841   146
10.5941   141
10.6041   137
10.6141   151
10.6241   149
10.6341   131
10.6441   161
10.6541   168
10.6641   163
10.6741   155
10.6841   169
10.6941   157
10.7041   165
10.7141   168
10.7241   164
10.7341   174
10.7441   179
10.7541   182
10.7641   174
10.7741   176
10.7841   194
10.7941   226
10.8041   204
10.8141   212
10.8241   208
10.8341   210
10.8441   200
10.8541   207
10.8641   221
10.8741   223
10.8841   216
10.8941   230
10.9041   235
10.9141   239
10.9241   250
10.9341   240
10.9441   251
10.9541   242
10.9641   213
10.9741   220
10.9841   246
10.9941   231
11.0041   227
11.0141   223
11.0241   204
11.0341   201
11.0441   201
11.0541   227
11.0641   210
11.0741   185
11.0841   202
11.0941   226
11.1041   222
11.1141   217
11.1241   216
11.1341   212
11.1441   226
11.1541   217
11.1641   214
11.1741   227
11.1841   246
11.1941   240
11.2041   254
11.2141   287
11.2241   312
11.2341   330
11.2441   323
11.2541   327
11.2641   320
11.2741   339
11.2841   340
11.2941   298
11.3041   307
11.3141   337
11.3241   317
11.3341   282
11.3441   292
11.3541   271
11.3641   249
11.3741   233
11.3841   221
11.3941   218
11.4041   219
11.4141   185
11.4241   181
11.4341   189
11.4441   168
11.4541   172
11.4641   161
11.4741   162
11.4841   174
11.4941   172
11.5041   156
11.5141   154
11.5241   177
11.5341   168
11.5441   157
11.5541   161
11.5641   161
11.5741   169
11.5841   181
11.5941   193
11.6041   174
11.6141   165
11.6241   182
11.6341   177
11.6441   190
11.6541   177
11.6641   180
11.6741   174
11.6841   168
11.6941   162
11.7041   167
11.7141   162
11.7241   148
11.7341   140
11.7441   134
11.7541   139
11.7641   147
11.7741   145
11.7841   131
11.7941   136
11.8041   138
11.8141   132
11.8241   122
11.8341   129
11.8441   144
11.8541   136
11.8641   124
11.8741   128
11.8841   129
11.8941   116
11.9041   121
11.9141   119
11.9241   126
11.9341   127
11.9441   125
11.9541   123
11.9641   119
11.9741   132
11.9841   136
11.9941   144
12.0041   137
12.0141   126
12.0241   125
12.0341   120
12.0441   122
12.0541   133
12.0641   126
12.0741   117
12.0841   120
12.0941   132
12.1041   120
12.1141   120
12.1241   128
12.1341   127
12.1441   118
12.1541   109
12.1641   102
12.1741   102
12.1841   108
12.1941   117
12.2041   129
12.2141   123
12.2241   113
12.2341   110
12.2441   132
12.2541   128
12.2641   123
12.2741   111
12.2841   116
12.2941   118
12.3041   115
12.3141   108
12.3241   111
12.3341   117
12.3441   124
12.3541   130
12.3641   119
12.3741   105
12.3841   119
12.3941   128
12.4041   126
12.4141   126
12.4241   108
12.4341   107
12.4441   110
12.4541   110
12.4641   116
12.4741   119
12.4841   125
12.4941   128
12.5041   135
12.5141   140
12.5241   137
12.5341   123
12.5441   123
12.5541   113
12.5641   125
12.5741   140
12.5841   146
12.5941   144
12.6041   134
12.6141   128
12.6241   135
12.6341   138
12.6441   132
12.6541   127
12.6641   122
12.6741   120
12.6841   125
12.6941   129
12.7041   130
12.7141   128
12.7241   126
12.7341   130
12.7441   135
12.7541   131
12.7641   125
12.7741   121
12.7841   122
12.7941   130
12.8041   136
12.8141   137
12.8241   137
12.8341   133
12.8441   125
12.8541   122
12.8641   127
12.8741   129
12.8841   124
12.8941   125
12.9041   132
12.9141   135
12.9241   137
12.9341   141
12.9441   143
12.9541   137
12.9641   132
12.9741   134
12.9841   133
12.9941   125
13.0041   122
13.0141   128
13.0241   131
13.0341   140
13.0441   154
13.0541   151
13.0641   143
13.0741   136
13.0841   126
13.0941   134
13.1041   145
13.1141   143
13.1241   147
13.1341   154
13.1441   156
13.1541   148
13.1641   151
13.1741   163
13.1841   146
13.1941   153
13.2041   182
13.2141   178
13.2241   158
13.2341   172
13.2441   170
13.2541   158
13.2641   185
13.2741   207
13.2841   200
13.2941   192
13.3041   198
13.3141   211
13.3241   222
13.3341   230
13.3441   237
13.3541   242
13.3641   245
13.3741   245
13.3841   238
13.3941   229
13.4041   227
13.4141   228
13.4241   228
13.4341   223
13.4441   213
13.4541   207
13.4641   207
13.4741   203
13.4841   195
13.4941   198
13.5041   205
13.5141   201
13.5241   182
13.5341   164
13.5441   159
13.5541   164
13.5641   165
13.5741   160
13.5841   156
13.5941   152
13.6041   153
13.6141   159
13.6241   161
13.6341   156
13.6441   144
13.6541   147
13.6641   151
13.6741   151
13.6841   156
13.6941   155
13.7041   150
13.7141   145
13.7241   142
13.7341   138
13.7441   154
13.7541   159
13.7641   147
13.7741   149
13.7841   170
13.7941   166
13.8041   149
13.8141   152
13.8241   156
13.8341   168
13.8441   168
13.8541   181
13.8641   186
13.8741   173
13.8841   174
13.8941   174
13.9041   173
13.9141   182
13.9241   189
13.9341   198
13.9441   214
13.9541   223
13.9641   231
13.9741   239
13.9841   250
13.9941   270
14.0041   294
14.0141   314
14.0241   328
14.0341   331
14.0441   338
14.0541   370
14.0641   405
14.0741   420
14.0841   433
14.0941   459
14.1041   489
14.1141   509
14.1241   521
14.1341   533
14.1441   537
14.1541   531
14.1641   526
14.1741   519
14.1841   501
14.1941   473
14.2041   448
14.2141   434
14.2241   422
14.2341   401
14.2441   373
14.2541   346
14.2641   331
14.2741   324
14.2841   305
14.2941   275
14.3041   251
14.3141   243
14.3241   242
14.3341   235
14.3441   219
14.3541   197
14.3641   190
14.3741   178
14.3841   158
14.3941   165
14.4041   188
14.4141   188
14.4241   177
14.4341   186
14.4441   196
14.4541   191
14.4641   191
14.4741   199
14.4841   195
14.4941   187
14.5041   186
14.5141   178
14.5241   184
14.5341   186
14.5441   180
14.5541   191
14.5641   198
14.5741   188
14.5841   190
14.5941   186
14.6041   178
14.6141   194
14.6241   189
14.6341   182
14.6441   186
14.6541   204
14.6641   206
14.6741   182
14.6841   189
14.6941   198
14.7041   186
14.7141   182
14.7241   203
14.7341   206
14.7441   198
14.7541   190
14.7641   184
14.7741   182
14.7841   195
14.7941   197
14.8041   205
14.8141   209
14.8241   224
14.8341   213
14.8441   222
14.8541   243
14.8641   237
14.8741   226
14.8841   228
14.8941   217
14.9041   216
14.9141   234
14.9241   236
14.9341   235
14.9441   233
14.9541   243
14.9641   236
14.9741   216
14.9841   233
14.9941   228
15.0041   203
15.0141   207
15.0241   222
15.0341   240
15.0441   243
15.0541   229
15.0641   223
15.0741   213
15.0841   213
15.0941   217
15.1041   213
15.1141   205
15.1241   197
15.1341   214
15.1441   208
15.1541   207
15.1641   211
15.1741   200
15.1841   212
15.1941   222
15.2041   204
15.2141   213
15.2241   224
15.2341   205
15.2441   207
15.2541   233
15.2641   238
15.2741   221
15.2841   202
15.2941   205
15.3041   217
15.3141   231
15.3241   209
15.3341   213
15.3441   221
15.3541   220
15.3641   237
15.3741   256
15.3841   258
15.3941   221
15.4041   208
15.4141   217
15.4241   227
15.4341   212
15.4441   218
15.4541   217
15.4641   216
15.4741   220
15.4841   223
15.4941   237
15.5041   229
15.5141   229
15.5241   224
15.5341   234
15.5441   252
15.5541   252
15.5641   266
15.5741   255
15.5841   266
15.5941   291
15.6041   284
15.6141   292
15.6241   303
15.6341   311
15.6441   327
15.6541   357
15.6641   351
15.6741   361
15.6841   368
15.6941   399
15.7041   400
15.7141   414
15.7241   426
15.7341   439
15.7441   439
15.7541   445
15.7641   436
15.7741   431
15.7841   458
15.7941   467
15.8041   437
15.8141   430
15.8241   411
15.8341   397
15.8441   404
15.8541   402
15.8641   398
15.8741   374
15.8841   376
15.8941   353
15.9041   336
15.9141   331
15.9241   340
15.9341   301
15.9441   287
15.9541   286
15.9641   296
15.9741   305
15.9841   277
15.9941   265
16.0041   274
16.0141   261
16.0241   265
16.0341   263
16.0441   257
16.0541   245
16.0641   252
16.0741   242
16.0841   252
16.0941   254
16.1041   270
16.1141   256
16.1241   261
16.1341   252
16.1441   249
16.1541   260
16.1641   265
16.1741   264
16.1841   271
16.1941   278
16.2041   263
16.2141   249
16.2241   230
16.2341   247
16.2441   278
16.2541   263
16.2641   244
16.2741   263
16.2841   272
16.2941   253
16.3041   271
16.3141   291
16.3241   263
16.3341   255
16.3441   242
16.3541   229
16.3641   245
16.3741   269
16.3841   270
16.3941   275
16.4041   276
16.4141   262
16.4241   265
16.4341   264
16.4441   255
16.4541   278
16.4641   296
16.4741   282
16.4841   275
16.4941   261
16.5041   270
16.5141   285
16.5241   271
16.5341   255
16.5441   271
16.5541   277
16.5641   271
16.5741   265
16.5841   275
16.5941   275
16.6041   285
16.6141   280
16.6241   268
16.6341   279
16.6441   300
16.6541   301
16.6641   281
16.6741   283
16.6841   293
16.6941   267
16.7041   281
16.7141   288
16.7241   288
16.7341   275
16.7441   257
16.7541   272
16.7641   286
16.7741   267
16.7841   272
16.7941   272
16.8041   273
16.8141   287
16.8241   308
16.8341   296
16.8441   292
16.8541   291
16.8641   299
16.8741   301
16.8841   288
16.8941   290
16.9041   275
16.9141   272
16.9241   302
16.9341   286
16.9441   280
16.9541   293
16.9641   305
16.9741   295
16.9841   283
16.9941   309
17.0041   279
17.0141   261
17.0241   293
17.0341   304
17.0441   300
17.0541   308
17.0641   301
17.0741   289
17.0841   290
17.0941   280
17.1041   303
17.1141   289
17.1241   284
17.1341   292
17.1441   280
17.1541   289
17.1641   312
17.1741   314
17.1841   308
17.1941   308
17.2041   324
17.2141   317
17.2241   283
17.2341   298
17.2441   301
17.2541   306
17.2641   317
17.2741   326
17.2841   307
17.2941   301
17.3041   314
17.3141   313
17.3241   313
17.3341   294
17.3441   315
17.3541   331
17.3641   320
17.3741   309
17.3841   302
17.3941   314
17.4041   315
17.4141   317
17.4241   302
17.4341   324
17.4441   328
17.4541   324
17.4641   322
17.4741   336
17.4841   318
17.4941   329
17.5041   324
17.5141   305
17.5241   312
17.5341   342
17.5441   321
17.5541   328
17.5641   325
17.5741   349
17.5841   357
17.5941   354
17.6041   363
17.6141   318
17.6241   318
17.6341   346
17.6441   355
17.6541   334
17.6641   335
17.6741   342
17.6841   320
17.6941   324
17.7041   349
17.7141   347
17.7241   344
17.7341   319
17.7441   337
17.7541   342
17.7641   329
17.7741   326
17.7841   327
17.7941   332
17.8041   325
17.8141   326
17.8241   341
17.8341   316
17.8441   328
17.8541   320
17.8641   338
17.8741   345
17.8841   360
17.8941   346
17.9041   332
17.9141   327
17.9241   336
17.9341   326
17.9441   342
17.9541   342
17.9641   339
17.9741   338
17.9841   325
17.9941   330
18.0041   332
18.0141   361
18.0241   340
18.0341   316
18.0441   336
18.0541   350
18.0641   341
18.0741   339
18.0841   348
18.0941   343
18.1041   355
18.1141   363
18.1241   338
18.1341   337
18.1441   343
18.1541   332
18.1641   315
18.1741   336
18.1841   360
18.1941   342
18.2041   354
18.2141   348
18.2241   364
18.2341   355
18.2441   351
18.2541   331
18.2641   345
18.2741   340
18.2841   331
18.2941   327
18.3041   347
18.3141   351
18.3241   351
18.3341   332
18.3441   342
18.3541   344
18.3641   322
18.3741   326
18.3841   325
18.3941   357
18.4041   370
18.4141   357
18.4241   353
18.4341   353
18.4441   370
18.4541   397
18.4641   373
18.4741   378
18.4841   369
18.4941   353
18.5041   353
18.5141   376
18.5241   345
18.5341   356
18.5441   369
18.5541   375
18.5641   354
18.5741   355
18.5841   396
18.5941   374
18.6041   374
18.6141   382
18.6241   377
18.6341   379
18.6441   384
18.6541   363
18.6641   361
18.6741   410
18.6841   377
18.6941   369
18.7041   361
18.7141   373
18.7241   373
18.7341   379
18.7441   386
18.7541   388
18.7641   382
18.7741   362
18.7841   362
18.7941   362
18.8041   350
18.8141   363
18.8241   393
18.8341   375
18.8441   342
18.8541   391
18.8641   360
18.8741   358
18.8841   374
18.8941   364
18.9041   351
18.9141   345
18.9241   379
18.9341   397
18.9441   397
18.9541   369
18.9641   365
18.9741   387
18.9841   383
18.9941   404
19.0041   377
19.0141   387
19.0241   391
19.0341   389
19.0441   378
19.0541   393
19.0641   380
19.0741   394
19.0841   403
19.0941   378
19.1041   383
19.1141   393
19.1241   346
19.1341   386
19.1441   392
19.1541   388
19.1641   377
19.1741   391
19.1841   402
19.1941   431
19.2041   394
19.2141   379
19.2241   383
19.2341   384
19.2441   395
19.2541   431
19.2641   409
19.2741   395
19.2841   416
19.2941   416
19.3041   387
19.3141   378
19.3241   403
19.3341   412
19.3441   390
19.3541   419
19.3641   400
19.3741   411
19.3841   395
19.3941   371
19.4041   412
19.4141   358
19.4241   427
19.4341   411
19.4441   368
19.4541   410
19.4641   400
19.4741   420
19.4841   403
19.4941   408
19.5041   418
19.5141   389
19.5241   405
19.5341   378
19.5441   381
19.5541   398
19.5641   375
19.5741   386
19.5841   409
19.5941   386
19.6041   401
19.6141   400
19.6241   393
19.6341   395
19.6441   371
19.6541   398
19.6641   364
19.6741   367
19.6841   399
19.6941   397
19.7041   413
19.7141   405
19.7241   403
19.7341   399
19.7441   381
19.7541   367
19.7641   398
19.7741   393
19.7841   416
19.7941   404
19.8041   431
19.8141   410
19.8241   396
19.8341   410
19.8441   436
19.8541   421
19.8641   443
19.8741   418
19.8841   388
19.8941   398
19.9041   392
19.9141   411
19.9241   378
19.9341   414
19.9441   409
19.9541   389
19.9641   398
19.9741   406
19.9841   447
19.9941   397
20.0041   399
20.0141   382
20.0241   374
20.0341   415
20.0441   404
20.0541   426
20.0641   433
20.0741   364
20.0841   402
20.0941   410
20.1041   412
20.1141   398
20.1241   382
20.1341   382
20.1441   410
20.1541   393
20.1641   434
20.1741   398
20.1841   414
20.1941   447
20.2041   424
20.2141   414
20.2241   414
20.2341   400
20.2441   405
20.2541   437
20.2641   398
20.2741   413
20.2841   448
20.2941   435
20.3041   398
20.3141   427
20.3241   453
20.3341   418
20.3441   417
20.3541   406
20.3641   437
20.3741   405
20.3841   405
20.3941   392
20.4041   447
20.4141   423
20.4241   402
20.4341   414
20.4441   401
20.4541   429
20.4641   422
20.4741   398
20.4841   423
20.4941   472
20.5041   464
20.5141   443
20.5241   402
20.5341   428
20.5441   430
20.5541   413
20.5641   409
20.5741   395
20.5841   439
20.5941   434
20.6041   404
20.6141   421
20.6241   418
20.6341   450
20.6441   415
20.6541   443
20.6641   418
20.6741   435
20.6841   411
20.6941   435
20.7041   444
20.7141   425
20.7241   422
20.7341   416
20.7441   422
20.7541   407
20.7641   404
20.7741   421
20.7841   461
20.7941   441
20.8041   447
20.8141   476
20.8241   469
20.8341   464
20.8441   456
20.8541   475
20.8641   480
20.8741   463
20.8841   482
20.8941   458
20.9041   457
20.9141   499
20.9241   504
20.9341   510
20.9441   506
20.9541   541
20.9641   529
20.9741   536
20.9841   569
20.9941   576
21.0041   560
21.0141   571
21.0241   597
21.0341   619
21.0441   612
21.0541   657
21.0641   639
21.0741   638
21.0841   658
21.0941   605
21.1041   691
21.1141   689
21.1241   672
21.1341   663
21.1441   651
21.1541   689
21.1641   658
21.1741   675
21.1841   678
21.1941   644
21.2041   594
21.2141   654
21.2241   614
21.2341   589
21.2441   599
21.2541   572
21.2641   616
21.2741   528
21.2841   527
21.2941   489
21.3041   550
21.3141   528
21.3241   505
21.3341   473
21.3441   483
21.3541   516
21.3641   458
21.3741   466
21.3841   487
21.3941   460
21.4041   477
21.4141   444
21.4241   453
21.4341   442
21.4441   438
21.4541   494
21.4641   452
21.4741   453
21.4841   444
21.4941   455
21.5041   456
21.5141   419
21.5241   423
21.5341   436
21.5441   424
21.5541   430
21.5641   434
21.5741   427
21.5841   448
21.5941   416
21.6041   456
21.6141   452
21.6241   436
21.6341   446
21.6441   449
21.6541   451
21.6641   464
21.6741   467
21.6841   453
21.6941   421
21.7041   441
21.7141   454
21.7241   444
21.7341   455
21.7441   423
21.7541   412
21.7641   392
21.7741   448
21.7841   467
21.7941   425
21.8041   455
21.8141   477
21.8241   428
21.8341   449
21.8441   402
21.8541   417
21.8641   440
21.8741   443
21.8841   409
21.8941   481
21.9041   444
21.9141   439
21.9241   456
21.9341   459
21.9441   427
21.9541   443
21.9641   422
21.9741   447
21.9841   437
21.9941   455
22.0041   405
22.0141   430
22.0241   425
22.0341   452
22.0441   439
22.0541   443
22.0641   435
22.0741   413
22.0841   422
22.0941   446
22.1041   450
22.1141   453
22.1241   374
22.1341   441
22.1441   469
22.1541   437
22.1641   477
22.1741   429
22.1841   449
22.1941   434
22.2041   445
22.2141   452
22.2241   443
22.2341   417
22.2441   443
22.2541   432
22.2641   426
22.2741   424
22.2841   466
22.2941   435
22.3041   446
22.3141   439
22.3241   456
22.3341   446
22.3441   439
22.3541   437
22.3641   441
22.3741   406
22.3841   420
22.3941   457
22.4041   420
22.4141   410
22.4241   427
22.4341   423
22.4441   449
22.4541   466
22.4641   458
22.4741   392
22.4841   451
22.4941   425
22.5041   420
22.5141   452
22.5241   404
22.5341   412
22.5441   438
22.5541   436
22.5641   466
22.5741   409
22.5841   436
22.5941   388
22.6041   403
22.6141   461
22.6241   420
22.6341   427
22.6441   436
22.6541   387
22.6641   428
22.6741   465
22.6841   400
22.6941   452
22.7041   452
22.7141   448
22.7241   449
22.7341   447
22.7441   409
22.7541   431
22.7641   427
22.7741   418
22.7841   427
22.7941   429
22.8041   450
22.8141   422
22.8241   516
22.8341   435
22.8441   471
22.8541   460
22.8641   425
22.8741   418
22.8841   406
22.8941   429
22.9041   454
22.9141   419
22.9241   461
22.9341   410
22.9441   455
22.9541   426
22.9641   426
22.9741   403
22.9841   471
22.9941   455
23.0041   428
23.0141   447
23.0241   406
23.0341   416
23.0441   392
23.0541   442
23.0641   438
23.0741   434
23.0841   450
23.0941   440
23.1041   466
23.1141   432
23.1241   438
23.1341   402
23.1441   424
23.1541   424
23.1641   455
23.1741   392
23.1841   448
23.1941   446
23.2041   410
23.2141   409
23.2241   451
23.2341   420
23.2441   461
23.2541   433
23.2641   421
23.2741   409
23.2841   396
23.2941   425
23.3041   419
23.3141   448
23.3241   410
23.3341   371
23.3441   446
23.3541   422
23.3641   476
23.3741   371
23.3841   402
23.3941   437
23.4041   420
23.4141   465
23.4241   433
23.4341   408
23.4441   427
23.4541   421
23.4641   429
23.4741   455
23.4841   432
23.4941   439
23.5041   430
23.5141   435
23.5241   414
23.5341   412
23.5441   418
23.5541   449
23.5641   441
23.5741   432
23.5841   438
23.5941   429
23.6041   470
23.6141   446
23.6241   407
23.6341   404
23.6441   460
23.6541   454
23.6641   457
23.6741   439
23.6841   426
23.6941   452
23.7041   450
23.7141   459
23.7241   464
23.7341   445
23.7441   483
23.7541   461
23.7641   484
23.7741   447
23.7841   443
23.7941   473
23.8041   482
23.8141   468
23.8241   456
23.8341   446
23.8441   489
23.8541   470
23.8641   467
23.8741   454
23.8841   427
23.8941   449
23.9041   459
23.9141   449
23.9241   433
23.9341   417
23.9441   427
23.9541   391
23.9641   425
23.9741   460
23.9841   409
23.9941   446
24.0041   394
24.0141   431
24.0241   464
24.0341   452
24.0441   400
24.0541   444
24.0641   428
24.0741   440
24.0841   393
24.0941   431
24.1041   383
24.1141   390
24.1241   362
24.1341   400
24.1441   428
24.1541   432
24.1641   422
24.1741   411
24.1841   420
24.1941   447
24.2041   403
24.2141   406
24.2241   425
24.2341   401
24.2441   444
24.2541   423
24.2641   411
24.2741   384
24.2841   393
24.2941   394
24.3041   436
24.3141   399
24.3241   400
24.3341   415
24.3441   432
24.3541   451
24.3641   426
24.3741   425
24.3841   399
24.3941   413
24.4041   417
24.4141   416
24.4241   421
24.4341   394
24.4441   395
24.4541   398
24.4641   392
24.4741   391
24.4841   452
24.4941   400
24.5041   409
24.5141   400
24.5241   366
24.5341   422
24.5441   415
24.5541   354
24.5641   391
24.5741   410
24.5841   446
24.5941   372
24.6041   396
24.6141   389
24.6241   404
24.6341   398
24.6441   381
24.6541   386
24.6641   352
24.6741   432
24.6841   417
24.6941   410
24.7041   401
24.7141   399
24.7241   412
24.7341   415
24.7441   403
24.7541   412
24.7641   395
24.7741   421
24.7841   385
24.7941   437
24.8041   399
24.8141   405
24.8241   380
24.8341   382
24.8441   394
24.8541   423
24.8641   389
24.8741   423
24.8841   367
24.8941   418
24.9041   406
24.9141   382
24.9241   410
24.9341   430
24.9441   377
24.9541   367
24.9641   396
24.9741   395
24.9841   430
24.9941   401
25.0041   406
25.0141   422
25.0241   408
25.0341   384
25.0441   382
25.0541   411
25.0641   396
25.0741   398
25.0841   420
25.0941   433
25.1041   424
25.1141   396
25.1241   424
25.1341   402
25.1441   413
25.1541   392
25.1641   368
25.1741   384
25.1841   401
25.1941   368
25.2041   405
25.2141   417
25.2241   392
25.2341   420
25.2441   412
25.2541   401
25.2641   427
25.2741   387
25.2841   412
25.2941   384
25.3041   405
25.3141   358
25.3241   388
25.3341   401
25.3441   384
25.3541   395
25.3641   356
25.3741   404
25.3841   411
25.3941   397
25.4041   379
25.4141   373
25.4241   407
25.4341   391
25.4441   389
25.4541   381
25.4641   405
25.4741   376
25.4841   367
25.4941   440
25.5041   363
25.5141   356
25.5241   379
25.5341   368
25.5441   379
25.5541   393
25.5641   365
25.5741   408
25.5841   369
25.5941   367
25.6041   387
25.6141   369
25.6241   339
25.6341   377
25.6441   371
25.6541   400
25.6641   403
25.6741   371
25.6841   355
25.6941   379
25.7041   339
25.7141   372
25.7241   354
25.7341   367
25.7441   363
25.7541   361
25.7641   360
25.7741   363
25.7841   371
25.7941   360
25.8041   342
25.8141   339
25.8241   371
25.8341   376
25.8441   383
25.8541   349
25.8641   356
25.8741   377
25.8841   363
25.8941   339
25.9041   344
25.9141   335
25.9241   372
25.9341   367
25.9441   362
25.9541   379
25.9641   357
25.9741   366
25.9841   364
25.9941   357
26.0041   346
26.0141   356
26.0241   380
26.0341   373
26.0441   343
26.0541   347
26.0641   355
26.0741   353
26.0841   335
26.0941   365
26.1041   358
26.1141   362
26.1241   339
26.1341   366
26.1441   356
26.1541   317
26.1641   356
26.1741   347
26.1841   386
26.1941   364
26.2041   374
26.2141   359
26.2241   363
26.2341   358
26.2441   369
26.2541   357
26.2641   350
26.2741   334
26.2841   360
26.2941   367
26.3041   343
26.3141   360
26.3241   352
26.3341   345
26.3441   333
26.3541   307
26.3641   344
26.3741   333
26.3841   351
26.3941   374
26.4041   374
26.4141   372
26.4241   380
26.4341   346
26.4441   354
26.4541   365
26.4641   356
26.4741   325
26.4841   360
26.4941   360
26.5041   336
26.5141   356
26.5241   346
26.5341   360
26.5441   288
26.5541   352
26.5641   357
26.5741   361
26.5841   315
26.5941   358
26.6041   310
26.6141   303
26.6241   322
26.6341   326
26.6441   351
26.6541   343
26.6641   336
26.6741   369
26.6841   327
26.6941   329
26.7041   362
26.7141   361
26.7241   348
26.7341   337
26.7441   328
26.7541   334
26.7641   326
26.7741   323
26.7841   365
26.7941   332
26.8041   342
26.8141   319
26.8241   331
26.8341   326
26.8441   349
26.8541   332
26.8641   344
26.8741   332
26.8841   355
26.8941   338
26.9041   337
26.9141   311
26.9241   323
26.9341   356
26.9441   337
26.9541   333
26.9641   327
26.9741   343
26.9841   334
26.9941   313
27.0041   336
27.0141   327
27.0241   322
27.0341   315
27.0441   323
27.0541   319
27.0641   340
27.0741   328
27.0841   326
27.0941   304
27.1041   304
27.1141   313
27.1241   311
27.1341   324
27.1441   353
27.1541   318
27.1641   313
27.1741   373
27.1841   341
27.1941   333
27.2041   354
27.2141   319
27.2241   317
27.2341   334
27.2441   338
27.2541   322
27.2641   311
27.2741   320
27.2841   334
27.2941   338
27.3041   311
27.3141   328
27.3241   346
27.3341   325
27.3441   316
27.3541   307
27.3641   329
27.3741   325
27.3841   333
27.3941   339
27.4041   334
27.4141   325
27.4241   300
27.4341   332
27.4441   314
27.4541   329
27.4641   315
27.4741   320
27.4841   326
27.4941   318
27.5041   303
27.5141   330
27.5241   323
27.5341   286
27.5441   322
27.5541   310
27.5641   298
27.5741   318
27.5841   322
27.5941   325
27.6041   325
27.6141   297
27.6241   267
27.6341   326
27.6441   287
27.6541   310
27.6641   317
27.6741   286
27.6841   298
27.6941   311
27.7041   294
27.7141   332
27.7241   298
27.7341   315
27.7441   299
27.7541   307
27.7641   295
27.7741   305
27.7841   310
27.7941   296
27.8041   266
27.8141   277
27.8241   303
27.8341   274
27.8441   301
27.8541   333
27.8641   287
27.8741   298
27.8841   321
27.8941   275
27.9041   293
27.9141   302
27.9241   306
27.9341   288
27.9441   294
27.9541   294
27.9641   300
27.9741   316
27.9841   303
27.9941   290
28.0041   280
28.0141   307
28.0241   290
28.0341   294
28.0441   306
28.0541   280
28.0641   318
28.0741   302
28.0841   295
28.0941   318
28.1041   322
28.1141   280
28.1241   269
28.1341   276
28.1441   271
28.1541   311
28.1641   274
28.1741   283
28.1841   280
28.1941   280
28.2041   259
28.2141   297
28.2241   297
28.2341   288
28.2441   276
28.2541   304
28.2641   296
28.2741   296
28.2841   285
28.2941   304
28.3041   287
28.3141   274
28.3241   302
28.3341   317
28.3441   271
28.3541   286
28.3641   290
28.3741   296
28.3841   279
28.3941   278
28.4041   272
28.4141   266
28.4241   273
28.4341   292
28.4441   329
28.4541   267
28.4641   281
28.4741   292
28.4841   314
28.4941   287
28.5041   279
28.5141   299
28.5241   301
28.5341   287
28.5441   270
28.5541   289
28.5641   294
28.5741   284
28.5841   272
28.5941   285
28.6041   280
28.6141   288
28.6241   288
28.6341   267
28.6441   284
28.6541   288
28.6641   303
28.6741   272
28.6841   298
28.6941   287
28.7041   277
28.7141   261
28.7241   263
28.7341   254
28.7441   275
28.7541   282
28.7641   276
28.7741   278
28.7841   274
28.7941   244
28.8041   258
28.8141   236
28.8241   257
28.8341   250
28.8441   284
28.8541   270
28.8641   257
28.8741   290
28.8841   253
28.8941   261
28.9041   271
28.9141   250
28.9241   264
28.9341   263
28.9441   286
28.9541   241
28.9641   268
28.9741   259
28.9841   263
28.9941   264
29.0041   267
29.0141   283
29.0241   286
29.0341   262
29.0441   239
29.0541   250
29.0641   256
29.0741   267
29.0841   241
29.0941   258
29.1041   251
29.1141   261
29.1241   272
29.1341   271
29.1441   268
29.1541   232
29.1641   228
29.1741   231
29.1841   257
29.1941   261
29.2041   248
29.2141   257
29.2241   253
29.2341   276
29.2441   264
29.2541   226
29.2641   242
29.2741   255
29.2841   248
29.2941   236
29.3041   277
29.3141   274
29.3241   263
29.3341   266
29.3441   286
29.3541   256
29.3641   255
29.3741   227
29.3841   248
29.3941   240
29.4041   248
29.4141   212
29.4241   244
29.4341   219
29.4441   223
29.4541   251
29.4641   238
29.4741   257
29.4841   283
29.4941   245
29.5041   243
29.5141   246
29.5241   250
29.5341   244
29.5441   246
29.5541   227
29.5641   256
29.5741   233
29.5841   212
29.5941   247
29.6041   239
29.6141   243
29.6241   224
29.6341   260
29.6441   221
29.6541   239
29.6641   247
29.6741   241
29.6841   217
29.6941   247
29.7041   251
29.7141   246
29.7241   237
29.7341   252
29.7441   222
29.7541   226
29.7641   224
29.7741   242
29.7841   223
29.7941   248
29.8041   227
29.8141   237
29.8241   234
29.8341   236
29.8441   208
29.8541   252
29.8641   231
29.8741   221
29.8841   233
29.8941   215
29.9041   232
29.9141   221
29.9241   239
29.9341   245
29.9441   238
29.9541   228
29.9641   225
29.9741   217
29.9841   225
29.9941   223
30.0041   218
30.0141   228
30.0241   219
30.0341   235
30.0441   242
30.0541   223
30.0641   222
30.0741   213
30.0841   222
30.0941   230
30.1041   223
30.1141   221
30.1241   230
30.1341   217
30.1441   219
30.1541   243
30.1641   232
30.1741   224
30.1841   217
30.1941   207
30.2041   207
30.2141   215
30.2241   198
30.2341   237
30.2441   242
30.2541   246
30.2641   213
30.2741   221
30.2841   212
30.2941   234
30.3041   200
30.3141   230
30.3241   215
30.3341   237
30.3441   242
30.3541   195
30.3641   233
30.3741   194
30.3841   227
30.3941   234
30.4041   202
30.4141   212
30.4241   221
30.4341   229
30.4441   213
30.4541   237
30.4641   217
30.4741   243
30.4841   213
30.4941   223
30.5041   226
30.5141   212
30.5241   204
30.5341   211
30.5441   208
30.5541   212
30.5641   249
30.5741   228
30.5841   208
30.5941   211
30.6041   224
30.6141   206
30.6241   207
30.6341   201
30.6441   238
30.6541   207
30.6641   180
30.6741   204
30.6841   214
30.6941   228
30.7041   199
30.7141   188
30.7241   213
30.7341   225
30.7441   201
30.7541   229
30.7641   211
30.7741   190
30.7841   208
30.7941   220
30.8041   206
30.8141   204
30.8241   189
30.8341   211
30.8441   205
30.8541   203
30.8641   183
30.8741   223
30.8841   227
30.8941   190
30.9041   215
30.9141   201
30.9241   180
30.9341   188
30.9441   188
30.9541   203
30.9641   206
30.9741   225
30.9841   189
30.9941   181
31.0041   198
31.0141   180
31.0241   202
31.0341   214
31.0441   204
31.0541   208
31.0641   198
31.0741   212
31.0841   201
31.0941   189
31.1041   200
31.1141   194
31.1241   189
31.1341   216
31.1441   188
31.1541   192
31.1641   189
31.1741   191
31.1841   188
31.1941   203
31.2041   203
31.2141   193
31.2241   199
31.2341   173
31.2441   180
31.2541   190
31.2641   215
31.2741   192
31.2841   186
31.2941   186
31.3041   187
31.3141   196
31.3241   180
31.3341   206
31.3441   197
31.3541   185
31.3641   186
31.3741   205
31.3841   177
31.3941   195
31.4041   185
31.4141   183
31.4241   189
31.4341   193
31.4441   192
31.4541   212
31.4641   193
31.4741   205
31.4841   206
31.4941   193
31.5041   219
31.5141   188
31.5241   200
31.5341   170
31.5441   205
31.5541   191
31.5641   188
31.5741   155
31.5841   173
31.5941   177
31.6041   186
31.6141   160
31.6241   202
31.6341   216
31.6441   174
31.6541   235
31.6641   177
31.6741   194
31.6841   181
31.6941   173
31.7041   204
31.7141   193
31.7241   189
31.7341   165
31.7441   163
31.7541   193
31.7641   182
31.7741   189
31.7841   168
31.7941   175
31.8041   177
31.8141   193
31.8241   176
31.8341   179
31.8441   182
31.8541   195
31.8641   159
31.8741   187
31.8841   183
31.8941   188
31.9041   197
31.9141   215
31.9241   196
31.9341   174
31.9441   164
31.9541   177
31.9641   182
31.9741   182
31.9841   190
31.9941   188
32.0041   208
32.0141   196
32.0241   195
32.0341   183
32.0441   191
32.0541   161
32.0641   175
32.0741   166
32.0841   184
32.0941   201
32.1041   170
32.1141   176
32.1241   176
32.1341   189
32.1441   191
32.1541   184
32.1641   193
32.1741   185
32.1841   176
32.1941   174
32.2041   196
32.2141   173
32.2241   217
32.2341   170
32.2441   184
32.2541   187
32.2641   170
32.2741   174
32.2841   188
32.2941   171
32.3041   183
32.3141   197
32.3241   205
32.3341   188
32.3441   179
32.3541   190
32.3641   185
32.3741   188
32.3841   172
32.3941   170
32.4041   175
32.4141   181
32.4241   185
32.4341   146
32.4441   158
32.4541   157
32.4641   148
32.4741   153
32.4841   142
32.4941   145
32.5041   171
32.5141   149
32.5241   167
32.5341   132
32.5441   151
32.5541   145
32.5641   187
32.5741   161
32.5841   152
32.5941   158
32.6041   150
32.6141   148
32.6241   163
32.6341   139
32.6441   161
32.6541   159
32.6641   149
32.6741   129
32.6841   142
32.6941   164
32.7041   166
32.7141   174
32.7241   158
32.7341   154
32.7441   153
32.7541   164
32.7641   140
32.7741   162
32.7841   146
32.7941   164
32.8041   163
32.8141   153
32.8241   133
32.8341   152
32.8441   168
32.8541   151
32.8641   152
32.8741   144
32.8841   150
32.8941   156
32.9041   139
32.9141   150
32.9241   132
32.9341   147
32.9441   148
32.9541   136
32.9641   152
32.9741   169
32.9841   145
32.9941   155
33.0041   130
33.0141   155
33.0241   136
33.0341   158
33.0441   156
33.0541   147
33.0641   144
33.0741   164
33.0841   151
33.0941   147
33.1041   146
33.1141   154
33.1241   143
33.1341   158
33.1441   134
33.1541   144
33.1641   133
33.1741   149
33.1841   135
33.1941   144
33.2041   147
33.2141   136
33.2241   135
33.2341   142
33.2441   147
33.2541   153
33.2641   116
33.2741   136
33.2841   156
33.2941   120
33.3041   147
33.3141   154
33.3241   143
33.3341   139
33.3441   148
33.3541   147
33.3641   143
33.3741   127
33.3841   133
33.3941   137
33.4041   138
33.4141   133
33.4241   136
33.4341   126
33.4441   134
33.4541   139
33.4641   141
33.4741   132
33.4841   126
33.4941   118
33.5041   129
33.5141   126
33.5241   131
33.5341   128
33.5441   124
33.5541   159
33.5641   140
33.5741   129
33.5841   143
33.5941   131
33.6041   132
33.6141   151
33.6241   130
33.6341   126
33.6441   104
33.6541   105
33.6641   118
33.6741   132
33.6841   117
33.6941   146
33.7041   118
33.7141   121
33.7241   142
33.7341    97
33.7441   110
33.7541   122
33.7641   127
33.7741   131
33.7841   129
33.7941   126
33.8041   124
33.8141   119
33.8241   125
33.8341   127
33.8441   115
33.8541   135
33.8641   122
33.8741   120
33.8841   115
33.8941   115
33.9041   104
33.9141   125
33.9241   130
33.9341   130
33.9441   111
33.9541   117
33.9641   121
33.9741   125
33.9841   121
33.9941   114
34.0041   115
34.0141   122
34.0241   112
34.0341   115
34.0441   125
34.0541   105
34.0641   117
34.0741   105
34.0841   127
34.0941   116
34.1041   123
34.1141   100
34.1241   102
34.1341   134
34.1441   110
34.1541   126
34.1641   111
34.1741   108
34.1841   119
34.1941    94
34.2041   130
34.2141   133
34.2241    99
34.2341   103
34.2441    99
34.2541   122
34.2641   113
34.2741   108
34.2841   121
34.2941   144
34.3041    98
34.3141   118
34.3241   104
34.3341    99
34.3441   117
34.3541   134
34.3641   110
34.3741   106
34.3841   109
34.3941   112
34.4041   105
34.4141   124
34.4241   119
34.4341   113
34.4441   117
34.4541   111
34.4641   112
34.4741   104
34.4841   119
34.4941   106
34.5041   114
34.5141   109
34.5241   111
34.5341    95
34.5441   103
34.5541   121
34.5641   119
34.5741   109
34.5841    90
34.5941   109
34.6041    98
34.6141   107
34.6241   111
34.6341   115
34.6441   109
34.6541    86
34.6641   106
34.6741   104
34.6841    95
34.6941    91
34.7041   107
34.7141   106
34.7241   117
34.7341    97
34.7441   101
34.7541   109
34.7641   113
34.7741   100
34.7841    94
34.7941   101
34.8041   112
34.8141   105
34.8241   107
34.8341   131
34.8441   107
34.8541    99
34.8641   111
34.8741   101
34.8841    91
34.8941    84
34.9041   113
34.9141    90
34.9241   103
34.9341   100
34.9441   111
34.9541   103
34.9641    97
34.9741    89
34.9841    99
34.9941   110
35.0041    94
35.0141   103
35.0241    96
35.0341   106
35.0441    84
35.0541   101
35.0641    97
35.0741    87
35.0841   108
35.0941    90
35.1041    80
35.1141    96
35.1241    93
35.1341    89
35.1441    96
35.1541    98
35.1641   109
35.1741   105
35.1841    96
35.1941    81
35.2041   101
35.2141    95
35.2241    96
35.2341    88
35.2441    96
35.2541    82
35.2641    92
35.2741    86
35.2841    87
35.2941    85
35.3041    94
35.3141    78
35.3241    93
35.3341    81
35.3441    86
35.3541    76
35.3641    93
35.3741    83
35.3841    86
35.3941   122
35.4041    88
35.4141    99
35.4241    88
35.4341    83
35.4441    95
35.4541    84
35.4641    86
35.4741    92
35.4841    88
35.4941   116
35.5041   113
35.5141    88
35.5241    94
35.5341    81
35.5441    88
35.5541   100
35.5641    96
35.5741   108
35.5841    92
35.5941   104
35.6041    76
35.6141    94
35.6241    87
35.6341    78
35.6441    79
35.6541    82
35.6641    90
35.6741    97
35.6841    82
35.6941    64
35.7041    94
35.7141    80
35.7241    70
35.7341    67
35.7441    98
35.7541    81
35.7641    91
35.7741    74
35.7841    93
35.7941    86
35.8041    73
35.8141    85
35.8241    76
35.8341    82
35.8441    78
35.8541    88
35.8641    85
35.8741    97
35.8841    79
35.8941    71
35.9041    87
35.9141    86
35.9241    75
35.9341    69
35.9441    77
35.9541    73
35.9641    80
35.9741    83
35.9841    65
35.9941    77
36.0041    85
36.0141    85
36.0241    66
36.0341    79
36.0441    94
36.0541    91
36.0641    85
36.0741    81
36.0841    68
36.0941    69
36.1041    91
36.1141    86
36.1241    90
36.1341    88
36.1441    83
36.1541    81
36.1641    77
36.1741    74
36.1841    57
36.1941    71
36.2041    87
36.2141    73
36.2241    78
36.2341    87
36.2441    80
36.2541    82
36.2641    85
36.2741    69
36.2841    80
36.2941    88
36.3041    76
36.3141    85
36.3241    82
36.3341    93
36.3441    85
36.3541    76
36.3641    85
36.3741    84
36.3841    67
36.3941    73
36.4041    86
36.4141    83
36.4241    85
36.4341    84
36.4441    58
36.4541    54
36.4641    78
36.4741    78
36.4841    72
36.4941    69
36.5041    64
36.5141    71
36.5241    75
36.5341    70
36.5441    70
36.5541    73
36.5641    79
36.5741    67
36.5841    69
36.5941    70
36.6041    51
36.6141    68
36.6241    74
36.6341    63
36.6441    67
36.6541    71
36.6641    70
36.6741    66
36.6841    66
36.6941    64
36.7041    88
36.7141    67
36.7241    65
36.7341    57
36.7441    63
36.7541    59
36.7641    74
36.7741    66
36.7841    60
36.7941    57
36.8041    56
36.8141    73
36.8241    66
36.8341    53
36.8441    60
36.8541    68
36.8641    66
36.8741    80
36.8841    68
36.8941    77
36.9041    66
36.9141    69
36.9241    61
36.9341    53
36.9441    52
36.9541    71
36.9641    60
36.9741    57
36.9841    69
36.9941    72
37.0041    63
37.0141    57
37.0241    49
37.0341    63
37.0441    67
37.0541    61
37.0641    73
37.0741    57
37.0841    64
37.0941    42
37.1041    58
37.1141    55
37.1241    61
37.1341    61
37.1441    61
37.1541    72
37.1641    67
37.1741    60
37.1841    60
37.1941    58
37.2041    67
37.2141    61
37.2241    68
37.2341    60
37.2441    62
37.2541    56
37.2641    49
37.2741    60
37.2841    51
37.2941    56
37.3041    59
37.3141    60
37.3241    66
37.3341    64
37.3441    54
37.3541    50
37.3641    55
37.3741    47
37.3841    69
37.3941    54
37.4041    58
37.4141    58
37.4241    58
37.4341    52
37.4441    55
37.4541    60
37.4641    55
37.4741    45
37.4841    50
37.4941    67
37.5041    55
37.5141    55
37.5241    61
37.5341    61
37.5441    58
37.5541    58
37.5641    53
37.5741    59
37.5841    53
37.5941    55
37.6041    52
37.6141    65
37.6241    56
37.6341    49
37.6441    45
37.6541    53
37.6641    54
37.6741    57
37.6841    53
37.6941    55
37.7041    51
37.7141    56
37.7241    44
37.7341    49
37.7441    44
37.7541    49
37.7641    65
37.7741    51
37.7841    54
37.7941    44
37.8041    49
37.8141    57
37.8241    45
37.8341    45
37.8441    66
37.8541    49
37.8641    52
37.8741    43
37.8841    57
37.8941    41
37.9041    45
37.9141    43
37.9241    45
37.9341    68
37.9441    56
37.9541    56
37.9641    38
37.9741    44
37.9841    68
37.9941    51
38.0041    42
38.0141    48
38.0241    54
38.0341    50
38.0441    51
38.0541    63
38.0641    52
38.0741    58
38.0841    45
38.0941    36
38.1041    49
38.1141    54
38.1241    51
38.1341    45
38.1441    40
38.1541    45
38.1641    41
38.1741    44
38.1841    52
38.1941    34
38.2041    40
38.2141    46
38.2241    45
38.2341    44
38.2441    45
38.2541    39
38.2641    51
38.2741    58
38.2841    42
38.2941    44
38.3041    51
38.3141    31
38.3241    33
38.3341    37
38.3441    45
38.3541    41
38.3641    52
38.3741    47
38.3841    48
38.3941    38
38.4041    39
38.4141    45
38.4241    67
38.4341    39
38.4441    50
38.4541    44
38.4641    45
38.4741    36
38.4841    49
38.4941    30
38.5041    41
38.5141    30
38.5241    44
38.5341    51
38.5441    32
38.5541    43
38.5641    38
38.5741    36
38.5841    45
38.5941    39
38.6041    39
38.6141    51
38.6241    41
38.6341    49
38.6441    37
38.6541    38
38.6641    40
38.6741    36
38.6841    36
38.6941    25
38.7041    31
38.7141    37
38.7241    40
38.7341    45
38.7441    51
38.7541    37
38.7641    36
38.7741    39
38.7841    41
38.7941    43
38.8041    41
38.8141    27
38.8241    44
38.8341    40
38.8441    46
38.8541    35
38.8641    29
38.8741    34
38.8841    40
38.8941    40
38.9041    43
38.9141    26
38.9241    41
38.9341    37
38.9441    36
38.9541    39
38.9641    31
38.9741    29
38.9841    41
38.9941    34
39.0041    39
39.0141    35
39.0241    31
39.0341    35
39.0441    32
39.0541    36
39.0641    42
39.0741    42
39.0841    35
39.0941    37
39.1041    47
39.1141    26
39.1241    23
39.1341    34
39.1441    39
39.1541    30
39.1641    33
39.1741    35
39.1841    32
39.1941    29
39.2041    30
39.2141    29
39.2241    31
39.2341    40
39.2441    26
39.2541    30
39.2641    29
39.2741    28
39.2841    39
39.2941    43
39.3041    30
39.3141    33
39.3241    29
39.3341    36
39.3441    36
39.3541    32
39.3641    42
39.3741    30
39.3841    24
39.3941    39
39.4041    36
39.4141    27
39.4241    32
39.4341    29
39.4441    34
39.4541    40
39.4641    28
39.4741    37
39.4841    53
39.4941    39
39.5041    30
39.5141    35
39.5241    28
39.5341    30
39.5441    30
39.5541    32
39.5641    45
39.5741    28
39.5841    28
39.5941    32
39.6041    20
39.6141    30
39.6241    28
39.6341    28
39.6441    37
39.6541    21
39.6641    33
39.6741    24
39.6841    28
39.6941    28
39.7041    33
39.7141    40
39.7241    27
39.7341    29
39.7441    28
39.7541    28
39.7641    27
39.7741    18
39.7841    34
39.7941    31
39.8041    19
39.8141    24
39.8241    29
39.8341    26
39.8441    29
39.8541    35
39.8641    21
39.8741    23
39.8841    20
39.8941    38
39.9041    24
39.9141    28
39.9241    30
39.9341    31
39.9441    20
39.9541    34
39.9641    25
39.9741    31
39.9841    18
