Bruker Nano GmbH Berlin, Germany
Esprit 1.9

Date: 5/14/2021 1:28:55 PM
Real time: 18325
Life time: 17168
Pulse density: 92438


Detector type: XFlash 430
Window type: Custom type
Detector thickness: 0.45
Si dead layer:0.029

Calibration, lin.: 10
Calibration, abs.: -955.9
Mn FWHM: 137.05
Fano factor: 0.121
Channels: 4095

Energy Counts
-0.9559     0
-0.9459     0
-0.9359     0
-0.9259     0
-0.9159     0
-0.9059     0
-0.8959     0
-0.8859     0
-0.8759     0
-0.8659     0
-0.8559     0
-0.8459     0
-0.8359     0
-0.8259     0
-0.8159     0
-0.8059     0
-0.7959     0
-0.7859     0
-0.7759     0
-0.7659     0
-0.7559     0
-0.7459     0
-0.7359     0
-0.7259     0
-0.7159     0
-0.7059     0
-0.6959     0
-0.6859     0
-0.6759     0
-0.6659     0
-0.6559     0
-0.6459     0
-0.6359     0
-0.6259     0
-0.6159     0
-0.6059     0
-0.5959     0
-0.5859     0
-0.5759     0
-0.5659     0
-0.5559     0
-0.5459     0
-0.5359     0
-0.5259     0
-0.5159     0
-0.5059     0
-0.4959     0
-0.4859     0
-0.4759     0
-0.4659     0
-0.4559     0
-0.4459     0
-0.4359     0
-0.4259     0
-0.4159     0
-0.4059     0
-0.3959     0
-0.3859     0
-0.3759     0
-0.3659     0
-0.3559     0
-0.3459     0
-0.3359     0
-0.3259     0
-0.3159     0
-0.3059     0
-0.2959     0
-0.2859     0
-0.2759     0
-0.2659     0
-0.2559     0
-0.2459     0
-0.2359     0
-0.2259     0
-0.2159     0
-0.2059     0
-0.1959     0
-0.1859     0
-0.1759     0
-0.1659     0
-0.1559     0
-0.1459     0
-0.1359     0
-0.1259     0
-0.1159     4
-0.1059    10
-0.0959    44
-0.0859   209
-0.0759   647
-0.0659  1954
-0.0559  5046
-0.0459 10814
-0.0359 20048
-0.0259 32806
-0.0159 45084
-0.0059 52837
 0.0041 52751
 0.0141 45517
 0.0241 33603
 0.0341 21479
 0.0441 11516
 0.0541  5289
 0.0641  2114
 0.0741   735
 0.0841   220
 0.0941    61
 0.1041    29
 0.1141    11
 0.1241     5
 0.1341     7
 0.1441     2
 0.1541     5
 0.1641     6
 0.1741    13
 0.1841   148
 0.1941   328
 0.2041   274
 0.2141   267
 0.2241   264
 0.2341   269
 0.2441   297
 0.2541   293
 0.2641   301
 0.2741   294
 0.2841   279
 0.2941   293
 0.3041   273
 0.3141   274
 0.3241   270
 0.3341   268
 0.3441   253
 0.3541   240
 0.3641   247
 0.3741   258
 0.3841   260
 0.3941   267
 0.4041   242
 0.4141   262
 0.4241   249
 0.4341   236
 0.4441   240
 0.4541   228
 0.4641   223
 0.4741   217
 0.4841   223
 0.4941   248
 0.5041   270
 0.5141   240
 0.5241   220
 0.5341   249
 0.5441   234
 0.5541   226
 0.5641   237
 0.5741   235
 0.5841   240
 0.5941   223
 0.6041   218
 0.6141   211
 0.6241   224
 0.6341   232
 0.6441   220
 0.6541   227
 0.6641   220
 0.6741   207
 0.6841   212
 0.6941   212
 0.7041   210
 0.7141   201
 0.7241   212
 0.7341   215
 0.7441   213
 0.7541   208
 0.7641   205
 0.7741   215
 0.7841   202
 0.7941   212
 0.8041   222
 0.8141   220
 0.8241   214
 0.8341   208
 0.8441   200
 0.8541   189
 0.8641   183
 0.8741   189
 0.8841   176
 0.8941   187
 0.9041   200
 0.9141   191
 0.9241   194
 0.9341   196
 0.9441   196
 0.9541   192
 0.9641   164
 0.9741   196
 0.9841   193
 0.9941   203
 1.0041   183
 1.0141   174
 1.0241   170
 1.0341   183
 1.0441   162
 1.0541   162
 1.0641   153
 1.0741   161
 1.0841   177
 1.0941   161
 1.1041   162
 1.1141   181
 1.1241   182
 1.1341   177
 1.1441   165
 1.1541   168
 1.1641   168
 1.1741   180
 1.1841   176
 1.1941   183
 1.2041   157
 1.2141   178
 1.2241   175
 1.2341   193
 1.2441   167
 1.2541   174
 1.2641   165
 1.2741   167
 1.2841   181
 1.2941   172
 1.3041   166
 1.3141   148
 1.3241   167
 1.3341   169
 1.3441   179
 1.3541   172
 1.3641   179
 1.3741   167
 1.3841   189
 1.3941   177
 1.4041   173
 1.4141   170
 1.4241   172
 1.4341   164
 1.4441   159
 1.4541   145
 1.4641   164
 1.4741   178
 1.4841   164
 1.4941   166
 1.5041   161
 1.5141   154
 1.5241   163
 1.5341   153
 1.5441   168
 1.5541   152
 1.5641   159
 1.5741   145
 1.5841   150
 1.5941   161
 1.6041   156
 1.6141   148
 1.6241   162
 1.6341   153
 1.6441   173
 1.6541   193
 1.6641   239
 1.6741   297
 1.6841   309
 1.6941   426
 1.7041   510
 1.7141   608
 1.7241   648
 1.7341   671
 1.7441   656
 1.7541   630
 1.7641   568
 1.7741   513
 1.7841   428
 1.7941   358
 1.8041   293
 1.8141   271
 1.8241   232
 1.8341   222
 1.8441   197
 1.8541   178
 1.8641   203
 1.8741   179
 1.8841   181
 1.8941   157
 1.9041   178
 1.9141   184
 1.9241   160
 1.9341   168
 1.9441   192
 1.9541   191
 1.9641   175
 1.9741   183
 1.9841   189
 1.9941   189
 2.0041   171
 2.0141   189
 2.0241   177
 2.0341   179
 2.0441   171
 2.0541   168
 2.0641   180
 2.0741   169
 2.0841   144
 2.0941   153
 2.1041   148
 2.1141   160
 2.1241   152
 2.1341   164
 2.1441   156
 2.1541   163
 2.1641   152
 2.1741   157
 2.1841   136
 2.1941   135
 2.2041   125
 2.2141   160
 2.2241   137
 2.2341   144
 2.2441   134
 2.2541   144
 2.2641   136
 2.2741   146
 2.2841   133
 2.2941   159
 2.3041   132
 2.3141   139
 2.3241   148
 2.3341   144
 2.3441   132
 2.3541   143
 2.3641   127
 2.3741   124
 2.3841   124
 2.3941   135
 2.4041   131
 2.4141   133
 2.4241   128
 2.4341   124
 2.4441   122
 2.4541   140
 2.4641   142
 2.4741   140
 2.4841   134
 2.4941   120
 2.5041   128
 2.5141   111
 2.5241   126
 2.5341   127
 2.5441   132
 2.5541   129
 2.5641   135
 2.5741   132
 2.5841   114
 2.5941   130
 2.6041   111
 2.6141   130
 2.6241   128
 2.6341   120
 2.6441   123
 2.6541   123
 2.6641   119
 2.6741   137
 2.6841   120
 2.6941   124
 2.7041   142
 2.7141   111
 2.7241   124
 2.7341   122
 2.7441   119
 2.7541   116
 2.7641   131
 2.7741    98
 2.7841   118
 2.7941   123
 2.8041   130
 2.8141   106
 2.8241   122
 2.8341   127
 2.8441   127
 2.8541   113
 2.8641   113
 2.8741   116
 2.8841   127
 2.8941   118
 2.9041   115
 2.9141   108
 2.9241   110
 2.9341   109
 2.9441   107
 2.9541    96
 2.9641   101
 2.9741   114
 2.9841    95
 2.9941   122
 3.0041   133
 3.0141    99
 3.0241   130
 3.0341   115
 3.0441   104
 3.0541    96
 3.0641   105
 3.0741    96
 3.0841   113
 3.0941   123
 3.1041   101
 3.1141   103
 3.1241   102
 3.1341    98
 3.1441   101
 3.1541   111
 3.1641   113
 3.1741   110
 3.1841    91
 3.1941   110
 3.2041   107
 3.2141   113
 3.2241   136
 3.2341   133
 3.2441   118
 3.2541   129
 3.2641   158
 3.2741   187
 3.2841   224
 3.2941   197
 3.3041   236
 3.3141   202
 3.3241   229
 3.3341   227
 3.3441   185
 3.3541   153
 3.3641   151
 3.3741   138
 3.3841   127
 3.3941   116
 3.4041   105
 3.4141   107
 3.4241   108
 3.4341    86
 3.4441    89
 3.4541    96
 3.4641    77
 3.4741    82
 3.4841    84
 3.4941    97
 3.5041    88
 3.5141   105
 3.5241   111
 3.5341   117
 3.5441   128
 3.5541   132
 3.5641   157
 3.5741   193
 3.5841   211
 3.5941   303
 3.6041   352
 3.6141   431
 3.6241   561
 3.6341   735
 3.6441   864
 3.6541   956
 3.6641  1054
 3.6741  1172
 3.6841  1230
 3.6941  1203
 3.7041  1145
 3.7141  1125
 3.7241  1022
 3.7341   767
 3.7441   713
 3.7541   560
 3.7641   427
 3.7741   331
 3.7841   236
 3.7941   191
 3.8041   142
 3.8141   129
 3.8241   121
 3.8341    88
 3.8441    82
 3.8541    86
 3.8641    84
 3.8741    91
 3.8841    87
 3.8941    95
 3.9041    95
 3.9141   104
 3.9241   101
 3.9341   131
 3.9441   156
 3.9541   164
 3.9641   186
 3.9741   195
 3.9841   214
 3.9941   225
 4.0041   230
 4.0141   272
 4.0241   260
 4.0341   259
 4.0441   241
 4.0541   193
 4.0641   171
 4.0741   145
 4.0841   125
 4.0941   116
 4.1041   115
 4.1141   122
 4.1241   113
 4.1341    73
 4.1441    73
 4.1541    67
 4.1641    49
 4.1741    66
 4.1841    80
 4.1941    81
 4.2041    65
 4.2141    72
 4.2241    58
 4.2341    61
 4.2441    72
 4.2541    76
 4.2641    59
 4.2741    65
 4.2841    62
 4.2941    76
 4.3041    71
 4.3141    68
 4.3241    80
 4.3341    67
 4.3441    79
 4.3541    76
 4.3641    90
 4.3741    84
 4.3841   101
 4.3941   109
 4.4041   121
 4.4141   135
 4.4241   180
 4.4341   198
 4.4441   275
 4.4541   307
 4.4641   306
 4.4741   349
 4.4841   413
 4.4941   391
 4.5041   404
 4.5141   436
 4.5241   391
 4.5341   357
 4.5441   315
 4.5541   257
 4.5641   258
 4.5741   226
 4.5841   170
 4.5941   163
 4.6041   143
 4.6141   107
 4.6241   116
 4.6341    86
 4.6441    72
 4.6541    70
 4.6641    95
 4.6741    78
 4.6841    76
 4.6941    70
 4.7041    89
 4.7141    84
 4.7241    75
 4.7341    69
 4.7441    79
 4.7541    69
 4.7641    67
 4.7741    71
 4.7841    85
 4.7941    84
 4.8041    89
 4.8141   111
 4.8241    85
 4.8341   119
 4.8441   129
 4.8541   115
 4.8641   127
 4.8741   111
 4.8841   133
 4.8941   145
 4.9041   136
 4.9141   146
 4.9241   157
 4.9341   150
 4.9441   152
 4.9541   160
 4.9641   146
 4.9741   128
 4.9841   125
 4.9941   113
 5.0041   103
 5.0141   100
 5.0241   107
 5.0341    91
 5.0441   100
 5.0541    91
 5.0641    89
 5.0741    93
 5.0841    92
 5.0941    70
 5.1041    90
 5.1141    81
 5.1241    85
 5.1341    81
 5.1441    85
 5.1541    94
 5.1641    94
 5.1741    92
 5.1841    77
 5.1941    82
 5.2041    84
 5.2141    69
 5.2241    67
 5.2341    99
 5.2441    94
 5.2541    77
 5.2641    92
 5.2741    86
 5.2841    73
 5.2941    86
 5.3041   102
 5.3141    90
 5.3241    87
 5.3341    86
 5.3441   110
 5.3541   107
 5.3641    96
 5.3741   122
 5.3841   121
 5.3941    96
 5.4041   125
 5.4141   110
 5.4241   100
 5.4341   114
 5.4441   104
 5.4541   108
 5.4641   109
 5.4741   101
 5.4841    93
 5.4941    98
 5.5041    96
 5.5141    86
 5.5241    87
 5.5341    98
 5.5441    83
 5.5541    79
 5.5641    92
 5.5741    75
 5.5841    76
 5.5941    87
 5.6041    93
 5.6141   113
 5.6241    80
 5.6341    77
 5.6441    75
 5.6541    86
 5.6641    98
 5.6741    86
 5.6841    90
 5.6941    74
 5.7041    77
 5.7141    90
 5.7241    95
 5.7341   107
 5.7441   106
 5.7541   126
 5.7641   132
 5.7741   116
 5.7841   134
 5.7941   182
 5.8041   189
 5.8141   240
 5.8241   277
 5.8341   253
 5.8441   308
 5.8541   330
 5.8641   372
 5.8741   383
 5.8841   433
 5.8941   457
 5.9041   404
 5.9141   388
 5.9241   381
 5.9341   337
 5.9441   335
 5.9541   288
 5.9641   296
 5.9741   234
 5.9841   195
 5.9941   174
 6.0041   153
 6.0141   139
 6.0241   140
 6.0341   127
 6.0441   126
 6.0541   123
 6.0641   116
 6.0741   121
 6.0841   122
 6.0941   100
 6.1041   143
 6.1141   115
 6.1241   149
 6.1341   144
 6.1441   145
 6.1541   161
 6.1641   165
 6.1741   164
 6.1841   193
 6.1941   242
 6.2041   333
 6.2141   368
 6.2241   427
 6.2341   646
 6.2441   885
 6.2541  1214
 6.2641  1659
 6.2741  2282
 6.2841  3030
 6.2941  4214
 6.3041  5293
 6.3141  6749
 6.3241  8378
 6.3341  9922
 6.3441 11779
 6.3541 13539
 6.3641 14964
 6.3741 16320
 6.3841 17193
 6.3941 17366
 6.4041 17466
 6.4141 16901
 6.4241 15926
 6.4341 14712
 6.4441 13198
 6.4541 11332
 6.4641  9583
 6.4741  7933
 6.4841  6368
 6.4941  5024
 6.5041  3857
 6.5141  2823
 6.5241  2068
 6.5341  1517
 6.5441  1027
 6.5541   739
 6.5641   576
 6.5741   356
 6.5841   281
 6.5941   226
 6.6041   190
 6.6141   189
 6.6241   189
 6.6341   153
 6.6441   160
 6.6541   150
 6.6641   147
 6.6741   129
 6.6841   133
 6.6941   147
 6.7041   132
 6.7141   151
 6.7241   124
 6.7341   148
 6.7441   158
 6.7541   156
 6.7641   154
 6.7741   143
 6.7841   159
 6.7941   158
 6.8041   151
 6.8141   165
 6.8241   189
 6.8341   172
 6.8441   177
 6.8541   223
 6.8641   239
 6.8741   242
 6.8841   318
 6.8941   326
 6.9041   389
 6.9141   475
 6.9241   564
 6.9341   690
 6.9441   868
 6.9541  1014
 6.9641  1278
 6.9741  1525
 6.9841  1725
 6.9941  2042
 7.0041  2259
 7.0141  2468
 7.0241  2760
 7.0341  2887
 7.0441  2905
 7.0541  2915
 7.0641  3008
 7.0741  2815
 7.0841  2638
 7.0941  2612
 7.1041  2197
 7.1141  1911
 7.1241  1615
 7.1341  1359
 7.1441  1136
 7.1541   974
 7.1641   767
 7.1741   607
 7.1841   511
 7.1941   424
 7.2041   340
 7.2141   270
 7.2241   231
 7.2341   236
 7.2441   191
 7.2541   169
 7.2641   176
 7.2741   209
 7.2841   172
 7.2941   209
 7.3041   188
 7.3141   244
 7.3241   189
 7.3341   213
 7.3441   186
 7.3541   208
 7.3641   245
 7.3741   241
 7.3841   224
 7.3941   212
 7.4041   254
 7.4141   232
 7.4241   232
 7.4341   232
 7.4441   252
 7.4541   252
 7.4641   212
 7.4741   244
 7.4841   229
 7.4941   185
 7.5041   197
 7.5141   199
 7.5241   184
 7.5341   158
 7.5441   190
 7.5541   175
 7.5641   151
 7.5741   165
 7.5841   165
 7.5941   159
 7.6041   165
 7.6141   163
 7.6241   131
 7.6341   180
 7.6441   160
 7.6541   172
 7.6641   195
 7.6741   181
 7.6841   178
 7.6941   172
 7.7041   189
 7.7141   175
 7.7241   186
 7.7341   192
 7.7441   193
 7.7541   227
 7.7641   194
 7.7741   208
 7.7841   203
 7.7941   212
 7.8041   207
 7.8141   215
 7.8241   229
 7.8341   246
 7.8441   246
 7.8541   271
 7.8641   275
 7.8741   245
 7.8841   249
 7.8941   285
 7.9041   280
 7.9141   326
 7.9241   335
 7.9341   338
 7.9441   358
 7.9541   356
 7.9641   388
 7.9741   417
 7.9841   499
 7.9941   486
 8.0041   528
 8.0141   567
 8.0241   597
 8.0341   677
 8.0441   746
 8.0541   791
 8.0641   862
 8.0741   860
 8.0841   945
 8.0941   927
 8.1041  1035
 8.1141  1089
 8.1241  1072
 8.1341  1074
 8.1441  1129
 8.1541  1188
 8.1641  1174
 8.1741  1178
 8.1841  1230
 8.1941  1205
 8.2041  1236
 8.2141  1261
 8.2241  1352
 8.2341  1346
 8.2441  1361
 8.2541  1407
 8.2641  1427
 8.2741  1532
 8.2841  1608
 8.2941  1765
 8.3041  1935
 8.3141  2096
 8.3241  2165
 8.3341  2330
 8.3441  2530
 8.3541  2680
 8.3641  2741
 8.3741  2711
 8.3841  2914
 8.3941  2887
 8.4041  2865
 8.4141  2732
 8.4241  2627
 8.4341  2380
 8.4441  2139
 8.4541  2005
 8.4641  1780
 8.4741  1517
 8.4841  1331
 8.4941  1141
 8.5041   966
 8.5141   859
 8.5241   718
 8.5341   649
 8.5441   625
 8.5541   541
 8.5641   528
 8.5741   482
 8.5841   498
 8.5941   495
 8.6041   520
 8.6141   476
 8.6241   521
 8.6341   519
 8.6441   503
 8.6541   497
 8.6641   495
 8.6741   449
 8.6841   404
 8.6941   406
 8.7041   396
 8.7141   417
 8.7241   357
 8.7341   360
 8.7441   352
 8.7541   306
 8.7641   328
 8.7741   307
 8.7841   274
 8.7941   276
 8.8041   293
 8.8141   281
 8.8241   274
 8.8341   270
 8.8441   267
 8.8541   272
 8.8641   275
 8.8741   291
 8.8841   273
 8.8941   287
 8.9041   267
 8.9141   292
 8.9241   290
 8.9341   265
 8.9441   291
 8.9541   313
 8.9641   306
 8.9741   309
 8.9841   314
 8.9941   321
 9.0041   352
 9.0141   376
 9.0241   356
 9.0341   356
 9.0441   345
 9.0541   373
 9.0641   359
 9.0741   374
 9.0841   393
 9.0941   430
 9.1041   413
 9.1141   457
 9.1241   463
 9.1341   482
 9.1441   503
 9.1541   498
 9.1641   513
 9.1741   547
 9.1841   574
 9.1941   630
 9.2041   646
 9.2141   698
 9.2241   723
 9.2341   735
 9.2441   776
 9.2541   849
 9.2641   855
 9.2741   897
 9.2841   926
 9.2941   942
 9.3041  1023
 9.3141  1009
 9.3241  1017
 9.3341  1061
 9.3441  1102
 9.3541  1123
 9.3641  1159
 9.3741  1175
 9.3841  1196
 9.3941  1223
 9.4041  1226
 9.4141  1247
 9.4241  1271
 9.4341  1280
 9.4441  1246
 9.4541  1280
 9.4641  1332
 9.4741  1360
 9.4841  1380
 9.4941  1401
 9.5041  1422
 9.5141  1489
 9.5241  1497
 9.5341  1555
 9.5441  1647
 9.5541  1705
 9.5641  1809
 9.5741  1868
 9.5841  2022
 9.5941  2105
 9.6041  2231
 9.6141  2320
 9.6241  2419
 9.6341  2481
 9.6441  2555
 9.6541  2620
 9.6641  2604
 9.6741  2515
 9.6841  2498
 9.6941  2464
 9.7041  2391
 9.7141  2269
 9.7241  2094
 9.7341  1988
 9.7441  1795
 9.7541  1712
 9.7641  1647
 9.7741  1484
 9.7841  1428
 9.7941  1278
 9.8041  1149
 9.8141  1165
 9.8241  1102
 9.8341  1044
 9.8441  1002
 9.8541  1027
 9.8641   972
 9.8741   990
 9.8841  1020
 9.8941  1048
 9.9041  1045
 9.9141  1046
 9.9241  1080
 9.9341  1079
 9.9441  1082
 9.9541  1062
 9.9641  1045
 9.9741  1024
 9.9841  1029
 9.9941   994
10.0041   939
10.0141   830
10.0241   768
10.0341   673
10.0441   604
10.0541   570
10.0641   543
10.0741   490
10.0841   460
10.0941   421
10.1041   345
10.1141   326
10.1241   314
10.1341   268
10.1441   247
10.1541   237
10.1641   220
10.1741   236
10.1841   216
10.1941   222
10.2041   199
10.2141   185
10.2241   185
10.2341   183
10.2441   180
10.2541   176
10.2641   173
10.2741   148
10.2841   141
10.2941   147
10.3041   158
10.3141   155
10.3241   132
10.3341   149
10.3441   164
10.3541   150
10.3641   145
10.3741   130
10.3841   152
10.3941   155
10.4041   152
10.4141   152
10.4241   144
10.4341   155
10.4441   135
10.4541   149
10.4641   156
10.4741   166
10.4841   177
10.4941   150
10.5041   148
10.5141   176
10.5241   161
10.5341   164
10.5441   151
10.5541   160
10.5641   181
10.5741   174
10.5841   168
10.5941   179
10.6041   174
10.6141   186
10.6241   188
10.6341   193
10.6441   184
10.6541   186
10.6641   180
10.6741   195
10.6841   194
10.6941   185
10.7041   192
10.7141   177
10.7241   183
10.7341   198
10.7441   191
10.7541   204
10.7641   217
10.7741   222
10.7841   226
10.7941   215
10.8041   244
10.8141   259
10.8241   259
10.8341   269
10.8441   275
10.8541   247
10.8641   251
10.8741   253
10.8841   238
10.8941   260
10.9041   262
10.9141   282
10.9241   272
10.9341   249
10.9441   254
10.9541   257
10.9641   270
10.9741   274
10.9841   259
10.9941   263
11.0041   245
11.0141   229
11.0241   239
11.0341   261
11.0441   249
11.0541   218
11.0641   204
11.0741   219
11.0841   246
11.0941   246
11.1041   236
11.1141   245
11.1241   244
11.1341   247
11.1441   240
11.1541   245
11.1641   269
11.1741   276
11.1841   254
11.1941   272
11.2041   305
11.2141   327
11.2241   296
11.2341   320
11.2441   348
11.2541   345
11.2641   343
11.2741   386
11.2841   382
11.2941   390
11.3041   351
11.3141   343
11.3241   331
11.3341   324
11.3441   325
11.3541   301
11.3641   287
11.3741   267
11.3841   265
11.3941   264
11.4041   238
11.4141   230
11.4241   216
11.4341   210
11.4441   192
11.4541   185
11.4641   186
11.4741   192
11.4841   177
11.4941   174
11.5041   197
11.5141   205
11.5241   186
11.5341   178
11.5441   188
11.5541   188
11.5641   182
11.5741   178
11.5841   184
11.5941   201
11.6041   179
11.6141   189
11.6241   209
11.6341   203
11.6441   191
11.6541   212
11.6641   198
11.6741   194
11.6841   201
11.6941   188
11.7041   175
11.7141   175
11.7241   186
11.7341   177
11.7441   154
11.7541   152
11.7641   155
11.7741   151
11.7841   161
11.7941   149
11.8041   163
11.8141   152
11.8241   141
11.8341   147
11.8441   147
11.8541   152
11.8641   162
11.8741   155
11.8841   134
11.8941   127
11.9041   134
11.9141   156
11.9241   161
11.9341   162
11.9441   156
11.9541   136
11.9641   131
11.9741   142
11.9841   145
11.9941   141
12.0041   132
12.0141   137
12.0241   143
12.0341   148
12.0441   139
12.0541   136
12.0641   140
12.0741   141
12.0841   143
12.0941   139
12.1041   136
12.1141   140
12.1241   136
12.1341   138
12.1441   129
12.1541   146
12.1641   135
12.1741   127
12.1841   136
12.1941   138
12.2041   136
12.2141   125
12.2241   118
12.2341   129
12.2441   130
12.2541   114
12.2641   121
12.2741   135
12.2841   142
12.2941   137
12.3041   135
12.3141   130
12.3241   138
12.3341   140
12.3441   136
12.3541   155
12.3641   156
12.3741   146
12.3841   143
12.3941   130
12.4041   141
12.4141   138
12.4241   134
12.4341   138
12.4441   143
12.4541   146
12.4641   142
12.4741   148
12.4841   155
12.4941   147
12.5041   139
12.5141   140
12.5241   156
12.5341   161
12.5441   149
12.5541   147
12.5641   150
12.5741   155
12.5841   152
12.5941   141
12.6041   160
12.6141   162
12.6241   155
12.6341   154
12.6441   156
12.6541   173
12.6641   161
12.6741   151
12.6841   155
12.6941   147
12.7041   146
12.7141   144
12.7241   144
12.7341   162
12.7441   165
12.7541   156
12.7641   160
12.7741   171
12.7841   174
12.7941   167
12.8041   163
12.8141   171
12.8241   178
12.8341   176
12.8441   168
12.8541   158
12.8641   157
12.8741   162
12.8841   162
12.8941   163
12.9041   170
12.9141   172
12.9241   167
12.9341   164
12.9441   161
12.9541   163
12.9641   171
12.9741   173
12.9841   161
12.9941   148
13.0041   162
13.0141   188
13.0241   182
13.0341   185
13.0441   163
13.0541   154
13.0641   168
13.0741   178
13.0841   172
13.0941   165
13.1041   178
13.1141   189
13.1241   186
13.1341   175
13.1441   173
13.1541   182
13.1641   185
13.1741   166
13.1841   175
13.1941   182
13.2041   176
13.2141   187
13.2241   198
13.2341   205
13.2441   208
13.2541   195
13.2641   205
13.2741   237
13.2841   232
13.2941   234
13.3041   249
13.3141   265
13.3241   269
13.3341   256
13.3441   277
13.3541   288
13.3641   277
13.3741   281
13.3841   299
13.3941   308
13.4041   281
13.4141   280
13.4241   286
13.4341   258
13.4441   270
13.4541   268
13.4641   251
13.4741   240
13.4841   235
13.4941   245
13.5041   224
13.5141   205
13.5241   212
13.5341   207
13.5441   209
13.5541   211
13.5641   197
13.5741   189
13.5841   190
13.5941   205
13.6041   197
13.6141   179
13.6241   182
13.6341   193
13.6441   197
13.6541   199
13.6641   196
13.6741   213
13.6841   232
13.6941   228
13.7041   227
13.7141   213
13.7241   186
13.7341   194
13.7441   209
13.7541   210
13.7641   220
13.7741   203
13.7841   197
13.7941   210
13.8041   216
13.8141   220
13.8241   222
13.8341   225
13.8441   221
13.8541   221
13.8641   222
13.8741   209
13.8841   209
13.8941   217
13.9041   221
13.9141   223
13.9241   229
13.9341   242
13.9441   265
13.9541   290
13.9641   304
13.9741   294
13.9841   315
13.9941   365
14.0041   392
14.0141   429
14.0241   442
14.0341   466
14.0441   482
14.0541   491
14.0641   515
14.0741   569
14.0841   620
14.0941   659
14.1041   693
14.1141   667
14.1241   681
14.1341   724
14.1441   706
14.1541   696
14.1641   707
14.1741   679
14.1841   649
14.1941   627
14.2041   615
14.2141   586
14.2241   550
14.2341   502
14.2441   473
14.2541   459
14.2641   422
14.2741   392
14.2841   377
14.2941   368
14.3041   333
14.3141   287
14.3241   286
14.3341   283
14.3441   261
14.3541   258
14.3641   251
14.3741   251
14.3841   255
14.3941   262
14.4041   245
14.4141   244
14.4241   245
14.4341   237
14.4441   251
14.4541   251
14.4641   254
14.4741   261
14.4841   264
14.4941   245
14.5041   223
14.5141   239
14.5241   243
14.5341   239
14.5441   240
14.5541   246
14.5641   254
14.5741   241
14.5841   235
14.5941   240
14.6041   230
14.6141   245
14.6241   258
14.6341   244
14.6441   242
14.6541   248
14.6641   242
14.6741   234
14.6841   254
14.6941   269
14.7041   260
14.7141   248
14.7241   238
14.7341   252
14.7441   269
14.7541   267
14.7641   267
14.7741   262
14.7841   262
14.7941   245
14.8041   237
14.8141   255
14.8241   245
14.8341   249
14.8441   267
14.8541   275
14.8641   280
14.8741   299
14.8841   297
14.8941   291
14.9041   284
14.9141   294
14.9241   309
14.9341   290
14.9441   299
14.9541   311
14.9641   300
14.9741   287
14.9841   299
14.9941   301
15.0041   288
15.0141   308
15.0241   308
15.0341   296
15.0441   283
15.0541   282
15.0641   269
15.0741   257
15.0841   277
15.0941   293
15.1041   295
15.1141   280
15.1241   262
15.1341   262
15.1441   267
15.1541   255
15.1641   258
15.1741   252
15.1841   241
15.1941   259
15.2041   266
15.2141   273
15.2241   259
15.2341   272
15.2441   289
15.2541   266
15.2641   259
15.2741   267
15.2841   271
15.2941   278
15.3041   272
15.3141   266
15.3241   274
15.3341   293
15.3441   282
15.3541   266
15.3641   245
15.3741   273
15.3841   291
15.3941   280
15.4041   287
15.4141   280
15.4241   297
15.4341   290
15.4441   270
15.4541   277
15.4641   278
15.4741   277
15.4841   284
15.4941   300
15.5041   294
15.5141   300
15.5241   290
15.5341   285
15.5441   301
15.5541   319
15.5641   335
15.5741   337
15.5841   358
15.5941   381
15.6041   374
15.6141   376
15.6241   410
15.6341   437
15.6441   455
15.6541   469
15.6641   469
15.6741   475
15.6841   512
15.6941   536
15.7041   566
15.7141   559
15.7241   551
15.7341   559
15.7441   580
15.7541   605
15.7641   608
15.7741   609
15.7841   610
15.7941   630
15.8041   603
15.8141   547
15.8241   545
15.8341   550
15.8441   542
15.8541   533
15.8641   519
15.8741   497
15.8841   473
15.8941   461
15.9041   468
15.9141   438
15.9241   397
15.9341   384
15.9441   396
15.9541   390
15.9641   367
15.9741   370
15.9841   369
15.9941   348
16.0041   352
16.0141   346
16.0241   347
16.0341   350
16.0441   351
16.0541   359
16.0641   339
16.0741   341
16.0841   323
16.0941   328
16.1041   308
16.1141   314
16.1241   320
16.1341   333
16.1441   357
16.1541   325
16.1641   334
16.1741   341
16.1841   319
16.1941   319
16.2041   308
16.2141   314
16.2241   313
16.2341   308
16.2441   328
16.2541   351
16.2641   342
16.2741   365
16.2841   349
16.2941   320
16.3041   300
16.3141   299
16.3241   327
16.3341   348
16.3441   342
16.3541   332
16.3641   317
16.3741   316
16.3841   348
16.3941   359
16.4041   333
16.4141   332
16.4241   344
16.4341   344
16.4441   334
16.4541   331
16.4641   332
16.4741   324
16.4841   317
16.4941   352
16.5041   348
16.5141   342
16.5241   327
16.5341   333
16.5441   329
16.5541   320
16.5641   344
16.5741   370
16.5841   364
16.5941   371
16.6041   342
16.6141   353
16.6241   357
16.6341   356
16.6441   373
16.6541   373
16.6641   358
16.6741   361
16.6841   356
16.6941   365
16.7041   371
16.7141   358
16.7241   354
16.7341   386
16.7441   358
16.7541   369
16.7641   356
16.7741   348
16.7841   398
16.7941   381
16.8041   372
16.8141   355
16.8241   337
16.8341   363
16.8441   363
16.8541   367
16.8641   333
16.8741   347
16.8841   353
16.8941   357
16.9041   368
16.9141   360
16.9241   362
16.9341   355
16.9441   367
16.9541   380
16.9641   370
16.9741   375
16.9841   389
16.9941   355
17.0041   369
17.0141   391
17.0241   414
17.0341   393
17.0441   356
17.0541   342
17.0641   356
17.0741   364
17.0841   351
17.0941   384
17.1041   391
17.1141   394
17.1241   371
17.1341   366
17.1441   390
17.1541   374
17.1641   380
17.1741   392
17.1841   391
17.1941   381
17.2041   393
17.2141   397
17.2241   378
17.2341   382
17.2441   392
17.2541   440
17.2641   396
17.2741   361
17.2841   377
17.2941   391
17.3041   375
17.3141   355
17.3241   383
17.3341   401
17.3441   377
17.3541   378
17.3641   393
17.3741   376
17.3841   388
17.3941   421
17.4041   392
17.4141   402
17.4241   415
17.4341   409
17.4441   377
17.4541   389
17.4641   402
17.4741   406
17.4841   435
17.4941   450
17.5041   444
17.5141   418
17.5241   443
17.5341   437
17.5441   433
17.5541   443
17.5641   429
17.5741   450
17.5841   443
17.5941   463
17.6041   450
17.6141   424
17.6241   466
17.6341   474
17.6441   456
17.6541   435
17.6641   439
17.6741   434
17.6841   439
17.6941   432
17.7041   459
17.7141   477
17.7241   470
17.7341   457
17.7441   441
17.7541   437
17.7641   451
17.7741   448
17.7841   451
17.7941   420
17.8041   452
17.8141   443
17.8241   413
17.8341   420
17.8441   408
17.8541   403
17.8641   427
17.8741   430
17.8841   446
17.8941   430
17.9041   446
17.9141   406
17.9241   408
17.9341   455
17.9441   442
17.9541   432
17.9641   426
17.9741   417
17.9841   442
17.9941   449
18.0041   436
18.0141   433
18.0241   438
18.0341   438
18.0441   417
18.0541   431
18.0641   470
18.0741   454
18.0841   431
18.0941   458
18.1041   446
18.1141   407
18.1241   453
18.1341   483
18.1441   453
18.1541   448
18.1641   464
18.1741   447
18.1841   419
18.1941   443
18.2041   466
18.2141   458
18.2241   451
18.2341   446
18.2441   441
18.2541   446
18.2641   454
18.2741   441
18.2841   438
18.2941   442
18.3041   453
18.3141   464
18.3241   440
18.3341   452
18.3441   436
18.3541   472
18.3641   462
18.3741   423
18.3841   411
18.3941   427
18.4041   434
18.4141   467
18.4241   445
18.4341   416
18.4441   464
18.4541   443
18.4641   437
18.4741   494
18.4841   481
18.4941   471
18.5041   439
18.5141   445
18.5241   455
18.5341   456
18.5441   487
18.5541   505
18.5641   448
18.5741   460
18.5841   457
18.5941   438
18.6041   459
18.6141   460
18.6241   453
18.6341   470
18.6441   477
18.6541   485
18.6641   432
18.6741   451
18.6841   478
18.6941   477
18.7041   444
18.7141   490
18.7241   485
18.7341   454
18.7441   450
18.7541   467
18.7641   471
18.7741   463
18.7841   498
18.7941   458
18.8041   472
18.8141   488
18.8241   483
18.8341   464
18.8441   499
18.8541   472
18.8641   442
18.8741   476
18.8841   468
18.8941   455
18.9041   459
18.9141   455
18.9241   451
18.9341   462
18.9441   473
18.9541   487
18.9641   525
18.9741   487
18.9841   473
18.9941   483
19.0041   458
19.0141   471
19.0241   509
19.0341   446
19.0441   490
19.0541   474
19.0641   457
19.0741   479
19.0841   496
19.0941   500
19.1041   484
19.1141   472
19.1241   501
19.1341   473
19.1441   497
19.1541   488
19.1641   508
19.1741   489
19.1841   481
19.1941   465
19.2041   499
19.2141   516
19.2241   485
19.2341   494
19.2441   495
19.2541   463
19.2641   472
19.2741   493
19.2841   480
19.2941   467
19.3041   494
19.3141   500
19.3241   481
19.3341   469
19.3441   505
19.3541   488
19.3641   540
19.3741   504
19.3841   505
19.3941   531
19.4041   503
19.4141   501
19.4241   486
19.4341   522
19.4441   505
19.4541   480
19.4641   517
19.4741   488
19.4841   434
19.4941   477
19.5041   489
19.5141   517
19.5241   494
19.5341   506
19.5441   507
19.5541   489
19.5641   506
19.5741   509
19.5841   461
19.5941   494
19.6041   514
19.6141   498
19.6241   498
19.6341   503
19.6441   513
19.6541   533
19.6641   475
19.6741   477
19.6841   504
19.6941   458
19.7041   485
19.7141   497
19.7241   480
19.7341   485
19.7441   520
19.7541   516
19.7641   496
19.7741   494
19.7841   499
19.7941   485
19.8041   508
19.8141   510
19.8241   496
19.8341   481
19.8441   489
19.8541   512
19.8641   505
19.8741   500
19.8841   496
19.8941   514
19.9041   510
19.9141   548
19.9241   495
19.9341   523
19.9441   489
19.9541   482
19.9641   510
19.9741   535
19.9841   510
19.9941   501
20.0041   524
20.0141   554
20.0241   500
20.0341   508
20.0441   519
20.0541   508
20.0641   518
20.0741   506
20.0841   519
20.0941   567
20.1041   569
20.1141   541
20.1241   496
20.1341   509
20.1441   522
20.1541   508
20.1641   534
20.1741   535
20.1841   510
20.1941   538
20.2041   517
20.2141   503
20.2241   508
20.2341   528
20.2441   529
20.2541   511
20.2641   545
20.2741   528
20.2841   525
20.2941   511
20.3041   509
20.3141   542
20.3241   502
20.3341   484
20.3441   480
20.3541   534
20.3641   521
20.3741   515
20.3841   512
20.3941   523
20.4041   537
20.4141   514
20.4241   517
20.4341   535
20.4441   528
20.4541   516
20.4641   527
20.4741   562
20.4841   565
20.4941   546
20.5041   494
20.5141   500
20.5241   535
20.5341   523
20.5441   559
20.5541   528
20.5641   523
20.5741   527
20.5841   538
20.5941   502
20.6041   524
20.6141   486
20.6241   514
20.6341   521
20.6441   492
20.6541   522
20.6641   537
20.6741   531
20.6841   537
20.6941   533
20.7041   528
20.7141   506
20.7241   503
20.7341   531
20.7441   522
20.7541   499
20.7641   558
20.7741   493
20.7841   527
20.7941   538
20.8041   526
20.8141   542
20.8241   546
20.8341   525
20.8441   575
20.8541   545
20.8641   551
20.8741   537
20.8841   567
20.8941   582
20.9041   606
20.9141   621
20.9241   632
20.9341   644
20.9441   660
20.9541   673
20.9641   645
20.9741   685
20.9841   697
20.9941   670
21.0041   730
21.0141   691
21.0241   716
21.0341   762
21.0441   772
21.0541   798
21.0641   734
21.0741   778
21.0841   803
21.0941   747
21.1041   788
21.1141   760
21.1241   730
21.1341   768
21.1441   796
21.1541   832
21.1641   805
21.1741   769
21.1841   814
21.1941   760
21.2041   767
21.2141   725
21.2241   741
21.2341   745
21.2441   655
21.2541   656
21.2641   697
21.2741   699
21.2841   625
21.2941   642
21.3041   632
21.3141   615
21.3241   586
21.3341   556
21.3441   618
21.3541   609
21.3641   589
21.3741   559
21.3841   539
21.3941   580
21.4041   498
21.4141   547
21.4241   557
21.4341   573
21.4441   570
21.4541   550
21.4641   548
21.4741   552
21.4841   544
21.4941   519
21.5041   547
21.5141   504
21.5241   572
21.5341   520
21.5441   544
21.5541   529
21.5641   502
21.5741   578
21.5841   538
21.5941   545
21.6041   575
21.6141   544
21.6241   544
21.6341   491
21.6441   538
21.6541   561
21.6641   565
21.6741   482
21.6841   523
21.6941   522
21.7041   534
21.7141   522
21.7241   539
21.7341   528
21.7441   562
21.7541   544
21.7641   528
21.7741   546
21.7841   575
21.7941   559
21.8041   541
21.8141   542
21.8241   513
21.8341   509
21.8441   572
21.8541   529
21.8641   525
21.8741   531
21.8841   529
21.8941   522
21.9041   525
21.9141   534
21.9241   519
21.9341   530
21.9441   537
21.9541   547
21.9641   505
21.9741   559
21.9841   553
21.9941   537
22.0041   554
22.0141   516
22.0241   507
22.0341   514
22.0441   541
22.0541   504
22.0641   496
22.0741   545
22.0841   534
22.0941   514
22.1041   527
22.1141   524
22.1241   549
22.1341   526
22.1441   546
22.1541   554
22.1641   541
22.1741   492
22.1841   545
22.1941   513
22.2041   515
22.2141   549
22.2241   559
22.2341   520
22.2441   490
22.2541   492
22.2641   534
22.2741   497
22.2841   568
22.2941   546
22.3041   519
22.3141   513
22.3241   529
22.3341   555
22.3441   531
22.3541   546
22.3641   532
22.3741   549
22.3841   517
22.3941   548
22.4041   556
22.4141   497
22.4241   538
22.4341   534
22.4441   554
22.4541   532
22.4641   509
22.4741   514
22.4841   514
22.4941   508
22.5041   518
22.5141   550
22.5241   555
22.5341   502
22.5441   543
22.5541   546
22.5641   526
22.5741   557
22.5841   476
22.5941   541
22.6041   536
22.6141   485
22.6241   530
22.6341   521
22.6441   536
22.6541   556
22.6641   536
22.6741   514
22.6841   497
22.6941   511
22.7041   499
22.7141   539
22.7241   529
22.7341   544
22.7441   500
22.7541   535
22.7641   566
22.7741   504
22.7841   483
22.7941   523
22.8041   529
22.8141   521
22.8241   516
22.8341   501
22.8441   491
22.8541   499
22.8641   562
22.8741   494
22.8841   531
22.8941   513
22.9041   513
22.9141   526
22.9241   511
22.9341   513
22.9441   539
22.9541   528
22.9641   517
22.9741   565
22.9841   503
22.9941   489
23.0041   507
23.0141   515
23.0241   521
23.0341   502
23.0441   500
23.0541   483
23.0641   520
23.0741   511
23.0841   496
23.0941   530
23.1041   497
23.1141   499
23.1241   519
23.1341   493
23.1441   478
23.1541   482
23.1641   525
23.1741   540
23.1841   519
23.1941   493
23.2041   518
23.2141   476
23.2241   544
23.2341   561
23.2441   519
23.2541   551
23.2641   521
23.2741   494
23.2841   554
23.2941   541
23.3041   504
23.3141   487
23.3241   500
23.3341   492
23.3441   504
23.3541   535
23.3641   521
23.3741   528
23.3841   503
23.3941   548
23.4041   477
23.4141   518
23.4241   534
23.4341   503
23.4441   514
23.4541   524
23.4641   506
23.4741   506
23.4841   516
23.4941   486
23.5041   489
23.5141   491
23.5241   507
23.5341   565
23.5441   488
23.5541   490
23.5641   539
23.5741   488
23.5841   518
23.5941   483
23.6041   485
23.6141   532
23.6241   549
23.6341   519
23.6441   534
23.6541   537
23.6641   526
23.6741   506
23.6841   536
23.6941   494
23.7041   503
23.7141   502
23.7241   530
23.7341   523
23.7441   557
23.7541   556
23.7641   549
23.7741   555
23.7841   531
23.7941   563
23.8041   542
23.8141   546
23.8241   571
23.8341   540
23.8441   540
23.8541   542
23.8641   553
23.8741   497
23.8841   540
23.8941   537
23.9041   526
23.9141   492
23.9241   525
23.9341   545
23.9441   539
23.9541   504
23.9641   494
23.9741   530
23.9841   538
23.9941   542
24.0041   497
24.0141   487
24.0241   462
24.0341   508
24.0441   511
24.0541   559
24.0641   508
24.0741   509
24.0841   497
24.0941   493
24.1041   509
24.1141   505
24.1241   467
24.1341   492
24.1441   509
24.1541   521
24.1641   501
24.1741   479
24.1841   458
24.1941   492
24.2041   504
24.2141   443
24.2241   515
24.2341   485
24.2441   484
24.2541   498
24.2641   502
24.2741   509
24.2841   486
24.2941   507
24.3041   492
24.3141   481
24.3241   531
24.3341   527
24.3441   520
24.3541   495
24.3641   509
24.3741   479
24.3841   514
24.3941   498
24.4041   506
24.4141   471
24.4241   489
24.4341   456
24.4441   465
24.4541   441
24.4641   480
24.4741   475
24.4841   491
24.4941   517
24.5041   517
24.5141   491
24.5241   469
24.5341   488
24.5441   497
24.5541   445
24.5641   476
24.5741   486
24.5841   511
24.5941   464
24.6041   485
24.6141   468
24.6241   480
24.6341   475
24.6441   479
24.6541   510
24.6641   444
24.6741   457
24.6841   478
24.6941   473
24.7041   479
24.7141   499
24.7241   477
24.7341   460
24.7441   487
24.7541   482
24.7641   442
24.7741   467
24.7841   461
24.7941   477
24.8041   459
24.8141   451
24.8241   450
24.8341   475
24.8441   458
24.8541   461
24.8641   428
24.8741   462
24.8841   466
24.8941   481
24.9041   448
24.9141   456
24.9241   449
24.9341   501
24.9441   458
24.9541   478
24.9641   477
24.9741   488
24.9841   481
24.9941   471
25.0041   432
25.0141   499
25.0241   495
25.0341   491
25.0441   472
25.0541   489
25.0641   485
25.0741   496
25.0841   509
25.0941   455
25.1041   486
25.1141   468
25.1241   503
25.1341   481
25.1441   491
25.1541   501
25.1641   478
25.1741   491
25.1841   508
25.1941   465
25.2041   468
25.2141   463
25.2241   500
25.2341   482
25.2441   478
25.2541   488
25.2641   451
25.2741   501
25.2841   495
25.2941   461
25.3041   491
25.3141   468
25.3241   498
25.3341   474
25.3441   462
25.3541   448
25.3641   482
25.3741   477
25.3841   466
25.3941   479
25.4041   433
25.4141   430
25.4241   448
25.4341   434
25.4441   447
25.4541   447
25.4641   445
25.4741   451
25.4841   425
25.4941   441
25.5041   466
25.5141   469
25.5241   478
25.5341   443
25.5441   454
25.5541   438
25.5641   429
25.5741   465
25.5841   423
25.5941   461
25.6041   466
25.6141   461
25.6241   514
25.6341   451
25.6441   425
25.6541   426
25.6641   440
25.6741   431
25.6841   429
25.6941   460
25.7041   454
25.7141   428
25.7241   426
25.7341   447
25.7441   460
25.7541   444
25.7641   448
25.7741   433
25.7841   479
25.7941   435
25.8041   398
25.8141   411
25.8241   434
25.8341   417
25.8441   467
25.8541   394
25.8641   422
25.8741   407
25.8841   445
25.8941   419
25.9041   432
25.9141   470
25.9241   427
25.9341   438
25.9441   474
25.9541   432
25.9641   423
25.9741   454
25.9841   465
25.9941   443
26.0041   442
26.0141   410
26.0241   448
26.0341   422
26.0441   443
26.0541   410
26.0641   421
26.0741   406
26.0841   393
26.0941   422
26.1041   389
26.1141   431
26.1241   414
26.1341   411
26.1441   430
26.1541   409
26.1641   420
26.1741   432
26.1841   416
26.1941   443
26.2041   455
26.2141   431
26.2241   453
26.2341   448
26.2441   402
26.2541   427
26.2641   420
26.2741   428
26.2841   412
26.2941   448
26.3041   404
26.3141   436
26.3241   450
26.3341   407
26.3441   406
26.3541   412
26.3641   427
26.3741   394
26.3841   409
26.3941   425
26.4041   464
26.4141   404
26.4241   397
26.4341   419
26.4441   430
26.4541   422
26.4641   414
26.4741   419
26.4841   428
26.4941   415
26.5041   386
26.5141   437
26.5241   423
26.5341   407
26.5441   440
26.5541   423
26.5641   416
26.5741   411
26.5841   394
26.5941   437
26.6041   408
26.6141   414
26.6241   402
26.6341   402
26.6441   390
26.6541   426
26.6641   409
26.6741   417
26.6841   412
26.6941   409
26.7041   427
26.7141   418
26.7241   377
26.7341   393
26.7441   439
26.7541   391
26.7641   424
26.7741   423
26.7841   392
26.7941   399
26.8041   380
26.8141   385
26.8241   416
26.8341   389
26.8441   389
26.8541   382
26.8641   406
26.8741   378
26.8841   395
26.8941   405
26.9041   406
26.9141   403
26.9241   377
26.9341   360
26.9441   396
26.9541   377
26.9641   373
26.9741   364
26.9841   390
26.9941   386
27.0041   383
27.0141   431
27.0241   407
27.0341   388
27.0441   397
27.0541   379
27.0641   384
27.0741   390
27.0841   412
27.0941   393
27.1041   357
27.1141   404
27.1241   409
27.1341   415
27.1441   407
27.1541   395
27.1641   373
27.1741   360
27.1841   395
27.1941   393
27.2041   405
27.2141   366
27.2241   378
27.2341   388
27.2441   412
27.2541   402
27.2641   390
27.2741   406
27.2841   383
27.2941   431
27.3041   386
27.3141   418
27.3241   406
27.3341   380
27.3441   380
27.3541   375
27.3641   374
27.3741   398
27.3841   403
27.3941   374
27.4041   402
27.4141   389
27.4241   392
27.4341   416
27.4441   402
27.4541   390
27.4641   384
27.4741   366
27.4841   397
27.4941   392
27.5041   394
27.5141   361
27.5241   377
27.5341   351
27.5441   354
27.5541   370
27.5641   347
27.5741   409
27.5841   370
27.5941   391
27.6041   350
27.6141   361
27.6241   362
27.6341   388
27.6441   348
27.6541   376
27.6641   398
27.6741   409
27.6841   363
27.6941   369
27.7041   382
27.7141   337
27.7241   340
27.7341   352
27.7441   363
27.7541   374
27.7641   380
27.7741   341
27.7841   341
27.7941   346
27.8041   354
27.8141   366
27.8241   339
27.8341   336
27.8441   367
27.8541   343
27.8641   373
27.8741   361
27.8841   367
27.8941   376
27.9041   381
27.9141   375
27.9241   370
27.9341   367
27.9441   385
27.9541   363
27.9641   336
27.9741   331
27.9841   363
27.9941   363
28.0041   351
28.0141   349
28.0241   362
28.0341   347
28.0441   391
28.0541   356
28.0641   320
28.0741   359
28.0841   353
28.0941   353
28.1041   346
28.1141   347
28.1241   293
28.1341   336
28.1441   340
28.1541   324
28.1641   310
28.1741   332
28.1841   337
28.1941   361
28.2041   340
28.2141   311
28.2241   322
28.2341   337
28.2441   349
28.2541   357
28.2641   331
28.2741   332
28.2841   317
28.2941   345
28.3041   341
28.3141   327
28.3241   348
28.3341   337
28.3441   347
28.3541   346
28.3641   342
28.3741   308
28.3841   301
28.3941   328
28.4041   314
28.4141   342
28.4241   354
28.4341   353
28.4441   347
28.4541   341
28.4641   355
28.4741   318
28.4841   327
28.4941   325
28.5041   339
28.5141   350
28.5241   337
28.5341   348
28.5441   327
28.5541   352
28.5641   331
28.5741   348
28.5841   334
28.5941   332
28.6041   321
28.6141   329
28.6241   340
28.6341   300
28.6441   317
28.6541   334
28.6641   309
28.6741   348
28.6841   339
28.6941   325
28.7041   319
28.7141   315
28.7241   300
28.7341   330
28.7441   326
28.7541   323
28.7641   330
28.7741   317
28.7841   315
28.7941   289
28.8041   315
28.8141   331
28.8241   301
28.8341   308
28.8441   307
28.8541   342
28.8641   316
28.8741   277
28.8841   292
28.8941   294
28.9041   284
28.9141   310
28.9241   298
28.9341   297
28.9441   325
28.9541   324
28.9641   311
28.9741   277
28.9841   279
28.9941   298
29.0041   285
29.0141   332
29.0241   350
29.0341   305
29.0441   312
29.0541   305
29.0641   311
29.0741   285
29.0841   292
29.0941   304
29.1041   297
29.1141   313
29.1241   290
29.1341   291
29.1441   306
29.1541   305
29.1641   288
29.1741   305
29.1841   302
29.1941   333
29.2041   329
29.2141   297
29.2241   316
29.2341   271
29.2441   324
29.2541   287
29.2641   297
29.2741   285
29.2841   291
29.2941   299
29.3041   317
29.3141   308
29.3241   298
29.3341   316
29.3441   292
29.3541   301
29.3641   288
29.3741   315
29.3841   288
29.3941   276
29.4041   289
29.4141   309
29.4241   301
29.4341   302
29.4441   271
29.4541   282
29.4641   281
29.4741   279
29.4841   304
29.4941   295
29.5041   284
29.5141   291
29.5241   259
29.5341   312
29.5441   266
29.5541   282
29.5641   290
29.5741   300
29.5841   290
29.5941   293
29.6041   290
29.6141   319
29.6241   285
29.6341   283
29.6441   291
29.6541   282
29.6641   304
29.6741   280
29.6841   258
29.6941   287
29.7041   301
29.7141   308
29.7241   274
29.7341   275
29.7441   272
29.7541   241
29.7641   269
29.7741   283
29.7841   281
29.7941   252
29.8041   257
29.8141   292
29.8241   269
29.8341   267
29.8441   268
29.8541   280
29.8641   240
29.8741   238
29.8841   274
29.8941   292
29.9041   271
29.9141   254
29.9241   304
29.9341   282
29.9441   282
29.9541   289
29.9641   268
29.9741   285
29.9841   272
29.9941   259
30.0041   260
30.0141   288
30.0241   286
30.0341   280
30.0441   280
30.0541   248
30.0641   245
30.0741   280
30.0841   278
30.0941   249
30.1041   276
30.1141   263
30.1241   290
30.1341   300
30.1441   252
30.1541   246
30.1641   290
30.1741   282
30.1841   241
30.1941   269
30.2041   250
30.2141   289
30.2241   280
30.2341   257
30.2441   238
30.2541   256
30.2641   268
30.2741   256
30.2841   287
30.2941   271
30.3041   238
30.3141   245
30.3241   259
30.3341   249
30.3441   267
30.3541   247
30.3641   252
30.3741   263
30.3841   248
30.3941   224
30.4041   220
30.4141   263
30.4241   276
30.4341   275
30.4441   236
30.4541   256
30.4641   229
30.4741   244
30.4841   243
30.4941   248
30.5041   265
30.5141   233
30.5241   241
30.5341   226
30.5441   267
30.5541   251
30.5641   276
30.5741   223
30.5841   281
30.5941   241
30.6041   227
30.6141   250
30.6241   256
30.6341   244
30.6441   214
30.6541   250
30.6641   226
30.6741   232
30.6841   239
30.6941   240
30.7041   241
30.7141   258
30.7241   244
30.7341   227
30.7441   251
30.7541   239
30.7641   258
30.7741   233
30.7841   251
30.7941   238
30.8041   249
30.8141   247
30.8241   226
30.8341   234
30.8441   229
30.8541   235
30.8641   233
30.8741   241
30.8841   248
30.8941   233
30.9041   258
30.9141   230
30.9241   229
30.9341   218
30.9441   241
30.9541   243
30.9641   248
30.9741   224
30.9841   246
30.9941   233
31.0041   247
31.0141   229
31.0241   229
31.0341   204
31.0441   225
31.0541   226
31.0641   266
31.0741   228
31.0841   235
31.0941   241
31.1041   230
31.1141   206
31.1241   213
31.1341   243
31.1441   221
31.1541   237
31.1641   226
31.1741   211
31.1841   249
31.1941   229
31.2041   221
31.2141   247
31.2241   212
31.2341   219
31.2441   243
31.2541   213
31.2641   189
31.2741   223
31.2841   224
31.2941   205
31.3041   237
31.3141   244
31.3241   217
31.3341   200
31.3441   212
31.3541   226
31.3641   237
31.3741   219
31.3841   226
31.3941   224
31.4041   233
31.4141   218
31.4241   238
31.4341   220
31.4441   229
31.4541   199
31.4641   216
31.4741   226
31.4841   217
31.4941   245
31.5041   191
31.5141   197
31.5241   215
31.5341   219
31.5441   222
31.5541   224
31.5641   221
31.5741   224
31.5841   210
31.5941   211
31.6041   208
31.6141   195
31.6241   241
31.6341   240
31.6441   235
31.6541   230
31.6641   224
31.6741   261
31.6841   199
31.6941   205
31.7041   213
31.7141   196
31.7241   225
31.7341   215
31.7441   221
31.7541   253
31.7641   217
31.7741   213
31.7841   213
31.7941   211
31.8041   200
31.8141   225
31.8241   206
31.8341   221
31.8441   214
31.8541   224
31.8641   223
31.8741   221
31.8841   212
31.8941   210
31.9041   224
31.9141   220
31.9241   235
31.9341   232
31.9441   209
31.9541   202
31.9641   217
31.9741   216
31.9841   224
31.9941   205
32.0041   200
32.0141   214
32.0241   221
32.0341   200
32.0441   202
32.0541   236
32.0641   215
32.0741   210
32.0841   225
32.0941   228
32.1041   204
32.1141   224
32.1241   229
32.1341   205
32.1441   211
32.1541   217
32.1641   217
32.1741   213
32.1841   233
32.1941   202
32.2041   223
32.2141   213
32.2241   228
32.2341   207
32.2441   215
32.2541   213
32.2641   211
32.2741   202
32.2841   232
32.2941   202
32.3041   203
32.3141   218
32.3241   225
32.3341   184
32.3441   199
32.3541   193
32.3641   180
32.3741   224
32.3841   192
32.3941   194
32.4041   179
32.4141   184
32.4241   203
32.4341   183
32.4441   194
32.4541   175
32.4641   179
32.4741   184
32.4841   195
32.4941   195
32.5041   191
32.5141   173
32.5241   183
32.5341   184
32.5441   208
32.5541   191
32.5641   163
32.5741   185
32.5841   181
32.5941   169
32.6041   169
32.6141   184
32.6241   179
32.6341   182
32.6441   174
32.6541   169
32.6641   179
32.6741   166
32.6841   177
32.6941   162
32.7041   199
32.7141   162
32.7241   164
32.7341   185
32.7441   184
32.7541   163
32.7641   187
32.7741   177
32.7841   171
32.7941   155
32.8041   170
32.8141   175
32.8241   150
32.8341   192
32.8441   161
32.8541   173
32.8641   158
32.8741   185
32.8841   172
32.8941   165
32.9041   181
32.9141   180
32.9241   177
32.9341   155
32.9441   164
32.9541   164
32.9641   178
32.9741   185
32.9841   164
32.9941   160
33.0041   160
33.0141   158
33.0241   193
33.0341   138
33.0441   178
33.0541   179
33.0641   162
33.0741   182
33.0841   156
33.0941   161
33.1041   168
33.1141   169
33.1241   167
33.1341   165
33.1441   174
33.1541   151
33.1641   156
33.1741   167
33.1841   140
33.1941   167
33.2041   167
33.2141   144
33.2241   170
33.2341   142
33.2441   167
33.2541   175
33.2641   174
33.2741   190
33.2841   174
33.2941   171
33.3041   155
33.3141   144
33.3241   180
33.3341   167
33.3441   179
33.3541   168
33.3641   168
33.3741   158
33.3841   134
33.3941   168
33.4041   150
33.4141   150
33.4241   154
33.4341   170
33.4441   143
33.4541   155
33.4641   163
33.4741   163
33.4841   168
33.4941   169
33.5041   140
33.5141   144
33.5241   159
33.5341   148
33.5441   166
33.5541   144
33.5641   158
33.5741   172
33.5841   164
33.5941   152
33.6041   142
33.6141   125
33.6241   149
33.6341   165
33.6441   142
33.6541   166
33.6641   164
33.6741   150
33.6841   157
33.6941   160
33.7041   143
33.7141   127
33.7241   151
33.7341   125
33.7441   153
33.7541   148
33.7641   141
33.7741   163
33.7841   158
33.7941   134
33.8041   128
33.8141   151
33.8241   151
33.8341   132
33.8441   138
33.8541   149
33.8641   129
33.8741   137
33.8841   140
33.8941   152
33.9041   139
33.9141   158
33.9241   130
33.9341   150
33.9441   145
33.9541   156
33.9641   145
33.9741   130
33.9841   145
33.9941   131
34.0041   143
34.0141   144
34.0241   151
34.0341   140
34.0441   148
34.0541   141
34.0641   131
34.0741   138
34.0841   150
34.0941   119
34.1041   137
34.1141   139
34.1241   130
34.1341   158
34.1441   134
34.1541   140
34.1641   158
34.1741   166
34.1841   139
34.1941   136
34.2041   147
34.2141   118
34.2241   151
34.2341   135
34.2441   142
34.2541   134
34.2641   126
34.2741   126
34.2841   125
34.2941   128
34.3041   126
34.3141   132
34.3241   130
34.3341   145
34.3441   138
34.3541   122
34.3641   118
34.3741   127
34.3841   146
34.3941   141
34.4041   147
34.4141   140
34.4241   129
34.4341   139
34.4441   142
34.4541   125
34.4641   138
34.4741   119
34.4841   129
34.4941   136
34.5041   120
34.5141   127
34.5241   108
34.5341   127
34.5441   122
34.5541   126
34.5641   145
34.5741   129
34.5841   128
34.5941   141
34.6041   126
34.6141   133
34.6241   116
34.6341   143
34.6441   121
34.6541   134
34.6641   117
34.6741   112
34.6841   128
34.6941   129
34.7041   131
34.7141   122
34.7241   125
34.7341   124
34.7441   117
34.7541   118
34.7641   149
34.7741   121
34.7841   117
34.7941   135
34.8041   131
34.8141   120
34.8241   100
34.8341   127
34.8441   137
34.8541   123
34.8641   146
34.8741   142
34.8841   118
34.8941   111
34.9041   117
34.9141   122
34.9241   119
34.9341   129
34.9441   120
34.9541   112
34.9641   105
34.9741   120
34.9841   120
34.9941   113
35.0041   125
35.0141   109
35.0241   121
35.0341   117
35.0441   105
35.0541   104
35.0641   131
35.0741   105
35.0841   127
35.0941   106
35.1041   103
35.1141    98
35.1241   111
35.1341   111
35.1441   100
35.1541    93
35.1641   108
35.1741   113
35.1841   107
35.1941   106
35.2041   116
35.2141   110
35.2241   120
35.2341    94
35.2441   101
35.2541   106
35.2641   107
35.2741    94
35.2841    95
35.2941   121
35.3041   106
35.3141   103
35.3241   100
35.3341   111
35.3441    97
35.3541    97
35.3641   106
35.3741   100
35.3841   108
35.3941   119
35.4041   122
35.4141   106
35.4241   129
35.4341   119
35.4441   103
35.4541   111
35.4641   112
35.4741    87
35.4841    91
35.4941    84
35.5041    88
35.5141    94
35.5241   114
35.5341   123
35.5441   101
35.5541   112
35.5641   102
35.5741   115
35.5841    85
35.5941    84
35.6041   105
35.6141   107
35.6241   107
35.6341    92
35.6441   101
35.6541    99
35.6641   110
35.6741   117
35.6841   103
35.6941    96
35.7041    96
35.7141    97
35.7241   124
35.7341   104
35.7441    99
35.7541    93
35.7641   100
35.7741   106
35.7841    92
35.7941    98
35.8041   108
35.8141    76
35.8241    88
35.8341    80
35.8441   104
35.8541    82
35.8641    99
35.8741    85
35.8841    81
35.8941   101
35.9041    87
35.9141    98
35.9241    78
35.9341   113
35.9441    90
35.9541    91
35.9641    97
35.9741   105
35.9841    92
35.9941   100
36.0041    90
36.0141    77
36.0241    91
36.0341    94
36.0441    93
36.0541    83
36.0641    97
36.0741    89
36.0841   104
36.0941    68
36.1041   109
36.1141   104
36.1241    98
36.1341    97
36.1441    92
36.1541   104
36.1641    86
36.1741   103
36.1841    95
36.1941    89
36.2041    86
36.2141    88
36.2241   102
36.2341    79
36.2441    72
36.2541    99
36.2641    85
36.2741    92
36.2841    87
36.2941    79
36.3041    96
36.3141    83
36.3241    81
36.3341    99
36.3441    85
36.3541    69
36.3641    94
36.3741    91
36.3841    92
36.3941   105
36.4041    92
36.4141    96
36.4241    88
36.4341    89
36.4441    89
36.4541    91
36.4641    79
36.4741    94
36.4841    84
36.4941    84
36.5041    88
36.5141    79
36.5241    93
36.5341    83
36.5441    91
36.5541    91
36.5641    89
36.5741    95
36.5841    90
36.5941    92
36.6041    84
36.6141    82
36.6241    83
36.6341    70
36.6441    89
36.6541    76
36.6641    80
36.6741    87
36.6841    70
36.6941    78
36.7041    87
36.7141    90
36.7241    75
36.7341    63
36.7441    65
36.7541    88
36.7641    81
36.7741    72
36.7841    61
36.7941    70
36.8041    90
36.8141    77
36.8241    79
36.8341    82
36.8441    67
36.8541    85
36.8641    88
36.8741    76
36.8841    85
36.8941    81
36.9041    79
36.9141    79
36.9241    91
36.9341    80
36.9441    80
36.9541    80
36.9641    63
36.9741    72
36.9841    77
36.9941    64
37.0041    77
37.0141    94
37.0241    80
37.0341    67
37.0441    71
37.0541    68
37.0641    83
37.0741    68
37.0841    79
37.0941    78
37.1041    74
37.1141    76
37.1241    90
37.1341    66
37.1441    58
37.1541    73
37.1641    76
37.1741    66
37.1841    76
37.1941    67
37.2041    74
37.2141    56
37.2241    68
37.2341    67
37.2441    70
37.2541    67
37.2641    79
37.2741    76
37.2841    75
37.2941    73
37.3041    57
37.3141    73
37.3241    69
37.3341    72
37.3441    57
37.3541    68
37.3641    83
37.3741    62
37.3841    68
37.3941    66
37.4041    64
37.4141    74
37.4241    78
37.4341    59
37.4441    66
37.4541    53
37.4641    78
37.4741    62
37.4841    72
37.4941    64
37.5041    54
37.5141    68
37.5241    57
37.5341    66
37.5441    61
37.5541    71
37.5641    67
37.5741    48
37.5841    57
37.5941    52
37.6041    44
37.6141    52
37.6241    53
37.6341    64
37.6441    68
37.6541    53
37.6641    77
37.6741    61
37.6841    63
37.6941    57
37.7041    58
37.7141    46
37.7241    69
37.7341    69
37.7441    53
37.7541    63
37.7641    56
37.7741    68
37.7841    53
37.7941    58
37.8041    46
37.8141    47
37.8241    60
37.8341    61
37.8441    68
37.8541    53
37.8641    59
37.8741    76
37.8841    70
37.8941    55
37.9041    57
37.9141    48
37.9241    68
37.9341    59
37.9441    60
37.9541    64
37.9641    52
37.9741    70
37.9841    63
37.9941    65
38.0041    68
38.0141    60
38.0241    52
38.0341    61
38.0441    63
38.0541    58
38.0641    69
38.0741    60
38.0841    65
38.0941    50
38.1041    53
38.1141    63
38.1241    52
38.1341    50
38.1441    54
38.1541    59
38.1641    43
38.1741    43
38.1841    52
38.1941    55
38.2041    59
38.2141    51
38.2241    49
38.2341    51
38.2441    49
38.2541    53
38.2641    58
38.2741    51
38.2841    54
38.2941    38
38.3041    48
38.3141    46
38.3241    60
38.3341    58
38.3441    58
38.3541    47
38.3641    50
38.3741    54
38.3841    57
38.3941    46
38.4041    55
38.4141    50
38.4241    52
38.4341    48
38.4441    49
38.4541    50
38.4641    44
38.4741    53
38.4841    49
38.4941    39
38.5041    49
38.5141    48
38.5241    49
38.5341    50
38.5441    45
38.5541    50
38.5641    49
38.5741    56
38.5841    52
38.5941    43
38.6041    54
38.6141    43
38.6241    46
38.6341    51
38.6441    41
38.6541    49
38.6641    54
38.6741    44
38.6841    52
38.6941    55
38.7041    46
38.7141    48
38.7241    37
38.7341    46
38.7441    52
38.7541    48
38.7641    50
38.7741    40
38.7841    45
38.7941    51
38.8041    34
38.8141    51
38.8241    46
38.8341    35
38.8441    30
38.8541    47
38.8641    31
38.8741    43
38.8841    65
38.8941    64
38.9041    46
38.9141    39
38.9241    42
38.9341    42
38.9441    37
38.9541    43
38.9641    44
38.9741    47
38.9841    45
38.9941    42
39.0041    34
39.0141    46
39.0241    39
39.0341    33
39.0441    52
39.0541    45
39.0641    51
39.0741    40
39.0841    39
39.0941    41
39.1041    47
39.1141    48
39.1241    52
39.1341    32
39.1441    38
39.1541    45
39.1641    48
39.1741    38
39.1841    37
39.1941    37
39.2041    37
39.2141    29
39.2241    36
39.2341    55
39.2441    38
39.2541    36
39.2641    42
39.2741    42
39.2841    38
39.2941    52
39.3041    26
39.3141    39
39.3241    37
39.3341    36
39.3441    39
39.3541    31
39.3641    39
39.3741    39
39.3841    46
39.3941    42
39.4041    25
39.4141    27
39.4241    34
39.4341    32
39.4441    56
39.4541    44
39.4641    38
39.4741    31
39.4841    41
39.4941    32
39.5041    33
39.5141    42
39.5241    37
39.5341    31
39.5441    33
39.5541    31
39.5641    30
39.5741    32
39.5841    34
39.5941    31
39.6041    27
39.6141    34
39.6241    29
39.6341    29
39.6441    38
39.6541    41
39.6641    32
39.6741    20
39.6841    45
39.6941    33
39.7041    27
39.7141    34
39.7241    34
39.7341    37
39.7441    33
39.7541    31
39.7641    36
39.7741    28
39.7841    36
39.7941    41
39.8041    37
39.8141    37
39.8241    37
39.8341    31
39.8441    39
39.8541    33
39.8641    35
39.8741    32
39.8841    30
39.8941    37
39.9041    41
39.9141    22
39.9241    26
39.9341    34
39.9441    26
39.9541    25
39.9641    32
39.9741    26
39.9841    26
