Bruker Nano GmbH Berlin, Germany
Esprit 1.9

Date: 4/1/2021 5:03:52 PM
Real time: 26737
Life time: 25288
Pulse density: 79884


Detector type: XFlash 430
Window type: Custom type
Detector thickness: 0.45
Si dead layer:0.029

Calibration, lin.: 10
Calibration, abs.: -955.9
Mn FWHM: 137.05
Fano factor: 0.121
Channels: 4095

Energy Counts
-0.9559     0
-0.9459     0
-0.9359     0
-0.9259     0
-0.9159     0
-0.9059     0
-0.8959     0
-0.8859     0
-0.8759     0
-0.8659     0
-0.8559     0
-0.8459     0
-0.8359     0
-0.8259     0
-0.8159     0
-0.8059     0
-0.7959     0
-0.7859     0
-0.7759     0
-0.7659     0
-0.7559     0
-0.7459     0
-0.7359     0
-0.7259     0
-0.7159     0
-0.7059     0
-0.6959     0
-0.6859     0
-0.6759     0
-0.6659     0
-0.6559     0
-0.6459     0
-0.6359     0
-0.6259     0
-0.6159     0
-0.6059     0
-0.5959     0
-0.5859     0
-0.5759     0
-0.5659     0
-0.5559     0
-0.5459     0
-0.5359     0
-0.5259     0
-0.5159     0
-0.5059     0
-0.4959     0
-0.4859     0
-0.4759     0
-0.4659     0
-0.4559     0
-0.4459     0
-0.4359     0
-0.4259     0
-0.4159     0
-0.4059     0
-0.3959     0
-0.3859     0
-0.3759     0
-0.3659     0
-0.3559     0
-0.3459     0
-0.3359     0
-0.3259     0
-0.3159     0
-0.3059     0
-0.2959     0
-0.2859     0
-0.2759     0
-0.2659     0
-0.2559     0
-0.2459     0
-0.2359     0
-0.2259     0
-0.2159     0
-0.2059     0
-0.1959     0
-0.1859     0
-0.1759     0
-0.1659     0
-0.1559     0
-0.1459     0
-0.1359     0
-0.1259     0
-0.1159     3
-0.1059    13
-0.0959    71
-0.0859   285
-0.0759   974
-0.0659  2908
-0.0559  7464
-0.0459 16045
-0.0359 29836
-0.0259 48243
-0.0159 66087
-0.0059 78024
 0.0041 78291
 0.0141 67314
 0.0241 49421
 0.0341 31076
 0.0441 16537
 0.0541  7726
 0.0641  3148
 0.0741  1096
 0.0841   313
 0.0941    96
 0.1041    30
 0.1141    14
 0.1241     9
 0.1341    11
 0.1441    12
 0.1541     9
 0.1641     7
 0.1741     4
 0.1841   208
 0.1941   425
 0.2041   342
 0.2141   360
 0.2241   363
 0.2341   353
 0.2441   353
 0.2541   394
 0.2641   364
 0.2741   358
 0.2841   362
 0.2941   345
 0.3041   357
 0.3141   350
 0.3241   358
 0.3341   357
 0.3441   360
 0.3541   335
 0.3641   321
 0.3741   322
 0.3841   319
 0.3941   328
 0.4041   339
 0.4141   331
 0.4241   335
 0.4341   312
 0.4441   335
 0.4541   340
 0.4641   317
 0.4741   322
 0.4841   319
 0.4941   319
 0.5041   331
 0.5141   311
 0.5241   319
 0.5341   311
 0.5441   318
 0.5541   302
 0.5641   281
 0.5741   302
 0.5841   292
 0.5941   272
 0.6041   270
 0.6141   292
 0.6241   296
 0.6341   283
 0.6441   291
 0.6541   275
 0.6641   284
 0.6741   291
 0.6841   295
 0.6941   286
 0.7041   280
 0.7141   271
 0.7241   261
 0.7341   262
 0.7441   266
 0.7541   256
 0.7641   249
 0.7741   246
 0.7841   257
 0.7941   263
 0.8041   263
 0.8141   266
 0.8241   244
 0.8341   251
 0.8441   274
 0.8541   261
 0.8641   253
 0.8741   235
 0.8841   234
 0.8941   254
 0.9041   284
 0.9141   254
 0.9241   257
 0.9341   261
 0.9441   266
 0.9541   259
 0.9641   254
 0.9741   225
 0.9841   229
 0.9941   254
 1.0041   243
 1.0141   229
 1.0241   261
 1.0341   229
 1.0441   241
 1.0541   232
 1.0641   254
 1.0741   228
 1.0841   245
 1.0941   249
 1.1041   241
 1.1141   223
 1.1241   233
 1.1341   236
 1.1441   244
 1.1541   215
 1.1641   220
 1.1741   225
 1.1841   226
 1.1941   239
 1.2041   228
 1.2141   233
 1.2241   231
 1.2341   235
 1.2441   217
 1.2541   228
 1.2641   206
 1.2741   218
 1.2841   213
 1.2941   204
 1.3041   218
 1.3141   219
 1.3241   229
 1.3341   242
 1.3441   204
 1.3541   221
 1.3641   218
 1.3741   218
 1.3841   214
 1.3941   210
 1.4041   218
 1.4141   221
 1.4241   218
 1.4341   210
 1.4441   216
 1.4541   209
 1.4641   198
 1.4741   193
 1.4841   203
 1.4941   215
 1.5041   211
 1.5141   215
 1.5241   223
 1.5341   210
 1.5441   221
 1.5541   199
 1.5641   222
 1.5741   202
 1.5841   212
 1.5941   206
 1.6041   197
 1.6141   214
 1.6241   204
 1.6341   210
 1.6441   246
 1.6541   257
 1.6641   331
 1.6741   365
 1.6841   461
 1.6941   565
 1.7041   686
 1.7141   784
 1.7241   920
 1.7341   927
 1.7441   911
 1.7541   871
 1.7641   797
 1.7741   706
 1.7841   587
 1.7941   481
 1.8041   424
 1.8141   334
 1.8241   298
 1.8341   268
 1.8441   255
 1.8541   236
 1.8641   212
 1.8741   236
 1.8841   245
 1.8941   234
 1.9041   229
 1.9141   219
 1.9241   230
 1.9341   232
 1.9441   240
 1.9541   216
 1.9641   262
 1.9741   225
 1.9841   258
 1.9941   248
 2.0041   300
 2.0141   264
 2.0241   270
 2.0341   272
 2.0441   254
 2.0541   266
 2.0641   212
 2.0741   213
 2.0841   208
 2.0941   200
 2.1041   209
 2.1141   209
 2.1241   217
 2.1341   193
 2.1441   194
 2.1541   193
 2.1641   196
 2.1741   191
 2.1841   186
 2.1941   175
 2.2041   171
 2.2141   188
 2.2241   188
 2.2341   164
 2.2441   155
 2.2541   188
 2.2641   202
 2.2741   206
 2.2841   171
 2.2941   197
 2.3041   211
 2.3141   183
 2.3241   196
 2.3341   179
 2.3441   183
 2.3541   171
 2.3641   181
 2.3741   166
 2.3841   189
 2.3941   164
 2.4041   171
 2.4141   158
 2.4241   160
 2.4341   181
 2.4441   167
 2.4541   173
 2.4641   174
 2.4741   169
 2.4841   171
 2.4941   156
 2.5041   183
 2.5141   144
 2.5241   178
 2.5341   146
 2.5441   177
 2.5541   173
 2.5641   152
 2.5741   162
 2.5841   155
 2.5941   178
 2.6041   169
 2.6141   162
 2.6241   156
 2.6341   150
 2.6441   173
 2.6541   162
 2.6641   161
 2.6741   158
 2.6841   177
 2.6941   157
 2.7041   163
 2.7141   176
 2.7241   144
 2.7341   155
 2.7441   153
 2.7541   160
 2.7641   161
 2.7741   160
 2.7841   166
 2.7941   147
 2.8041   184
 2.8141   169
 2.8241   154
 2.8341   162
 2.8441   162
 2.8541   163
 2.8641   171
 2.8741   176
 2.8841   153
 2.8941   151
 2.9041   163
 2.9141   126
 2.9241   143
 2.9341   165
 2.9441   148
 2.9541   145
 2.9641   143
 2.9741   158
 2.9841   140
 2.9941   155
 3.0041   143
 3.0141   145
 3.0241   138
 3.0341   145
 3.0441   151
 3.0541   149
 3.0641   150
 3.0741   140
 3.0841   119
 3.0941   144
 3.1041   136
 3.1141   121
 3.1241   164
 3.1341   136
 3.1441   130
 3.1541   126
 3.1641   124
 3.1741   134
 3.1841   127
 3.1941   143
 3.2041   124
 3.2141   147
 3.2241   149
 3.2341   187
 3.2441   205
 3.2541   240
 3.2641   243
 3.2741   266
 3.2841   310
 3.2941   358
 3.3041   383
 3.3141   364
 3.3241   374
 3.3341   334
 3.3441   331
 3.3541   268
 3.3641   250
 3.3741   216
 3.3841   192
 3.3941   180
 3.4041   147
 3.4141   150
 3.4241   129
 3.4341   122
 3.4441   121
 3.4541   127
 3.4641   123
 3.4741   130
 3.4841   127
 3.4941   136
 3.5041   132
 3.5141   131
 3.5241   147
 3.5341   160
 3.5441   162
 3.5541   205
 3.5641   240
 3.5741   257
 3.5841   341
 3.5941   413
 3.6041   538
 3.6141   675
 3.6241   768
 3.6341   987
 3.6441  1153
 3.6541  1377
 3.6641  1565
 3.6741  1638
 3.6841  1739
 3.6941  1718
 3.7041  1660
 3.7141  1513
 3.7241  1367
 3.7341  1139
 3.7441   971
 3.7541   730
 3.7641   614
 3.7741   511
 3.7841   334
 3.7941   262
 3.8041   191
 3.8141   185
 3.8241   168
 3.8341   120
 3.8441   140
 3.8541   140
 3.8641   116
 3.8741   121
 3.8841   116
 3.8941   123
 3.9041   152
 3.9141   137
 3.9241   161
 3.9341   188
 3.9441   205
 3.9541   236
 3.9641   227
 3.9741   281
 3.9841   320
 3.9941   346
 4.0041   355
 4.0141   334
 4.0241   372
 4.0341   338
 4.0441   327
 4.0541   264
 4.0641   250
 4.0741   222
 4.0841   207
 4.0941   171
 4.1041   129
 4.1141   136
 4.1241   130
 4.1341   114
 4.1441   113
 4.1541   120
 4.1641   105
 4.1741    92
 4.1841    96
 4.1941    94
 4.2041    78
 4.2141   110
 4.2241    90
 4.2341    94
 4.2441   107
 4.2541    83
 4.2641    89
 4.2741   103
 4.2841    87
 4.2941   110
 4.3041    93
 4.3141    98
 4.3241    83
 4.3341    88
 4.3441    84
 4.3541   116
 4.3641   126
 4.3741   109
 4.3841   141
 4.3941   162
 4.4041   175
 4.4141   187
 4.4241   206
 4.4341   268
 4.4441   340
 4.4541   363
 4.4641   438
 4.4741   444
 4.4841   503
 4.4941   539
 4.5041   516
 4.5141   511
 4.5241   450
 4.5341   446
 4.5441   394
 4.5541   353
 4.5641   322
 4.5741   275
 4.5841   248
 4.5941   177
 4.6041   176
 4.6141   152
 4.6241   161
 4.6341   126
 4.6441   125
 4.6541   128
 4.6641   118
 4.6741   121
 4.6841   102
 4.6941   125
 4.7041   104
 4.7141   120
 4.7241   119
 4.7341   117
 4.7441    99
 4.7541   111
 4.7641   127
 4.7741   131
 4.7841   150
 4.7941   130
 4.8041   143
 4.8141   153
 4.8241   171
 4.8341   150
 4.8441   147
 4.8541   166
 4.8641   174
 4.8741   188
 4.8841   176
 4.8941   164
 4.9041   174
 4.9141   210
 4.9241   180
 4.9341   201
 4.9441   178
 4.9541   193
 4.9641   178
 4.9741   161
 4.9841   162
 4.9941   140
 5.0041   153
 5.0141   177
 5.0241   135
 5.0341   121
 5.0441   116
 5.0541   129
 5.0641   125
 5.0741   115
 5.0841   124
 5.0941   106
 5.1041   130
 5.1141   115
 5.1241   128
 5.1341   130
 5.1441   113
 5.1541   121
 5.1641   118
 5.1741   147
 5.1841   126
 5.1941   113
 5.2041   107
 5.2141   108
 5.2241   109
 5.2341   113
 5.2441   121
 5.2541   127
 5.2641   124
 5.2741   107
 5.2841   112
 5.2941    98
 5.3041   100
 5.3141   116
 5.3241   127
 5.3341   141
 5.3441   142
 5.3541   111
 5.3641   139
 5.3741   146
 5.3841   133
 5.3941   128
 5.4041   151
 5.4141   149
 5.4241   156
 5.4341   146
 5.4441   141
 5.4541   133
 5.4641   129
 5.4741   131
 5.4841   130
 5.4941   112
 5.5041   124
 5.5141   123
 5.5241   141
 5.5341   126
 5.5441   106
 5.5541   116
 5.5641   126
 5.5741   113
 5.5841   124
 5.5941   121
 5.6041   119
 5.6141   116
 5.6241   112
 5.6341   128
 5.6441   117
 5.6541   112
 5.6641   122
 5.6741   119
 5.6841   121
 5.6941   129
 5.7041   113
 5.7141   115
 5.7241   138
 5.7341   135
 5.7441   129
 5.7541   110
 5.7641   134
 5.7741   150
 5.7841   156
 5.7941   179
 5.8041   191
 5.8141   208
 5.8241   221
 5.8341   222
 5.8441   247
 5.8541   265
 5.8641   274
 5.8741   266
 5.8841   289
 5.8941   273
 5.9041   304
 5.9141   264
 5.9241   285
 5.9341   268
 5.9441   250
 5.9541   237
 5.9641   230
 5.9741   192
 5.9841   180
 5.9941   170
 6.0041   157
 6.0141   153
 6.0241   143
 6.0341   179
 6.0441   156
 6.0541   159
 6.0641   136
 6.0741   139
 6.0841   172
 6.0941   177
 6.1041   166
 6.1141   149
 6.1241   151
 6.1341   153
 6.1441   171
 6.1541   181
 6.1641   187
 6.1741   192
 6.1841   241
 6.1941   275
 6.2041   318
 6.2141   380
 6.2241   525
 6.2341   677
 6.2441   907
 6.2541  1376
 6.2641  1828
 6.2741  2509
 6.2841  3307
 6.2941  4520
 6.3041  5708
 6.3141  7368
 6.3241  9002
 6.3341 10842
 6.3441 12618
 6.3541 14529
 6.3641 16080
 6.3741 17026
 6.3841 17905
 6.3941 18377
 6.4041 18301
 6.4141 17769
 6.4241 16626
 6.4341 15276
 6.4441 13748
 6.4541 11860
 6.4641  9957
 6.4741  8267
 6.4841  6610
 6.4941  5134
 6.5041  3986
 6.5141  2944
 6.5241  2253
 6.5341  1568
 6.5441  1165
 6.5541   861
 6.5641   583
 6.5741   461
 6.5841   312
 6.5941   284
 6.6041   274
 6.6141   225
 6.6241   215
 6.6341   271
 6.6441   222
 6.6541   241
 6.6641   219
 6.6741   202
 6.6841   195
 6.6941   198
 6.7041   209
 6.7141   200
 6.7241   197
 6.7341   186
 6.7441   219
 6.7541   230
 6.7641   204
 6.7741   214
 6.7841   217
 6.7941   235
 6.8041   221
 6.8141   222
 6.8241   232
 6.8341   224
 6.8441   232
 6.8541   282
 6.8641   288
 6.8741   295
 6.8841   361
 6.8941   386
 6.9041   420
 6.9141   537
 6.9241   691
 6.9341   744
 6.9441   894
 6.9541  1068
 6.9641  1355
 6.9741  1445
 6.9841  1890
 6.9941  2097
 7.0041  2372
 7.0141  2544
 7.0241  2714
 7.0341  3012
 7.0441  2962
 7.0541  3053
 7.0641  3109
 7.0741  2935
 7.0841  2737
 7.0941  2488
 7.1041  2296
 7.1141  1976
 7.1241  1761
 7.1341  1467
 7.1441  1259
 7.1541  1003
 7.1641   832
 7.1741   705
 7.1841   538
 7.1941   451
 7.2041   400
 7.2141   340
 7.2241   317
 7.2341   300
 7.2441   284
 7.2541   292
 7.2641   261
 7.2741   234
 7.2841   250
 7.2941   247
 7.3041   267
 7.3141   270
 7.3241   261
 7.3341   281
 7.3441   298
 7.3541   302
 7.3641   317
 7.3741   323
 7.3841   313
 7.3941   319
 7.4041   306
 7.4141   317
 7.4241   338
 7.4341   313
 7.4441   324
 7.4541   303
 7.4641   270
 7.4741   277
 7.4841   290
 7.4941   291
 7.5041   267
 7.5141   229
 7.5241   259
 7.5341   252
 7.5441   238
 7.5541   230
 7.5641   215
 7.5741   247
 7.5841   235
 7.5941   218
 7.6041   234
 7.6141   235
 7.6241   255
 7.6341   258
 7.6441   232
 7.6541   242
 7.6641   245
 7.6741   239
 7.6841   285
 7.6941   281
 7.7041   253
 7.7141   297
 7.7241   259
 7.7341   288
 7.7441   315
 7.7541   304
 7.7641   292
 7.7741   298
 7.7841   299
 7.7941   305
 7.8041   319
 7.8141   312
 7.8241   323
 7.8341   330
 7.8441   336
 7.8541   364
 7.8641   377
 7.8741   349
 7.8841   411
 7.8941   405
 7.9041   383
 7.9141   441
 7.9241   462
 7.9341   440
 7.9441   533
 7.9541   503
 7.9641   585
 7.9741   618
 7.9841   660
 7.9941   660
 8.0041   724
 8.0141   773
 8.0241   854
 8.0341   910
 8.0441   929
 8.0541  1055
 8.0641  1112
 8.0741  1180
 8.0841  1264
 8.0941  1260
 8.1041  1407
 8.1141  1461
 8.1241  1548
 8.1341  1590
 8.1441  1569
 8.1541  1620
 8.1641  1711
 8.1741  1695
 8.1841  1707
 8.1941  1729
 8.2041  1765
 8.2141  1708
 8.2241  1775
 8.2341  1818
 8.2441  1958
 8.2541  1889
 8.2641  2010
 8.2741  2195
 8.2841  2224
 8.2941  2369
 8.3041  2595
 8.3141  2854
 8.3241  3057
 8.3341  3343
 8.3441  3483
 8.3541  3592
 8.3641  3886
 8.3741  3945
 8.3841  3982
 8.3941  4000
 8.4041  3885
 8.4141  3677
 8.4241  3571
 8.4341  3306
 8.4441  3053
 8.4541  2673
 8.4641  2327
 8.4741  2081
 8.4841  1787
 8.4941  1487
 8.5041  1293
 8.5141  1056
 8.5241   926
 8.5341   776
 8.5441   647
 8.5541   613
 8.5641   513
 8.5741   513
 8.5841   486
 8.5941   434
 8.6041   426
 8.6141   418
 8.6241   408
 8.6341   406
 8.6441   385
 8.6541   416
 8.6641   420
 8.6741   408
 8.6841   453
 8.6941   416
 8.7041   417
 8.7141   416
 8.7241   400
 8.7341   386
 8.7441   367
 8.7541   400
 8.7641   427
 8.7741   422
 8.7841   348
 8.7941   351
 8.8041   380
 8.8141   414
 8.8241   374
 8.8341   416
 8.8441   396
 8.8541   392
 8.8641   384
 8.8741   426
 8.8841   438
 8.8941   428
 8.9041   435
 8.9141   444
 8.9241   453
 8.9341   447
 8.9441   451
 8.9541   494
 8.9641   492
 8.9741   512
 8.9841   525
 8.9941   521
 9.0041   524
 9.0141   538
 9.0241   525
 9.0341   551
 9.0441   556
 9.0541   578
 9.0641   632
 9.0741   620
 9.0841   652
 9.0941   715
 9.1041   647
 9.1141   664
 9.1241   720
 9.1341   749
 9.1441   770
 9.1541   829
 9.1641   849
 9.1741   881
 9.1841   916
 9.1941   914
 9.2041   977
 9.2141  1054
 9.2241  1104
 9.2341  1115
 9.2441  1161
 9.2541  1241
 9.2641  1284
 9.2741  1325
 9.2841  1398
 9.2941  1440
 9.3041  1472
 9.3141  1484
 9.3241  1550
 9.3341  1604
 9.3441  1624
 9.3541  1658
 9.3641  1734
 9.3741  1733
 9.3841  1745
 9.3941  1740
 9.4041  1749
 9.4141  1789
 9.4241  1781
 9.4341  1810
 9.4441  1857
 9.4541  1782
 9.4641  1853
 9.4741  1901
 9.4841  1915
 9.4941  1908
 9.5041  2015
 9.5141  1991
 9.5241  2062
 9.5341  2183
 9.5441  2146
 9.5541  2285
 9.5641  2391
 9.5741  2509
 9.5841  2687
 9.5941  2876
 9.6041  3008
 9.6141  3130
 9.6241  3236
 9.6341  3315
 9.6441  3500
 9.6541  3456
 9.6641  3538
 9.6741  3540
 9.6841  3490
 9.6941  3436
 9.7041  3201
 9.7141  3173
 9.7241  3062
 9.7341  2850
 9.7441  2666
 9.7541  2523
 9.7641  2357
 9.7741  2239
 9.7841  2134
 9.7941  2074
 9.8041  1948
 9.8141  1993
 9.8241  1913
 9.8341  1889
 9.8441  1829
 9.8541  1885
 9.8641  1785
 9.8741  1824
 9.8841  1841
 9.8941  1883
 9.9041  1919
 9.9141  1957
 9.9241  1921
 9.9341  1922
 9.9441  1901
 9.9541  1806
 9.9641  1843
 9.9741  1776
 9.9841  1701
 9.9941  1586
10.0041  1532
10.0141  1374
10.0241  1302
10.0341  1196
10.0441  1062
10.0541   978
10.0641   871
10.0741   759
10.0841   688
10.0941   651
10.1041   578
10.1141   490
10.1241   490
10.1341   464
10.1441   453
10.1541   427
10.1641   371
10.1741   384
10.1841   361
10.1941   331
10.2041   319
10.2141   337
10.2241   329
10.2341   292
10.2441   299
10.2541   265
10.2641   275
10.2741   283
10.2841   271
10.2941   257
10.3041   244
10.3141   241
10.3241   233
10.3341   245
10.3441   243
10.3541   244
10.3641   242
10.3741   228
10.3841   230
10.3941   215
10.4041   225
10.4141   227
10.4241   206
10.4341   229
10.4441   220
10.4541   229
10.4641   212
10.4741   191
10.4841   210
10.4941   220
10.5041   231
10.5141   237
10.5241   237
10.5341   231
10.5441   245
10.5541   269
10.5641   269
10.5741   237
10.5841   247
10.5941   261
10.6041   267
10.6141   263
10.6241   253
10.6341   267
10.6441   265
10.6541   267
10.6641   263
10.6741   251
10.6841   262
10.6941   304
10.7041   308
10.7141   292
10.7241   275
10.7341   292
10.7441   302
10.7541   328
10.7641   292
10.7741   313
10.7841   341
10.7941   327
10.8041   327
10.8141   351
10.8241   326
10.8341   351
10.8441   367
10.8541   343
10.8641   356
10.8741   354
10.8841   371
10.8941   400
10.9041   387
10.9141   392
10.9241   386
10.9341   381
10.9441   373
10.9541   393
10.9641   410
10.9741   391
10.9841   364
10.9941   351
11.0041   394
11.0141   372
11.0241   371
11.0341   356
11.0441   350
11.0541   341
11.0641   335
11.0741   324
11.0841   319
11.0941   341
11.1041   346
11.1141   347
11.1241   347
11.1341   347
11.1441   347
11.1541   366
11.1641   393
11.1741   401
11.1841   391
11.1941   411
11.2041   455
11.2141   472
11.2241   470
11.2341   485
11.2441   518
11.2541   513
11.2641   513
11.2741   532
11.2841   534
11.2941   502
11.3041   515
11.3141   541
11.3241   513
11.3341   483
11.3441   441
11.3541   406
11.3641   400
11.3741   374
11.3841   365
11.3941   356
11.4041   342
11.4141   301
11.4241   308
11.4341   293
11.4441   273
11.4541   281
11.4641   269
11.4741   243
11.4841   282
11.4941   279
11.5041   258
11.5141   254
11.5241   270
11.5341   283
11.5441   292
11.5541   278
11.5641   281
11.5741   304
11.5841   298
11.5941   303
11.6041   293
11.6141   275
11.6241   295
11.6341   313
11.6441   316
11.6541   306
11.6641   300
11.6741   293
11.6841   285
11.6941   289
11.7041   265
11.7141   245
11.7241   266
11.7341   271
11.7441   250
11.7541   249
11.7641   225
11.7741   210
11.7841   222
11.7941   223
11.8041   236
11.8141   218
11.8241   216
11.8341   205
11.8441   192
11.8541   193
11.8641   202
11.8741   202
11.8841   203
11.8941   201
11.9041   205
11.9141   210
11.9241   212
11.9341   205
11.9441   209
11.9541   218
11.9641   231
11.9741   230
11.9841   212
11.9941   217
12.0041   219
12.0141   225
12.0241   230
12.0341   235
12.0441   226
12.0541   226
12.0641   211
12.0741   206
12.0841   212
12.0941   229
12.1041   215
12.1141   199
12.1241   213
12.1341   202
12.1441   186
12.1541   188
12.1641   197
12.1741   202
12.1841   210
12.1941   198
12.2041   199
12.2141   211
12.2241   196
12.2341   199
12.2441   217
12.2541   210
12.2641   214
12.2741   186
12.2841   184
12.2941   206
12.3041   216
12.3141   214
12.3241   193
12.3341   193
12.3441   194
12.3541   190
12.3641   179
12.3741   178
12.3841   205
12.3941   210
12.4041   196
12.4141   208
12.4241   208
12.4341   200
12.4441   211
12.4541   200
12.4641   208
12.4741   210
12.4841   214
12.4941   216
12.5041   210
12.5141   216
12.5241   207
12.5341   212
12.5441   212
12.5541   207
12.5641   222
12.5741   222
12.5841   235
12.5941   241
12.6041   226
12.6141   215
12.6241   219
12.6341   233
12.6441   234
12.6541   223
12.6641   215
12.6741   216
12.6841   221
12.6941   228
12.7041   233
12.7141   225
12.7241   216
12.7341   210
12.7441   192
12.7541   203
12.7641   225
12.7741   230
12.7841   226
12.7941   216
12.8041   207
12.8141   204
12.8241   208
12.8341   220
12.8441   229
12.8541   227
12.8641   223
12.8741   224
12.8841   227
12.8941   226
12.9041   223
12.9141   229
12.9241   239
12.9341   242
12.9441   239
12.9541   243
12.9641   256
12.9741   261
12.9841   254
12.9941   250
13.0041   245
13.0141   242
13.0241   247
13.0341   254
13.0441   257
13.0541   262
13.0641   262
13.0741   260
13.0841   259
13.0941   256
13.1041   253
13.1141   255
13.1241   255
13.1341   257
13.1441   264
13.1541   263
13.1641   256
13.1741   257
13.1841   268
13.1941   257
13.2041   270
13.2141   312
13.2241   322
13.2341   324
13.2441   337
13.2541   347
13.2641   354
13.2741   343
13.2841   350
13.2941   408
13.3041   442
13.3141   449
13.3241   459
13.3341   470
13.3441   483
13.3541   501
13.3641   477
13.3741   482
13.3841   497
13.3941   499
13.4041   498
13.4141   465
13.4241   449
13.4341   450
13.4441   453
13.4541   447
13.4641   414
13.4741   387
13.4841   373
13.4941   369
13.5041   351
13.5141   319
13.5241   312
13.5341   315
13.5441   312
13.5541   303
13.5641   306
13.5741   303
13.5841   290
13.5941   287
13.6041   288
13.6141   282
13.6241   280
13.6341   262
13.6441   264
13.6541   265
13.6641   274
13.6741   280
13.6841   270
13.6941   289
13.7041   299
13.7141   281
13.7241   286
13.7341   285
13.7441   272
13.7541   285
13.7641   304
13.7741   287
13.7841   278
13.7941   303
13.8041   297
13.8141   299
13.8241   301
13.8341   291
13.8441   293
13.8541   304
13.8641   318
13.8741   308
13.8841   304
13.8941   310
13.9041   329
13.9141   351
13.9241   368
13.9341   383
13.9441   392
13.9541   407
13.9641   419
13.9741   447
13.9841   477
13.9941   495
14.0041   540
14.0141   577
14.0241   608
14.0341   674
14.0441   744
14.0541   783
14.0641   825
14.0741   873
14.0841   904
14.0941   955
14.1041  1003
14.1141   999
14.1241  1006
14.1341  1056
14.1441  1036
14.1541   993
14.1641  1039
14.1741  1055
14.1841   992
14.1941   939
14.2041   889
14.2141   855
14.2241   848
14.2341   794
14.2441   717
14.2541   672
14.2641   640
14.2741   604
14.2841   560
14.2941   534
14.3041   486
14.3141   447
14.3241   418
14.3341   373
14.3441   369
14.3541   372
14.3641   365
14.3741   370
14.3841   373
14.3941   363
14.4041   341
14.4141   335
14.4241   332
14.4341   325
14.4441   328
14.4541   328
14.4641   315
14.4741   296
14.4841   292
14.4941   296
14.5041   312
14.5141   334
14.5241   317
14.5341   307
14.5441   319
14.5541   321
14.5641   311
14.5741   310
14.5841   314
14.5941   323
14.6041   339
14.6141   325
14.6241   321
14.6341   297
14.6441   298
14.6541   322
14.6641   343
14.6741   327
14.6841   315
14.6941   348
14.7041   344
14.7141   352
14.7241   343
14.7341   327
14.7441   346
14.7541   344
14.7641   342
14.7741   348
14.7841   318
14.7941   311
14.8041   345
14.8141   344
14.8241   355
14.8341   372
14.8441   366
14.8541   364
14.8641   373
14.8741   361
14.8841   360
14.8941   377
14.9041   378
14.9141   385
14.9241   385
14.9341   399
14.9441   382
14.9541   375
14.9641   389
14.9741   396
14.9841   396
14.9941   390
15.0041   406
15.0141   431
15.0241   414
15.0341   386
15.0441   398
15.0541   385
15.0641   379
15.0741   373
15.0841   347
15.0941   367
15.1041   404
15.1141   380
15.1241   334
15.1341   327
15.1441   351
15.1541   363
15.1641   362
15.1741   343
15.1841   345
15.1941   355
15.2041   364
15.2141   371
15.2241   371
15.2341   374
15.2441   369
15.2541   381
15.2641   381
15.2741   372
15.2841   367
15.2941   371
15.3041   373
15.3141   372
15.3241   356
15.3341   358
15.3441   368
15.3541   387
15.3641   384
15.3741   366
15.3841   353
15.3941   377
15.4041   378
15.4141   358
15.4241   357
15.4341   372
15.4441   356
15.4541   362
15.4641   373
15.4741   359
15.4841   360
15.4941   365
15.5041   374
15.5141   382
15.5241   398
15.5341   408
15.5441   402
15.5541   414
15.5641   409
15.5741   417
15.5841   428
15.5941   427
15.6041   438
15.6141   427
15.6241   426
15.6341   440
15.6441   445
15.6541   431
15.6641   462
15.6741   485
15.6841   472
15.6941   464
15.7041   492
15.7141   528
15.7241   546
15.7341   560
15.7441   539
15.7541   538
15.7641   560
15.7741   563
15.7841   569
15.7941   615
15.8041   603
15.8141   566
15.8241   564
15.8341   569
15.8441   557
15.8541   549
15.8641   559
15.8741   564
15.8841   542
15.8941   531
15.9041   526
15.9141   502
15.9241   503
15.9341   497
15.9441   487
15.9541   494
15.9641   465
15.9741   469
15.9841   473
15.9941   470
16.0041   457
16.0141   457
16.0241   436
16.0341   448
16.0441   456
16.0541   437
16.0641   426
16.0741   434
16.0841   458
16.0941   433
16.1041   428
16.1141   437
16.1241   446
16.1341   430
16.1441   418
16.1541   415
16.1641   430
16.1741   433
16.1841   412
16.1941   414
16.2041   417
16.2141   420
16.2241   426
16.2341   414
16.2441   410
16.2541   428
16.2641   448
16.2741   432
16.2841   439
16.2941   459
16.3041   446
16.3141   447
16.3241   462
16.3341   444
16.3441   418
16.3541   440
16.3641   464
16.3741   463
16.3841   454
16.3941   446
16.4041   446
16.4141   453
16.4241   457
16.4341   450
16.4441   448
16.4541   461
16.4641   444
16.4741   451
16.4841   470
16.4941   453
16.5041   460
16.5141   462
16.5241   458
16.5341   454
16.5441   455
16.5541   459
16.5641   445
16.5741   430
16.5841   435
16.5941   470
16.6041   497
16.6141   480
16.6241   466
16.6341   463
16.6441   457
16.6541   463
16.6641   485
16.6741   486
16.6841   490
16.6941   494
16.7041   479
16.7141   477
16.7241   462
16.7341   472
16.7441   465
16.7541   471
16.7641   462
16.7741   454
16.7841   485
16.7941   510
16.8041   520
16.8141   487
16.8241   495
16.8341   491
16.8441   484
16.8541   471
16.8641   483
16.8741   503
16.8841   464
16.8941   470
16.9041   464
16.9141   463
16.9241   480
16.9341   472
16.9441   478
16.9541   498
16.9641   508
16.9741   501
16.9841   477
16.9941   487
17.0041   491
17.0141   485
17.0241   479
17.0341   473
17.0441   496
17.0541   465
17.0641   477
17.0741   517
17.0841   481
17.0941   496
17.1041   509
17.1141   480
17.1241   463
17.1341   526
17.1441   501
17.1541   475
17.1641   500
17.1741   537
17.1841   491
17.1941   477
17.2041   486
17.2141   505
17.2241   498
17.2341   520
17.2441   491
17.2541   498
17.2641   515
17.2741   515
17.2841   536
17.2941   491
17.3041   500
17.3141   505
17.3241   502
17.3341   506
17.3441   490
17.3541   499
17.3641   535
17.3741   546
17.3841   532
17.3941   541
17.4041   547
17.4141   522
17.4241   472
17.4341   512
17.4441   530
17.4541   548
17.4641   519
17.4741   544
17.4841   553
17.4941   534
17.5041   545
17.5141   527
17.5241   520
17.5341   529
17.5441   541
17.5541   544
17.5641   534
17.5741   525
17.5841   554
17.5941   547
17.6041   543
17.6141   531
17.6241   516
17.6341   549
17.6441   574
17.6541   565
17.6641   554
17.6741   551
17.6841   533
17.6941   531
17.7041   532
17.7141   542
17.7241   526
17.7341   527
17.7441   542
17.7541   580
17.7641   543
17.7741   525
17.7841   552
17.7941   532
17.8041   564
17.8141   581
17.8241   570
17.8341   531
17.8441   565
17.8541   538
17.8641   550
17.8741   549
17.8841   537
17.8941   568
17.9041   567
17.9141   547
17.9241   538
17.9341   557
17.9441   582
17.9541   563
17.9641   555
17.9741   572
17.9841   592
17.9941   574
18.0041   584
18.0141   567
18.0241   585
18.0341   562
18.0441   570
18.0541   573
18.0641   597
18.0741   596
18.0841   571
18.0941   598
18.1041   575
18.1141   581
18.1241   576
18.1341   555
18.1441   563
18.1541   582
18.1641   544
18.1741   530
18.1841   569
18.1941   602
18.2041   571
18.2141   565
18.2241   554
18.2341   596
18.2441   600
18.2541   593
18.2641   580
18.2741   551
18.2841   567
18.2941   592
18.3041   611
18.3141   577
18.3241   580
18.3341   578
18.3441   570
18.3541   596
18.3641   577
18.3741   584
18.3841   600
18.3941   561
18.4041   554
18.4141   596
18.4241   585
18.4341   599
18.4441   632
18.4541   618
18.4641   563
18.4741   575
18.4841   589
18.4941   598
18.5041   621
18.5141   604
18.5241   589
18.5341   597
18.5441   609
18.5541   609
18.5641   619
18.5741   587
18.5841   609
18.5941   606
18.6041   615
18.6141   632
18.6241   588
18.6341   585
18.6441   596
18.6541   639
18.6641   627
18.6741   616
18.6841   623
18.6941   586
18.7041   594
18.7141   565
18.7241   617
18.7341   575
18.7441   571
18.7541   625
18.7641   629
18.7741   624
18.7841   604
18.7941   605
18.8041   627
18.8141   603
18.8241   590
18.8341   604
18.8441   610
18.8541   568
18.8641   620
18.8741   610
18.8841   615
18.8941   621
18.9041   599
18.9141   612
18.9241   624
18.9341   594
18.9441   639
18.9541   607
18.9641   627
18.9741   655
18.9841   643
18.9941   624
19.0041   625
19.0141   627
19.0241   605
19.0341   629
19.0441   618
19.0541   615
19.0641   621
19.0741   607
19.0841   606
19.0941   618
19.1041   623
19.1141   590
19.1241   597
19.1341   582
19.1441   613
19.1541   590
19.1641   613
19.1741   662
19.1841   659
19.1941   611
19.2041   628
19.2141   643
19.2241   638
19.2341   613
19.2441   629
19.2541   609
19.2641   647
19.2741   628
19.2841   579
19.2941   597
19.3041   646
19.3141   638
19.3241   630
19.3341   643
19.3441   606
19.3541   637
19.3641   614
19.3741   624
19.3841   632
19.3941   645
19.4041   721
19.4141   643
19.4241   619
19.4341   616
19.4441   637
19.4541   633
19.4641   597
19.4741   631
19.4841   624
19.4941   660
19.5041   662
19.5141   632
19.5241   651
19.5341   678
19.5441   636
19.5541   663
19.5641   650
19.5741   632
19.5841   682
19.5941   666
19.6041   647
19.6141   645
19.6241   668
19.6341   664
19.6441   619
19.6541   667
19.6641   660
19.6741   628
19.6841   654
19.6941   644
19.7041   641
19.7141   639
19.7241   671
19.7341   644
19.7441   646
19.7541   637
19.7641   649
19.7741   644
19.7841   640
19.7941   649
19.8041   687
19.8141   664
19.8241   682
19.8341   701
19.8441   697
19.8541   708
19.8641   655
19.8741   669
19.8841   668
19.8941   621
19.9041   652
19.9141   652
19.9241   652
19.9341   616
19.9441   695
19.9541   638
19.9641   634
19.9741   624
19.9841   648
19.9941   635
20.0041   645
20.0141   632
20.0241   637
20.0341   656
20.0441   664
20.0541   644
20.0641   653
20.0741   664
20.0841   661
20.0941   643
20.1041   655
20.1141   662
20.1241   703
20.1341   660
20.1441   686
20.1541   675
20.1641   652
20.1741   671
20.1841   660
20.1941   658
20.2041   663
20.2141   630
20.2241   651
20.2341   666
20.2441   657
20.2541   677
20.2641   679
20.2741   635
20.2841   674
20.2941   642
20.3041   657
20.3141   680
20.3241   657
20.3341   687
20.3441   680
20.3541   679
20.3641   686
20.3741   669
20.3841   664
20.3941   685
20.4041   616
20.4141   663
20.4241   683
20.4341   644
20.4441   679
20.4541   654
20.4641   698
20.4741   685
20.4841   684
20.4941   623
20.5041   665
20.5141   660
20.5241   681
20.5341   633
20.5441   638
20.5541   677
20.5641   691
20.5741   669
20.5841   667
20.5941   651
20.6041   658
20.6141   674
20.6241   672
20.6341   697
20.6441   663
20.6541   651
20.6641   678
20.6741   686
20.6841   702
20.6941   638
20.7041   696
20.7141   706
20.7241   731
20.7341   707
20.7441   720
20.7541   663
20.7641   656
20.7741   691
20.7841   681
20.7941   677
20.8041   677
20.8141   721
20.8241   729
20.8341   744
20.8441   724
20.8541   740
20.8641   720
20.8741   780
20.8841   733
20.8941   819
20.9041   797
20.9141   765
20.9241   801
20.9341   782
20.9441   771
20.9541   808
20.9641   850
20.9741   853
20.9841   873
20.9941   896
21.0041   915
21.0141   897
21.0241   908
21.0341   951
21.0441  1038
21.0541  1008
21.0641   991
21.0741  1032
21.0841   994
21.0941   968
21.1041  1040
21.1141  1052
21.1241  1026
21.1341  1021
21.1441  1017
21.1541  1051
21.1641  1040
21.1741   987
21.1841  1055
21.1941  1022
21.2041   984
21.2141   945
21.2241   898
21.2341   972
21.2441   952
21.2541   919
21.2641   858
21.2741   887
21.2841   835
21.2941   779
21.3041   821
21.3141   810
21.3241   849
21.3341   736
21.3441   784
21.3541   783
21.3641   754
21.3741   696
21.3841   698
21.3941   705
21.4041   652
21.4141   724
21.4241   744
21.4341   740
21.4441   700
21.4541   726
21.4641   733
21.4741   691
21.4841   746
21.4941   653
21.5041   674
21.5141   668
21.5241   647
21.5341   740
21.5441   648
21.5541   666
21.5641   625
21.5741   675
21.5841   652
21.5941   742
21.6041   684
21.6141   712
21.6241   678
21.6341   700
21.6441   698
21.6541   670
21.6641   714
21.6741   669
21.6841   664
21.6941   704
21.7041   696
21.7141   666
21.7241   664
21.7341   677
21.7441   717
21.7541   729
21.7641   692
21.7741   718
21.7841   705
21.7941   670
21.8041   674
21.8141   702
21.8241   658
21.8341   682
21.8441   708
21.8541   697
21.8641   721
21.8741   668
21.8841   674
21.8941   659
21.9041   717
21.9141   687
21.9241   699
21.9341   661
21.9441   660
21.9541   674
21.9641   678
21.9741   715
21.9841   651
21.9941   687
22.0041   674
22.0141   677
22.0241   704
22.0341   656
22.0441   712
22.0541   682
22.0641   702
22.0741   689
22.0841   684
22.0941   705
22.1041   712
22.1141   657
22.1241   685
22.1341   636
22.1441   671
22.1541   668
22.1641   684
22.1741   700
22.1841   683
22.1941   671
22.2041   670
22.2141   648
22.2241   690
22.2341   693
22.2441   643
22.2541   652
22.2641   701
22.2741   674
22.2841   706
22.2941   709
22.3041   678
22.3141   665
22.3241   672
22.3341   641
22.3441   660
22.3541   658
22.3641   687
22.3741   718
22.3841   663
22.3941   689
22.4041   682
22.4141   654
22.4241   676
22.4341   668
22.4441   662
22.4541   613
22.4641   688
22.4741   646
22.4841   665
22.4941   674
22.5041   690
22.5141   687
22.5241   661
22.5341   634
22.5441   612
22.5541   723
22.5641   663
22.5741   678
22.5841   671
22.5941   649
22.6041   743
22.6141   658
22.6241   704
22.6341   666
22.6441   662
22.6541   650
22.6641   671
22.6741   677
22.6841   655
22.6941   651
22.7041   698
22.7141   648
22.7241   637
22.7341   650
22.7441   653
22.7541   684
22.7641   652
22.7741   696
22.7841   611
22.7941   703
22.8041   705
22.8141   682
22.8241   725
22.8341   623
22.8441   689
22.8541   715
22.8641   732
22.8741   711
22.8841   692
22.8941   671
22.9041   683
22.9141   711
22.9241   662
22.9341   684
22.9441   634
22.9541   719
22.9641   671
22.9741   672
22.9841   678
22.9941   663
23.0041   678
23.0141   639
23.0241   644
23.0341   665
23.0441   658
23.0541   660
23.0641   659
23.0741   708
23.0841   696
23.0941   671
23.1041   622
23.1141   669
23.1241   628
23.1341   684
23.1441   660
23.1541   648
23.1641   604
23.1741   671
23.1841   667
23.1941   684
23.2041   706
23.2141   687
23.2241   645
23.2341   635
23.2441   671
23.2541   652
23.2641   740
23.2741   648
23.2841   662
23.2941   696
23.3041   666
23.3141   652
23.3241   631
23.3341   641
23.3441   687
23.3541   644
23.3641   683
23.3741   634
23.3841   684
23.3941   646
23.4041   637
23.4141   661
23.4241   676
23.4341   647
23.4441   694
23.4541   680
23.4641   672
23.4741   658
23.4841   659
23.4941   696
23.5041   682
23.5141   657
23.5241   686
23.5341   655
23.5441   691
23.5541   670
23.5641   694
23.5741   601
23.5841   671
23.5941   658
23.6041   699
23.6141   666
23.6241   716
23.6341   683
23.6441   629
23.6541   675
23.6641   661
23.6741   661
23.6841   708
23.6941   661
23.7041   696
23.7141   688
23.7241   687
23.7341   732
23.7441   693
23.7541   697
23.7641   705
23.7741   695
23.7841   699
23.7941   672
23.8041   704
23.8141   669
23.8241   674
23.8341   688
23.8441   690
23.8541   690
23.8641   701
23.8741   682
23.8841   674
23.8941   676
23.9041   675
23.9141   729
23.9241   706
23.9341   658
23.9441   677
23.9541   660
23.9641   648
23.9741   660
23.9841   651
23.9941   636
24.0041   634
24.0141   620
24.0241   670
24.0341   662
24.0441   680
24.0541   644
24.0641   650
24.0741   644
24.0841   620
24.0941   658
24.1041   647
24.1141   635
24.1241   632
24.1341   646
24.1441   622
24.1541   638
24.1641   629
24.1741   664
24.1841   631
24.1941   635
24.2041   656
24.2141   644
24.2241   659
24.2341   643
24.2441   636
24.2541   630
24.2641   687
24.2741   651
24.2841   640
24.2941   612
24.3041   634
24.3141   678
24.3241   670
24.3341   665
24.3441   652
24.3541   614
24.3641   635
24.3741   656
24.3841   662
24.3941   638
24.4041   597
24.4141   642
24.4241   640
24.4341   635
24.4441   622
24.4541   598
24.4641   635
24.4741   643
24.4841   616
24.4941   591
24.5041   618
24.5141   658
24.5241   636
24.5341   628
24.5441   590
24.5541   627
24.5641   636
24.5741   610
24.5841   574
24.5941   628
24.6041   578
24.6141   627
24.6241   646
24.6341   642
24.6441   620
24.6541   583
24.6641   608
24.6741   603
24.6841   589
24.6941   593
24.7041   622
24.7141   599
24.7241   576
24.7341   661
24.7441   669
24.7541   625
24.7641   608
24.7741   567
24.7841   595
24.7941   641
24.8041   573
24.8141   568
24.8241   609
24.8341   625
24.8441   584
24.8541   617
24.8641   566
24.8741   619
24.8841   598
24.8941   607
24.9041   625
24.9141   629
24.9241   615
24.9341   609
24.9441   553
24.9541   594
24.9641   611
24.9741   663
24.9841   602
24.9941   628
25.0041   638
25.0141   600
25.0241   610
25.0341   641
25.0441   609
25.0541   615
25.0641   636
25.0741   591
25.0841   633
25.0941   599
25.1041   605
25.1141   608
25.1241   600
25.1341   643
25.1441   572
25.1541   618
25.1641   606
25.1741   602
25.1841   600
25.1941   617
25.2041   600
25.2141   632
25.2241   602
25.2341   576
25.2441   590
25.2541   619
25.2641   628
25.2741   600
25.2841   607
25.2941   606
25.3041   644
25.3141   595
25.3241   590
25.3341   598
25.3441   602
25.3541   553
25.3641   607
25.3741   613
25.3841   601
25.3941   592
25.4041   612
25.4141   598
25.4241   605
25.4341   586
25.4441   619
25.4541   568
25.4641   568
25.4741   560
25.4841   567
25.4941   547
25.5041   559
25.5141   594
25.5241   611
25.5341   571
25.5441   553
25.5541   546
25.5641   596
25.5741   565
25.5841   598
25.5941   555
25.6041   536
25.6141   587
25.6241   559
25.6341   550
25.6441   575
25.6541   581
25.6641   544
25.6741   556
25.6841   567
25.6941   614
25.7041   600
25.7141   582
25.7241   600
25.7341   547
25.7441   568
25.7541   575
25.7641   578
25.7741   542
25.7841   539
25.7941   548
25.8041   541
25.8141   575
25.8241   553
25.8341   556
25.8441   551
25.8541   529
25.8641   581
25.8741   565
25.8841   591
25.8941   564
25.9041   537
25.9141   549
25.9241   583
25.9341   549
25.9441   542
25.9541   552
25.9641   521
25.9741   595
25.9841   568
25.9941   538
26.0041   556
26.0141   534
26.0241   514
26.0341   562
26.0441   557
26.0541   547
26.0641   552
26.0741   543
26.0841   553
26.0941   575
26.1041   576
26.1141   536
26.1241   541
26.1341   523
26.1441   563
26.1541   545
26.1641   556
26.1741   587
26.1841   570
26.1941   538
26.2041   451
26.2141   535
26.2241   564
26.2341   546
26.2441   519
26.2541   552
26.2641   561
26.2741   521
26.2841   528
26.2941   541
26.3041   530
26.3141   565
26.3241   548
26.3341   495
26.3441   567
26.3541   592
26.3641   526
26.3741   546
26.3841   546
26.3941   542
26.4041   571
26.4141   556
26.4241   523
26.4341   557
26.4441   552
26.4541   542
26.4641   522
26.4741   526
26.4841   499
26.4941   524
26.5041   531
26.5141   557
26.5241   540
26.5341   526
26.5441   526
26.5541   489
26.5641   498
26.5741   525
26.5841   496
26.5941   548
26.6041   507
26.6141   519
26.6241   541
26.6341   531
26.6441   543
26.6541   544
26.6641   500
26.6741   457
26.6841   471
26.6941   533
26.7041   540
26.7141   492
26.7241   502
26.7341   511
26.7441   535
26.7541   494
26.7641   541
26.7741   506
26.7841   523
26.7941   515
26.8041   532
26.8141   498
26.8241   511
26.8341   502
26.8441   542
26.8541   475
26.8641   478
26.8741   452
26.8841   507
26.8941   491
26.9041   485
26.9141   500
26.9241   540
26.9341   502
26.9441   473
26.9541   469
26.9641   496
26.9741   517
26.9841   501
26.9941   517
27.0041   496
27.0141   513
27.0241   493
27.0341   504
27.0441   480
27.0541   516
27.0641   460
27.0741   494
27.0841   505
27.0941   504
27.1041   501
27.1141   465
27.1241   488
27.1341   468
27.1441   527
27.1541   515
27.1641   484
27.1741   482
27.1841   534
27.1941   506
27.2041   509
27.2141   477
27.2241   518
27.2341   513
27.2441   458
27.2541   456
27.2641   476
27.2741   495
27.2841   481
27.2941   519
27.3041   515
27.3141   500
27.3241   491
27.3341   456
27.3441   469
27.3541   441
27.3641   471
27.3741   477
27.3841   489
27.3941   509
27.4041   470
27.4141   478
27.4241   465
27.4341   485
27.4441   456
27.4541   460
27.4641   468
27.4741   452
27.4841   491
27.4941   470
27.5041   473
27.5141   487
27.5241   486
27.5341   492
27.5441   486
27.5541   493
27.5641   494
27.5741   490
27.5841   469
27.5941   514
27.6041   489
27.6141   536
27.6241   448
27.6341   476
27.6441   483
27.6541   465
27.6641   478
27.6741   479
27.6841   482
27.6941   501
27.7041   457
27.7141   483
27.7241   490
27.7341   445
27.7441   457
27.7541   446
27.7641   430
27.7741   456
27.7841   429
27.7941   420
27.8041   461
27.8141   481
27.8241   455
27.8341   464
27.8441   462
27.8541   496
27.8641   460
27.8741   431
27.8841   427
27.8941   459
27.9041   508
27.9141   451
27.9241   441
27.9341   465
27.9441   437
27.9541   446
27.9641   442
27.9741   424
27.9841   473
27.9941   468
28.0041   441
28.0141   449
28.0241   427
28.0341   439
28.0441   446
28.0541   447
28.0641   458
28.0741   455
28.0841   430
28.0941   430
28.1041   433
28.1141   429
28.1241   411
28.1341   440
28.1441   416
28.1541   409
28.1641   444
28.1741   433
28.1841   422
28.1941   397
28.2041   422
28.2141   414
28.2241   429
28.2341   442
28.2441   430
28.2541   454
28.2641   455
28.2741   434
28.2841   475
28.2941   452
28.3041   424
28.3141   423
28.3241   461
28.3341   428
28.3441   442
28.3541   431
28.3641   419
28.3741   450
28.3841   451
28.3941   470
28.4041   464
28.4141   470
28.4241   418
28.4341   437
28.4441   435
28.4541   438
28.4641   421
28.4741   436
28.4841   391
28.4941   411
28.5041   434
28.5141   408
28.5241   413
28.5341   391
28.5441   403
28.5541   411
28.5641   415
28.5741   411
28.5841   398
28.5941   425
28.6041   434
28.6141   439
28.6241   421
28.6341   421
28.6441   407
28.6541   415
28.6641   408
28.6741   409
28.6841   416
28.6941   434
28.7041   385
28.7141   402
28.7241   431
28.7341   400
28.7441   432
28.7541   435
28.7641   399
28.7741   406
28.7841   382
28.7941   421
28.8041   398
28.8141   406
28.8241   406
28.8341   403
28.8441   390
28.8541   391
28.8641   408
28.8741   415
28.8841   411
28.8941   434
28.9041   401
28.9141   375
28.9241   385
28.9341   389
28.9441   359
28.9541   406
28.9641   392
28.9741   397
28.9841   396
28.9941   393
29.0041   386
29.0141   436
29.0241   383
29.0341   395
29.0441   402
29.0541   420
29.0641   406
29.0741   391
29.0841   365
29.0941   403
29.1041   385
29.1141   387
29.1241   397
29.1341   393
29.1441   417
29.1541   410
29.1641   374
29.1741   348
29.1841   417
29.1941   399
29.2041   385
29.2141   366
29.2241   381
29.2341   373
29.2441   383
29.2541   369
29.2641   388
29.2741   392
29.2841   420
29.2941   352
29.3041   350
29.3141   377
29.3241   393
29.3341   390
29.3441   395
29.3541   347
29.3641   375
29.3741   365
29.3841   348
29.3941   386
29.4041   398
29.4141   406
29.4241   405
29.4341   407
29.4441   368
29.4541   385
29.4641   371
29.4741   367
29.4841   388
29.4941   374
29.5041   334
29.5141   360
29.5241   389
29.5341   365
29.5441   352
29.5541   367
29.5641   376
29.5741   380
29.5841   362
29.5941   382
29.6041   354
29.6141   357
29.6241   377
29.6341   395
29.6441   347
29.6541   367
29.6641   379
29.6741   386
29.6841   365
29.6941   376
29.7041   352
29.7141   341
29.7241   364
29.7341   354
29.7441   359
29.7541   403
29.7641   371
29.7741   367
29.7841   351
29.7941   382
29.8041   355
29.8141   369
29.8241   329
29.8341   361
29.8441   361
29.8541   364
29.8641   356
29.8741   350
29.8841   354
29.8941   342
29.9041   362
29.9141   334
29.9241   310
29.9341   327
29.9441   352
29.9541   371
29.9641   347
29.9741   362
29.9841   333
29.9941   365
30.0041   374
30.0141   360
30.0241   308
30.0341   338
30.0441   357
30.0541   348
30.0641   348
30.0741   334
30.0841   304
30.0941   346
30.1041   346
30.1141   341
30.1241   344
30.1341   355
30.1441   345
30.1541   325
30.1641   333
30.1741   322
30.1841   317
30.1941   342
30.2041   355
30.2141   337
30.2241   349
30.2341   317
30.2441   329
30.2541   332
30.2641   327
30.2741   328
30.2841   342
30.2941   322
30.3041   349
30.3141   340
30.3241   332
30.3341   344
30.3441   336
30.3541   310
30.3641   324
30.3741   341
30.3841   314
30.3941   329
30.4041   331
30.4141   337
30.4241   343
30.4341   336
30.4441   346
30.4541   324
30.4641   333
30.4741   323
30.4841   316
30.4941   320
30.5041   325
30.5141   318
30.5241   302
30.5341   301
30.5441   323
30.5541   312
30.5641   335
30.5741   343
30.5841   347
30.5941   335
30.6041   321
30.6141   338
30.6241   301
30.6341   307
30.6441   308
30.6541   303
30.6641   327
30.6741   311
30.6841   292
30.6941   305
30.7041   303
30.7141   320
30.7241   315
30.7341   314
30.7441   296
30.7541   261
30.7641   319
30.7741   282
30.7841   304
30.7941   290
30.8041   305
30.8141   305
30.8241   318
30.8341   286
30.8441   333
30.8541   301
30.8641   291
30.8741   309
30.8841   292
30.8941   305
30.9041   302
30.9141   290
30.9241   301
30.9341   316
30.9441   313
30.9541   313
30.9641   264
30.9741   294
30.9841   299
30.9941   294
31.0041   283
31.0141   288
31.0241   307
31.0341   304
31.0441   312
31.0541   310
31.0641   306
31.0741   288
31.0841   291
31.0941   267
31.1041   333
31.1141   277
31.1241   315
31.1341   289
31.1441   270
31.1541   286
31.1641   267
31.1741   288
31.1841   291
31.1941   281
31.2041   287
31.2141   300
31.2241   290
31.2341   316
31.2441   330
31.2541   268
31.2641   259
31.2741   292
31.2841   265
31.2941   270
31.3041   256
31.3141   265
31.3241   257
31.3341   270
31.3441   286
31.3541   293
31.3641   276
31.3741   281
31.3841   261
31.3941   283
31.4041   280
31.4141   281
31.4241   262
31.4341   269
31.4441   303
31.4541   278
31.4641   273
31.4741   268
31.4841   267
31.4941   292
31.5041   299
31.5141   281
31.5241   273
31.5341   270
31.5441   297
31.5541   282
31.5641   276
31.5741   264
31.5841   298
31.5941   289
31.6041   292
31.6141   295
31.6241   287
31.6341   255
31.6441   275
31.6541   273
31.6641   302
31.6741   296
31.6841   276
31.6941   318
31.7041   291
31.7141   292
31.7241   270
31.7341   262
31.7441   257
31.7541   312
31.7641   324
31.7741   295
31.7841   300
31.7941   298
31.8041   310
31.8141   317
31.8241   274
31.8341   304
31.8441   313
31.8541   305
31.8641   269
31.8741   302
31.8841   263
31.8941   318
31.9041   301
31.9141   270
31.9241   294
31.9341   317
31.9441   308
31.9541   272
31.9641   251
31.9741   271
31.9841   272
31.9941   310
32.0041   280
32.0141   266
32.0241   276
32.0341   303
32.0441   287
32.0541   285
32.0641   312
32.0741   293
32.0841   305
32.0941   299
32.1041   288
32.1141   317
32.1241   315
32.1341   264
32.1441   298
32.1541   305
32.1641   282
32.1741   279
32.1841   322
32.1941   307
32.2041   332
32.2141   306
32.2241   315
32.2341   297
32.2441   312
32.2541   309
32.2641   304
32.2741   306
32.2841   300
32.2941   304
32.3041   276
32.3141   280
32.3241   276
32.3341   294
32.3441   298
32.3541   274
32.3641   270
32.3741   253
32.3841   261
32.3941   246
32.4041   240
32.4141   242
32.4241   237
32.4341   231
32.4441   238
32.4541   225
32.4641   243
32.4741   256
32.4841   260
32.4941   243
32.5041   234
32.5141   237
32.5241   242
32.5341   241
32.5441   228
32.5541   217
32.5641   244
32.5741   246
32.5841   232
32.5941   242
32.6041   240
32.6141   241
32.6241   203
32.6341   233
32.6441   252
32.6541   239
32.6641   230
32.6741   240
32.6841   216
32.6941   212
32.7041   223
32.7141   214
32.7241   222
32.7341   217
32.7441   212
32.7541   221
32.7641   211
32.7741   216
32.7841   225
32.7941   206
32.8041   201
32.8141   256
32.8241   230
32.8341   220
32.8441   229
32.8541   240
32.8641   205
32.8741   229
32.8841   201
32.8941   233
32.9041   239
32.9141   232
32.9241   200
32.9341   216
32.9441   198
32.9541   223
32.9641   227
32.9741   206
32.9841   253
32.9941   208
33.0041   193
33.0141   207
33.0241   201
33.0341   210
33.0441   215
33.0541   239
33.0641   237
33.0741   202
33.0841   213
33.0941   206
33.1041   208
33.1141   194
33.1241   202
33.1341   220
33.1441   193
33.1541   201
33.1641   204
33.1741   213
33.1841   213
33.1941   214
33.2041   224
33.2141   192
33.2241   201
33.2341   196
33.2441   217
33.2541   206
33.2641   197
33.2741   209
33.2841   211
33.2941   217
33.3041   206
33.3141   198
33.3241   211
33.3341   192
33.3441   185
33.3541   194
33.3641   218
33.3741   215
33.3841   187
33.3941   169
33.4041   183
33.4141   209
33.4241   194
33.4341   197
33.4441   208
33.4541   183
33.4641   222
33.4741   196
33.4841   194
33.4941   221
33.5041   188
33.5141   158
33.5241   191
33.5341   211
33.5441   206
33.5541   187
33.5641   181
33.5741   217
33.5841   203
33.5941   199
33.6041   192
33.6141   201
33.6241   210
33.6341   199
33.6441   180
33.6541   183
33.6641   179
33.6741   191
33.6841   193
33.6941   200
33.7041   175
33.7141   174
33.7241   196
33.7341   182
33.7441   188
33.7541   174
33.7641   181
33.7741   196
33.7841   194
33.7941   210
33.8041   186
33.8141   185
33.8241   174
33.8341   184
33.8441   188
33.8541   195
33.8641   178
33.8741   168
33.8841   186
33.8941   183
33.9041   178
33.9141   183
33.9241   200
33.9341   181
33.9441   169
33.9541   182
33.9641   193
33.9741   185
33.9841   196
33.9941   178
34.0041   170
34.0141   167
34.0241   177
34.0341   187
34.0441   196
34.0541   174
34.0641   198
34.0741   179
34.0841   184
34.0941   173
34.1041   185
34.1141   184
34.1241   185
34.1341   173
34.1441   191
34.1541   164
34.1641   179
34.1741   169
34.1841   159
34.1941   149
34.2041   189
34.2141   138
34.2241   158
34.2341   185
34.2441   147
34.2541   167
34.2641   170
34.2741   153
34.2841   174
34.2941   174
34.3041   137
34.3141   165
34.3241   155
34.3341   163
34.3441   161
34.3541   175
34.3641   188
34.3741   170
34.3841   167
34.3941   155
34.4041   151
34.4141   170
34.4241   146
34.4341   160
34.4441   158
34.4541   167
34.4641   170
34.4741   167
34.4841   184
34.4941   159
34.5041   162
34.5141   154
34.5241   146
34.5341   156
34.5441   151
34.5541   156
34.5641   172
34.5741   173
34.5841   140
34.5941   163
34.6041   147
34.6141   155
34.6241   142
34.6341   193
34.6441   159
34.6541   157
34.6641   161
34.6741   167
34.6841   152
34.6941   162
34.7041   163
34.7141   143
34.7241   150
34.7341   156
34.7441   132
34.7541   144
34.7641   169
34.7741   156
34.7841   142
34.7941   143
34.8041   151
34.8141   153
34.8241   162
34.8341   155
34.8441   153
34.8541   151
34.8641   156
34.8741   167
34.8841   142
34.8941   143
34.9041   133
34.9141   128
34.9241   150
34.9341   144
34.9441   145
34.9541   170
34.9641   167
34.9741   166
34.9841   152
34.9941   145
35.0041   146
35.0141   160
35.0241   149
35.0341   144
35.0441   163
35.0541   144
35.0641   158
35.0741   132
35.0841   144
35.0941   141
35.1041   128
35.1141   135
35.1241   129
35.1341   151
35.1441   152
35.1541   129
35.1641   138
35.1741   144
35.1841   152
35.1941   123
35.2041   144
35.2141   131
35.2241   156
35.2341   131
35.2441   143
35.2541   139
35.2641   144
35.2741   148
35.2841   143
35.2941   145
35.3041   143
35.3141   131
35.3241   157
35.3341   124
35.3441   132
35.3541   140
35.3641   144
35.3741   154
35.3841   125
35.3941   137
35.4041   140
35.4141   142
35.4241   136
35.4341   141
35.4441   137
35.4541   147
35.4641   126
35.4741   129
35.4841   132
35.4941   124
35.5041   139
35.5141   131
35.5241   146
35.5341   130
35.5441   133
35.5541   138
35.5641   128
35.5741   137
35.5841   139
35.5941   153
35.6041   137
35.6141   131
35.6241   145
35.6341   149
35.6441   123
35.6541   117
35.6641   140
35.6741   120
35.6841   126
35.6941   116
35.7041   129
35.7141   116
35.7241   130
35.7341   119
35.7441   126
35.7541   139
35.7641   123
35.7741   118
35.7841   121
35.7941   113
35.8041   142
35.8141    98
35.8241   122
35.8341   111
35.8441   118
35.8541   110
35.8641   129
35.8741   112
35.8841   122
35.8941    93
35.9041   121
35.9141   142
35.9241   128
35.9341   126
35.9441   129
35.9541   124
35.9641   144
35.9741   127
35.9841   146
35.9941   112
36.0041   141
36.0141   125
36.0241   115
36.0341   126
36.0441   108
36.0541   130
36.0641   108
36.0741   103
36.0841   118
36.0941   119
36.1041   121
36.1141   126
36.1241   120
36.1341   124
36.1441   107
36.1541   116
36.1641   125
36.1741   107
36.1841   113
36.1941   138
36.2041   130
36.2141   118
36.2241   128
36.2341   121
36.2441   108
36.2541   121
36.2641   117
36.2741   117
36.2841   131
36.2941   128
36.3041   133
36.3141   129
36.3241   105
36.3341   101
36.3441   110
36.3541   118
36.3641   112
36.3741   110
36.3841   124
36.3941   112
36.4041   118
36.4141   118
36.4241   129
36.4341   129
36.4441   128
36.4541   127
36.4641   138
36.4741   109
36.4841   119
36.4941   113
36.5041   113
36.5141   123
36.5241   119
36.5341    85
36.5441   120
36.5541    90
36.5641    99
36.5741   101
36.5841   117
36.5941    99
36.6041    93
36.6141    97
36.6241   103
36.6341    95
36.6441    88
36.6541   117
36.6641    99
36.6741   110
36.6841   132
36.6941   103
36.7041   114
36.7141   108
36.7241   100
36.7341   105
36.7441   127
36.7541   101
36.7641    99
36.7741    94
36.7841   100
36.7941    90
36.8041    88
36.8141   101
36.8241   103
36.8341    92
36.8441    97
36.8541   108
36.8641   105
36.8741   109
36.8841   104
36.8941   101
36.9041    77
36.9141    87
36.9241    76
36.9341    88
36.9441    85
36.9541    78
36.9641   106
36.9741    93
36.9841   108
36.9941    74
37.0041   103
37.0141   104
37.0241    93
37.0341   111
37.0441   101
37.0541    99
37.0641    94
37.0741    98
37.0841    82
37.0941   103
37.1041   120
37.1141    98
37.1241    82
37.1341   104
37.1441    95
37.1541    95
37.1641   100
37.1741   107
37.1841    89
37.1941    98
37.2041    81
37.2141    87
37.2241    99
37.2341   107
37.2441    89
37.2541   104
37.2641    95
37.2741    78
37.2841   109
37.2941    88
37.3041    96
37.3141    78
37.3241    86
37.3341    90
37.3441    99
37.3541   110
37.3641    92
37.3741   102
37.3841    79
37.3941    83
37.4041    98
37.4141    80
37.4241    98
37.4341    96
37.4441    92
37.4541    83
37.4641    86
37.4741    73
37.4841    96
37.4941    92
37.5041    86
37.5141    79
37.5241    88
37.5341    96
37.5441    87
37.5541    69
37.5641    82
37.5741   103
37.5841    82
37.5941    97
37.6041    97
37.6141    76
37.6241    84
37.6341    87
37.6441    82
37.6541    78
37.6641   108
37.6741    81
37.6841    85
37.6941    86
37.7041    78
37.7141    98
37.7241    66
37.7341    82
37.7441    85
37.7541    78
37.7641    81
37.7741    85
37.7841    79
37.7941    90
37.8041    62
37.8141    66
37.8241    77
37.8341    77
37.8441    73
37.8541    96
37.8641    71
37.8741    86
37.8841    81
37.8941    69
37.9041    68
37.9141    54
37.9241    57
37.9341    79
37.9441    80
37.9541    96
37.9641    81
37.9741    70
37.9841    72
37.9941    83
38.0041    80
38.0141    78
38.0241    92
38.0341    83
38.0441    71
38.0541    76
38.0641    81
38.0741    66
38.0841    66
38.0941    69
38.1041    65
38.1141    75
38.1241    68
38.1341    48
38.1441    79
38.1541    66
38.1641    74
38.1741    78
38.1841    75
38.1941    69
38.2041    67
38.2141    64
38.2241    62
38.2341    82
38.2441    79
38.2541    58
38.2641    77
38.2741    67
38.2841    64
38.2941    59
38.3041    71
38.3141    60
38.3241    53
38.3341    57
38.3441    82
38.3541    62
38.3641    57
38.3741    75
38.3841    69
38.3941    59
38.4041    77
38.4141    65
38.4241    76
38.4341    54
38.4441    68
38.4541    66
38.4641    53
38.4741    76
38.4841    50
38.4941    62
38.5041    62
38.5141    66
38.5241    53
38.5341    50
38.5441    69
38.5541    65
38.5641    64
38.5741    59
38.5841    64
38.5941    73
38.6041    65
38.6141    57
38.6241    68
38.6341    57
38.6441    49
38.6541    58
38.6641    57
38.6741    67
38.6841    65
38.6941    75
38.7041    57
38.7141    58
38.7241    73
38.7341    76
38.7441    60
38.7541    58
38.7641    56
38.7741    66
38.7841    61
38.7941    65
38.8041    64
38.8141    55
38.8241    54
38.8341    68
38.8441    64
38.8541    62
38.8641    59
38.8741    46
38.8841    54
38.8941    60
38.9041    45
38.9141    61
38.9241    58
38.9341    59
38.9441    69
38.9541    54
38.9641    52
38.9741    55
38.9841    61
38.9941    64
39.0041    60
39.0141    56
39.0241    40
39.0341    51
39.0441    52
39.0541    50
39.0641    54
39.0741    42
39.0841    58
39.0941    61
39.1041    55
39.1141    52
39.1241    52
39.1341    48
39.1441    48
39.1541    48
39.1641    58
39.1741    52
39.1841    46
39.1941    51
39.2041    52
39.2141    45
39.2241    54
39.2341    50
39.2441    53
39.2541    39
39.2641    51
39.2741    65
39.2841    47
39.2941    30
39.3041    42
39.3141    39
39.3241    44
39.3341    35
39.3441    34
39.3541    54
39.3641    45
39.3741    43
39.3841    57
39.3941    53
39.4041    39
39.4141    43
39.4241    44
39.4341    57
39.4441    39
39.4541    36
39.4641    47
39.4741    47
39.4841    46
39.4941    39
39.5041    43
39.5141    46
39.5241    58
39.5341    48
39.5441    52
39.5541    46
39.5641    37
39.5741    49
39.5841    47
39.5941    47
39.6041    43
39.6141    34
39.6241    52
39.6341    43
39.6441    40
39.6541    46
39.6641    51
39.6741    44
39.6841    42
39.6941    39
39.7041    37
39.7141    38
39.7241    38
39.7341    38
39.7441    36
39.7541    36
39.7641    43
39.7741    53
39.7841    44
39.7941    41
39.8041    45
39.8141    32
39.8241    50
39.8341    38
39.8441    48
39.8541    37
39.8641    50
39.8741    44
39.8841    38
39.8941    37
39.9041    41
39.9141    35
39.9241    40
39.9341    36
39.9441    38
39.9541    43
39.9641    43
39.9741    28
39.9841    38
