Bruker Nano GmbH Berlin, Germany
Esprit 1.9

Date: 5/14/2021 1:42:44 PM
Real time: 15609
Life time: 14606
Pulse density: 96729


Detector type: XFlash 430
Window type: Custom type
Detector thickness: 0.45
Si dead layer:0.029

Calibration, lin.: 10
Calibration, abs.: -955.9
Mn FWHM: 137.05
Fano factor: 0.121
Channels: 4095

Energy Counts
-0.9559     0
-0.9459     0
-0.9359     0
-0.9259     0
-0.9159     0
-0.9059     0
-0.8959     0
-0.8859     0
-0.8759     0
-0.8659     0
-0.8559     0
-0.8459     0
-0.8359     0
-0.8259     0
-0.8159     0
-0.8059     0
-0.7959     0
-0.7859     0
-0.7759     0
-0.7659     0
-0.7559     0
-0.7459     0
-0.7359     0
-0.7259     0
-0.7159     0
-0.7059     0
-0.6959     0
-0.6859     0
-0.6759     0
-0.6659     0
-0.6559     0
-0.6459     0
-0.6359     0
-0.6259     0
-0.6159     0
-0.6059     0
-0.5959     0
-0.5859     0
-0.5759     0
-0.5659     0
-0.5559     0
-0.5459     0
-0.5359     0
-0.5259     0
-0.5159     0
-0.5059     0
-0.4959     0
-0.4859     0
-0.4759     0
-0.4659     0
-0.4559     0
-0.4459     0
-0.4359     0
-0.4259     0
-0.4159     0
-0.4059     0
-0.3959     0
-0.3859     0
-0.3759     0
-0.3659     0
-0.3559     0
-0.3459     0
-0.3359     0
-0.3259     0
-0.3159     0
-0.3059     0
-0.2959     0
-0.2859     0
-0.2759     0
-0.2659     0
-0.2559     0
-0.2459     0
-0.2359     0
-0.2259     0
-0.2159     0
-0.2059     0
-0.1959     0
-0.1859     0
-0.1759     0
-0.1659     0
-0.1559     0
-0.1459     1
-0.1359     1
-0.1259     0
-0.1159     3
-0.1059     8
-0.0959    35
-0.0859   140
-0.0759   601
-0.0659  1724
-0.0559  4191
-0.0459  9360
-0.0359 17451
-0.0259 27898
-0.0159 37881
-0.0059 44648
 0.0041 45031
 0.0141 38565
 0.0241 28750
 0.0341 18120
 0.0441  9993
 0.0541  4570
 0.0641  1914
 0.0741   625
 0.0841   190
 0.0941    58
 0.1041    13
 0.1141     9
 0.1241     4
 0.1341     2
 0.1441     3
 0.1541     0
 0.1641     1
 0.1741    13
 0.1841   106
 0.1941   206
 0.2041   212
 0.2141   201
 0.2241   224
 0.2341   206
 0.2441   196
 0.2541   215
 0.2641   198
 0.2741   203
 0.2841   206
 0.2941   176
 0.3041   197
 0.3141   192
 0.3241   199
 0.3341   198
 0.3441   207
 0.3541   183
 0.3641   181
 0.3741   186
 0.3841   176
 0.3941   178
 0.4041   168
 0.4141   186
 0.4241   190
 0.4341   174
 0.4441   179
 0.4541   179
 0.4641   174
 0.4741   179
 0.4841   179
 0.4941   175
 0.5041   168
 0.5141   185
 0.5241   171
 0.5341   170
 0.5441   149
 0.5541   161
 0.5641   171
 0.5741   180
 0.5841   157
 0.5941   147
 0.6041   150
 0.6141   157
 0.6241   174
 0.6341   160
 0.6441   148
 0.6541   158
 0.6641   164
 0.6741   161
 0.6841   154
 0.6941   153
 0.7041   155
 0.7141   139
 0.7241   140
 0.7341   160
 0.7441   155
 0.7541   154
 0.7641   147
 0.7741   144
 0.7841   138
 0.7941   134
 0.8041   143
 0.8141   143
 0.8241   135
 0.8341   144
 0.8441   150
 0.8541   139
 0.8641   139
 0.8741   146
 0.8841   153
 0.8941   148
 0.9041   133
 0.9141   136
 0.9241   141
 0.9341   133
 0.9441   142
 0.9541   119
 0.9641   123
 0.9741   125
 0.9841   126
 0.9941   145
 1.0041   129
 1.0141   132
 1.0241   134
 1.0341   141
 1.0441   142
 1.0541   144
 1.0641   136
 1.0741   150
 1.0841   124
 1.0941   132
 1.1041   135
 1.1141   120
 1.1241   120
 1.1341   146
 1.1441   126
 1.1541   119
 1.1641   132
 1.1741   130
 1.1841   121
 1.1941   126
 1.2041   122
 1.2141   124
 1.2241   118
 1.2341   109
 1.2441   126
 1.2541   124
 1.2641   132
 1.2741   116
 1.2841   136
 1.2941   119
 1.3041   132
 1.3141   134
 1.3241   112
 1.3341   101
 1.3441   125
 1.3541   122
 1.3641    99
 1.3741   111
 1.3841   120
 1.3941   131
 1.4041   105
 1.4141    96
 1.4241   118
 1.4341   116
 1.4441   102
 1.4541    98
 1.4641   111
 1.4741   120
 1.4841   114
 1.4941   120
 1.5041   109
 1.5141   101
 1.5241   107
 1.5341   121
 1.5441   124
 1.5541   108
 1.5641    96
 1.5741    93
 1.5841   110
 1.5941   112
 1.6041   113
 1.6141   136
 1.6241   113
 1.6341   121
 1.6441   129
 1.6541   159
 1.6641   194
 1.6741   228
 1.6841   275
 1.6941   346
 1.7041   386
 1.7141   467
 1.7241   518
 1.7341   562
 1.7441   549
 1.7541   505
 1.7641   479
 1.7741   393
 1.7841   324
 1.7941   277
 1.8041   233
 1.8141   198
 1.8241   185
 1.8341   156
 1.8441   146
 1.8541   140
 1.8641   153
 1.8741   151
 1.8841   124
 1.8941   132
 1.9041   116
 1.9141   121
 1.9241   125
 1.9341   135
 1.9441   110
 1.9541   123
 1.9641   133
 1.9741   146
 1.9841   169
 1.9941   145
 2.0041   164
 2.0141   144
 2.0241   149
 2.0341   148
 2.0441   134
 2.0541   139
 2.0641   130
 2.0741   122
 2.0841   127
 2.0941   116
 2.1041    93
 2.1141   109
 2.1241   131
 2.1341   108
 2.1441   127
 2.1541   106
 2.1641   105
 2.1741   112
 2.1841   100
 2.1941   118
 2.2041   119
 2.2141   100
 2.2241   100
 2.2341   114
 2.2441   119
 2.2541   119
 2.2641   101
 2.2741    79
 2.2841    97
 2.2941   101
 2.3041   100
 2.3141    81
 2.3241    86
 2.3341   103
 2.3441    82
 2.3541    94
 2.3641    88
 2.3741   107
 2.3841   101
 2.3941   100
 2.4041    94
 2.4141   101
 2.4241   109
 2.4341   109
 2.4441   106
 2.4541    95
 2.4641   108
 2.4741    97
 2.4841    90
 2.4941   111
 2.5041   101
 2.5141    88
 2.5241    99
 2.5341    90
 2.5441    96
 2.5541   106
 2.5641   110
 2.5741    96
 2.5841    87
 2.5941   112
 2.6041   103
 2.6141    94
 2.6241    88
 2.6341    87
 2.6441    94
 2.6541   106
 2.6641    92
 2.6741    93
 2.6841    93
 2.6941   101
 2.7041    84
 2.7141    84
 2.7241    93
 2.7341    93
 2.7441    99
 2.7541    86
 2.7641   109
 2.7741    91
 2.7841    83
 2.7941    86
 2.8041    96
 2.8141    80
 2.8241    95
 2.8341    99
 2.8441    86
 2.8541    92
 2.8641    92
 2.8741   114
 2.8841    82
 2.8941    81
 2.9041    94
 2.9141    76
 2.9241    89
 2.9341    67
 2.9441    95
 2.9541    77
 2.9641    89
 2.9741    84
 2.9841    86
 2.9941    76
 3.0041    89
 3.0141    86
 3.0241    94
 3.0341   118
 3.0441    83
 3.0541    63
 3.0641    84
 3.0741    77
 3.0841    68
 3.0941    71
 3.1041    87
 3.1141    86
 3.1241    92
 3.1341    78
 3.1441    97
 3.1541    81
 3.1641    99
 3.1741    84
 3.1841    90
 3.1941    80
 3.2041    96
 3.2141    93
 3.2241    95
 3.2341   108
 3.2441   109
 3.2541   124
 3.2641   155
 3.2741   148
 3.2841   165
 3.2941   187
 3.3041   191
 3.3141   194
 3.3241   189
 3.3341   183
 3.3441   179
 3.3541   145
 3.3641   131
 3.3741   107
 3.3841   113
 3.3941    83
 3.4041    84
 3.4141    77
 3.4241    73
 3.4341    74
 3.4441    69
 3.4541    71
 3.4641    79
 3.4741    86
 3.4841    75
 3.4941    76
 3.5041    83
 3.5141    88
 3.5241    80
 3.5341    78
 3.5441   121
 3.5541   106
 3.5641   164
 3.5741   167
 3.5841   219
 3.5941   242
 3.6041   288
 3.6141   389
 3.6241   497
 3.6341   633
 3.6441   753
 3.6541   934
 3.6641   965
 3.6741  1025
 3.6841  1104
 3.6941  1117
 3.7041  1080
 3.7141  1006
 3.7241   895
 3.7341   737
 3.7441   640
 3.7541   494
 3.7641   407
 3.7741   271
 3.7841   223
 3.7941   170
 3.8041   122
 3.8141    84
 3.8241    82
 3.8341    80
 3.8441    71
 3.8541    77
 3.8641    60
 3.8741    72
 3.8841    74
 3.8941    67
 3.9041    74
 3.9141    87
 3.9241   105
 3.9341   109
 3.9441   126
 3.9541   168
 3.9641   170
 3.9741   176
 3.9841   205
 3.9941   219
 4.0041   231
 4.0141   222
 4.0241   233
 4.0341   225
 4.0441   220
 4.0541   168
 4.0641   187
 4.0741   126
 4.0841   110
 4.0941   109
 4.1041    85
 4.1141    75
 4.1241    76
 4.1341    84
 4.1441    66
 4.1541    56
 4.1641    57
 4.1741    52
 4.1841    67
 4.1941    64
 4.2041    56
 4.2141    54
 4.2241    45
 4.2341    61
 4.2441    62
 4.2541    64
 4.2641    76
 4.2741    57
 4.2841    48
 4.2941    58
 4.3041    55
 4.3141    61
 4.3241    65
 4.3341    75
 4.3441    69
 4.3541    64
 4.3641    81
 4.3741    87
 4.3841   100
 4.3941   132
 4.4041   148
 4.4141   197
 4.4241   242
 4.4341   284
 4.4441   359
 4.4541   439
 4.4641   533
 4.4741   612
 4.4841   640
 4.4941   671
 4.5041   645
 4.5141   717
 4.5241   680
 4.5341   617
 4.5441   520
 4.5541   510
 4.5641   394
 4.5741   329
 4.5841   261
 4.5941   208
 4.6041   189
 4.6141   172
 4.6241   104
 4.6341   106
 4.6441    88
 4.6541    83
 4.6641    78
 4.6741    77
 4.6841    67
 4.6941    67
 4.7041    82
 4.7141    77
 4.7241    72
 4.7341    67
 4.7441    72
 4.7541    70
 4.7641    62
 4.7741    75
 4.7841    72
 4.7941    73
 4.8041    83
 4.8141    99
 4.8241   107
 4.8341   106
 4.8441   134
 4.8541   123
 4.8641   138
 4.8741   157
 4.8841   174
 4.8941   197
 4.9041   208
 4.9141   228
 4.9241   219
 4.9341   207
 4.9441   210
 4.9541   210
 4.9641   166
 4.9741   194
 4.9841   150
 4.9941   148
 5.0041   145
 5.0141   137
 5.0241    99
 5.0341    89
 5.0441   106
 5.0541    91
 5.0641    72
 5.0741    80
 5.0841    74
 5.0941    78
 5.1041    66
 5.1141    75
 5.1241    76
 5.1341    70
 5.1441    57
 5.1541    64
 5.1641    73
 5.1741    82
 5.1841    87
 5.1941    60
 5.2041    72
 5.2141    78
 5.2241    82
 5.2341    82
 5.2441    55
 5.2541    53
 5.2641    73
 5.2741    73
 5.2841    66
 5.2941    81
 5.3041    85
 5.3141    98
 5.3241    78
 5.3341    89
 5.3441   103
 5.3541   103
 5.3641   122
 5.3741   115
 5.3841   128
 5.3941   118
 5.4041   121
 5.4141   142
 5.4241   128
 5.4341   129
 5.4441   125
 5.4541   133
 5.4641   112
 5.4741   128
 5.4841    85
 5.4941    91
 5.5041    90
 5.5141    89
 5.5241    64
 5.5341    58
 5.5441    81
 5.5541    73
 5.5641    73
 5.5741    87
 5.5841    77
 5.5941    77
 5.6041    90
 5.6141    70
 5.6241    80
 5.6341    78
 5.6441   103
 5.6541    73
 5.6641    70
 5.6741    74
 5.6841    81
 5.6941    77
 5.7041    85
 5.7141    93
 5.7241    84
 5.7341    87
 5.7441   102
 5.7541    97
 5.7641   102
 5.7741   131
 5.7841   135
 5.7941   161
 5.8041   187
 5.8141   193
 5.8241   254
 5.8341   278
 5.8441   329
 5.8541   324
 5.8641   374
 5.8741   366
 5.8841   374
 5.8941   399
 5.9041   413
 5.9141   373
 5.9241   392
 5.9341   340
 5.9441   301
 5.9541   280
 5.9641   256
 5.9741   212
 5.9841   190
 5.9941   165
 6.0041   184
 6.0141   125
 6.0241   123
 6.0341   122
 6.0441   113
 6.0541   133
 6.0641   111
 6.0741   122
 6.0841   120
 6.0941   125
 6.1041   139
 6.1141   136
 6.1241   130
 6.1341   147
 6.1441   148
 6.1541   177
 6.1641   182
 6.1741   205
 6.1841   229
 6.1941   286
 6.2041   344
 6.2141   459
 6.2241   632
 6.2341   938
 6.2441  1281
 6.2541  1704
 6.2641  2464
 6.2741  3321
 6.2841  4466
 6.2941  5995
 6.3041  7804
 6.3141  9737
 6.3241 12082
 6.3341 14484
 6.3441 16982
 6.3541 19088
 6.3641 21665
 6.3741 23549
 6.3841 24452
 6.3941 25223
 6.4041 24881
 6.4141 24586
 6.4241 22842
 6.4341 21191
 6.4441 18944
 6.4541 16467
 6.4641 13820
 6.4741 11452
 6.4841  8995
 6.4941  7116
 6.5041  5448
 6.5141  4034
 6.5241  2924
 6.5341  2113
 6.5441  1452
 6.5541  1011
 6.5641   716
 6.5741   496
 6.5841   350
 6.5941   254
 6.6041   202
 6.6141   184
 6.6241   165
 6.6341   161
 6.6441   139
 6.6541   146
 6.6641   145
 6.6741   131
 6.6841   141
 6.6941   141
 6.7041   127
 6.7141   144
 6.7241   153
 6.7341   143
 6.7441   128
 6.7541   143
 6.7641   139
 6.7741   163
 6.7841   149
 6.7941   151
 6.8041   172
 6.8141   197
 6.8241   192
 6.8341   190
 6.8441   222
 6.8541   256
 6.8641   278
 6.8741   287
 6.8841   381
 6.8941   434
 6.9041   485
 6.9141   652
 6.9241   722
 6.9341   962
 6.9441  1189
 6.9541  1401
 6.9641  1760
 6.9741  2146
 6.9841  2472
 6.9941  2878
 7.0041  3146
 7.0141  3499
 7.0241  3817
 7.0341  4002
 7.0441  4213
 7.0541  4255
 7.0641  4248
 7.0741  4018
 7.0841  3808
 7.0941  3424
 7.1041  3187
 7.1141  2752
 7.1241  2313
 7.1341  2040
 7.1441  1546
 7.1541  1329
 7.1641  1067
 7.1741   814
 7.1841   684
 7.1941   512
 7.2041   366
 7.2141   307
 7.2241   271
 7.2341   229
 7.2441   181
 7.2541   174
 7.2641   164
 7.2741   167
 7.2841   157
 7.2941   157
 7.3041   171
 7.3141   157
 7.3241   154
 7.3341   182
 7.3441   202
 7.3541   211
 7.3641   228
 7.3741   251
 7.3841   242
 7.3941   247
 7.4041   213
 7.4141   259
 7.4241   256
 7.4341   275
 7.4441   259
 7.4541   286
 7.4641   278
 7.4741   292
 7.4841   254
 7.4941   252
 7.5041   234
 7.5141   215
 7.5241   236
 7.5341   196
 7.5441   203
 7.5541   183
 7.5641   163
 7.5741   165
 7.5841   167
 7.5941   158
 7.6041   149
 7.6141   137
 7.6241   137
 7.6341   157
 7.6441   128
 7.6541   171
 7.6641   174
 7.6741   154
 7.6841   152
 7.6941   159
 7.7041   160
 7.7141   162
 7.7241   163
 7.7341   181
 7.7441   154
 7.7541   161
 7.7641   180
 7.7741   188
 7.7841   198
 7.7941   197
 7.8041   172
 7.8141   202
 7.8241   203
 7.8341   204
 7.8441   233
 7.8541   209
 7.8641   213
 7.8741   244
 7.8841   225
 7.8941   253
 7.9041   254
 7.9141   259
 7.9241   300
 7.9341   294
 7.9441   289
 7.9541   344
 7.9641   347
 7.9741   398
 7.9841   408
 7.9941   445
 8.0041   452
 8.0141   494
 8.0241   512
 8.0341   579
 8.0441   627
 8.0541   648
 8.0641   690
 8.0741   736
 8.0841   816
 8.0941   820
 8.1041   861
 8.1141   886
 8.1241   909
 8.1341   893
 8.1441   988
 8.1541   975
 8.1641   996
 8.1741  1026
 8.1841  1044
 8.1941  1089
 8.2041  1056
 8.2141  1030
 8.2241  1106
 8.2341  1086
 8.2441  1124
 8.2541  1159
 8.2641  1264
 8.2741  1338
 8.2841  1477
 8.2941  1504
 8.3041  1618
 8.3141  1832
 8.3241  1906
 8.3341  1994
 8.3441  2125
 8.3541  2329
 8.3641  2415
 8.3741  2420
 8.3841  2454
 8.3941  2500
 8.4041  2367
 8.4141  2318
 8.4241  2151
 8.4341  1942
 8.4441  1854
 8.4541  1666
 8.4641  1513
 8.4741  1243
 8.4841  1124
 8.4941   956
 8.5041   771
 8.5141   685
 8.5241   574
 8.5341   491
 8.5441   438
 8.5541   428
 8.5641   367
 8.5741   319
 8.5841   324
 8.5941   312
 8.6041   305
 8.6141   333
 8.6241   276
 8.6341   305
 8.6441   324
 8.6541   314
 8.6641   279
 8.6741   314
 8.6841   303
 8.6941   292
 8.7041   305
 8.7141   262
 8.7241   256
 8.7341   260
 8.7441   248
 8.7541   245
 8.7641   243
 8.7741   239
 8.7841   223
 8.7941   230
 8.8041   224
 8.8141   226
 8.8241   241
 8.8341   232
 8.8441   208
 8.8541   216
 8.8641   235
 8.8741   234
 8.8841   255
 8.8941   222
 8.9041   239
 8.9141   244
 8.9241   242
 8.9341   241
 8.9441   251
 8.9541   250
 8.9641   271
 8.9741   272
 8.9841   248
 8.9941   267
 9.0041   276
 9.0141   262
 9.0241   311
 9.0341   291
 9.0441   295
 9.0541   334
 9.0641   320
 9.0741   312
 9.0841   336
 9.0941   341
 9.1041   363
 9.1141   352
 9.1241   414
 9.1341   400
 9.1441   433
 9.1541   438
 9.1641   457
 9.1741   480
 9.1841   511
 9.1941   543
 9.2041   574
 9.2141   609
 9.2241   583
 9.2341   633
 9.2441   696
 9.2541   716
 9.2641   696
 9.2741   771
 9.2841   788
 9.2941   810
 9.3041   829
 9.3141   854
 9.3241   874
 9.3341   866
 9.3441   925
 9.3541   965
 9.3641   981
 9.3741  1019
 9.3841  1052
 9.3941  1052
 9.4041  1057
 9.4141  1011
 9.4241  1064
 9.4341  1049
 9.4441  1081
 9.4541  1091
 9.4641  1112
 9.4741  1122
 9.4841  1105
 9.4941  1129
 9.5041  1168
 9.5141  1183
 9.5241  1177
 9.5341  1307
 9.5441  1386
 9.5541  1391
 9.5641  1456
 9.5741  1544
 9.5841  1656
 9.5941  1734
 9.6041  1832
 9.6141  1939
 9.6241  1988
 9.6341  2028
 9.6441  2077
 9.6541  2095
 9.6641  2206
 9.6741  2224
 9.6841  2131
 9.6941  2066
 9.7041  2033
 9.7141  1910
 9.7241  1796
 9.7341  1678
 9.7441  1594
 9.7541  1437
 9.7641  1273
 9.7741  1221
 9.7841  1112
 9.7941  1070
 9.8041  1027
 9.8141   984
 9.8241   911
 9.8341   921
 9.8441   927
 9.8541   890
 9.8641   824
 9.8741   870
 9.8841   855
 9.8941   891
 9.9041   884
 9.9141   911
 9.9241   929
 9.9341   938
 9.9441   947
 9.9541   966
 9.9641   963
 9.9741   973
 9.9841   857
 9.9941   813
10.0041   729
10.0141   715
10.0241   667
10.0341   615
10.0441   546
10.0541   524
10.0641   456
10.0741   396
10.0841   357
10.0941   339
10.1041   300
10.1141   280
10.1241   253
10.1341   243
10.1441   220
10.1541   215
10.1641   200
10.1741   181
10.1841   203
10.1941   209
10.2041   189
10.2141   172
10.2241   160
10.2341   151
10.2441   132
10.2541   122
10.2641   139
10.2741   130
10.2841   134
10.2941   124
10.3041   121
10.3141   124
10.3241   120
10.3341   133
10.3441   126
10.3541   121
10.3641   134
10.3741   124
10.3841   120
10.3941   121
10.4041   118
10.4141   133
10.4241   131
10.4341   123
10.4441   134
10.4541   128
10.4641   126
10.4741   125
10.4841   130
10.4941   142
10.5041   146
10.5141   126
10.5241   140
10.5341   144
10.5441   164
10.5541   152
10.5641   144
10.5741   143
10.5841   136
10.5941   149
10.6041   156
10.6141   134
10.6241   148
10.6341   174
10.6441   157
10.6541   160
10.6641   149
10.6741   150
10.6841   141
10.6941   158
10.7041   159
10.7141   149
10.7241   183
10.7341   171
10.7441   196
10.7541   191
10.7641   205
10.7741   207
10.7841   211
10.7941   193
10.8041   221
10.8141   202
10.8241   203
10.8341   195
10.8441   204
10.8541   204
10.8641   216
10.8741   212
10.8841   203
10.8941   235
10.9041   231
10.9141   208
10.9241   224
10.9341   224
10.9441   205
10.9541   220
10.9641   226
10.9741   217
10.9841   204
10.9941   213
11.0041   214
11.0141   225
11.0241   206
11.0341   193
11.0441   190
11.0541   191
11.0641   213
11.0741   212
11.0841   197
11.0941   207
11.1041   217
11.1141   208
11.1241   216
11.1341   211
11.1441   194
11.1541   200
11.1641   217
11.1741   222
11.1841   249
11.1941   239
11.2041   235
11.2141   254
11.2241   275
11.2341   294
11.2441   294
11.2541   299
11.2641   295
11.2741   302
11.2841   308
11.2941   309
11.3041   310
11.3141   317
11.3241   308
11.3341   288
11.3441   273
11.3541   239
11.3641   225
11.3741   219
11.3841   220
11.3941   214
11.4041   210
11.4141   193
11.4241   180
11.4341   168
11.4441   166
11.4541   156
11.4641   173
11.4741   175
11.4841   170
11.4941   164
11.5041   158
11.5141   147
11.5241   159
11.5341   162
11.5441   158
11.5541   154
11.5641   149
11.5741   179
11.5841   172
11.5941   165
11.6041   151
11.6141   159
11.6241   177
11.6341   166
11.6441   167
11.6541   167
11.6641   168
11.6741   160
11.6841   149
11.6941   147
11.7041   164
11.7141   151
11.7241   145
11.7341   128
11.7441   126
11.7541   137
11.7641   136
11.7741   119
11.7841   124
11.7941   130
11.8041   125
11.8141   122
11.8241   113
11.8341   116
11.8441   118
11.8541   106
11.8641   113
11.8741   108
11.8841   122
11.8941   116
11.9041    97
11.9141   113
11.9241   107
11.9341   112
11.9441   121
11.9541   124
11.9641   133
11.9741   122
11.9841   126
11.9941   115
12.0041   104
12.0141   106
12.0241   130
12.0341   124
12.0441   128
12.0541   125
12.0641   123
12.0741   124
12.0841   131
12.0941   124
12.1041   109
12.1141   109
12.1241   114
12.1341   118
12.1441   121
12.1541   114
12.1641   125
12.1741   130
12.1841   128
12.1941   121
12.2041   108
12.2141   108
12.2241   106
12.2341    96
12.2441    93
12.2541   109
12.2641   114
12.2741   121
12.2841   118
12.2941   115
12.3041   114
12.3141   102
12.3241   107
12.3341   116
12.3441   102
12.3541   116
12.3641   108
12.3741   109
12.3841   118
12.3941   114
12.4041   131
12.4141   118
12.4241   109
12.4341   112
12.4441   107
12.4541   113
12.4641   120
12.4741   119
12.4841   128
12.4941   119
12.5041   120
12.5141   114
12.5241   116
12.5341   116
12.5441   120
12.5541   123
12.5641   124
12.5741   106
12.5841   111
12.5941   113
12.6041   121
12.6141   134
12.6241   129
12.6341   114
12.6441   110
12.6541   116
12.6641   121
12.6741   122
12.6841   123
12.6941   123
12.7041   119
12.7141   117
12.7241   125
12.7341   135
12.7441   133
12.7541   124
12.7641   120
12.7741   121
12.7841   123
12.7941   123
12.8041   123
12.8141   123
12.8241   123
12.8341   123
12.8441   123
12.8541   126
12.8641   128
12.8741   130
12.8841   133
12.8941   130
12.9041   129
12.9141   133
12.9241   131
12.9341   122
12.9441   120
12.9541   127
12.9641   133
12.9741   132
12.9841   132
12.9941   138
13.0041   133
13.0141   135
13.0241   129
13.0341   132
13.0441   138
13.0541   141
13.0641   149
13.0741   128
13.0841   120
13.0941   129
13.1041   140
13.1141   138
13.1241   139
13.1341   142
13.1441   136
13.1541   133
13.1641   127
13.1741   140
13.1841   153
13.1941   147
13.2041   144
13.2141   140
13.2241   153
13.2341   171
13.2441   165
13.2541   162
13.2641   176
13.2741   163
13.2841   168
13.2941   179
13.3041   176
13.3141   196
13.3241   203
13.3341   197
13.3441   198
13.3541   200
13.3641   201
13.3741   199
13.3841   201
13.3941   203
13.4041   198
13.4141   191
13.4241   187
13.4341   184
13.4441   181
13.4541   183
13.4641   189
13.4741   188
13.4841   179
13.4941   169
13.5041   163
13.5141   164
13.5241   171
13.5341   171
13.5441   166
13.5541   165
13.5641   161
13.5741   153
13.5841   150
13.5941   152
13.6041   150
13.6141   147
13.6241   149
13.6341   142
13.6441   153
13.6541   171
13.6641   151
13.6741   140
13.6841   148
13.6941   155
13.7041   159
13.7141   153
13.7241   151
13.7341   147
13.7441   147
13.7541   150
13.7641   154
13.7741   152
13.7841   146
13.7941   142
13.8041   142
13.8141   150
13.8241   153
13.8341   153
13.8441   160
13.8541   168
13.8641   184
13.8741   181
13.8841   171
13.8941   172
13.9041   189
13.9141   200
13.9241   187
13.9341   191
13.9441   203
13.9541   212
13.9641   225
13.9741   237
13.9841   249
13.9941   270
14.0041   303
14.0141   333
14.0241   363
14.0341   388
14.0441   403
14.0541   426
14.0641   458
14.0741   472
14.0841   480
14.0941   502
14.1041   532
14.1141   551
14.1241   560
14.1341   571
14.1441   580
14.1541   582
14.1641   578
14.1741   560
14.1841   542
14.1941   537
14.2041   500
14.2141   480
14.2241   473
14.2341   421
14.2441   384
14.2541   356
14.2641   327
14.2741   315
14.2841   317
14.2941   298
14.3041   263
14.3141   244
14.3241   223
14.3341   208
14.3441   198
14.3541   192
14.3641   194
14.3741   198
14.3841   179
14.3941   158
14.4041   169
14.4141   177
14.4241   176
14.4341   173
14.4441   166
14.4541   180
14.4641   189
14.4741   171
14.4841   168
14.4941   165
14.5041   163
14.5141   174
14.5241   172
14.5341   172
14.5441   174
14.5541   175
14.5641   177
14.5741   180
14.5841   193
14.5941   196
14.6041   181
14.6141   177
14.6241   187
14.6341   196
14.6441   186
14.6541   176
14.6641   188
14.6741   185
14.6841   169
14.6941   184
14.7041   186
14.7141   182
14.7241   193
14.7341   209
14.7441   202
14.7541   185
14.7641   176
14.7741   186
14.7841   194
14.7941   190
14.8041   189
14.8141   179
14.8241   190
14.8341   200
14.8441   196
14.8541   201
14.8641   202
14.8741   189
14.8841   206
14.8941   216
14.9041   204
14.9141   211
14.9241   203
14.9341   208
14.9441   223
14.9541   225
14.9641   225
14.9741   220
14.9841   229
14.9941   217
15.0041   196
15.0141   194
15.0241   206
15.0341   210
15.0441   197
15.0541   188
15.0641   202
15.0741   216
15.0841   206
15.0941   193
15.1041   192
15.1141   200
15.1241   197
15.1341   193
15.1441   200
15.1541   192
15.1641   182
15.1741   193
15.1841   201
15.1941   194
15.2041   183
15.2141   186
15.2241   197
15.2341   210
15.2441   206
15.2541   190
15.2641   193
15.2741   193
15.2841   188
15.2941   204
15.3041   208
15.3141   183
15.3241   183
15.3341   193
15.3441   213
15.3541   210
15.3641   182
15.3741   177
15.3841   193
15.3941   195
15.4041   190
15.4141   203
15.4241   205
15.4341   199
15.4441   199
15.4541   189
15.4641   186
15.4741   197
15.4841   213
15.4941   229
15.5041   225
15.5141   209
15.5241   221
15.5341   224
15.5441   219
15.5541   234
15.5641   229
15.5741   244
15.5841   247
15.5941   252
15.6041   259
15.6141   260
15.6241   292
15.6341   302
15.6441   289
15.6541   283
15.6641   305
15.6741   344
15.6841   325
15.6941   338
15.7041   355
15.7141   378
15.7241   391
15.7341   399
15.7441   370
15.7541   388
15.7641   388
15.7741   407
15.7841   418
15.7941   392
15.8041   369
15.8141   380
15.8241   411
15.8341   400
15.8441   380
15.8541   353
15.8641   347
15.8741   324
15.8841   331
15.8941   322
15.9041   303
15.9141   310
15.9241   296
15.9341   281
15.9441   261
15.9541   247
15.9641   249
15.9741   255
15.9841   248
15.9941   252
16.0041   229
16.0141   240
16.0241   242
16.0341   252
16.0441   244
16.0541   237
16.0641   242
16.0741   248
16.0841   257
16.0941   244
16.1041   237
16.1141   241
16.1241   254
16.1341   246
16.1441   229
16.1541   218
16.1641   235
16.1741   251
16.1841   242
16.1941   230
16.2041   226
16.2141   218
16.2241   219
16.2341   252
16.2441   257
16.2541   247
16.2641   247
16.2741   243
16.2841   231
16.2941   230
16.3041   236
16.3141   258
16.3241   250
16.3341   239
16.3441   237
16.3541   233
16.3641   237
16.3741   234
16.3841   250
16.3941   220
16.4041   231
16.4141   245
16.4241   244
16.4341   231
16.4441   246
16.4541   249
16.4641   246
16.4741   236
16.4841   241
16.4941   228
16.5041   249
16.5141   256
16.5241   246
16.5341   254
16.5441   277
16.5541   277
16.5641   244
16.5741   237
16.5841   237
16.5941   260
16.6041   245
16.6141   259
16.6241   263
16.6341   251
16.6441   233
16.6541   249
16.6641   263
16.6741   264
16.6841   276
16.6941   281
16.7041   259
16.7141   261
16.7241   257
16.7341   264
16.7441   246
16.7541   268
16.7641   261
16.7741   267
16.7841   245
16.7941   234
16.8041   223
16.8141   227
16.8241   257
16.8341   263
16.8441   251
16.8541   252
16.8641   254
16.8741   250
16.8841   270
16.8941   258
16.9041   258
16.9141   258
16.9241   258
16.9341   260
16.9441   264
16.9541   294
16.9641   279
16.9741   273
16.9841   261
16.9941   277
17.0041   253
17.0141   260
17.0241   249
17.0341   250
17.0441   276
17.0541   268
17.0641   254
17.0741   246
17.0841   253
17.0941   269
17.1041   265
17.1141   242
17.1241   261
17.1341   268
17.1441   254
17.1541   244
17.1641   252
17.1741   257
17.1841   250
17.1941   268
17.2041   265
17.2141   271
17.2241   269
17.2341   285
17.2441   265
17.2541   262
17.2641   253
17.2741   277
17.2841   289
17.2941   267
17.3041   287
17.3141   276
17.3241   288
17.3341   285
17.3441   256
17.3541   241
17.3641   251
17.3741   273
17.3841   267
17.3941   257
17.4041   264
17.4141   265
17.4241   290
17.4341   283
17.4441   281
17.4541   277
17.4641   273
17.4741   268
17.4841   268
17.4941   293
17.5041   282
17.5141   292
17.5241   297
17.5341   282
17.5441   271
17.5541   281
17.5641   267
17.5741   291
17.5841   295
17.5941   285
17.6041   287
17.6141   292
17.6241   305
17.6341   325
17.6441   295
17.6541   282
17.6641   325
17.6741   323
17.6841   303
17.6941   302
17.7041   296
17.7141   309
17.7241   322
17.7341   319
17.7441   313
17.7541   304
17.7641   317
17.7741   316
17.7841   298
17.7941   281
17.8041   271
17.8141   313
17.8241   305
17.8341   317
17.8441   301
17.8541   279
17.8641   302
17.8741   297
17.8841   289
17.8941   305
17.9041   307
17.9141   327
17.9241   317
17.9341   288
17.9441   296
17.9541   311
17.9641   308
17.9741   299
17.9841   307
17.9941   292
18.0041   295
18.0141   295
18.0241   266
18.0341   285
18.0441   272
18.0541   281
18.0641   303
18.0741   302
18.0841   317
18.0941   323
18.1041   316
18.1141   312
18.1241   319
18.1341   311
18.1441   294
18.1541   308
18.1641   264
18.1741   298
18.1841   290
18.1941   307
18.2041   297
18.2141   290
18.2241   292
18.2341   298
18.2441   329
18.2541   329
18.2641   308
18.2741   315
18.2841   313
18.2941   310
18.3041   315
18.3141   300
18.3241   315
18.3341   324
18.3441   314
18.3541   296
18.3641   327
18.3741   319
18.3841   317
18.3941   297
18.4041   302
18.4141   324
18.4241   337
18.4341   302
18.4441   319
18.4541   325
18.4641   295
18.4741   303
18.4841   289
18.4941   294
18.5041   322
18.5141   313
18.5241   312
18.5341   287
18.5441   328
18.5541   303
18.5641   295
18.5741   292
18.5841   319
18.5941   316
18.6041   331
18.6141   323
18.6241   308
18.6341   325
18.6441   315
18.6541   323
18.6641   320
18.6741   344
18.6841   332
18.6941   326
18.7041   313
18.7141   303
18.7241   327
18.7341   317
18.7441   345
18.7541   309
18.7641   332
18.7741   320
18.7841   327
18.7941   326
18.8041   338
18.8141   328
18.8241   332
18.8341   294
18.8441   324
18.8541   327
18.8641   304
18.8741   308
18.8841   323
18.8941   346
18.9041   309
18.9141   313
18.9241   337
18.9341   368
18.9441   338
18.9541   323
18.9641   351
18.9741   340
18.9841   325
18.9941   355
19.0041   314
19.0141   344
19.0241   326
19.0341   325
19.0441   345
19.0541   324
19.0641   333
19.0741   338
19.0841   334
19.0941   327
19.1041   326
19.1141   322
19.1241   317
19.1341   351
19.1441   320
19.1541   329
19.1641   341
19.1741   348
19.1841   329
19.1941   339
19.2041   334
19.2141   319
19.2241   314
19.2341   337
19.2441   350
19.2541   340
19.2641   337
19.2741   336
19.2841   325
19.2941   332
19.3041   374
19.3141   320
19.3241   341
19.3341   345
19.3441   329
19.3541   349
19.3641   345
19.3741   336
19.3841   319
19.3941   340
19.4041   334
19.4141   338
19.4241   340
19.4341   347
19.4441   318
19.4541   356
19.4641   339
19.4741   344
19.4841   355
19.4941   352
19.5041   332
19.5141   341
19.5241   334
19.5341   371
19.5441   348
19.5541   330
19.5641   342
19.5741   339
19.5841   335
19.5941   345
19.6041   364
19.6141   318
19.6241   326
19.6341   338
19.6441   336
19.6541   314
19.6641   344
19.6741   336
19.6841   359
19.6941   341
19.7041   362
19.7141   359
19.7241   349
19.7341   369
19.7441   360
19.7541   343
19.7641   369
19.7741   371
19.7841   357
19.7941   336
19.8041   339
19.8141   352
19.8241   355
19.8341   338
19.8441   391
19.8541   343
19.8641   340
19.8741   338
19.8841   339
19.8941   313
19.9041   351
19.9141   344
19.9241   348
19.9341   347
19.9441   336
19.9541   365
19.9641   364
19.9741   353
19.9841   341
19.9941   352
20.0041   359
20.0141   356
20.0241   348
20.0341   352
20.0441   337
20.0541   332
20.0641   364
20.0741   355
20.0841   356
20.0941   367
20.1041   345
20.1141   334
20.1241   377
20.1341   390
20.1441   348
20.1541   345
20.1641   355
20.1741   360
20.1841   374
20.1941   368
20.2041   348
20.2141   349
20.2241   402
20.2341   396
20.2441   346
20.2541   381
20.2641   397
20.2741   367
20.2841   399
20.2941   357
20.3041   374
20.3141   379
20.3241   367
20.3341   348
20.3441   382
20.3541   375
20.3641   358
20.3741   333
20.3841   374
20.3941   375
20.4041   343
20.4141   350
20.4241   378
20.4341   369
20.4441   373
20.4541   354
20.4641   361
20.4741   352
20.4841   359
20.4941   374
20.5041   330
20.5141   341
20.5241   381
20.5341   355
20.5441   371
20.5541   385
20.5641   379
20.5741   379
20.5841   346
20.5941   367
20.6041   364
20.6141   377
20.6241   372
20.6341   375
20.6441   355
20.6541   351
20.6641   348
20.6741   344
20.6841   364
20.6941   373
20.7041   376
20.7141   363
20.7241   343
20.7341   367
20.7441   360
20.7541   370
20.7641   357
20.7741   360
20.7841   311
20.7941   338
20.8041   361
20.8141   398
20.8241   397
20.8341   387
20.8441   337
20.8541   400
20.8641   401
20.8741   440
20.8841   416
20.8941   412
20.9041   412
20.9141   462
20.9241   435
20.9341   427
20.9441   427
20.9541   431
20.9641   434
20.9741   443
20.9841   487
20.9941   480
21.0041   502
21.0141   507
21.0241   497
21.0341   503
21.0441   524
21.0541   525
21.0641   551
21.0741   527
21.0841   536
21.0941   573
21.1041   561
21.1141   578
21.1241   567
21.1341   560
21.1441   528
21.1541   562
21.1641   564
21.1741   558
21.1841   516
21.1941   551
21.2041   511
21.2141   545
21.2241   515
21.2341   502
21.2441   512
21.2541   494
21.2641   457
21.2741   480
21.2841   442
21.2941   445
21.3041   451
21.3141   427
21.3241   389
21.3341   424
21.3441   413
21.3541   422
21.3641   386
21.3741   384
21.3841   397
21.3941   393
21.4041   414
21.4141   381
21.4241   361
21.4341   351
21.4441   358
21.4541   360
21.4641   368
21.4741   395
21.4841   391
21.4941   372
21.5041   395
21.5141   398
21.5241   328
21.5341   363
21.5441   410
21.5541   360
21.5641   359
21.5741   348
21.5841   351
21.5941   362
21.6041   343
21.6141   344
21.6241   363
21.6341   362
21.6441   360
21.6541   379
21.6641   365
21.6741   368
21.6841   393
21.6941   340
21.7041   399
21.7141   394
21.7241   376
21.7341   383
21.7441   366
21.7541   366
21.7641   368
21.7741   377
21.7841   371
21.7941   352
21.8041   372
21.8141   365
21.8241   325
21.8341   371
21.8441   355
21.8541   351
21.8641   354
21.8741   387
21.8841   360
21.8941   342
21.9041   367
21.9141   385
21.9241   383
21.9341   377
21.9441   395
21.9541   370
21.9641   393
21.9741   412
21.9841   360
21.9941   372
22.0041   365
22.0141   334
22.0241   372
22.0341   327
22.0441   370
22.0541   370
22.0641   362
22.0741   353
22.0841   360
22.0941   373
22.1041   367
22.1141   348
22.1241   362
22.1341   366
22.1441   385
22.1541   390
22.1641   391
22.1741   379
22.1841   400
22.1941   352
22.2041   357
22.2141   362
22.2241   394
22.2341   358
22.2441   384
22.2541   386
22.2641   365
22.2741   360
22.2841   381
22.2941   348
22.3041   351
22.3141   360
22.3241   321
22.3341   389
22.3441   355
22.3541   399
22.3641   373
22.3741   347
22.3841   368
22.3941   386
22.4041   347
22.4141   388
22.4241   341
22.4341   331
22.4441   336
22.4541   354
22.4641   384
22.4741   402
22.4841   375
22.4941   413
22.5041   363
22.5141   386
22.5241   377
22.5341   373
22.5441   387
22.5541   384
22.5641   327
22.5741   370
22.5841   381
22.5941   350
22.6041   339
22.6141   388
22.6241   348
22.6341   351
22.6441   354
22.6541   356
22.6641   390
22.6741   351
22.6841   349
22.6941   367
22.7041   332
22.7141   335
22.7241   390
22.7341   358
22.7441   365
22.7541   359
22.7641   420
22.7741   359
22.7841   397
22.7941   353
22.8041   358
22.8141   374
22.8241   363
22.8341   357
22.8441   375
22.8541   349
22.8641   342
22.8741   342
22.8841   346
22.8941   367
22.9041   361
22.9141   357
22.9241   382
22.9341   381
22.9441   345
22.9541   371
22.9641   399
22.9741   370
22.9841   357
22.9941   343
23.0041   322
23.0141   373
23.0241   377
23.0341   359
23.0441   358
23.0541   374
23.0641   369
23.0741   366
23.0841   348
23.0941   358
23.1041   346
23.1141   345
23.1241   375
23.1341   376
23.1441   362
23.1541   357
23.1641   346
23.1741   390
23.1841   337
23.1941   349
23.2041   337
23.2141   353
23.2241   370
23.2341   373
23.2441   368
23.2541   365
23.2641   364
23.2741   379
23.2841   361
23.2941   365
23.3041   348
23.3141   377
23.3241   388
23.3341   412
23.3441   337
23.3541   359
23.3641   322
23.3741   314
23.3841   333
23.3941   388
23.4041   359
23.4141   357
23.4241   349
23.4341   406
23.4441   384
23.4541   354
23.4641   412
23.4741   359
23.4841   367
23.4941   341
23.5041   359
23.5141   373
23.5241   340
23.5341   338
23.5441   368
23.5541   350
23.5641   375
23.5741   355
23.5841   343
23.5941   334
23.6041   351
23.6141   386
23.6241   389
23.6341   344
23.6441   345
23.6541   349
23.6641   385
23.6741   413
23.6841   366
23.6941   374
23.7041   376
23.7141   388
23.7241   370
23.7341   380
23.7441   376
23.7541   370
23.7641   410
23.7741   358
23.7841   387
23.7941   387
23.8041   380
23.8141   369
23.8241   375
23.8341   405
23.8441   397
23.8541   409
23.8641   413
23.8741   414
23.8841   370
23.8941   374
23.9041   396
23.9141   371
23.9241   370
23.9341   377
23.9441   366
23.9541   343
23.9641   351
23.9741   376
23.9841   369
23.9941   327
24.0041   366
24.0141   337
24.0241   347
24.0341   338
24.0441   359
24.0541   310
24.0641   316
24.0741   333
24.0841   353
24.0941   347
24.1041   365
24.1141   355
24.1241   329
24.1341   365
24.1441   352
24.1541   337
24.1641   337
24.1741   341
24.1841   347
24.1941   336
24.2041   342
24.2141   361
24.2241   375
24.2341   353
24.2441   362
24.2541   355
24.2641   349
24.2741   341
24.2841   363
24.2941   360
24.3041   342
24.3141   356
24.3241   346
24.3341   337
24.3441   325
24.3541   351
24.3641   367
24.3741   356
24.3841   361
24.3941   355
24.4041   340
24.4141   358
24.4241   334
24.4341   350
24.4441   319
24.4541   328
24.4641   357
24.4741   364
24.4841   310
24.4941   346
24.5041   342
24.5141   335
24.5241   356
24.5341   355
24.5441   344
24.5541   349
24.5641   348
24.5741   344
24.5841   352
24.5941   344
24.6041   362
24.6141   343
24.6241   342
24.6341   299
24.6441   346
24.6541   338
24.6641   331
24.6741   348
24.6841   325
24.6941   324
24.7041   333
24.7141   321
24.7241   323
24.7341   349
24.7441   331
24.7541   326
24.7641   296
24.7741   331
24.7841   328
24.7941   300
24.8041   329
24.8141   325
24.8241   362
24.8341   342
24.8441   351
24.8541   354
24.8641   328
24.8741   353
24.8841   346
24.8941   325
24.9041   346
24.9141   330
24.9241   346
24.9341   349
24.9441   355
24.9541   314
24.9641   345
24.9741   306
24.9841   319
24.9941   349
25.0041   323
25.0141   319
25.0241   364
25.0341   335
25.0441   360
25.0541   343
25.0641   321
25.0741   339
25.0841   356
25.0941   321
25.1041   354
25.1141   341
25.1241   334
25.1341   346
25.1441   324
25.1541   384
25.1641   361
25.1741   316
25.1841   316
25.1941   340
25.2041   348
25.2141   337
25.2241   331
25.2341   327
25.2441   348
25.2541   347
25.2641   333
25.2741   316
25.2841   332
25.2941   306
25.3041   324
25.3141   347
25.3241   317
25.3341   322
25.3441   337
25.3541   336
25.3641   355
25.3741   313
25.3841   314
25.3941   365
25.4041   310
25.4141   308
25.4241   324
25.4341   321
25.4441   301
25.4541   318
25.4641   346
25.4741   304
25.4841   290
25.4941   300
25.5041   316
25.5141   345
25.5241   329
25.5341   305
25.5441   330
25.5541   294
25.5641   295
25.5741   299
25.5841   309
25.5941   302
25.6041   321
25.6141   279
25.6241   317
25.6341   291
25.6441   321
25.6541   315
25.6641   313
25.6741   351
25.6841   292
25.6941   318
25.7041   317
25.7141   322
25.7241   289
25.7341   260
25.7441   301
25.7541   297
25.7641   325
25.7741   282
25.7841   296
25.7941   342
25.8041   311
25.8141   282
25.8241   308
25.8341   300
25.8441   323
25.8541   313
25.8641   318
25.8741   317
25.8841   320
25.8941   309
25.9041   308
25.9141   290
25.9241   305
25.9341   340
25.9441   305
25.9541   320
25.9641   310
25.9741   291
25.9841   284
25.9941   338
26.0041   308
26.0141   282
26.0241   297
26.0341   309
26.0441   291
26.0541   304
26.0641   271
26.0741   269
26.0841   297
26.0941   308
26.1041   308
26.1141   308
26.1241   314
26.1341   330
26.1441   284
26.1541   275
26.1641   318
26.1741   305
26.1841   316
26.1941   311
26.2041   279
26.2141   283
26.2241   314
26.2341   285
26.2441   311
26.2541   295
26.2641   289
26.2741   302
26.2841   324
26.2941   328
26.3041   288
26.3141   307
26.3241   280
26.3341   279
26.3441   327
26.3541   307
26.3641   318
26.3741   276
26.3841   287
26.3941   304
26.4041   281
26.4141   306
26.4241   307
26.4341   260
26.4441   301
26.4541   309
26.4641   302
26.4741   311
26.4841   316
26.4941   279
26.5041   259
26.5141   305
26.5241   274
26.5341   318
26.5441   283
26.5541   283
26.5641   300
26.5741   281
26.5841   278
26.5941   264
26.6041   267
26.6141   298
26.6241   300
26.6341   278
26.6441   286
26.6541   270
26.6641   288
26.6741   278
26.6841   277
26.6941   284
26.7041   294
26.7141   278
26.7241   306
26.7341   287
26.7441   282
26.7541   275
26.7641   287
26.7741   287
26.7841   281
26.7941   287
26.8041   303
26.8141   313
26.8241   289
26.8341   268
26.8441   277
26.8541   301
26.8641   307
26.8741   275
26.8841   269
26.8941   282
26.9041   291
26.9141   285
26.9241   255
26.9341   283
26.9441   301
26.9541   272
26.9641   268
26.9741   256
26.9841   289
26.9941   255
27.0041   275
27.0141   271
27.0241   289
27.0341   253
27.0441   274
27.0541   291
27.0641   266
27.0741   243
27.0841   276
27.0941   281
27.1041   273
27.1141   259
27.1241   265
27.1341   276
27.1441   273
27.1541   302
27.1641   288
27.1741   252
27.1841   270
27.1941   245
27.2041   285
27.2141   273
27.2241   298
27.2341   295
27.2441   274
27.2541   285
27.2641   248
27.2741   257
27.2841   270
27.2941   259
27.3041   267
27.3141   257
27.3241   246
27.3341   255
27.3441   263
27.3541   268
27.3641   285
27.3741   273
27.3841   272
27.3941   270
27.4041   257
27.4141   281
27.4241   269
27.4341   282
27.4441   279
27.4541   264
27.4641   285
27.4741   248
27.4841   260
27.4941   251
27.5041   297
27.5141   251
27.5241   275
27.5341   256
27.5441   257
27.5541   276
27.5641   285
27.5741   242
27.5841   242
27.5941   267
27.6041   269
27.6141   266
27.6241   263
27.6341   247
27.6441   245
27.6541   250
27.6641   243
27.6741   247
27.6841   254
27.6941   258
27.7041   235
27.7141   223
27.7241   255
27.7341   263
27.7441   254
27.7541   255
27.7641   268
27.7741   260
27.7841   248
27.7941   226
27.8041   232
27.8141   263
27.8241   244
27.8341   247
27.8441   274
27.8541   242
27.8641   259
27.8741   259
27.8841   250
27.8941   269
27.9041   234
27.9141   253
27.9241   263
27.9341   267
27.9441   228
27.9541   237
27.9641   235
27.9741   213
27.9841   243
27.9941   223
28.0041   240
28.0141   261
28.0241   227
28.0341   255
28.0441   255
28.0541   262
28.0641   244
28.0741   228
28.0841   232
28.0941   258
28.1041   255
28.1141   250
28.1241   238
28.1341   251
28.1441   248
28.1541   224
28.1641   222
28.1741   258
28.1841   270
28.1941   230
28.2041   241
28.2141   225
28.2241   229
28.2341   262
28.2441   247
28.2541   245
28.2641   244
28.2741   245
28.2841   239
28.2941   234
28.3041   244
28.3141   248
28.3241   243
28.3341   258
28.3441   253
28.3541   256
28.3641   247
28.3741   247
28.3841   225
28.3941   226
28.4041   242
28.4141   213
28.4241   214
28.4341   258
28.4441   253
28.4541   232
28.4641   234
28.4741   231
28.4841   245
28.4941   244
28.5041   246
28.5141   231
28.5241   238
28.5341   233
28.5441   215
28.5541   233
28.5641   236
28.5741   242
28.5841   252
28.5941   220
28.6041   225
28.6141   230
28.6241   247
28.6341   208
28.6441   217
28.6541   247
28.6641   219
28.6741   226
28.6841   218
28.6941   225
28.7041   242
28.7141   217
28.7241   239
28.7341   208
28.7441   222
28.7541   226
28.7641   227
28.7741   226
28.7841   204
28.7941   218
28.8041   207
28.8141   248
28.8241   237
28.8341   235
28.8441   224
28.8541   208
28.8641   203
28.8741   230
28.8841   231
28.8941   208
28.9041   201
28.9141   203
28.9241   202
28.9341   203
28.9441   224
28.9541   196
28.9641   232
28.9741   212
28.9841   238
28.9941   207
29.0041   223
29.0141   213
29.0241   218
29.0341   210
29.0441   231
29.0541   230
29.0641   227
29.0741   236
29.0841   205
29.0941   243
29.1041   194
29.1141   214
29.1241   203
29.1341   223
29.1441   211
29.1541   186
29.1641   211
29.1741   199
29.1841   208
29.1941   218
29.2041   202
29.2141   219
29.2241   201
29.2341   201
29.2441   208
29.2541   192
29.2641   184
29.2741   198
29.2841   205
29.2941   209
29.3041   219
29.3141   192
29.3241   209
29.3341   198
29.3441   200
29.3541   193
29.3641   210
29.3741   197
29.3841   229
29.3941   221
29.4041   212
29.4141   207
29.4241   182
29.4341   221
29.4441   203
29.4541   222
29.4641   205
29.4741   198
29.4841   191
29.4941   189
29.5041   218
29.5141   187
29.5241   201
29.5341   210
29.5441   210
29.5541   207
29.5641   187
29.5741   174
29.5841   199
29.5941   222
29.6041   219
29.6141   203
29.6241   182
29.6341   195
29.6441   189
29.6541   203
29.6641   214
29.6741   192
29.6841   226
29.6941   199
29.7041   182
29.7141   180
29.7241   173
29.7341   183
29.7441   188
29.7541   214
29.7641   194
29.7741   199
29.7841   190
29.7941   184
29.8041   190
29.8141   210
29.8241   181
29.8341   216
29.8441   184
29.8541   192
29.8641   189
29.8741   202
29.8841   191
29.8941   188
29.9041   177
29.9141   180
29.9241   201
29.9341   224
29.9441   210
29.9541   188
29.9641   196
29.9741   222
29.9841   185
29.9941   193
30.0041   193
30.0141   195
30.0241   211
30.0341   209
30.0441   200
30.0541   194
30.0641   185
30.0741   194
30.0841   193
30.0941   187
30.1041   197
30.1141   178
30.1241   182
30.1341   169
30.1441   188
30.1541   169
30.1641   171
30.1741   187
30.1841   191
30.1941   185
30.2041   175
30.2141   200
30.2241   209
30.2341   194
30.2441   190
30.2541   197
30.2641   176
30.2741   180
30.2841   202
30.2941   201
30.3041   200
30.3141   181
30.3241   186
30.3341   177
30.3441   186
30.3541   175
30.3641   182
30.3741   186
30.3841   172
30.3941   164
30.4041   183
30.4141   178
30.4241   173
30.4341   167
30.4441   178
30.4541   173
30.4641   147
30.4741   167
30.4841   183
30.4941   209
30.5041   198
30.5141   188
30.5241   200
30.5341   177
30.5441   175
30.5541   182
30.5641   188
30.5741   184
30.5841   175
30.5941   183
30.6041   175
30.6141   191
30.6241   172
30.6341   161
30.6441   176
30.6541   176
30.6641   170
30.6741   166
30.6841   155
30.6941   152
30.7041   159
30.7141   160
30.7241   168
30.7341   174
30.7441   189
30.7541   170
30.7641   156
30.7741   156
30.7841   147
30.7941   162
30.8041   150
30.8141   170
30.8241   185
30.8341   158
30.8441   147
30.8541   156
30.8641   161
30.8741   179
30.8841   152
30.8941   179
30.9041   179
30.9141   171
30.9241   181
30.9341   186
30.9441   165
30.9541   186
30.9641   162
30.9741   151
30.9841   172
30.9941   176
31.0041   158
31.0141   166
31.0241   158
31.0341   158
31.0441   167
31.0541   176
31.0641   167
31.0741   133
31.0841   145
31.0941   181
31.1041   150
31.1141   179
31.1241   166
31.1341   155
31.1441   143
31.1541   146
31.1641   177
31.1741   169
31.1841   149
31.1941   161
31.2041   167
31.2141   167
31.2241   147
31.2341   145
31.2441   175
31.2541   142
31.2641   169
31.2741   173
31.2841   150
31.2941   177
31.3041   173
31.3141   141
31.3241   145
31.3341   131
31.3441   146
31.3541   131
31.3641   140
31.3741   174
31.3841   179
31.3941   169
31.4041   161
31.4141   140
31.4241   162
31.4341   165
31.4441   135
31.4541   134
31.4641   157
31.4741   145
31.4841   169
31.4941   162
31.5041   152
31.5141   156
31.5241   163
31.5341   133
31.5441   155
31.5541   158
31.5641   155
31.5741   139
31.5841   159
31.5941   154
31.6041   183
31.6141   148
31.6241   169
31.6341   170
31.6441   162
31.6541   156
31.6641   166
31.6741   154
31.6841   158
31.6941   160
31.7041   143
31.7141   154
31.7241   143
31.7341   166
31.7441   151
31.7541   156
31.7641   153
31.7741   150
31.7841   162
31.7941   186
31.8041   156
31.8141   140
31.8241   162
31.8341   169
31.8441   157
31.8541   140
31.8641   177
31.8741   156
31.8841   165
31.8941   150
31.9041   165
31.9141   154
31.9241   145
31.9341   141
31.9441   168
31.9541   157
31.9641   168
31.9741   169
31.9841   145
31.9941   161
32.0041   142
32.0141   156
32.0241   141
32.0341   139
32.0441   143
32.0541   134
32.0641   162
32.0741   163
32.0841   159
32.0941   142
32.1041   155
32.1141   160
32.1241   164
32.1341   165
32.1441   143
32.1541   141
32.1641   158
32.1741   145
32.1841   136
32.1941   136
32.2041   146
32.2141   172
32.2241   133
32.2341   147
32.2441   153
32.2541   154
32.2641   149
32.2741   134
32.2841   146
32.2941   149
32.3041   149
32.3141   174
32.3241   141
32.3341   145
32.3441   136
32.3541   138
32.3641   147
32.3741   115
32.3841   134
32.3941   131
32.4041   151
32.4141   148
32.4241   160
32.4341   120
32.4441   135
32.4541   120
32.4641   134
32.4741   138
32.4841   128
32.4941   141
32.5041   127
32.5141   113
32.5241   138
32.5341   139
32.5441   127
32.5541   115
32.5641   118
32.5741   131
32.5841   132
32.5941   135
32.6041   136
32.6141   127
32.6241   108
32.6341    99
32.6441   119
32.6541   128
32.6641   125
32.6741   130
32.6841   127
32.6941   125
32.7041   125
32.7141   113
32.7241   132
32.7341   127
32.7441   124
32.7541   111
32.7641   118
32.7741   147
32.7841   119
32.7941   130
32.8041   125
32.8141   122
32.8241   141
32.8341   142
32.8441   142
32.8541   118
32.8641   112
32.8741   106
32.8841   120
32.8941   130
32.9041   122
32.9141   142
32.9241   124
32.9341   128
32.9441   129
32.9541   111
32.9641   112
32.9741   112
32.9841   118
32.9941   108
33.0041   110
33.0141   139
33.0241    93
33.0341   128
33.0441    99
33.0541   117
33.0641   112
33.0741   111
33.0841   110
33.0941   119
33.1041   128
33.1141   118
33.1241   126
33.1341   119
33.1441   130
33.1541   117
33.1641   115
33.1741   132
33.1841   121
33.1941   111
33.2041   138
33.2141   106
33.2241   118
33.2341   122
33.2441   111
33.2541   114
33.2641   113
33.2741   126
33.2841   118
33.2941   111
33.3041   112
33.3141   130
33.3241   118
33.3341   125
33.3441   104
33.3541   103
33.3641   102
33.3741    99
33.3841   113
33.3941   112
33.4041    97
33.4141   104
33.4241   106
33.4341   115
33.4441   104
33.4541   116
33.4641   105
33.4741   127
33.4841   107
33.4941    95
33.5041    99
33.5141   105
33.5241   107
33.5341   107
33.5441   107
33.5541   100
33.5641    89
33.5741   106
33.5841   114
33.5941   120
33.6041   110
33.6141    96
33.6241   129
33.6341    90
33.6441   112
33.6541   111
33.6641   115
33.6741   103
33.6841   115
33.6941   110
33.7041   105
33.7141    98
33.7241   119
33.7341   103
33.7441   115
33.7541   112
33.7641   110
33.7741    84
33.7841    98
33.7941   108
33.8041   100
33.8141   103
33.8241   103
33.8341   116
33.8441    96
33.8541    96
33.8641   108
33.8741   123
33.8841   114
33.8941    96
33.9041   106
33.9141    96
33.9241    90
33.9341   112
33.9441    97
33.9541   100
33.9641   110
33.9741   113
33.9841   105
33.9941   105
34.0041    88
34.0141    93
34.0241    93
34.0341   110
34.0441   103
34.0541   103
34.0641    88
34.0741   102
34.0841    97
34.0941   114
34.1041   116
34.1141   107
34.1241    83
34.1341    97
34.1441   109
34.1541    89
34.1641    99
34.1741   102
34.1841    74
34.1941    89
34.2041    82
34.2141    92
34.2241   101
34.2341    82
34.2441   106
34.2541    91
34.2641   104
34.2741    95
34.2841    84
34.2941    92
34.3041    71
34.3141    88
34.3241    82
34.3341    84
34.3441   115
34.3541   105
34.3641   102
34.3741    78
34.3841    86
34.3941    98
34.4041    90
34.4141    89
34.4241    85
34.4341   102
34.4441   101
34.4541    97
34.4641    88
34.4741    84
34.4841    99
34.4941    72
34.5041   100
34.5141    94
34.5241    93
34.5341   114
34.5441    79
34.5541    89
34.5641    86
34.5741    75
34.5841    82
34.5941    87
34.6041    90
34.6141    77
34.6241    85
34.6341    92
34.6441    89
34.6541    86
34.6641   104
34.6741    94
34.6841    72
34.6941    83
34.7041    90
34.7141    86
34.7241    80
34.7341    92
34.7441    81
34.7541    89
34.7641    92
34.7741    86
34.7841    80
34.7941    83
34.8041    85
34.8141    67
34.8241    84
34.8341    81
34.8441    86
34.8541    85
34.8641    90
34.8741    85
34.8841    82
34.8941    85
34.9041    90
34.9141    90
34.9241    92
34.9341    83
34.9441    74
34.9541    94
34.9641    70
34.9741    96
34.9841    79
34.9941    81
35.0041    74
35.0141    74
35.0241    81
35.0341    75
35.0441    81
35.0541    82
35.0641    95
35.0741    81
35.0841    60
35.0941    79
35.1041    96
35.1141    83
35.1241    65
35.1341    83
35.1441    81
35.1541    84
35.1641    74
35.1741    83
35.1841    72
35.1941    70
35.2041    80
35.2141    73
35.2241    91
35.2341    77
35.2441    66
35.2541    81
35.2641    74
35.2741    65
35.2841    75
35.2941    85
35.3041    66
35.3141    62
35.3241    73
35.3341    94
35.3441    75
35.3541    89
35.3641    80
35.3741    84
35.3841    87
35.3941    90
35.4041    73
35.4141    66
35.4241    63
35.4341    78
35.4441    67
35.4541    66
35.4641    86
35.4741    89
35.4841    79
35.4941    69
35.5041    83
35.5141    66
35.5241    73
35.5341    69
35.5441    79
35.5541    81
35.5641    66
35.5741    63
35.5841    78
35.5941    90
35.6041    61
35.6141    85
35.6241    76
35.6341    73
35.6441    74
35.6541    81
35.6641    58
35.6741    82
35.6841    67
35.6941    79
35.7041    66
35.7141    76
35.7241    76
35.7341    73
35.7441    75
35.7541    62
35.7641    62
35.7741    68
35.7841    67
35.7941    70
35.8041    71
35.8141    58
35.8241    86
35.8341    75
35.8441    78
35.8541    78
35.8641    62
35.8741    60
35.8841    65
35.8941    62
35.9041    71
35.9141    71
35.9241    71
35.9341    75
35.9441    59
35.9541    72
35.9641    78
35.9741    66
35.9841    74
35.9941    64
36.0041    65
36.0141    67
36.0241    75
36.0341    71
36.0441    65
36.0541    58
36.0641    75
36.0741    55
36.0841    85
36.0941    56
36.1041    72
36.1141    72
36.1241    60
36.1341    56
36.1441    67
36.1541    57
36.1641    70
36.1741    65
36.1841    52
36.1941    74
36.2041    75
36.2141    60
36.2241    70
36.2341    60
36.2441    73
36.2541    58
36.2641    57
36.2741    63
36.2841    79
36.2941    61
36.3041    60
36.3141    70
36.3241    69
36.3341    75
36.3441    65
36.3541    74
36.3641    69
36.3741    73
36.3841    63
36.3941    71
36.4041    67
36.4141    73
36.4241    67
36.4341    66
36.4441    75
36.4541    71
36.4641    56
36.4741    52
36.4841    58
36.4941    59
36.5041    57
36.5141    50
36.5241    44
36.5341    58
36.5441    59
36.5541    62
36.5641    69
36.5741    71
36.5841    54
36.5941    59
36.6041    59
36.6141    62
36.6241    62
36.6341    64
36.6441    59
36.6541    55
36.6641    56
36.6741    51
36.6841    72
36.6941    48
36.7041    38
36.7141    62
36.7241    42
36.7341    66
36.7441    51
36.7541    50
36.7641    50
36.7741    63
36.7841    52
36.7941    56
36.8041    55
36.8141    44
36.8241    50
36.8341    52
36.8441    63
36.8541    48
36.8641    55
36.8741    59
36.8841    48
36.8941    63
36.9041    55
36.9141    54
36.9241    49
36.9341    74
36.9441    52
36.9541    59
36.9641    66
36.9741    55
36.9841    54
36.9941    56
37.0041    42
37.0141    55
37.0241    60
37.0341    52
37.0441    48
37.0541    51
37.0641    55
37.0741    61
37.0841    59
37.0941    38
37.1041    45
37.1141    48
37.1241    47
37.1341    56
37.1441    47
37.1541    50
37.1641    38
37.1741    38
37.1841    41
37.1941    55
37.2041    55
37.2141    58
37.2241    45
37.2341    47
37.2441    48
37.2541    38
37.2641    41
37.2741    55
37.2841    48
37.2941    47
37.3041    57
37.3141    49
37.3241    46
37.3341    45
37.3441    52
37.3541    41
37.3641    57
37.3741    45
37.3841    48
37.3941    54
37.4041    54
37.4141    46
37.4241    55
37.4341    46
37.4441    38
37.4541    56
37.4641    53
37.4741    42
37.4841    41
37.4941    54
37.5041    49
37.5141    50
37.5241    40
37.5341    59
37.5441    59
37.5541    50
37.5641    40
37.5741    59
37.5841    49
37.5941    62
37.6041    55
37.6141    40
37.6241    45
37.6341    56
37.6441    40
37.6541    47
37.6641    45
37.6741    51
37.6841    47
37.6941    35
37.7041    41
37.7141    44
37.7241    59
37.7341    50
37.7441    43
37.7541    43
37.7641    45
37.7741    53
37.7841    43
37.7941    52
37.8041    43
37.8141    51
37.8241    48
37.8341    40
37.8441    44
37.8541    43
37.8641    51
37.8741    52
37.8841    41
37.8941    28
37.9041    35
37.9141    37
37.9241    43
37.9341    46
37.9441    34
37.9541    34
37.9641    45
37.9741    52
37.9841    37
37.9941    44
38.0041    37
38.0141    40
38.0241    52
38.0341    37
38.0441    41
38.0541    40
38.0641    56
38.0741    39
38.0841    38
38.0941    41
38.1041    46
38.1141    36
38.1241    43
38.1341    43
38.1441    34
38.1541    54
38.1641    40
38.1741    35
38.1841    33
38.1941    46
38.2041    43
38.2141    34
38.2241    45
38.2341    34
38.2441    54
38.2541    38
38.2641    33
38.2741    34
38.2841    42
38.2941    32
38.3041    45
38.3141    37
38.3241    28
38.3341    37
38.3441    38
38.3541    42
38.3641    40
38.3741    40
38.3841    36
38.3941    36
38.4041    32
38.4141    35
38.4241    42
38.4341    31
38.4441    28
38.4541    34
38.4641    42
38.4741    35
38.4841    40
38.4941    34
38.5041    31
38.5141    30
38.5241    47
38.5341    34
38.5441    43
38.5541    40
38.5641    31
38.5741    41
38.5841    34
38.5941    34
38.6041    27
38.6141    29
38.6241    33
38.6341    23
38.6441    30
38.6541    33
38.6641    37
38.6741    32
38.6841    32
38.6941    32
38.7041    35
38.7141    39
38.7241    32
38.7341    40
38.7441    28
38.7541    34
38.7641    30
38.7741    40
38.7841    32
38.7941    43
38.8041    25
38.8141    21
38.8241    34
38.8341    33
38.8441    35
38.8541    31
38.8641    43
38.8741    25
38.8841    33
38.8941    26
38.9041    32
38.9141    30
38.9241    40
38.9341    31
38.9441    35
38.9541    35
38.9641    19
38.9741    22
38.9841    36
38.9941    37
39.0041    36
39.0141    25
39.0241    36
39.0341    27
39.0441    26
39.0541    31
39.0641    34
39.0741    30
39.0841    33
39.0941    30
39.1041    42
39.1141    44
39.1241    30
39.1341    40
39.1441    26
39.1541    30
39.1641    30
39.1741    33
39.1841    34
39.1941    33
39.2041    28
39.2141    30
39.2241    29
39.2341    18
39.2441    38
39.2541    21
39.2641    27
39.2741    24
39.2841    31
39.2941    18
39.3041    29
39.3141    22
39.3241    19
39.3341    21
39.3441    28
39.3541    36
39.3641    33
39.3741    24
39.3841    17
39.3941    23
39.4041    23
39.4141    32
39.4241    33
39.4341    33
39.4441    21
39.4541    29
39.4641    30
39.4741    25
39.4841    27
39.4941    30
39.5041    21
39.5141    30
39.5241    29
39.5341    27
39.5441    25
39.5541    27
39.5641    30
39.5741    20
39.5841    26
39.5941    29
39.6041    31
39.6141    27
39.6241    29
39.6341    25
39.6441    17
39.6541    27
39.6641    21
39.6741    29
39.6841    23
39.6941    20
39.7041    29
39.7141    23
39.7241    20
39.7341    23
39.7441    25
39.7541    30
39.7641    22
39.7741    21
39.7841    15
39.7941    23
39.8041    22
39.8141    33
39.8241    22
39.8341    23
39.8441    26
39.8541    21
39.8641    29
39.8741    19
39.8841    29
39.8941    18
39.9041    27
39.9141    24
39.9241    36
39.9341    20
39.9441    17
39.9541    14
39.9641    22
39.9741    24
39.9841    19
