Bruker Nano GmbH Berlin, Germany
Esprit 1.9

Date: 4/21/2021 2:24:09 PM
Real time: 14479
Life time: 13297
Pulse density: 125512


Detector type: XFlash 430
Window type: Custom type
Detector thickness: 0.45
Si dead layer:0.029

Calibration, lin.: 10
Calibration, abs.: -955.9
Mn FWHM: 137.05
Fano factor: 0.121
Channels: 4095

Energy Counts
-0.9559     0
-0.9459     0
-0.9359     0
-0.9259     0
-0.9159     0
-0.9059     0
-0.8959     0
-0.8859     0
-0.8759     0
-0.8659     0
-0.8559     0
-0.8459     0
-0.8359     0
-0.8259     0
-0.8159     0
-0.8059     0
-0.7959     0
-0.7859     0
-0.7759     0
-0.7659     0
-0.7559     0
-0.7459     0
-0.7359     0
-0.7259     0
-0.7159     0
-0.7059     0
-0.6959     0
-0.6859     0
-0.6759     0
-0.6659     0
-0.6559     0
-0.6459     0
-0.6359     0
-0.6259     0
-0.6159     0
-0.6059     0
-0.5959     0
-0.5859     0
-0.5759     0
-0.5659     0
-0.5559     0
-0.5459     0
-0.5359     0
-0.5259     0
-0.5159     0
-0.5059     0
-0.4959     0
-0.4859     0
-0.4759     0
-0.4659     0
-0.4559     0
-0.4459     0
-0.4359     0
-0.4259     0
-0.4159     0
-0.4059     0
-0.3959     0
-0.3859     0
-0.3759     0
-0.3659     0
-0.3559     0
-0.3459     0
-0.3359     0
-0.3259     0
-0.3159     0
-0.3059     0
-0.2959     0
-0.2859     0
-0.2759     0
-0.2659     0
-0.2559     0
-0.2459     0
-0.2359     0
-0.2259     0
-0.2159     0
-0.2059     0
-0.1959     0
-0.1859     0
-0.1759     0
-0.1659     0
-0.1559     0
-0.1459     0
-0.1359     0
-0.1259     0
-0.1159     2
-0.1059    11
-0.0959    42
-0.0859   155
-0.0759   488
-0.0659  1514
-0.0559  3846
-0.0459  8341
-0.0359 15753
-0.0259 25308
-0.0159 34706
-0.0059 40847
 0.0041 41148
 0.0141 35276
 0.0241 26119
 0.0341 16375
 0.0441  8917
 0.0541  4224
 0.0641  1660
 0.0741   578
 0.0841   156
 0.0941    61
 0.1041    11
 0.1141    11
 0.1241     6
 0.1341     3
 0.1441     0
 0.1541     0
 0.1641     4
 0.1741    23
 0.1841   145
 0.1941   235
 0.2041   203
 0.2141   208
 0.2241   203
 0.2341   200
 0.2441   205
 0.2541   229
 0.2641   230
 0.2741   223
 0.2841   200
 0.2941   220
 0.3041   209
 0.3141   235
 0.3241   209
 0.3341   195
 0.3441   201
 0.3541   204
 0.3641   226
 0.3741   196
 0.3841   196
 0.3941   190
 0.4041   189
 0.4141   202
 0.4241   187
 0.4341   188
 0.4441   197
 0.4541   200
 0.4641   200
 0.4741   188
 0.4841   186
 0.4941   189
 0.5041   190
 0.5141   187
 0.5241   174
 0.5341   178
 0.5441   171
 0.5541   165
 0.5641   167
 0.5741   172
 0.5841   166
 0.5941   170
 0.6041   156
 0.6141   175
 0.6241   184
 0.6341   178
 0.6441   169
 0.6541   171
 0.6641   167
 0.6741   147
 0.6841   152
 0.6941   171
 0.7041   166
 0.7141   159
 0.7241   160
 0.7341   148
 0.7441   163
 0.7541   163
 0.7641   155
 0.7741   164
 0.7841   146
 0.7941   139
 0.8041   152
 0.8141   171
 0.8241   176
 0.8341   155
 0.8441   140
 0.8541   147
 0.8641   164
 0.8741   156
 0.8841   155
 0.8941   160
 0.9041   159
 0.9141   151
 0.9241   152
 0.9341   151
 0.9441   152
 0.9541   137
 0.9641   139
 0.9741   153
 0.9841   143
 0.9941   138
 1.0041   135
 1.0141   145
 1.0241   140
 1.0341   129
 1.0441   127
 1.0541   135
 1.0641   138
 1.0741   142
 1.0841   150
 1.0941   135
 1.1041   143
 1.1141   123
 1.1241   126
 1.1341   136
 1.1441   138
 1.1541   116
 1.1641   122
 1.1741   132
 1.1841   128
 1.1941   139
 1.2041   123
 1.2141   130
 1.2241   144
 1.2341   140
 1.2441   113
 1.2541   118
 1.2641   125
 1.2741   130
 1.2841   142
 1.2941   126
 1.3041   136
 1.3141   115
 1.3241   130
 1.3341   136
 1.3441   109
 1.3541   126
 1.3641   140
 1.3741   134
 1.3841   126
 1.3941   131
 1.4041   128
 1.4141   128
 1.4241   124
 1.4341   129
 1.4441   137
 1.4541   131
 1.4641   117
 1.4741   121
 1.4841   114
 1.4941   125
 1.5041   106
 1.5141   122
 1.5241   144
 1.5341   138
 1.5441   131
 1.5541   131
 1.5641    99
 1.5741   121
 1.5841   107
 1.5941   112
 1.6041   115
 1.6141   118
 1.6241   138
 1.6341   128
 1.6441   132
 1.6541   153
 1.6641   181
 1.6741   217
 1.6841   269
 1.6941   314
 1.7041   358
 1.7141   417
 1.7241   491
 1.7341   536
 1.7441   537
 1.7541   548
 1.7641   464
 1.7741   369
 1.7841   337
 1.7941   288
 1.8041   236
 1.8141   206
 1.8241   174
 1.8341   173
 1.8441   174
 1.8541   148
 1.8641   123
 1.8741   115
 1.8841   138
 1.8941   120
 1.9041   106
 1.9141   119
 1.9241   137
 1.9341   126
 1.9441   118
 1.9541   152
 1.9641   143
 1.9741   130
 1.9841   154
 1.9941   117
 2.0041   130
 2.0141   150
 2.0241   140
 2.0341   119
 2.0441   141
 2.0541   144
 2.0641   150
 2.0741   121
 2.0841   113
 2.0941   110
 2.1041   109
 2.1141   121
 2.1241   123
 2.1341   129
 2.1441   101
 2.1541   111
 2.1641   103
 2.1741   124
 2.1841   114
 2.1941    87
 2.2041   103
 2.2141   103
 2.2241   111
 2.2341   113
 2.2441   118
 2.2541   115
 2.2641    89
 2.2741    93
 2.2841   108
 2.2941   102
 2.3041   114
 2.3141   114
 2.3241   106
 2.3341   110
 2.3441   100
 2.3541   112
 2.3641   108
 2.3741    96
 2.3841    99
 2.3941    96
 2.4041    99
 2.4141   111
 2.4241   101
 2.4341   108
 2.4441    97
 2.4541    87
 2.4641   104
 2.4741    85
 2.4841    97
 2.4941   110
 2.5041   100
 2.5141    92
 2.5241   109
 2.5341    85
 2.5441    77
 2.5541   102
 2.5641    90
 2.5741    94
 2.5841    97
 2.5941   111
 2.6041    95
 2.6141   101
 2.6241    76
 2.6341   108
 2.6441    97
 2.6541    84
 2.6641    97
 2.6741    84
 2.6841    83
 2.6941   104
 2.7041   103
 2.7141    86
 2.7241    76
 2.7341    84
 2.7441    73
 2.7541    91
 2.7641   102
 2.7741    94
 2.7841    92
 2.7941    86
 2.8041   108
 2.8141    99
 2.8241    98
 2.8341    80
 2.8441   107
 2.8541    87
 2.8641   102
 2.8741    76
 2.8841    92
 2.8941    99
 2.9041    70
 2.9141    83
 2.9241   100
 2.9341    81
 2.9441    77
 2.9541    86
 2.9641    97
 2.9741    89
 2.9841   105
 2.9941    94
 3.0041    78
 3.0141    91
 3.0241    69
 3.0341    64
 3.0441    78
 3.0541    71
 3.0641    64
 3.0741    86
 3.0841    93
 3.0941    70
 3.1041    83
 3.1141    73
 3.1241    65
 3.1341    53
 3.1441    76
 3.1541    71
 3.1641    83
 3.1741    77
 3.1841    75
 3.1941    78
 3.2041    87
 3.2141    83
 3.2241    75
 3.2341    81
 3.2441    79
 3.2541    99
 3.2641    91
 3.2741   100
 3.2841   113
 3.2941   106
 3.3041   120
 3.3141   135
 3.3241   122
 3.3341   136
 3.3441   111
 3.3541    92
 3.3641   105
 3.3741    89
 3.3841    87
 3.3941    84
 3.4041    72
 3.4141    78
 3.4241    64
 3.4341    62
 3.4441    74
 3.4541    70
 3.4641    73
 3.4741    76
 3.4841    78
 3.4941    94
 3.5041    63
 3.5141    81
 3.5241    89
 3.5341   100
 3.5441   130
 3.5541   158
 3.5641   200
 3.5741   283
 3.5841   365
 3.5941   441
 3.6041   613
 3.6141   908
 3.6241  1237
 3.6341  1451
 3.6441  1743
 3.6541  2213
 3.6641  2387
 3.6741  2666
 3.6841  2711
 3.6941  2726
 3.7041  2626
 3.7141  2383
 3.7241  2204
 3.7341  1893
 3.7441  1570
 3.7541  1177
 3.7641   867
 3.7741   623
 3.7841   473
 3.7941   328
 3.8041   250
 3.8141   156
 3.8241   114
 3.8341   110
 3.8441    88
 3.8541    72
 3.8641    85
 3.8741   101
 3.8841   104
 3.8941    94
 3.9041   127
 3.9141   152
 3.9241   187
 3.9341   219
 3.9441   276
 3.9541   339
 3.9641   398
 3.9741   499
 3.9841   478
 3.9941   559
 4.0041   600
 4.0141   588
 4.0241   604
 4.0341   531
 4.0441   509
 4.0541   416
 4.0641   378
 4.0741   339
 4.0841   237
 4.0941   196
 4.1041   146
 4.1141   130
 4.1241   113
 4.1341    85
 4.1441    67
 4.1541    67
 4.1641    67
 4.1741    62
 4.1841    57
 4.1941    44
 4.2041    65
 4.2141    52
 4.2241    50
 4.2341    55
 4.2441    66
 4.2541    52
 4.2641    52
 4.2741    58
 4.2841    46
 4.2941    58
 4.3041    38
 4.3141    52
 4.3241    52
 4.3341    56
 4.3441    62
 4.3541    60
 4.3641    59
 4.3741    55
 4.3841    56
 4.3941    70
 4.4041   103
 4.4141   111
 4.4241   119
 4.4341   147
 4.4441   162
 4.4541   190
 4.4641   218
 4.4741   230
 4.4841   249
 4.4941   257
 4.5041   263
 4.5141   266
 4.5241   230
 4.5341   243
 4.5441   212
 4.5541   180
 4.5641   181
 4.5741   129
 4.5841   109
 4.5941    93
 4.6041    67
 4.6141    99
 4.6241    79
 4.6341    76
 4.6441    67
 4.6541    95
 4.6641    61
 4.6741    62
 4.6841    62
 4.6941    62
 4.7041    55
 4.7141    74
 4.7241    61
 4.7341    70
 4.7441    72
 4.7541    59
 4.7641    73
 4.7741    75
 4.7841    76
 4.7941    74
 4.8041    77
 4.8141    76
 4.8241    69
 4.8341    87
 4.8441    77
 4.8541   100
 4.8641    84
 4.8741    89
 4.8841   100
 4.8941    98
 4.9041    87
 4.9141   116
 4.9241   132
 4.9341    96
 4.9441   100
 4.9541    95
 4.9641   114
 4.9741    85
 4.9841    94
 4.9941    84
 5.0041    90
 5.0141    83
 5.0241    73
 5.0341    72
 5.0441    68
 5.0541    69
 5.0641    78
 5.0741    70
 5.0841    78
 5.0941    72
 5.1041    61
 5.1141    66
 5.1241    68
 5.1341    67
 5.1441    57
 5.1541    55
 5.1641    66
 5.1741    70
 5.1841    68
 5.1941    72
 5.2041    78
 5.2141    64
 5.2241    58
 5.2341    67
 5.2441    68
 5.2541    75
 5.2641    71
 5.2741    74
 5.2841    79
 5.2941    84
 5.3041    68
 5.3141    90
 5.3241    81
 5.3341    92
 5.3441    84
 5.3541   108
 5.3641   112
 5.3741   130
 5.3841   141
 5.3941   129
 5.4041   128
 5.4141   125
 5.4241   137
 5.4341   114
 5.4441   116
 5.4541   105
 5.4641   107
 5.4741   118
 5.4841   108
 5.4941    82
 5.5041    81
 5.5141    88
 5.5241   104
 5.5341   102
 5.5441    91
 5.5541    74
 5.5641    91
 5.5741    86
 5.5841    61
 5.5941    66
 5.6041    69
 5.6141    74
 5.6241    82
 5.6341    80
 5.6441    72
 5.6541    90
 5.6641    77
 5.6741    81
 5.6841    88
 5.6941   107
 5.7041   110
 5.7141   119
 5.7241   126
 5.7341   154
 5.7441   223
 5.7541   253
 5.7641   311
 5.7741   437
 5.7841   557
 5.7941   767
 5.8041   909
 5.8141  1209
 5.8241  1418
 5.8341  1777
 5.8441  2034
 5.8541  2360
 5.8641  2641
 5.8741  2741
 5.8841  2882
 5.8941  3009
 5.9041  2951
 5.9141  2756
 5.9241  2595
 5.9341  2444
 5.9441  2091
 5.9541  1828
 5.9641  1479
 5.9741  1216
 5.9841   978
 5.9941   727
 6.0041   581
 6.0141   449
 6.0241   339
 6.0341   257
 6.0441   204
 6.0541   176
 6.0641   148
 6.0741   118
 6.0841   131
 6.0941   149
 6.1041   132
 6.1141   137
 6.1241   143
 6.1341   160
 6.1441   145
 6.1541   155
 6.1641   188
 6.1741   245
 6.1841   246
 6.1941   315
 6.2041   420
 6.2141   535
 6.2241   688
 6.2341   994
 6.2441  1307
 6.2541  1890
 6.2641  2655
 6.2741  3692
 6.2841  5083
 6.2941  6765
 6.3041  8799
 6.3141 10978
 6.3241 13467
 6.3341 16507
 6.3441 19499
 6.3541 22126
 6.3641 24922
 6.3741 26690
 6.3841 28015
 6.3941 28821
 6.4041 28881
 6.4141 28248
 6.4241 26342
 6.4341 24487
 6.4441 21666
 6.4541 19261
 6.4641 16079
 6.4741 13497
 6.4841 10881
 6.4941  8640
 6.5041  6691
 6.5141  5009
 6.5241  3799
 6.5341  2682
 6.5441  1978
 6.5541  1389
 6.5641   953
 6.5741   720
 6.5841   512
 6.5941   358
 6.6041   292
 6.6141   236
 6.6241   195
 6.6341   174
 6.6441   158
 6.6541   155
 6.6641   175
 6.6741   145
 6.6841   135
 6.6941   159
 6.7041   145
 6.7141   137
 6.7241   136
 6.7341   168
 6.7441   153
 6.7541   173
 6.7641   178
 6.7741   156
 6.7841   163
 6.7941   195
 6.8041   181
 6.8141   190
 6.8241   189
 6.8341   244
 6.8441   259
 6.8541   278
 6.8641   290
 6.8741   331
 6.8841   374
 6.8941   466
 6.9041   567
 6.9141   709
 6.9241   847
 6.9341  1026
 6.9441  1318
 6.9541  1556
 6.9641  2029
 6.9741  2403
 6.9841  2843
 6.9941  3236
 7.0041  3668
 7.0141  4017
 7.0241  4379
 7.0341  4846
 7.0441  4864
 7.0541  4888
 7.0641  4736
 7.0741  4657
 7.0841  4390
 7.0941  4063
 7.1041  3548
 7.1141  3148
 7.1241  2703
 7.1341  2297
 7.1441  1852
 7.1541  1488
 7.1641  1205
 7.1741   906
 7.1841   763
 7.1941   567
 7.2041   435
 7.2141   358
 7.2241   266
 7.2341   243
 7.2441   186
 7.2541   172
 7.2641   205
 7.2741   156
 7.2841   167
 7.2941   164
 7.3041   169
 7.3141   179
 7.3241   192
 7.3341   198
 7.3441   194
 7.3541   215
 7.3641   208
 7.3741   222
 7.3841   236
 7.3941   253
 7.4041   255
 7.4141   225
 7.4241   240
 7.4341   225
 7.4441   309
 7.4541   242
 7.4641   268
 7.4741   263
 7.4841   242
 7.4941   267
 7.5041   232
 7.5141   227
 7.5241   202
 7.5341   204
 7.5441   186
 7.5541   186
 7.5641   156
 7.5741   165
 7.5841   167
 7.5941   146
 7.6041   142
 7.6141   133
 7.6241   137
 7.6341   143
 7.6441   137
 7.6541   136
 7.6641   141
 7.6741   156
 7.6841   165
 7.6941   144
 7.7041   145
 7.7141   147
 7.7241   166
 7.7341   180
 7.7441   168
 7.7541   157
 7.7641   170
 7.7741   174
 7.7841   175
 7.7941   175
 7.8041   173
 7.8141   189
 7.8241   223
 7.8341   200
 7.8441   213
 7.8541   201
 7.8641   213
 7.8741   226
 7.8841   219
 7.8941   217
 7.9041   237
 7.9141   255
 7.9241   265
 7.9341   275
 7.9441   299
 7.9541   340
 7.9641   350
 7.9741   387
 7.9841   413
 7.9941   419
 8.0041   475
 8.0141   491
 8.0241   560
 8.0341   566
 8.0441   599
 8.0541   670
 8.0641   705
 8.0741   766
 8.0841   824
 8.0941   870
 8.1041   857
 8.1141   940
 8.1241   978
 8.1341   991
 8.1441   979
 8.1541  1079
 8.1641  1129
 8.1741  1140
 8.1841  1152
 8.1941  1126
 8.2041  1119
 8.2141  1134
 8.2241  1199
 8.2341  1141
 8.2441  1237
 8.2541  1243
 8.2641  1294
 8.2741  1339
 8.2841  1397
 8.2941  1492
 8.3041  1567
 8.3141  1661
 8.3241  1809
 8.3341  1921
 8.3441  1978
 8.3541  2036
 8.3641  2144
 8.3741  2254
 8.3841  2241
 8.3941  2186
 8.4041  2249
 8.4141  2079
 8.4241  2034
 8.4341  1901
 8.4441  1721
 8.4541  1488
 8.4641  1409
 8.4741  1194
 8.4841  1068
 8.4941   872
 8.5041   742
 8.5141   718
 8.5241   540
 8.5341   507
 8.5441   438
 8.5541   397
 8.5641   361
 8.5741   345
 8.5841   318
 8.5941   344
 8.6041   334
 8.6141   337
 8.6241   308
 8.6341   325
 8.6441   323
 8.6541   344
 8.6641   330
 8.6741   319
 8.6841   303
 8.6941   306
 8.7041   294
 8.7141   291
 8.7241   274
 8.7341   291
 8.7441   269
 8.7541   247
 8.7641   252
 8.7741   260
 8.7841   251
 8.7941   224
 8.8041   221
 8.8141   222
 8.8241   214
 8.8341   211
 8.8441   216
 8.8541   218
 8.8641   224
 8.8741   219
 8.8841   219
 8.8941   234
 8.9041   232
 8.9141   222
 8.9241   271
 8.9341   247
 8.9441   237
 8.9541   256
 8.9641   252
 8.9741   271
 8.9841   226
 8.9941   243
 9.0041   268
 9.0141   273
 9.0241   280
 9.0341   288
 9.0441   326
 9.0541   286
 9.0641   299
 9.0741   345
 9.0841   321
 9.0941   351
 9.1041   362
 9.1141   360
 9.1241   367
 9.1341   372
 9.1441   413
 9.1541   421
 9.1641   455
 9.1741   425
 9.1841   484
 9.1941   512
 9.2041   536
 9.2141   569
 9.2241   580
 9.2341   655
 9.2441   692
 9.2541   717
 9.2641   738
 9.2741   813
 9.2841   847
 9.2941   884
 9.3041   899
 9.3141   909
 9.3241   971
 9.3341   997
 9.3441  1048
 9.3541  1086
 9.3641  1016
 9.3741  1063
 9.3841  1089
 9.3941  1153
 9.4041  1126
 9.4141  1182
 9.4241  1158
 9.4341  1131
 9.4441  1168
 9.4541  1222
 9.4641  1199
 9.4741  1219
 9.4841  1210
 9.4941  1242
 9.5041  1258
 9.5141  1302
 9.5241  1393
 9.5341  1364
 9.5441  1444
 9.5541  1486
 9.5641  1532
 9.5741  1583
 9.5841  1643
 9.5941  1774
 9.6041  1819
 9.6141  1959
 9.6241  2046
 9.6341  2137
 9.6441  2049
 9.6541  2200
 9.6641  2193
 9.6741  2152
 9.6841  2110
 9.6941  2190
 9.7041  2098
 9.7141  1940
 9.7241  1839
 9.7341  1766
 9.7441  1634
 9.7541  1431
 9.7641  1339
 9.7741  1273
 9.7841  1152
 9.7941  1080
 9.8041  1000
 9.8141   994
 9.8241   967
 9.8341   904
 9.8441   890
 9.8541   884
 9.8641   923
 9.8741   908
 9.8841   868
 9.8941   900
 9.9041   896
 9.9141   913
 9.9241   971
 9.9341   972
 9.9441   966
 9.9541   950
 9.9641   898
 9.9741   883
 9.9841   915
 9.9941   859
10.0041   789
10.0141   738
10.0241   689
10.0341   636
10.0441   588
10.0541   538
10.0641   485
10.0741   433
10.0841   373
10.0941   323
10.1041   299
10.1141   284
10.1241   269
10.1341   251
10.1441   231
10.1541   217
10.1641   210
10.1741   203
10.1841   196
10.1941   192
10.2041   181
10.2141   172
10.2241   172
10.2341   168
10.2441   165
10.2541   169
10.2641   162
10.2741   158
10.2841   151
10.2941   138
10.3041   137
10.3141   141
10.3241   136
10.3341   123
10.3441   115
10.3541   134
10.3641   132
10.3741   134
10.3841   150
10.3941   129
10.4041   137
10.4141   144
10.4241   142
10.4341   145
10.4441   144
10.4541   138
10.4641   147
10.4741   149
10.4841   151
10.4941   154
10.5041   157
10.5141   147
10.5241   179
10.5341   168
10.5441   170
10.5541   171
10.5641   170
10.5741   176
10.5841   185
10.5941   174
10.6041   161
10.6141   164
10.6241   168
10.6341   160
10.6441   167
10.6541   171
10.6641   151
10.6741   174
10.6841   169
10.6941   174
10.7041   179
10.7141   184
10.7241   192
10.7341   181
10.7441   177
10.7541   201
10.7641   208
10.7741   205
10.7841   195
10.7941   207
10.8041   216
10.8141   248
10.8241   242
10.8341   233
10.8441   239
10.8541   234
10.8641   257
10.8741   241
10.8841   248
10.8941   242
10.9041   242
10.9141   243
10.9241   266
10.9341   261
10.9441   255
10.9541   280
10.9641   288
10.9741   258
10.9841   258
10.9941   254
11.0041   271
11.0141   262
11.0241   262
11.0341   244
11.0441   242
11.0541   239
11.0641   233
11.0741   222
11.0841   219
11.0941   241
11.1041   228
11.1141   224
11.1241   241
11.1341   219
11.1441   246
11.1541   262
11.1641   266
11.1741   264
11.1841   285
11.1941   292
11.2041   280
11.2141   290
11.2241   316
11.2341   330
11.2441   354
11.2541   334
11.2641   324
11.2741   338
11.2841   354
11.2941   359
11.3041   356
11.3141   345
11.3241   331
11.3341   311
11.3441   295
11.3541   319
11.3641   297
11.3741   257
11.3841   211
11.3941   213
11.4041   228
11.4141   202
11.4241   199
11.4341   216
11.4441   221
11.4541   202
11.4641   195
11.4741   178
11.4841   167
11.4941   154
11.5041   181
11.5141   184
11.5241   159
11.5341   169
11.5441   191
11.5541   191
11.5641   182
11.5741   198
11.5841   209
11.5941   198
11.6041   188
11.6141   192
11.6241   191
11.6341   183
11.6441   181
11.6541   195
11.6641   207
11.6741   198
11.6841   181
11.6941   169
11.7041   179
11.7141   193
11.7241   193
11.7341   190
11.7441   190
11.7541   165
11.7641   185
11.7741   197
11.7841   204
11.7941   190
11.8041   180
11.8141   185
11.8241   193
11.8341   202
11.8441   192
11.8541   191
11.8641   203
11.8741   213
11.8841   220
11.8941   199
11.9041   208
11.9141   217
11.9241   215
11.9341   225
11.9441   206
11.9541   210
11.9641   202
11.9741   200
11.9841   193
11.9941   191
12.0041   179
12.0141   173
12.0241   169
12.0341   167
12.0441   162
12.0541   166
12.0641   160
12.0741   153
12.0841   150
12.0941   151
12.1041   154
12.1141   148
12.1241   150
12.1341   147
12.1441   141
12.1541   148
12.1641   137
12.1741   136
12.1841   142
12.1941   139
12.2041   135
12.2141   136
12.2241   136
12.2341   135
12.2441   139
12.2541   145
12.2641   147
12.2741   145
12.2841   144
12.2941   144
12.3041   144
12.3141   141
12.3241   138
12.3341   141
12.3441   146
12.3541   147
12.3641   147
12.3741   143
12.3841   138
12.3941   136
12.4041   136
12.4141   136
12.4241   136
12.4341   141
12.4441   146
12.4541   145
12.4641   145
12.4741   145
12.4841   150
12.4941   167
12.5041   161
12.5141   143
12.5241   146
12.5341   152
12.5441   158
12.5541   163
12.5641   146
12.5741   149
12.5841   167
12.5941   184
12.6041   185
12.6141   178
12.6241   170
12.6341   167
12.6441   163
12.6541   161
12.6641   163
12.6741   163
12.6841   162
12.6941   163
12.7041   163
12.7141   158
12.7241   157
12.7341   168
12.7441   174
12.7541   171
12.7641   164
12.7741   162
12.7841   163
12.7941   165
12.8041   171
12.8141   173
12.8241   165
12.8341   162
12.8441   165
12.8541   162
12.8641   157
12.8741   162
12.8841   166
12.8941   165
12.9041   169
12.9141   177
12.9241   182
12.9341   181
12.9441   175
12.9541   164
12.9641   156
12.9741   160
12.9841   173
12.9941   167
13.0041   154
13.0141   168
13.0241   180
13.0341   174
13.0441   183
13.0541   169
13.0641   173
13.0741   178
13.0841   162
13.0941   171
13.1041   174
13.1141   175
13.1241   186
13.1341   189
13.1441   192
13.1541   185
13.1641   193
13.1741   200
13.1841   189
13.1941   196
13.2041   194
13.2141   199
13.2241   212
13.2341   203
13.2441   210
13.2541   220
13.2641   213
13.2741   219
13.2841   220
13.2941   216
13.3041   233
13.3141   228
13.3241   223
13.3341   229
13.3441   230
13.3541   233
13.3641   232
13.3741   233
13.3841   232
13.3941   223
13.4041   214
13.4141   218
13.4241   228
13.4341   228
13.4441   219
13.4541   216
13.4641   219
13.4741   222
13.4841   225
13.4941   224
13.5041   221
13.5141   220
13.5241   218
13.5341   217
13.5441   216
13.5541   208
13.5641   201
13.5741   202
13.5841   199
13.5941   195
13.6041   204
13.6141   213
13.6241   211
13.6341   207
13.6441   204
13.6541   195
13.6641   212
13.6741   222
13.6841   215
13.6941   218
13.7041   208
13.7141   200
13.7241   207
13.7341   217
13.7441   219
13.7541   219
13.7641   220
13.7741   222
13.7841   219
13.7941   214
13.8041   209
13.8141   209
13.8241   214
13.8341   218
13.8441   218
13.8541   219
13.8641   221
13.8741   223
13.8841   227
13.8941   230
13.9041   235
13.9141   242
13.9241   246
13.9341   245
13.9441   241
13.9541   240
13.9641   245
13.9741   254
13.9841   260
13.9941   268
14.0041   276
14.0141   278
14.0241   281
14.0341   290
14.0441   297
14.0541   304
14.0641   315
14.0741   326
14.0841   332
14.0941   328
14.1041   332
14.1141   345
14.1241   355
14.1341   361
14.1441   363
14.1541   360
14.1641   361
14.1741   359
14.1841   345
14.1941   333
14.2041   330
14.2141   327
14.2241   316
14.2341   307
14.2441   307
14.2541   309
14.2641   310
14.2741   314
14.2841   312
14.2941   300
14.3041   277
14.3141   279
14.3241   277
14.3341   252
14.3441   253
14.3541   266
14.3641   276
14.3741   275
14.3841   265
14.3941   254
14.4041   250
14.4141   234
14.4241   235
14.4341   247
14.4441   249
14.4541   258
14.4641   257
14.4741   245
14.4841   247
14.4941   267
14.5041   278
14.5141   278
14.5241   257
14.5341   249
14.5441   267
14.5541   264
14.5641   279
14.5741   281
14.5841   275
14.5941   271
14.6041   266
14.6141   281
14.6241   273
14.6341   269
14.6441   275
14.6541   271
14.6641   275
14.6741   264
14.6841   277
14.6941   271
14.7041   263
14.7141   290
14.7241   295
14.7341   284
14.7441   274
14.7541   280
14.7641   286
14.7741   279
14.7841   272
14.7941   266
14.8041   281
14.8141   286
14.8241   294
14.8341   288
14.8441   281
14.8541   291
14.8641   298
14.8741   309
14.8841   298
14.8941   299
14.9041   314
14.9141   317
14.9241   314
14.9341   308
14.9441   311
14.9541   306
14.9641   300
14.9741   290
14.9841   302
14.9941   287
15.0041   293
15.0141   294
15.0241   308
15.0341   312
15.0441   303
15.0541   310
15.0641   300
15.0741   298
15.0841   309
15.0941   298
15.1041   277
15.1141   293
15.1241   290
15.1341   292
15.1441   295
15.1541   285
15.1641   296
15.1741   305
15.1841   308
15.1941   298
15.2041   308
15.2141   298
15.2241   305
15.2341   321
15.2441   306
15.2541   304
15.2641   307
15.2741   322
15.2841   322
15.2941   315
15.3041   310
15.3141   321
15.3241   319
15.3341   320
15.3441   322
15.3541   322
15.3641   316
15.3741   313
15.3841   318
15.3941   336
15.4041   328
15.4141   328
15.4241   330
15.4341   313
15.4441   307
15.4541   330
15.4641   322
15.4741   323
15.4841   329
15.4941   326
15.5041   322
15.5141   319
15.5241   339
15.5341   327
15.5441   318
15.5541   342
15.5641   353
15.5741   342
15.5841   371
15.5941   373
15.6041   378
15.6141   388
15.6241   366
15.6341   384
15.6441   421
15.6541   426
15.6641   433
15.6741   429
15.6841   440
15.6941   446
15.7041   443
15.7141   455
15.7241   463
15.7341   488
15.7441   470
15.7541   467
15.7641   491
15.7741   499
15.7841   470
15.7941   460
15.8041   476
15.8141   448
15.8241   446
15.8341   463
15.8441   453
15.8541   443
15.8641   424
15.8741   406
15.8841   404
15.8941   420
15.9041   396
15.9141   383
15.9241   377
15.9341   369
15.9441   341
15.9541   363
15.9641   377
15.9741   356
15.9841   361
15.9941   372
16.0041   340
16.0141   348
16.0241   347
16.0341   358
16.0441   366
16.0541   362
16.0641   345
16.0741   351
16.0841   348
16.0941   360
16.1041   365
16.1141   363
16.1241   376
16.1341   346
16.1441   361
16.1541   360
16.1641   360
16.1741   364
16.1841   364
16.1941   379
16.2041   350
16.2141   370
16.2241   373
16.2341   384
16.2441   382
16.2541   363
16.2641   338
16.2741   359
16.2841   368
16.2941   350
16.3041   365
16.3141   364
16.3241   366
16.3341   372
16.3441   357
16.3541   368
16.3641   380
16.3741   389
16.3841   363
16.3941   361
16.4041   364
16.4141   358
16.4241   383
16.4341   398
16.4441   402
16.4541   376
16.4641   374
16.4741   371
16.4841   386
16.4941   401
16.5041   408
16.5141   370
16.5241   347
16.5341   374
16.5441   385
16.5541   375
16.5641   364
16.5741   378
16.5841   409
16.5941   409
16.6041   390
16.6141   388
16.6241   398
16.6341   418
16.6441   391
16.6541   394
16.6641   402
16.6741   417
16.6841   401
16.6941   402
16.7041   398
16.7141   418
16.7241   388
16.7341   364
16.7441   370
16.7541   407
16.7641   409
16.7741   379
16.7841   411
16.7941   415
16.8041   392
16.8141   373
16.8241   400
16.8341   389
16.8441   399
16.8541   417
16.8641   401
16.8741   386
16.8841   401
16.8941   411
16.9041   395
16.9141   417
16.9241   390
16.9341   400
16.9441   429
16.9541   420
16.9641   429
16.9741   416
16.9841   418
16.9941   403
17.0041   419
17.0141   431
17.0241   398
17.0341   385
17.0441   390
17.0541   417
17.0641   418
17.0741   404
17.0841   410
17.0941   429
17.1041   440
17.1141   400
17.1241   420
17.1341   439
17.1441   436
17.1541   430
17.1641   444
17.1741   425
17.1841   420
17.1941   417
17.2041   435
17.2141   424
17.2241   415
17.2341   387
17.2441   409
17.2541   397
17.2641   417
17.2741   429
17.2841   421
17.2941   417
17.3041   427
17.3141   392
17.3241   428
17.3341   473
17.3441   441
17.3541   441
17.3641   430
17.3741   437
17.3841   408
17.3941   420
17.4041   432
17.4141   459
17.4241   439
17.4341   423
17.4441   432
17.4541   466
17.4641   477
17.4741   450
17.4841   404
17.4941   418
17.5041   456
17.5141   450
17.5241   475
17.5341   443
17.5441   449
17.5541   478
17.5641   495
17.5741   455
17.5841   443
17.5941   447
17.6041   470
17.6141   471
17.6241   425
17.6341   428
17.6441   457
17.6541   457
17.6641   448
17.6741   470
17.6841   477
17.6941   451
17.7041   456
17.7141   466
17.7241   455
17.7341   437
17.7441   454
17.7541   470
17.7641   460
17.7741   435
17.7841   433
17.7941   463
17.8041   449
17.8141   468
17.8241   499
17.8341   474
17.8441   438
17.8541   460
17.8641   451
17.8741   469
17.8841   483
17.8941   437
17.9041   444
17.9141   457
17.9241   420
17.9341   435
17.9441   474
17.9541   458
17.9641   463
17.9741   462
17.9841   448
17.9941   424
18.0041   422
18.0141   469
18.0241   465
18.0341   431
18.0441   459
18.0541   473
18.0641   487
18.0741   443
18.0841   471
18.0941   481
18.1041   477
18.1141   462
18.1241   494
18.1341   479
18.1441   461
18.1541   451
18.1641   426
18.1741   462
18.1841   452
18.1941   493
18.2041   482
18.2141   457
18.2241   463
18.2341   434
18.2441   472
18.2541   461
18.2641   475
18.2741   451
18.2841   478
18.2941   485
18.3041   470
18.3141   450
18.3241   461
18.3341   436
18.3441   455
18.3541   478
18.3641   473
18.3741   494
18.3841   481
18.3941   466
18.4041   478
18.4141   485
18.4241   480
18.4341   481
18.4441   472
18.4541   457
18.4641   460
18.4741   439
18.4841   448
18.4941   463
18.5041   484
18.5141   480
18.5241   477
18.5341   478
18.5441   438
18.5541   456
18.5641   478
18.5741   465
18.5841   490
18.5941   477
18.6041   473
18.6141   459
18.6241   492
18.6341   476
18.6441   449
18.6541   482
18.6641   488
18.6741   516
18.6841   491
18.6941   438
18.7041   443
18.7141   459
18.7241   455
18.7341   452
18.7441   445
18.7541   428
18.7641   467
18.7741   466
18.7841   469
18.7941   475
18.8041   461
18.8141   468
18.8241   471
18.8341   459
18.8441   478
18.8541   470
18.8641   444
18.8741   465
18.8841   451
18.8941   473
18.9041   467
18.9141   467
18.9241   468
18.9341   443
18.9441   478
18.9541   458
18.9641   476
18.9741   486
18.9841   457
18.9941   478
19.0041   474
19.0141   479
19.0241   445
19.0341   449
19.0441   487
19.0541   502
19.0641   476
19.0741   513
19.0841   508
19.0941   482
19.1041   453
19.1141   497
19.1241   506
19.1341   480
19.1441   464
19.1541   509
19.1641   471
19.1741   476
19.1841   483
19.1941   459
19.2041   460
19.2141   461
19.2241   493
19.2341   499
19.2441   493
19.2541   501
19.2641   472
19.2741   488
19.2841   546
19.2941   503
19.3041   489
19.3141   490
19.3241   468
19.3341   431
19.3441   488
19.3541   479
19.3641   453
19.3741   509
19.3841   482
19.3941   492
19.4041   519
19.4141   477
19.4241   477
19.4341   463
19.4441   465
19.4541   470
19.4641   466
19.4741   484
19.4841   487
19.4941   460
19.5041   491
19.5141   450
19.5241   445
19.5341   492
19.5441   520
19.5541   489
19.5641   485
19.5741   503
19.5841   485
19.5941   518
19.6041   494
19.6141   483
19.6241   468
19.6341   482
19.6441   498
19.6541   502
19.6641   502
19.6741   470
19.6841   465
19.6941   510
19.7041   457
19.7141   489
19.7241   473
19.7341   461
19.7441   468
19.7541   485
19.7641   470
19.7741   504
19.7841   467
19.7941   474
19.8041   516
19.8141   494
19.8241   476
19.8341   483
19.8441   488
19.8541   491
19.8641   479
19.8741   466
19.8841   476
19.8941   488
19.9041   462
19.9141   507
19.9241   526
19.9341   486
19.9441   489
19.9541   502
19.9641   516
19.9741   491
19.9841   485
19.9941   451
20.0041   489
20.0141   489
20.0241   464
20.0341   501
20.0441   498
20.0541   496
20.0641   450
20.0741   454
20.0841   484
20.0941   499
20.1041   462
20.1141   470
20.1241   481
20.1341   503
20.1441   482
20.1541   537
20.1641   487
20.1741   474
20.1841   438
20.1941   478
20.2041   502
20.2141   485
20.2241   472
20.2341   500
20.2441   503
20.2541   512
20.2641   513
20.2741   463
20.2841   485
20.2941   507
20.3041   496
20.3141   482
20.3241   517
20.3341   500
20.3441   507
20.3541   531
20.3641   471
20.3741   490
20.3841   498
20.3941   503
20.4041   494
20.4141   470
20.4241   496
20.4341   476
20.4441   461
20.4541   451
20.4641   493
20.4741   478
20.4841   513
20.4941   470
20.5041   469
20.5141   513
20.5241   478
20.5341   492
20.5441   468
20.5541   495
20.5641   500
20.5741   479
20.5841   502
20.5941   488
20.6041   503
20.6141   462
20.6241   481
20.6341   495
20.6441   476
20.6541   497
20.6641   473
20.6741   474
20.6841   499
20.6941   472
20.7041   472
20.7141   464
20.7241   490
20.7341   503
20.7441   507
20.7541   472
20.7641   480
20.7741   498
20.7841   474
20.7941   495
20.8041   522
20.8141   520
20.8241   490
20.8341   518
20.8441   497
20.8541   503
20.8641   508
20.8741   473
20.8841   522
20.8941   507
20.9041   526
20.9141   538
20.9241   552
20.9341   545
20.9441   559
20.9541   496
20.9641   524
20.9741   537
20.9841   556
20.9941   578
21.0041   597
21.0141   587
21.0241   613
21.0341   620
21.0441   627
21.0541   685
21.0641   641
21.0741   603
21.0841   656
21.0941   671
21.1041   694
21.1141   699
21.1241   689
21.1341   649
21.1441   679
21.1541   642
21.1641   661
21.1741   651
21.1841   658
21.1941   653
21.2041   640
21.2141   656
21.2241   635
21.2341   622
21.2441   625
21.2541   616
21.2641   590
21.2741   551
21.2841   576
21.2941   547
21.3041   566
21.3141   540
21.3241   516
21.3341   497
21.3441   507
21.3541   520
21.3641   495
21.3741   522
21.3841   527
21.3941   503
21.4041   453
21.4141   496
21.4241   506
21.4341   452
21.4441   478
21.4541   503
21.4641   512
21.4741   498
21.4841   500
21.4941   486
21.5041   478
21.5141   474
21.5241   534
21.5341   447
21.5441   527
21.5541   493
21.5641   506
21.5741   492
21.5841   477
21.5941   482
21.6041   471
21.6141   444
21.6241   456
21.6341   486
21.6441   494
21.6541   490
21.6641   467
21.6741   439
21.6841   451
21.6941   488
21.7041   464
21.7141   429
21.7241   460
21.7341   466
21.7441   461
21.7541   461
21.7641   485
21.7741   461
21.7841   486
21.7941   478
21.8041   447
21.8141   460
21.8241   447
21.8341   444
21.8441   471
21.8541   455
21.8641   459
21.8741   473
21.8841   482
21.8941   493
21.9041   465
21.9141   469
21.9241   448
21.9341   455
21.9441   439
21.9541   494
21.9641   457
21.9741   441
21.9841   454
21.9941   452
22.0041   478
22.0141   490
22.0241   482
22.0341   465
22.0441   464
22.0541   474
22.0641   447
22.0741   425
22.0841   493
22.0941   453
22.1041   451
22.1141   445
22.1241   489
22.1341   479
22.1441   446
22.1541   485
22.1641   452
22.1741   447
22.1841   440
22.1941   462
22.2041   471
22.2141   478
22.2241   438
22.2341   460
22.2441   424
22.2541   475
22.2641   480
22.2741   436
22.2841   433
22.2941   474
22.3041   459
22.3141   454
22.3241   447
22.3341   446
22.3441   453
22.3541   470
22.3641   432
22.3741   443
22.3841   453
22.3941   480
22.4041   463
22.4141   479
22.4241   445
22.4341   419
22.4441   446
22.4541   428
22.4641   416
22.4741   458
22.4841   454
22.4941   444
22.5041   456
22.5141   442
22.5241   435
22.5341   462
22.5441   451
22.5541   408
22.5641   425
22.5741   460
22.5841   439
22.5941   446
22.6041   453
22.6141   443
22.6241   456
22.6341   437
22.6441   428
22.6541   461
22.6641   427
22.6741   446
22.6841   422
22.6941   427
22.7041   456
22.7141   456
22.7241   433
22.7341   424
22.7441   427
22.7541   428
22.7641   413
22.7741   473
22.7841   425
22.7941   454
22.8041   431
22.8141   443
22.8241   410
22.8341   392
22.8441   434
22.8541   425
22.8641   455
22.8741   469
22.8841   420
22.8941   401
22.9041   438
22.9141   465
22.9241   405
22.9341   413
22.9441   474
22.9541   446
22.9641   462
22.9741   441
22.9841   445
22.9941   416
23.0041   439
23.0141   437
23.0241   471
23.0341   439
23.0441   436
23.0541   443
23.0641   438
23.0741   419
23.0841   433
23.0941   433
23.1041   457
23.1141   450
23.1241   417
23.1341   436
23.1441   429
23.1541   442
23.1641   433
23.1741   440
23.1841   408
23.1941   441
23.2041   444
23.2141   429
23.2241   443
23.2341   411
23.2441   459
23.2541   430
23.2641   420
23.2741   445
23.2841   414
23.2941   419
23.3041   419
23.3141   413
23.3241   455
23.3341   446
23.3441   447
23.3541   426
23.3641   431
23.3741   430
23.3841   453
23.3941   404
23.4041   462
23.4141   396
23.4241   418
23.4341   415
23.4441   384
23.4541   411
23.4641   388
23.4741   468
23.4841   415
23.4941   378
23.5041   422
23.5141   418
23.5241   443
23.5341   424
23.5441   440
23.5541   416
23.5641   422
23.5741   432
23.5841   390
23.5941   414
23.6041   445
23.6141   417
23.6241   417
23.6341   411
23.6441   414
23.6541   450
23.6641   405
23.6741   454
23.6841   419
23.6941   397
23.7041   397
23.7141   408
23.7241   446
23.7341   429
23.7441   405
23.7541   400
23.7641   438
23.7741   455
23.7841   424
23.7941   459
23.8041   458
23.8141   448
23.8241   457
23.8341   471
23.8441   441
23.8541   439
23.8641   438
23.8741   451
23.8841   459
23.8941   481
23.9041   430
23.9141   459
23.9241   407
23.9341   422
23.9441   411
23.9541   407
23.9641   437
23.9741   419
23.9841   412
23.9941   436
24.0041   387
24.0141   409
24.0241   397
24.0341   409
24.0441   407
24.0541   413
24.0641   413
24.0741   404
24.0841   379
24.0941   407
24.1041   395
24.1141   379
24.1241   385
24.1341   391
24.1441   386
24.1541   414
24.1641   410
24.1741   382
24.1841   376
24.1941   411
24.2041   349
24.2141   396
24.2241   423
24.2341   422
24.2441   394
24.2541   393
24.2641   430
24.2741   418
24.2841   368
24.2941   415
24.3041   409
24.3141   395
24.3241   375
24.3341   408
24.3441   424
24.3541   389
24.3641   395
24.3741   375
24.3841   404
24.3941   385
24.4041   385
24.4141   387
24.4241   373
24.4341   371
24.4441   367
24.4541   363
24.4641   374
24.4741   379
24.4841   371
24.4941   378
24.5041   399
24.5141   402
24.5241   370
24.5341   377
24.5441   385
24.5541   346
24.5641   399
24.5741   365
24.5841   406
24.5941   389
24.6041   406
24.6141   381
24.6241   387
24.6341   382
24.6441   367
24.6541   350
24.6641   354
24.6741   378
24.6841   380
24.6941   378
24.7041   366
24.7141   379
24.7241   359
24.7341   368
24.7441   367
24.7541   380
24.7641   408
24.7741   355
24.7841   344
24.7941   361
24.8041   343
24.8141   371
24.8241   344
24.8341   402
24.8441   358
24.8541   372
24.8641   425
24.8741   372
24.8841   363
24.8941   377
24.9041   346
24.9141   383
24.9241   391
24.9341   389
24.9441   362
24.9541   413
24.9641   351
24.9741   362
24.9841   361
24.9941   355
25.0041   406
25.0141   357
25.0241   345
25.0341   384
25.0441   410
25.0541   355
25.0641   357
25.0741   382
25.0841   367
25.0941   384
25.1041   357
25.1141   356
25.1241   351
25.1341   372
25.1441   352
25.1541   380
25.1641   351
25.1741   373
25.1841   389
25.1941   366
25.2041   344
25.2141   368
25.2241   377
25.2341   368
25.2441   347
25.2541   351
25.2641   367
25.2741   388
25.2841   363
25.2941   345
25.3041   381
25.3141   376
25.3241   363
25.3341   353
25.3441   304
25.3541   367
25.3641   335
25.3741   394
25.3841   374
25.3941   362
25.4041   378
25.4141   371
25.4241   334
25.4341   344
25.4441   348
25.4541   366
25.4641   325
25.4741   325
25.4841   367
25.4941   346
25.5041   307
25.5141   342
25.5241   340
25.5341   339
25.5441   370
25.5541   332
25.5641   345
25.5741   344
25.5841   354
25.5941   360
25.6041   351
25.6141   338
25.6241   329
25.6341   363
25.6441   339
25.6541   331
25.6641   329
25.6741   347
25.6841   332
25.6941   325
25.7041   345
25.7141   331
25.7241   336
25.7341   332
25.7441   324
25.7541   316
25.7641   328
25.7741   347
25.7841   340
25.7941   332
25.8041   315
25.8141   304
25.8241   332
25.8341   330
25.8441   315
25.8541   342
25.8641   326
25.8741   322
25.8841   313
25.8941   319
25.9041   306
25.9141   342
25.9241   328
25.9341   311
25.9441   303
25.9541   291
25.9641   339
25.9741   329
25.9841   314
25.9941   331
26.0041   345
26.0141   348
26.0241   314
26.0341   316
26.0441   328
26.0541   335
26.0641   326
26.0741   334
26.0841   334
26.0941   311
26.1041   328
26.1141   344
26.1241   323
26.1341   301
26.1441   314
26.1541   340
26.1641   303
26.1741   331
26.1841   307
26.1941   331
26.2041   342
26.2141   330
26.2241   324
26.2341   323
26.2441   309
26.2541   306
26.2641   294
26.2741   321
26.2841   278
26.2941   313
26.3041   327
26.3141   327
26.3241   314
26.3341   321
26.3441   318
26.3541   299
26.3641   295
26.3741   310
26.3841   285
26.3941   301
26.4041   348
26.4141   305
26.4241   312
26.4341   333
26.4441   329
26.4541   309
26.4641   282
26.4741   304
26.4841   307
26.4941   316
26.5041   304
26.5141   300
26.5241   294
26.5341   311
26.5441   283
26.5541   291
26.5641   305
26.5741   294
26.5841   283
26.5941   292
26.6041   322
26.6141   321
26.6241   286
26.6341   307
26.6441   290
26.6541   291
26.6641   290
26.6741   297
26.6841   288
26.6941   298
26.7041   292
26.7141   306
26.7241   291
26.7341   312
26.7441   300
26.7541   267
26.7641   302
26.7741   275
26.7841   302
26.7941   309
26.8041   332
26.8141   323
26.8241   292
26.8341   307
26.8441   278
26.8541   298
26.8641   304
26.8741   309
26.8841   290
26.8941   312
26.9041   273
26.9141   305
26.9241   292
26.9341   285
26.9441   301
26.9541   300
26.9641   282
26.9741   278
26.9841   291
26.9941   290
27.0041   271
27.0141   311
27.0241   313
27.0341   319
27.0441   291
27.0541   309
27.0641   299
27.0741   264
27.0841   307
27.0941   311
27.1041   282
27.1141   295
27.1241   265
27.1341   288
27.1441   294
27.1541   281
27.1641   264
27.1741   259
27.1841   296
27.1941   294
27.2041   281
27.2141   268
27.2241   263
27.2341   267
27.2441   275
27.2541   262
27.2641   289
27.2741   287
27.2841   293
27.2941   268
27.3041   293
27.3141   236
27.3241   293
27.3341   285
27.3441   271
27.3541   283
27.3641   289
27.3741   255
27.3841   265
27.3941   283
27.4041   288
27.4141   286
27.4241   288
27.4341   275
27.4441   286
27.4541   276
27.4641   284
27.4741   268
27.4841   273
27.4941   296
27.5041   303
27.5141   265
27.5241   265
27.5341   283
27.5441   258
27.5541   274
27.5641   245
27.5741   250
27.5841   283
27.5941   263
27.6041   251
27.6141   258
27.6241   272
27.6341   234
27.6441   259
27.6541   270
27.6641   268
27.6741   285
27.6841   280
27.6941   288
27.7041   262
27.7141   252
27.7241   271
27.7341   271
27.7441   278
27.7541   286
27.7641   273
27.7741   243
27.7841   268
27.7941   221
27.8041   246
27.8141   268
27.8241   240
27.8341   279
27.8441   234
27.8541   257
27.8641   252
27.8741   243
27.8841   257
27.8941   243
27.9041   270
27.9141   258
27.9241   240
27.9341   234
27.9441   258
27.9541   267
27.9641   265
27.9741   270
27.9841   243
27.9941   237
28.0041   266
28.0141   242
28.0241   205
28.0341   250
28.0441   260
28.0541   246
28.0641   243
28.0741   230
28.0841   224
28.0941   268
28.1041   268
28.1141   239
28.1241   249
28.1341   225
28.1441   231
28.1541   267
28.1641   228
28.1741   228
28.1841   243
28.1941   249
28.2041   236
28.2141   227
28.2241   223
28.2341   251
28.2441   267
28.2541   215
28.2641   237
28.2741   246
28.2841   236
28.2941   253
28.3041   234
28.3141   254
28.3241   269
28.3341   228
28.3441   235
28.3541   230
28.3641   252
28.3741   241
28.3841   218
28.3941   217
28.4041   257
28.4141   242
28.4241   243
28.4341   251
28.4441   228
28.4541   241
28.4641   208
28.4741   250
28.4841   210
28.4941   226
28.5041   267
28.5141   219
28.5241   232
28.5341   254
28.5441   247
28.5541   229
28.5641   242
28.5741   229
28.5841   224
28.5941   223
28.6041   232
28.6141   239
28.6241   206
28.6341   233
28.6441   213
28.6541   220
28.6641   234
28.6741   230
28.6841   229
28.6941   235
28.7041   217
28.7141   211
28.7241   227
28.7341   248
28.7441   259
28.7541   221
28.7641   205
28.7741   232
28.7841   215
28.7941   223
28.8041   209
28.8141   206
28.8241   232
28.8341   229
28.8441   227
28.8541   214
28.8641   223
28.8741   241
28.8841   240
28.8941   222
28.9041   208
28.9141   224
28.9241   238
28.9341   217
28.9441   188
28.9541   222
28.9641   225
28.9741   216
28.9841   214
28.9941   206
29.0041   208
29.0141   229
29.0241   226
29.0341   226
29.0441   230
29.0541   211
29.0641   214
29.0741   231
29.0841   218
29.0941   206
29.1041   214
29.1141   205
29.1241   220
29.1341   216
29.1441   220
29.1541   191
29.1641   214
29.1741   199
29.1841   184
29.1941   210
29.2041   192
29.2141   201
29.2241   233
29.2341   207
29.2441   223
29.2541   241
29.2641   209
29.2741   186
29.2841   194
29.2941   199
29.3041   188
29.3141   195
29.3241   215
29.3341   210
29.3441   230
29.3541   215
29.3641   223
29.3741   209
29.3841   207
29.3941   220
29.4041   190
29.4141   197
29.4241   210
29.4341   199
29.4441   205
29.4541   192
29.4641   193
29.4741   190
29.4841   213
29.4941   208
29.5041   187
29.5141   189
29.5241   210
29.5341   230
29.5441   186
29.5541   219
29.5641   199
29.5741   211
29.5841   223
29.5941   194
29.6041   203
29.6141   197
29.6241   205
29.6341   212
29.6441   204
29.6541   184
29.6641   202
29.6741   204
29.6841   199
29.6941   210
29.7041   200
29.7141   192
29.7241   214
29.7341   196
29.7441   190
29.7541   164
29.7641   184
29.7741   179
29.7841   178
29.7941   203
29.8041   186
29.8141   182
29.8241   203
29.8341   193
29.8441   185
29.8541   184
29.8641   187
29.8741   178
29.8841   188
29.8941   192
29.9041   170
29.9141   202
29.9241   183
29.9341   171
29.9441   173
29.9541   213
29.9641   177
29.9741   184
29.9841   194
29.9941   200
30.0041   187
30.0141   197
30.0241   174
30.0341   176
30.0441   190
30.0541   172
30.0641   172
30.0741   154
30.0841   198
30.0941   203
30.1041   180
30.1141   168
30.1241   187
30.1341   181
30.1441   201
30.1541   169
30.1641   170
30.1741   184
30.1841   178
30.1941   177
30.2041   193
30.2141   157
30.2241   181
30.2341   194
30.2441   171
30.2541   162
30.2641   154
30.2741   187
30.2841   178
30.2941   155
30.3041   156
30.3141   184
30.3241   184
30.3341   206
30.3441   177
30.3541   164
30.3641   191
30.3741   173
30.3841   171
30.3941   172
30.4041   173
30.4141   187
30.4241   153
30.4341   174
30.4441   170
30.4541   182
30.4641   172
30.4741   150
30.4841   193
30.4941   149
30.5041   158
30.5141   142
30.5241   162
30.5341   152
30.5441   192
30.5541   163
30.5641   165
30.5741   172
30.5841   200
30.5941   173
30.6041   171
30.6141   169
30.6241   152
30.6341   178
30.6441   169
30.6541   160
30.6641   145
30.6741   172
30.6841   155
30.6941   165
30.7041   153
30.7141   142
30.7241   179
30.7341   182
30.7441   181
30.7541   164
30.7641   143
30.7741   165
30.7841   176
30.7941   162
30.8041   161
30.8141   143
30.8241   153
30.8341   161
30.8441   164
30.8541   171
30.8641   154
30.8741   165
30.8841   172
30.8941   175
30.9041   171
30.9141   143
30.9241   153
30.9341   133
30.9441   168
30.9541   162
30.9641   174
30.9741   176
30.9841   184
30.9941   166
31.0041   155
31.0141   142
31.0241   151
31.0341   141
31.0441   145
31.0541   149
31.0641   165
31.0741   158
31.0841   147
31.0941   158
31.1041   132
31.1141   147
31.1241   177
31.1341   154
31.1441   156
31.1541   146
31.1641   161
31.1741   161
31.1841   166
31.1941   153
31.2041   164
31.2141   152
31.2241   161
31.2341   155
31.2441   142
31.2541   154
31.2641   157
31.2741   147
31.2841   129
31.2941   177
31.3041   139
31.3141   161
31.3241   152
31.3341   132
31.3441   151
31.3541   154
31.3641   170
31.3741   130
31.3841   147
31.3941   160
31.4041   162
31.4141   166
31.4241   138
31.4341   161
31.4441   151
31.4541   138
31.4641   163
31.4741   157
31.4841   149
31.4941   148
31.5041   147
31.5141   147
31.5241   148
31.5341   141
31.5441   162
31.5541   137
31.5641   131
31.5741   151
31.5841   142
31.5941   145
31.6041   131
31.6141   142
31.6241   142
31.6341   133
31.6441   137
31.6541   135
31.6641   121
31.6741   156
31.6841   147
31.6941   148
31.7041   143
31.7141   134
31.7241   154
31.7341   136
31.7441   146
31.7541   160
31.7641   152
31.7741   137
31.7841   133
31.7941   141
31.8041   138
31.8141   144
31.8241   143
31.8341   130
31.8441   153
31.8541   123
31.8641   145
31.8741   134
31.8841   137
31.8941   137
31.9041   116
31.9141   143
31.9241   135
31.9341   133
31.9441   143
31.9541   130
31.9641   125
31.9741   143
31.9841   141
31.9941   135
32.0041   151
32.0141   143
32.0241   132
32.0341   137
32.0441   127
32.0541   120
32.0641   128
32.0741   133
32.0841   147
32.0941   126
32.1041   147
32.1141   149
32.1241   135
32.1341   132
32.1441   141
32.1541   150
32.1641   150
32.1741   122
32.1841   125
32.1941   157
32.2041   131
32.2141   149
32.2241   121
32.2341   123
32.2441   125
32.2541   125
32.2641   130
32.2741   134
32.2841   127
32.2941   144
32.3041   130
32.3141   129
32.3241   137
32.3341   129
32.3441   141
32.3541   108
32.3641   132
32.3741   127
32.3841   130
32.3941   119
32.4041   123
32.4141   125
32.4241   129
32.4341   128
32.4441   123
32.4541   122
32.4641   126
32.4741   128
32.4841   129
32.4941   142
32.5041   121
32.5141   121
32.5241   124
32.5341   132
32.5441   118
32.5541   136
32.5641   128
32.5741   118
32.5841   115
32.5941   107
32.6041   127
32.6141   120
32.6241   137
32.6341   137
32.6441   113
32.6541   106
32.6641   124
32.6741   120
32.6841   127
32.6941   151
32.7041   106
32.7141   132
32.7241   119
32.7341   132
32.7441   126
32.7541   141
32.7641   123
32.7741   117
32.7841   140
32.7941   121
32.8041   118
32.8141   121
32.8241   131
32.8341   114
32.8441   113
32.8541   104
32.8641   105
32.8741   136
32.8841   112
32.8941   120
32.9041   121
32.9141   113
32.9241   107
32.9341   114
32.9441   121
32.9541   116
32.9641   128
32.9741   100
32.9841   118
32.9941   106
33.0041    85
33.0141    97
33.0241    98
33.0341   118
33.0441   104
33.0541   113
33.0641   106
33.0741   117
33.0841   138
33.0941   115
33.1041   124
33.1141   104
33.1241    95
33.1341   108
33.1441   118
33.1541   137
33.1641    97
33.1741   109
33.1841   128
33.1941   111
33.2041    93
33.2141    99
33.2241   104
33.2341   123
33.2441   101
33.2541    83
33.2641   114
33.2741   106
33.2841   105
33.2941   117
33.3041   106
33.3141   109
33.3241   124
33.3341   105
33.3441   109
33.3541   116
33.3641   114
33.3741   106
33.3841   102
33.3941   107
33.4041    99
33.4141    98
33.4241   110
33.4341   100
33.4441    91
33.4541    98
33.4641   106
33.4741   102
33.4841   112
33.4941    98
33.5041   118
33.5141   105
33.5241   115
33.5341    94
33.5441   100
33.5541   102
33.5641   101
33.5741    99
33.5841    91
33.5941   115
33.6041   110
33.6141   109
33.6241    88
33.6341   102
33.6441    97
33.6541    99
33.6641   103
33.6741    89
33.6841    95
33.6941   109
33.7041   117
33.7141   101
33.7241   107
33.7341   106
33.7441    87
33.7541    99
33.7641    83
33.7741    91
33.7841   108
33.7941    98
33.8041   102
33.8141    98
33.8241   112
33.8341   103
33.8441   100
33.8541    94
33.8641   104
33.8741   102
33.8841    97
33.8941    84
33.9041   108
33.9141    85
33.9241    86
33.9341    75
33.9441    85
33.9541    87
33.9641    90
33.9741    83
33.9841    90
33.9941    98
34.0041    79
34.0141    84
34.0241    81
34.0341    96
34.0441    84
34.0541    96
34.0641    84
34.0741    73
34.0841    87
34.0941    89
34.1041    86
34.1141   106
34.1241   103
34.1341    97
34.1441   106
34.1541    91
34.1641    93
34.1741    91
34.1841   101
34.1941    93
34.2041    85
34.2141    87
34.2241    82
34.2341    90
34.2441    91
34.2541    94
34.2641    72
34.2741    95
34.2841    94
34.2941    75
34.3041    96
34.3141    88
34.3241    89
34.3341    90
34.3441    85
34.3541    86
34.3641    89
34.3741    94
34.3841    78
34.3941    80
34.4041    84
34.4141    77
34.4241    78
34.4341    77
34.4441    85
34.4541    83
34.4641    90
34.4741    80
34.4841    88
34.4941    82
34.5041    94
34.5141    86
34.5241    80
34.5341    70
34.5441    90
34.5541    88
34.5641    91
34.5741    85
34.5841    82
34.5941   102
34.6041    71
34.6141    79
34.6241    66
34.6341    76
34.6441    77
34.6541    86
34.6641    88
34.6741    83
34.6841    80
34.6941    88
34.7041    95
34.7141   101
34.7241    96
34.7341    75
34.7441    79
34.7541    76
34.7641    79
34.7741    89
34.7841    80
34.7941    89
34.8041    83
34.8141    85
34.8241    71
34.8341    75
34.8441    81
34.8541    86
34.8641    71
34.8741    75
34.8841    72
34.8941    68
34.9041    92
34.9141    85
34.9241    87
34.9341    77
34.9441    89
34.9541    84
34.9641    73
34.9741    79
34.9841    85
34.9941    86
35.0041    73
35.0141    76
35.0241    89
35.0341    87
35.0441    79
35.0541    82
35.0641    70
35.0741    71
35.0841    80
35.0941    72
35.1041    66
35.1141    61
35.1241    65
35.1341    65
35.1441    76
35.1541    75
35.1641    76
35.1741    84
35.1841    68
35.1941    80
35.2041    82
35.2141    77
35.2241    75
35.2341    61
35.2441    64
35.2541    60
35.2641    65
35.2741    88
35.2841    72
35.2941    51
35.3041    73
35.3141    62
35.3241    73
35.3341    68
35.3441    72
35.3541    74
35.3641    67
35.3741    77
35.3841    62
35.3941    62
35.4041    50
35.4141    70
35.4241    83
35.4341    62
35.4441    68
35.4541    88
35.4641    65
35.4741    59
35.4841    65
35.4941    55
35.5041    67
35.5141    61
35.5241    71
35.5341    66
35.5441    78
35.5541    75
35.5641    76
35.5741    63
35.5841    59
35.5941    68
35.6041    73
35.6141    52
35.6241    63
35.6341    73
35.6441    67
35.6541    72
35.6641    65
35.6741    72
35.6841    65
35.6941    58
35.7041    76
35.7141    57
35.7241    63
35.7341    71
35.7441    63
35.7541    68
35.7641    60
35.7741    65
35.7841    56
35.7941    66
35.8041    64
35.8141    64
35.8241    60
35.8341    84
35.8441    57
35.8541    64
35.8641    58
35.8741    72
35.8841    53
35.8941    66
35.9041    65
35.9141    67
35.9241    43
35.9341    54
35.9441    60
35.9541    52
35.9641    64
35.9741    64
35.9841    60
35.9941    56
36.0041    56
36.0141    70
36.0241    66
36.0341    64
36.0441    48
36.0541    54
36.0641    55
36.0741    55
36.0841    65
36.0941    74
36.1041    59
36.1141    62
36.1241    59
36.1341    60
36.1441    58
36.1541    56
36.1641    52
36.1741    59
36.1841    58
36.1941    57
36.2041    51
36.2141    60
36.2241    55
36.2341    69
36.2441    56
36.2541    68
36.2641    66
36.2741    61
36.2841    65
36.2941    63
36.3041    61
36.3141    55
36.3241    69
36.3341    59
36.3441    60
36.3541    64
36.3641    56
36.3741    51
36.3841    54
36.3941    69
36.4041    57
36.4141    58
36.4241    58
36.4341    51
36.4441    54
36.4541    56
36.4641    59
36.4741    53
36.4841    53
36.4941    42
36.5041    63
36.5141    53
36.5241    54
36.5341    57
36.5441    43
36.5541    47
36.5641    61
36.5741    56
36.5841    55
36.5941    54
36.6041    66
36.6141    66
36.6241    47
36.6341    47
36.6441    64
36.6541    58
36.6641    53
36.6741    51
36.6841    55
36.6941    49
36.7041    39
36.7141    54
36.7241    56
36.7341    59
36.7441    40
36.7541    46
36.7641    49
36.7741    61
36.7841    45
36.7941    60
36.8041    41
36.8141    46
36.8241    45
36.8341    60
36.8441    46
36.8541    46
36.8641    53
36.8741    47
36.8841    40
36.8941    54
36.9041    41
36.9141    36
36.9241    63
36.9341    48
36.9441    56
36.9541    39
36.9641    68
36.9741    45
36.9841    53
36.9941    46
37.0041    40
37.0141    51
37.0241    49
37.0341    65
37.0441    42
37.0541    50
37.0641    48
37.0741    44
37.0841    39
37.0941    34
37.1041    42
37.1141    46
37.1241    40
37.1341    44
37.1441    49
37.1541    49
37.1641    43
37.1741    45
37.1841    38
37.1941    61
37.2041    37
37.2141    38
37.2241    35
37.2341    47
37.2441    43
37.2541    40
37.2641    46
37.2741    50
37.2841    51
37.2941    51
37.3041    48
37.3141    42
37.3241    58
37.3341    39
37.3441    36
37.3541    42
37.3641    38
37.3741    36
37.3841    51
37.3941    43
37.4041    45
37.4141    35
37.4241    43
37.4341    51
37.4441    36
37.4541    40
37.4641    40
37.4741    52
37.4841    37
37.4941    41
37.5041    40
37.5141    30
37.5241    41
37.5341    50
37.5441    39
37.5541    48
37.5641    52
37.5741    38
37.5841    44
37.5941    44
37.6041    36
37.6141    40
37.6241    35
37.6341    40
37.6441    51
37.6541    45
37.6641    36
37.6741    48
37.6841    49
37.6941    44
37.7041    33
37.7141    46
37.7241    47
37.7341    45
37.7441    45
37.7541    42
37.7641    45
37.7741    46
37.7841    39
37.7941    36
37.8041    39
37.8141    40
37.8241    25
37.8341    39
37.8441    38
37.8541    45
37.8641    39
37.8741    47
37.8841    31
37.8941    38
37.9041    37
37.9141    31
37.9241    35
37.9341    30
37.9441    42
37.9541    44
37.9641    39
37.9741    42
37.9841    28
37.9941    41
38.0041    30
38.0141    40
38.0241    35
38.0341    39
38.0441    26
38.0541    30
38.0641    44
38.0741    39
38.0841    37
38.0941    36
38.1041    40
38.1141    35
38.1241    40
38.1341    33
38.1441    37
38.1541    31
38.1641    31
38.1741    32
38.1841    34
38.1941    31
38.2041    37
38.2141    36
38.2241    35
38.2341    39
38.2441    39
38.2541    43
38.2641    51
38.2741    29
38.2841    30
38.2941    34
38.3041    35
38.3141    39
38.3241    39
38.3341    39
38.3441    28
38.3541    22
38.3641    27
38.3741    39
38.3841    31
38.3941    22
38.4041    37
38.4141    45
38.4241    30
38.4341    35
38.4441    32
38.4541    36
38.4641    38
38.4741    32
38.4841    38
38.4941    24
38.5041    22
38.5141    36
38.5241    28
38.5341    31
38.5441    29
38.5541    40
38.5641    28
38.5741    25
38.5841    27
38.5941    29
38.6041    24
38.6141    31
38.6241    38
38.6341    20
38.6441    31
38.6541    36
38.6641    29
38.6741    28
38.6841    29
38.6941    34
38.7041    27
38.7141    38
38.7241    28
38.7341    39
38.7441    21
38.7541    22
38.7641    28
38.7741    26
38.7841    22
38.7941    36
38.8041    38
38.8141    31
38.8241    31
38.8341    19
38.8441    29
38.8541    33
38.8641    40
38.8741    34
38.8841    37
38.8941    31
38.9041    29
38.9141    22
38.9241    30
38.9341    29
38.9441    18
38.9541    21
38.9641    32
38.9741    25
38.9841    35
38.9941    20
39.0041    21
39.0141    29
39.0241    22
39.0341    23
39.0441    33
39.0541    24
39.0641    28
39.0741    22
39.0841    28
39.0941    29
39.1041    27
39.1141    20
39.1241    23
39.1341    19
39.1441    23
39.1541    29
39.1641    28
39.1741    16
39.1841    23
39.1941    23
39.2041    21
39.2141    25
39.2241    28
39.2341    38
39.2441    29
39.2541    32
39.2641    29
39.2741    26
39.2841    20
39.2941    26
39.3041    29
39.3141    21
39.3241    23
39.3341    24
39.3441    28
39.3541    23
39.3641    27
39.3741    26
39.3841    22
39.3941    21
39.4041    23
39.4141    21
39.4241    27
39.4341    24
39.4441    23
39.4541    21
39.4641    24
39.4741    19
39.4841    19
39.4941    23
39.5041    18
39.5141    18
39.5241    25
39.5341    24
39.5441    22
39.5541    28
39.5641    31
39.5741    23
39.5841    17
39.5941    19
39.6041    15
39.6141    25
39.6241    18
39.6341    31
39.6441    27
39.6541    23
39.6641    17
39.6741    22
39.6841    16
39.6941    19
39.7041    19
39.7141    29
39.7241    22
39.7341    15
39.7441    20
39.7541    25
39.7641    24
39.7741    15
39.7841    20
39.7941    16
39.8041    22
39.8141    18
39.8241    25
39.8341    17
39.8441    22
39.8541    19
39.8641    16
39.8741    19
39.8841    18
39.8941    24
39.9041    21
39.9141    13
39.9241    21
39.9341    15
39.9441    23
39.9541    26
39.9641    21
39.9741    18
39.9841    18
