Bruker Nano GmbH Berlin, Germany
Esprit 1.9

Date: 4/21/2021 1:40:46 PM
Real time: 24073
Life time: 22541
Pulse density: 92891


Detector type: XFlash 430
Window type: Custom type
Detector thickness: 0.45
Si dead layer:0.029

Calibration, lin.: 10
Calibration, abs.: -955.9
Mn FWHM: 137.05
Fano factor: 0.121
Channels: 4095

Energy Counts
-0.9559     0
-0.9459     0
-0.9359     0
-0.9259     0
-0.9159     0
-0.9059     0
-0.8959     0
-0.8859     0
-0.8759     0
-0.8659     0
-0.8559     0
-0.8459     0
-0.8359     0
-0.8259     0
-0.8159     0
-0.8059     0
-0.7959     0
-0.7859     0
-0.7759     0
-0.7659     0
-0.7559     0
-0.7459     0
-0.7359     0
-0.7259     0
-0.7159     0
-0.7059     0
-0.6959     0
-0.6859     0
-0.6759     0
-0.6659     0
-0.6559     0
-0.6459     0
-0.6359     0
-0.6259     0
-0.6159     0
-0.6059     0
-0.5959     0
-0.5859     0
-0.5759     0
-0.5659     0
-0.5559     0
-0.5459     0
-0.5359     0
-0.5259     0
-0.5159     0
-0.5059     0
-0.4959     0
-0.4859     0
-0.4759     0
-0.4659     0
-0.4559     0
-0.4459     0
-0.4359     0
-0.4259     0
-0.4159     0
-0.4059     0
-0.3959     0
-0.3859     0
-0.3759     0
-0.3659     0
-0.3559     0
-0.3459     0
-0.3359     0
-0.3259     0
-0.3159     0
-0.3059     0
-0.2959     0
-0.2859     0
-0.2759     0
-0.2659     0
-0.2559     0
-0.2459     0
-0.2359     0
-0.2259     0
-0.2159     0
-0.2059     0
-0.1959     0
-0.1859     0
-0.1759     0
-0.1659     0
-0.1559     0
-0.1459     0
-0.1359     0
-0.1259     3
-0.1159     6
-0.1059    10
-0.0959    71
-0.0859   265
-0.0759   858
-0.0659  2581
-0.0559  6635
-0.0459 14140
-0.0359 26859
-0.0259 43105
-0.0159 59353
-0.0059 68656
 0.0041 69510
 0.0141 60109
 0.0241 43772
 0.0341 27850
 0.0441 15091
 0.0541  7090
 0.0641  2765
 0.0741  1020
 0.0841   319
 0.0941   110
 0.1041    29
 0.1141    18
 0.1241    10
 0.1341     7
 0.1441     8
 0.1541     9
 0.1641     1
 0.1741    23
 0.1841   211
 0.1941   409
 0.2041   357
 0.2141   364
 0.2241   375
 0.2341   352
 0.2441   373
 0.2541   391
 0.2641   410
 0.2741   382
 0.2841   375
 0.2941   359
 0.3041   345
 0.3141   369
 0.3241   358
 0.3341   347
 0.3441   358
 0.3541   348
 0.3641   372
 0.3741   353
 0.3841   359
 0.3941   322
 0.4041   348
 0.4141   343
 0.4241   341
 0.4341   344
 0.4441   344
 0.4541   330
 0.4641   327
 0.4741   313
 0.4841   313
 0.4941   316
 0.5041   288
 0.5141   288
 0.5241   281
 0.5341   307
 0.5441   308
 0.5541   307
 0.5641   334
 0.5741   330
 0.5841   328
 0.5941   323
 0.6041   291
 0.6141   265
 0.6241   275
 0.6341   288
 0.6441   267
 0.6541   282
 0.6641   306
 0.6741   307
 0.6841   296
 0.6941   291
 0.7041   297
 0.7141   296
 0.7241   298
 0.7341   283
 0.7441   272
 0.7541   272
 0.7641   279
 0.7741   290
 0.7841   278
 0.7941   270
 0.8041   265
 0.8141   278
 0.8241   257
 0.8341   249
 0.8441   270
 0.8541   269
 0.8641   261
 0.8741   273
 0.8841   273
 0.8941   258
 0.9041   255
 0.9141   240
 0.9241   258
 0.9341   258
 0.9441   250
 0.9541   256
 0.9641   240
 0.9741   243
 0.9841   241
 0.9941   254
 1.0041   248
 1.0141   252
 1.0241   264
 1.0341   235
 1.0441   247
 1.0541   248
 1.0641   233
 1.0741   238
 1.0841   220
 1.0941   236
 1.1041   255
 1.1141   238
 1.1241   243
 1.1341   241
 1.1441   221
 1.1541   242
 1.1641   262
 1.1741   247
 1.1841   234
 1.1941   238
 1.2041   226
 1.2141   216
 1.2241   245
 1.2341   227
 1.2441   212
 1.2541   229
 1.2641   229
 1.2741   234
 1.2841   248
 1.2941   249
 1.3041   254
 1.3141   219
 1.3241   231
 1.3341   235
 1.3441   235
 1.3541   233
 1.3641   232
 1.3741   244
 1.3841   220
 1.3941   200
 1.4041   220
 1.4141   203
 1.4241   210
 1.4341   211
 1.4441   221
 1.4541   254
 1.4641   207
 1.4741   213
 1.4841   212
 1.4941   233
 1.5041   194
 1.5141   202
 1.5241   192
 1.5341   223
 1.5441   230
 1.5541   219
 1.5641   204
 1.5741   205
 1.5841   211
 1.5941   215
 1.6041   201
 1.6141   212
 1.6241   230
 1.6341   211
 1.6441   246
 1.6541   258
 1.6641   278
 1.6741   360
 1.6841   458
 1.6941   560
 1.7041   641
 1.7141   788
 1.7241   817
 1.7341   943
 1.7441   920
 1.7541   855
 1.7641   751
 1.7741   660
 1.7841   588
 1.7941   444
 1.8041   373
 1.8141   359
 1.8241   292
 1.8341   277
 1.8441   265
 1.8541   271
 1.8641   205
 1.8741   244
 1.8841   216
 1.8941   231
 1.9041   212
 1.9141   194
 1.9241   201
 1.9341   230
 1.9441   232
 1.9541   234
 1.9641   216
 1.9741   246
 1.9841   240
 1.9941   247
 2.0041   291
 2.0141   266
 2.0241   248
 2.0341   264
 2.0441   252
 2.0541   227
 2.0641   221
 2.0741   212
 2.0841   192
 2.0941   209
 2.1041   201
 2.1141   171
 2.1241   189
 2.1341   189
 2.1441   202
 2.1541   179
 2.1641   194
 2.1741   208
 2.1841   214
 2.1941   188
 2.2041   165
 2.2141   184
 2.2241   191
 2.2341   217
 2.2441   200
 2.2541   178
 2.2641   168
 2.2741   195
 2.2841   169
 2.2941   184
 2.3041   168
 2.3141   194
 2.3241   168
 2.3341   180
 2.3441   202
 2.3541   175
 2.3641   183
 2.3741   175
 2.3841   177
 2.3941   175
 2.4041   180
 2.4141   149
 2.4241   174
 2.4341   157
 2.4441   166
 2.4541   146
 2.4641   151
 2.4741   175
 2.4841   172
 2.4941   155
 2.5041   156
 2.5141   172
 2.5241   204
 2.5341   165
 2.5441   173
 2.5541   181
 2.5641   161
 2.5741   183
 2.5841   179
 2.5941   176
 2.6041   194
 2.6141   195
 2.6241   209
 2.6341   189
 2.6441   176
 2.6541   182
 2.6641   178
 2.6741   181
 2.6841   167
 2.6941   165
 2.7041   175
 2.7141   167
 2.7241   159
 2.7341   137
 2.7441   142
 2.7541   158
 2.7641   166
 2.7741   144
 2.7841   172
 2.7941   144
 2.8041   156
 2.8141   140
 2.8241   185
 2.8341   169
 2.8441   160
 2.8541   157
 2.8641   162
 2.8741   158
 2.8841   149
 2.8941   150
 2.9041   143
 2.9141   143
 2.9241   128
 2.9341   134
 2.9441   147
 2.9541   154
 2.9641   132
 2.9741   153
 2.9841   163
 2.9941   145
 3.0041   168
 3.0141   153
 3.0241   125
 3.0341   133
 3.0441   168
 3.0541   137
 3.0641   131
 3.0741   122
 3.0841   148
 3.0941   124
 3.1041   130
 3.1141   146
 3.1241   139
 3.1341   124
 3.1441   119
 3.1541   111
 3.1641   120
 3.1741   115
 3.1841   129
 3.1941   152
 3.2041   140
 3.2141   135
 3.2241   157
 3.2341   168
 3.2441   188
 3.2541   215
 3.2641   244
 3.2741   263
 3.2841   277
 3.2941   316
 3.3041   320
 3.3141   286
 3.3241   302
 3.3341   271
 3.3441   275
 3.3541   239
 3.3641   233
 3.3741   200
 3.3841   168
 3.3941   165
 3.4041   161
 3.4141   138
 3.4241   141
 3.4341   118
 3.4441   124
 3.4541   113
 3.4641   102
 3.4741   123
 3.4841   116
 3.4941   108
 3.5041   127
 3.5141   109
 3.5241   136
 3.5341   159
 3.5441   152
 3.5541   158
 3.5641   190
 3.5741   245
 3.5841   283
 3.5941   358
 3.6041   421
 3.6141   516
 3.6241   618
 3.6341   789
 3.6441   953
 3.6541  1080
 3.6641  1239
 3.6741  1267
 3.6841  1313
 3.6941  1403
 3.7041  1337
 3.7141  1244
 3.7241  1109
 3.7341   929
 3.7441   746
 3.7541   591
 3.7641   468
 3.7741   402
 3.7841   293
 3.7941   222
 3.8041   184
 3.8141   160
 3.8241   133
 3.8341   105
 3.8441   118
 3.8541   103
 3.8641   122
 3.8741   107
 3.8841   107
 3.8941   112
 3.9041   110
 3.9141   130
 3.9241   157
 3.9341   170
 3.9441   148
 3.9541   179
 3.9641   219
 3.9741   253
 3.9841   244
 3.9941   243
 4.0041   284
 4.0141   282
 4.0241   277
 4.0341   266
 4.0441   243
 4.0541   216
 4.0641   198
 4.0741   170
 4.0841   175
 4.0941   154
 4.1041   138
 4.1141   123
 4.1241   113
 4.1341   103
 4.1441    78
 4.1541    90
 4.1641   111
 4.1741    81
 4.1841    86
 4.1941    93
 4.2041    84
 4.2141    79
 4.2241    85
 4.2341    86
 4.2441    95
 4.2541    91
 4.2641    88
 4.2741    85
 4.2841    68
 4.2941    78
 4.3041    92
 4.3141    86
 4.3241    88
 4.3341    96
 4.3441    91
 4.3541    97
 4.3641   106
 4.3741    89
 4.3841    98
 4.3941   120
 4.4041   122
 4.4141   146
 4.4241   150
 4.4341   164
 4.4441   219
 4.4541   203
 4.4641   246
 4.4741   266
 4.4841   264
 4.4941   260
 4.5041   288
 4.5141   325
 4.5241   257
 4.5341   248
 4.5441   254
 4.5541   230
 4.5641   197
 4.5741   190
 4.5841   161
 4.5941   145
 4.6041   139
 4.6141   135
 4.6241   123
 4.6341   124
 4.6441   114
 4.6541   109
 4.6641   114
 4.6741    81
 4.6841   102
 4.6941   106
 4.7041   113
 4.7141    93
 4.7241    98
 4.7341    91
 4.7441    97
 4.7541    95
 4.7641   116
 4.7741   114
 4.7841   100
 4.7941    90
 4.8041   119
 4.8141   129
 4.8241   126
 4.8341   106
 4.8441   118
 4.8541   139
 4.8641   140
 4.8741   114
 4.8841   144
 4.8941   115
 4.9041   109
 4.9141   120
 4.9241   134
 4.9341   138
 4.9441   138
 4.9541   146
 4.9641   146
 4.9741   151
 4.9841   130
 4.9941   127
 5.0041   129
 5.0141   112
 5.0241   122
 5.0341    99
 5.0441   108
 5.0541   111
 5.0641   111
 5.0741   121
 5.0841   106
 5.0941   111
 5.1041    94
 5.1141    98
 5.1241    87
 5.1341   119
 5.1441    99
 5.1541   111
 5.1641   117
 5.1741   114
 5.1841   121
 5.1941   111
 5.2041   115
 5.2141   111
 5.2241   115
 5.2341   111
 5.2441    95
 5.2541   114
 5.2641   112
 5.2741   120
 5.2841   118
 5.2941   142
 5.3041   169
 5.3141   187
 5.3241   178
 5.3341   239
 5.3441   250
 5.3541   264
 5.3641   314
 5.3741   333
 5.3841   343
 5.3941   375
 5.4041   399
 5.4141   387
 5.4241   400
 5.4341   417
 5.4441   379
 5.4541   356
 5.4641   297
 5.4741   263
 5.4841   224
 5.4941   189
 5.5041   184
 5.5141   163
 5.5241   163
 5.5341   149
 5.5441   142
 5.5541   122
 5.5641   122
 5.5741   119
 5.5841   108
 5.5941   107
 5.6041   110
 5.6141   130
 5.6241   121
 5.6341   109
 5.6441   119
 5.6541    96
 5.6641   111
 5.6741   105
 5.6841   118
 5.6941   134
 5.7041   119
 5.7141   133
 5.7241   123
 5.7341   132
 5.7441   148
 5.7541   147
 5.7641   161
 5.7741   170
 5.7841   196
 5.7941   214
 5.8041   239
 5.8141   244
 5.8241   308
 5.8341   334
 5.8441   340
 5.8541   411
 5.8641   453
 5.8741   471
 5.8841   506
 5.8941   521
 5.9041   482
 5.9141   481
 5.9241   476
 5.9341   462
 5.9441   413
 5.9541   420
 5.9641   339
 5.9741   326
 5.9841   277
 5.9941   235
 6.0041   206
 6.0141   197
 6.0241   174
 6.0341   173
 6.0441   176
 6.0541   160
 6.0641   160
 6.0741   150
 6.0841   153
 6.0941   164
 6.1041   148
 6.1141   140
 6.1241   164
 6.1341   156
 6.1441   184
 6.1541   184
 6.1641   189
 6.1741   176
 6.1841   204
 6.1941   278
 6.2041   308
 6.2141   398
 6.2241   512
 6.2341   705
 6.2441   883
 6.2541  1303
 6.2641  1758
 6.2741  2313
 6.2841  3177
 6.2941  4145
 6.3041  5332
 6.3141  6671
 6.3241  8449
 6.3341 10075
 6.3441 11728
 6.3541 13320
 6.3641 14811
 6.3741 16278
 6.3841 17143
 6.3941 17642
 6.4041 17348
 6.4141 16941
 6.4241 16148
 6.4341 14647
 6.4441 13198
 6.4541 11309
 6.4641  9727
 6.4741  7951
 6.4841  6516
 6.4941  5015
 6.5041  3917
 6.5141  2958
 6.5241  2202
 6.5341  1568
 6.5441  1156
 6.5541   806
 6.5641   548
 6.5741   446
 6.5841   353
 6.5941   300
 6.6041   248
 6.6141   200
 6.6241   188
 6.6341   173
 6.6441   172
 6.6541   173
 6.6641   168
 6.6741   180
 6.6841   192
 6.6941   192
 6.7041   188
 6.7141   180
 6.7241   200
 6.7341   204
 6.7441   184
 6.7541   180
 6.7641   199
 6.7741   185
 6.7841   203
 6.7941   219
 6.8041   216
 6.8141   196
 6.8241   239
 6.8341   228
 6.8441   249
 6.8541   257
 6.8641   305
 6.8741   309
 6.8841   345
 6.8941   439
 6.9041   455
 6.9141   572
 6.9241   631
 6.9341   845
 6.9441   904
 6.9541  1119
 6.9641  1322
 6.9741  1592
 6.9841  1866
 6.9941  2107
 7.0041  2375
 7.0141  2537
 7.0241  2873
 7.0341  3023
 7.0441  3015
 7.0541  3084
 7.0641  3083
 7.0741  2947
 7.0841  2777
 7.0941  2608
 7.1041  2315
 7.1141  1971
 7.1241  1760
 7.1341  1603
 7.1441  1267
 7.1541  1013
 7.1641   899
 7.1741   660
 7.1841   609
 7.1941   464
 7.2041   394
 7.2141   358
 7.2241   332
 7.2341   312
 7.2441   271
 7.2541   281
 7.2641   236
 7.2741   272
 7.2841   277
 7.2941   288
 7.3041   291
 7.3141   290
 7.3241   346
 7.3341   358
 7.3441   375
 7.3541   408
 7.3641   436
 7.3741   496
 7.3841   536
 7.3941   619
 7.4041   617
 7.4141   649
 7.4241   774
 7.4341   778
 7.4441   830
 7.4541   809
 7.4641   856
 7.4741   855
 7.4841   793
 7.4941   721
 7.5041   744
 7.5141   698
 7.5241   665
 7.5341   617
 7.5441   565
 7.5541   514
 7.5641   424
 7.5741   400
 7.5841   361
 7.5941   364
 7.6041   306
 7.6141   279
 7.6241   283
 7.6341   269
 7.6441   252
 7.6541   264
 7.6641   298
 7.6741   281
 7.6841   303
 7.6941   257
 7.7041   270
 7.7141   309
 7.7241   300
 7.7341   269
 7.7441   313
 7.7541   288
 7.7641   274
 7.7741   323
 7.7841   304
 7.7941   326
 7.8041   306
 7.8141   353
 7.8241   366
 7.8341   352
 7.8441   352
 7.8541   390
 7.8641   425
 7.8741   415
 7.8841   385
 7.8941   444
 7.9041   404
 7.9141   473
 7.9241   487
 7.9341   487
 7.9441   549
 7.9541   563
 7.9641   599
 7.9741   677
 7.9841   671
 7.9941   698
 8.0041   754
 8.0141   858
 8.0241   875
 8.0341   947
 8.0441  1034
 8.0541  1098
 8.0641  1161
 8.0741  1234
 8.0841  1259
 8.0941  1339
 8.1041  1421
 8.1141  1571
 8.1241  1523
 8.1341  1629
 8.1441  1721
 8.1541  1708
 8.1641  1767
 8.1741  1787
 8.1841  1708
 8.1941  1824
 8.2041  1847
 8.2141  1869
 8.2241  1936
 8.2341  1987
 8.2441  2081
 8.2541  2078
 8.2641  2181
 8.2741  2294
 8.2841  2343
 8.2941  2633
 8.3041  2767
 8.3141  3022
 8.3241  3303
 8.3341  3669
 8.3441  3848
 8.3541  3967
 8.3641  4161
 8.3741  4369
 8.3841  4277
 8.3941  4375
 8.4041  4283
 8.4141  3919
 8.4241  3906
 8.4341  3674
 8.4441  3373
 8.4541  3013
 8.4641  2651
 8.4741  2364
 8.4841  2038
 8.4941  1761
 8.5041  1429
 8.5141  1233
 8.5241  1035
 8.5341   937
 8.5441   787
 8.5541   692
 8.5641   583
 8.5741   593
 8.5841   569
 8.5941   545
 8.6041   505
 8.6141   486
 8.6241   528
 8.6341   508
 8.6441   491
 8.6541   475
 8.6641   500
 8.6741   491
 8.6841   494
 8.6941   517
 8.7041   493
 8.7141   465
 8.7241   416
 8.7341   470
 8.7441   461
 8.7541   427
 8.7641   408
 8.7741   399
 8.7841   424
 8.7941   460
 8.8041   398
 8.8141   437
 8.8241   387
 8.8341   400
 8.8441   408
 8.8541   400
 8.8641   402
 8.8741   387
 8.8841   413
 8.8941   417
 8.9041   416
 8.9141   414
 8.9241   426
 8.9341   434
 8.9441   447
 8.9541   453
 8.9641   429
 8.9741   479
 8.9841   480
 8.9941   514
 9.0041   494
 9.0141   499
 9.0241   515
 9.0341   541
 9.0441   482
 9.0541   499
 9.0641   577
 9.0741   570
 9.0841   600
 9.0941   680
 9.1041   663
 9.1141   646
 9.1241   652
 9.1341   662
 9.1441   713
 9.1541   757
 9.1641   785
 9.1741   838
 9.1841   863
 9.1941   897
 9.2041   993
 9.2141   995
 9.2241  1070
 9.2341  1059
 9.2441  1087
 9.2541  1169
 9.2641  1272
 9.2741  1287
 9.2841  1348
 9.2941  1389
 9.3041  1457
 9.3141  1505
 9.3241  1502
 9.3341  1552
 9.3441  1634
 9.3541  1705
 9.3641  1640
 9.3741  1629
 9.3841  1746
 9.3941  1794
 9.4041  1780
 9.4141  1816
 9.4241  1864
 9.4341  1837
 9.4441  1870
 9.4541  1977
 9.4641  1840
 9.4741  1917
 9.4841  2005
 9.4941  2026
 9.5041  2066
 9.5141  2094
 9.5241  2161
 9.5341  2296
 9.5441  2370
 9.5541  2488
 9.5641  2689
 9.5741  2762
 9.5841  2914
 9.5941  3119
 9.6041  3286
 9.6141  3586
 9.6241  3722
 9.6341  3840
 9.6441  3898
 9.6541  4014
 9.6641  3952
 9.6741  4082
 9.6841  3988
 9.6941  3826
 9.7041  3690
 9.7141  3456
 9.7241  3432
 9.7341  3157
 9.7441  2889
 9.7541  2601
 9.7641  2403
 9.7741  2336
 9.7841  2118
 9.7941  2031
 9.8041  1890
 9.8141  1766
 9.8241  1699
 9.8341  1613
 9.8441  1622
 9.8541  1624
 9.8641  1620
 9.8741  1591
 9.8841  1639
 9.8941  1724
 9.9041  1702
 9.9141  1804
 9.9241  1756
 9.9341  1774
 9.9441  1786
 9.9541  1809
 9.9641  1799
 9.9741  1709
 9.9841  1633
 9.9941  1590
10.0041  1549
10.0141  1404
10.0241  1304
10.0341  1187
10.0441  1053
10.0541   979
10.0641   875
10.0741   804
10.0841   710
10.0941   630
10.1041   551
10.1141   484
10.1241   445
10.1341   398
10.1441   395
10.1541   383
10.1641   349
10.1741   333
10.1841   317
10.1941   353
10.2041   323
10.2141   304
10.2241   291
10.2341   281
10.2441   293
10.2541   269
10.2641   241
10.2741   258
10.2841   257
10.2941   242
10.3041   221
10.3141   238
10.3241   232
10.3341   230
10.3441   208
10.3541   232
10.3641   240
10.3741   239
10.3841   214
10.3941   214
10.4041   203
10.4141   213
10.4241   241
10.4341   239
10.4441   223
10.4541   230
10.4641   227
10.4741   219
10.4841   248
10.4941   227
10.5041   250
10.5141   252
10.5241   260
10.5341   253
10.5441   240
10.5541   267
10.5641   267
10.5741   240
10.5841   258
10.5941   266
10.6041   290
10.6141   269
10.6241   258
10.6341   266
10.6441   303
10.6541   254
10.6641   264
10.6741   278
10.6841   292
10.6941   274
10.7041   283
10.7141   294
10.7241   323
10.7341   309
10.7441   314
10.7541   319
10.7641   330
10.7741   326
10.7841   316
10.7941   327
10.8041   342
10.8141   361
10.8241   346
10.8341   368
10.8441   377
10.8541   373
10.8641   389
10.8741   373
10.8841   382
10.8941   394
10.9041   372
10.9141   362
10.9241   385
10.9341   422
10.9441   394
10.9541   374
10.9641   407
10.9741   394
10.9841   386
10.9941   386
11.0041   387
11.0141   378
11.0241   377
11.0341   355
11.0441   376
11.0541   333
11.0641   333
11.0741   342
11.0841   352
11.0941   365
11.1041   364
11.1141   351
11.1241   340
11.1341   352
11.1441   372
11.1541   382
11.1641   395
11.1741   377
11.1841   417
11.1941   412
11.2041   422
11.2141   451
11.2241   481
11.2341   501
11.2441   516
11.2541   538
11.2641   541
11.2741   548
11.2841   540
11.2941   565
11.3041   539
11.3141   524
11.3241   548
11.3341   529
11.3441   469
11.3541   455
11.3641   425
11.3741   409
11.3841   383
11.3941   374
11.4041   372
11.4141   336
11.4241   322
11.4341   319
11.4441   295
11.4541   309
11.4641   291
11.4741   266
11.4841   259
11.4941   264
11.5041   269
11.5141   284
11.5241   289
11.5341   279
11.5441   296
11.5541   280
11.5641   277
11.5741   277
11.5841   284
11.5941   305
11.6041   297
11.6141   280
11.6241   297
11.6341   298
11.6441   294
11.6541   284
11.6641   301
11.6741   270
11.6841   260
11.6941   251
11.7041   261
11.7141   257
11.7241   266
11.7341   248
11.7441   260
11.7541   253
11.7641   247
11.7741   245
11.7841   216
11.7941   202
11.8041   209
11.8141   217
11.8241   216
11.8341   203
11.8441   197
11.8541   205
11.8641   200
11.8741   210
11.8841   215
11.8941   223
11.9041   211
11.9141   207
11.9241   215
11.9341   223
11.9441   222
11.9541   221
11.9641   210
11.9741   211
11.9841   215
11.9941   236
12.0041   232
12.0141   207
12.0241   211
12.0341   219
12.0441   224
12.0541   224
12.0641   232
12.0741   215
12.0841   211
12.0941   218
12.1041   207
12.1141   214
12.1241   215
12.1341   202
12.1441   209
12.1541   209
12.1641   217
12.1741   216
12.1841   223
12.1941   216
12.2041   223
12.2141   226
12.2241   207
12.2341   211
12.2441   215
12.2541   203
12.2641   190
12.2741   205
12.2841   201
12.2941   200
12.3041   185
12.3141   192
12.3241   199
12.3341   199
12.3441   215
12.3541   221
12.3641   203
12.3741   200
12.3841   207
12.3941   199
12.4041   193
12.4141   182
12.4241   176
12.4341   184
12.4441   210
12.4541   212
12.4641   204
12.4741   220
12.4841   231
12.4941   228
12.5041   234
12.5141   238
12.5241   232
12.5341   229
12.5441   237
12.5541   240
12.5641   237
12.5741   247
12.5841   245
12.5941   233
12.6041   236
12.6141   246
12.6241   244
12.6341   249
12.6441   245
12.6541   238
12.6641   242
12.6741   241
12.6841   236
12.6941   240
12.7041   258
12.7141   250
12.7241   248
12.7341   249
12.7441   248
12.7541   244
12.7641   240
12.7741   240
12.7841   242
12.7941   244
12.8041   248
12.8141   250
12.8241   249
12.8341   247
12.8441   249
12.8541   251
12.8641   249
12.8741   247
12.8841   247
12.8941   250
12.9041   252
12.9141   253
12.9241   255
12.9341   255
12.9441   257
12.9541   261
12.9641   261
12.9741   259
12.9841   258
12.9941   256
13.0041   255
13.0141   256
13.0241   260
13.0341   262
13.0441   261
13.0541   257
13.0641   257
13.0741   260
13.0841   266
13.0941   273
13.1041   277
13.1141   274
13.1241   272
13.1341   270
13.1441   267
13.1541   262
13.1641   261
13.1741   266
13.1841   280
13.1941   293
13.2041   290
13.2141   286
13.2241   298
13.2341   303
13.2441   308
13.2541   300
13.2641   302
13.2741   313
13.2841   337
13.2941   357
13.3041   358
13.3141   361
13.3241   382
13.3341   387
13.3441   395
13.3541   406
13.3641   418
13.3741   420
13.3841   413
13.3941   423
13.4041   426
13.4141   415
13.4241   417
13.4341   388
13.4441   353
13.4541   358
13.4641   365
13.4741   343
13.4841   331
13.4941   328
13.5041   323
13.5141   330
13.5241   317
13.5341   303
13.5441   314
13.5541   317
13.5641   324
13.5741   321
13.5841   306
13.5941   304
13.6041   312
13.6141   302
13.6241   292
13.6341   294
13.6441   286
13.6541   300
13.6641   311
13.6741   302
13.6841   294
13.6941   302
13.7041   318
13.7141   315
13.7241   312
13.7341   315
13.7441   316
13.7541   312
13.7641   310
13.7741   293
13.7841   277
13.7941   279
13.8041   297
13.8141   319
13.8241   304
13.8341   305
13.8441   329
13.8541   330
13.8641   321
13.8741   299
13.8841   293
13.8941   315
13.9041   316
13.9141   323
13.9241   340
13.9341   345
13.9441   343
13.9541   334
13.9641   349
13.9741   356
13.9841   363
13.9941   390
14.0041   389
14.0141   390
14.0241   421
14.0341   442
14.0441   443
14.0541   447
14.0641   451
14.0741   454
14.0841   485
14.0941   505
14.1041   490
14.1141   511
14.1241   544
14.1341   552
14.1441   565
14.1541   568
14.1641   533
14.1741   523
14.1841   533
14.1941   517
14.2041   509
14.2141   477
14.2241   485
14.2341   503
14.2441   484
14.2541   460
14.2641   421
14.2741   408
14.2841   416
14.2941   410
14.3041   404
14.3141   375
14.3241   371
14.3341   376
14.3441   351
14.3541   338
14.3641   354
14.3741   369
14.3841   369
14.3941   368
14.4041   360
14.4141   367
14.4241   369
14.4341   350
14.4441   361
14.4541   374
14.4641   367
14.4741   362
14.4841   353
14.4941   371
14.5041   384
14.5141   360
14.5241   332
14.5341   340
14.5441   358
14.5541   367
14.5641   372
14.5741   363
14.5841   370
14.5941   382
14.6041   362
14.6141   370
14.6241   386
14.6341   377
14.6441   382
14.6541   364
14.6641   342
14.6741   362
14.6841   384
14.6941   379
14.7041   364
14.7141   356
14.7241   370
14.7341   368
14.7441   368
14.7541   398
14.7641   365
14.7741   364
14.7841   384
14.7941   395
14.8041   408
14.8141   389
14.8241   404
14.8341   415
14.8441   403
14.8541   397
14.8641   387
14.8741   407
14.8841   410
14.8941   400
14.9041   416
14.9141   434
14.9241   437
14.9341   424
14.9441   428
14.9541   420
14.9641   436
14.9741   466
14.9841   439
14.9941   448
15.0041   455
15.0141   432
15.0241   430
15.0341   428
15.0441   416
15.0541   406
15.0641   409
15.0741   415
15.0841   428
15.0941   433
15.1041   424
15.1141   397
15.1241   401
15.1341   414
15.1441   404
15.1541   414
15.1641   420
15.1741   402
15.1841   409
15.1941   430
15.2041   427
15.2141   426
15.2241   417
15.2341   401
15.2441   402
15.2541   404
15.2641   419
15.2741   442
15.2841   451
15.2941   436
15.3041   440
15.3141   448
15.3241   423
15.3341   403
15.3441   422
15.3541   422
15.3641   414
15.3741   423
15.3841   417
15.3941   417
15.4041   439
15.4141   433
15.4241   416
15.4341   424
15.4441   428
15.4541   428
15.4641   432
15.4741   444
15.4841   436
15.4941   429
15.5041   434
15.5141   449
15.5241   462
15.5341   469
15.5441   477
15.5541   451
15.5641   451
15.5741   449
15.5841   455
15.5941   502
15.6041   516
15.6141   486
15.6241   511
15.6341   527
15.6441   516
15.6541   533
15.6641   566
15.6741   563
15.6841   565
15.6941   561
15.7041   563
15.7141   609
15.7241   597
15.7341   572
15.7441   606
15.7541   611
15.7641   587
15.7741   594
15.7841   586
15.7941   601
15.8041   606
15.8141   581
15.8241   581
15.8341   596
15.8441   580
15.8541   578
15.8641   572
15.8741   563
15.8841   527
15.8941   526
15.9041   534
15.9141   553
15.9241   527
15.9341   517
15.9441   523
15.9541   519
15.9641   516
15.9741   505
15.9841   502
15.9941   496
16.0041   449
16.0141   497
16.0241   491
16.0341   472
16.0441   488
16.0541   505
16.0641   503
16.0741   528
16.0841   489
16.0941   476
16.1041   491
16.1141   513
16.1241   473
16.1341   466
16.1441   474
16.1541   502
16.1641   471
16.1741   482
16.1841   505
16.1941   508
16.2041   494
16.2141   492
16.2241   489
16.2341   523
16.2441   546
16.2541   514
16.2641   547
16.2741   527
16.2841   517
16.2941   523
16.3041   520
16.3141   523
16.3241   518
16.3341   509
16.3441   500
16.3541   508
16.3641   503
16.3741   538
16.3841   528
16.3941   507
16.4041   546
16.4141   538
16.4241   523
16.4341   513
16.4441   518
16.4541   507
16.4641   540
16.4741   520
16.4841   496
16.4941   557
16.5041   539
16.5141   522
16.5241   556
16.5341   528
16.5441   552
16.5541   550
16.5641   532
16.5741   531
16.5841   544
16.5941   543
16.6041   525
16.6141   544
16.6241   547
16.6341   552
16.6441   569
16.6541   573
16.6641   584
16.6741   571
16.6841   550
16.6941   550
16.7041   555
16.7141   552
16.7241   584
16.7341   540
16.7441   535
16.7541   552
16.7641   547
16.7741   550
16.7841   569
16.7941   566
16.8041   549
16.8141   549
16.8241   557
16.8341   530
16.8441   547
16.8541   554
16.8641   558
16.8741   554
16.8841   571
16.8941   570
16.9041   581
16.9141   619
16.9241   623
16.9341   554
16.9441   558
16.9541   551
16.9641   576
16.9741   595
16.9841   589
16.9941   589
17.0041   596
17.0141   596
17.0241   592
17.0341   603
17.0441   589
17.0541   582
17.0641   599
17.0741   560
17.0841   571
17.0941   567
17.1041   590
17.1141   581
17.1241   571
17.1341   547
17.1441   573
17.1541   589
17.1641   606
17.1741   583
17.1841   559
17.1941   612
17.2041   640
17.2141   635
17.2241   609
17.2341   602
17.2441   610
17.2541   600
17.2641   599
17.2741   600
17.2841   601
17.2941   579
17.3041   627
17.3141   670
17.3241   638
17.3341   644
17.3441   662
17.3541   666
17.3641   687
17.3741   675
17.3841   663
17.3941   655
17.4041   663
17.4141   678
17.4241   631
17.4341   637
17.4441   664
17.4541   672
17.4641   679
17.4741   697
17.4841   685
17.4941   692
17.5041   671
17.5141   670
17.5241   684
17.5341   669
17.5441   665
17.5541   687
17.5641   651
17.5741   633
17.5841   661
17.5941   651
17.6041   657
17.6141   694
17.6241   698
17.6341   658
17.6441   684
17.6541   695
17.6641   687
17.6741   712
17.6841   688
17.6941   658
17.7041   640
17.7141   644
17.7241   669
17.7341   679
17.7441   638
17.7541   645
17.7641   684
17.7741   658
17.7841   647
17.7941   631
17.8041   678
17.8141   647
17.8241   648
17.8341   658
17.8441   651
17.8541   675
17.8641   640
17.8741   633
17.8841   647
17.8941   652
17.9041   700
17.9141   657
17.9241   666
17.9341   681
17.9441   675
17.9541   657
17.9641   651
17.9741   672
17.9841   642
17.9941   641
18.0041   672
18.0141   667
18.0241   679
18.0341   688
18.0441   676
18.0541   649
18.0641   666
18.0741   620
18.0841   664
18.0941   695
18.1041   697
18.1141   696
18.1241   651
18.1341   657
18.1441   662
18.1541   641
18.1641   672
18.1741   681
18.1841   698
18.1941   689
18.2041   700
18.2141   658
18.2241   664
18.2341   698
18.2441   675
18.2541   690
18.2641   683
18.2741   694
18.2841   695
18.2941   676
18.3041   657
18.3141   668
18.3241   677
18.3341   662
18.3441   682
18.3541   672
18.3641   663
18.3741   661
18.3841   657
18.3941   666
18.4041   679
18.4141   670
18.4241   693
18.4341   657
18.4441   698
18.4541   717
18.4641   701
18.4741   722
18.4841   670
18.4941   672
18.5041   670
18.5141   682
18.5241   696
18.5341   651
18.5441   673
18.5541   671
18.5641   713
18.5741   683
18.5841   653
18.5941   668
18.6041   665
18.6141   690
18.6241   691
18.6341   754
18.6441   731
18.6541   707
18.6641   723
18.6741   753
18.6841   729
18.6941   685
18.7041   739
18.7141   734
18.7241   732
18.7341   690
18.7441   696
18.7541   686
18.7641   744
18.7741   745
18.7841   708
18.7941   737
18.8041   727
18.8141   713
18.8241   705
18.8341   680
18.8441   686
18.8541   695
18.8641   702
18.8741   715
18.8841   721
18.8941   726
18.9041   734
18.9141   706
18.9241   693
18.9341   693
18.9441   706
18.9541   748
18.9641   704
18.9741   725
18.9841   706
18.9941   750
19.0041   732
19.0141   711
19.0241   756
19.0341   752
19.0441   717
19.0541   717
19.0641   716
19.0741   749
19.0841   729
19.0941   697
19.1041   687
19.1141   734
19.1241   707
19.1341   731
19.1441   740
19.1541   761
19.1641   715
19.1741   722
19.1841   706
19.1941   724
19.2041   753
19.2141   734
19.2241   752
19.2341   735
19.2441   756
19.2541   713
19.2641   721
19.2741   707
19.2841   722
19.2941   767
19.3041   710
19.3141   726
19.3241   712
19.3341   700
19.3441   709
19.3541   730
19.3641   698
19.3741   680
19.3841   734
19.3941   750
19.4041   732
19.4141   703
19.4241   721
19.4341   802
19.4441   761
19.4541   767
19.4641   717
19.4741   741
19.4841   706
19.4941   720
19.5041   756
19.5141   734
19.5241   754
19.5341   745
19.5441   754
19.5541   722
19.5641   780
19.5741   708
19.5841   749
19.5941   755
19.6041   743
19.6141   729
19.6241   736
19.6341   723
19.6441   710
19.6541   768
19.6641   757
19.6741   713
19.6841   727
19.6941   725
19.7041   753
19.7141   750
19.7241   747
19.7341   763
19.7441   752
19.7541   748
19.7641   728
19.7741   744
19.7841   722
19.7941   741
19.8041   721
19.8141   738
19.8241   789
19.8341   796
19.8441   736
19.8541   763
19.8641   747
19.8741   772
19.8841   734
19.8941   720
19.9041   742
19.9141   707
19.9241   726
19.9341   741
19.9441   724
19.9541   718
19.9641   731
19.9741   736
19.9841   777
19.9941   744
20.0041   751
20.0141   736
20.0241   766
20.0341   772
20.0441   747
20.0541   763
20.0641   757
20.0741   769
20.0841   722
20.0941   783
20.1041   802
20.1141   794
20.1241   792
20.1341   791
20.1441   722
20.1541   753
20.1641   805
20.1741   804
20.1841   740
20.1941   753
20.2041   763
20.2141   746
20.2241   764
20.2341   810
20.2441   768
20.2541   779
20.2641   783
20.2741   805
20.2841   769
20.2941   793
20.3041   781
20.3141   730
20.3241   720
20.3341   731
20.3441   731
20.3541   769
20.3641   722
20.3741   784
20.3841   751
20.3941   719
20.4041   770
20.4141   751
20.4241   726
20.4341   749
20.4441   728
20.4541   780
20.4641   767
20.4741   753
20.4841   740
20.4941   773
20.5041   754
20.5141   794
20.5241   801
20.5341   785
20.5441   745
20.5541   757
20.5641   765
20.5741   765
20.5841   706
20.5941   723
20.6041   774
20.6141   773
20.6241   777
20.6341   770
20.6441   710
20.6541   758
20.6641   776
20.6741   720
20.6841   776
20.6941   740
20.7041   774
20.7141   787
20.7241   772
20.7341   814
20.7441   802
20.7541   767
20.7641   781
20.7741   794
20.7841   782
20.7941   778
20.8041   805
20.8141   790
20.8241   769
20.8341   798
20.8441   825
20.8541   788
20.8641   792
20.8741   855
20.8841   857
20.8941   879
20.9041   834
20.9141   821
20.9241   871
20.9341   843
20.9441   961
20.9541   901
20.9641   942
20.9741   952
20.9841  1058
20.9941   988
21.0041  1020
21.0141   973
21.0241  1020
21.0341  1049
21.0441  1021
21.0541  1031
21.0641  1072
21.0741  1082
21.0841  1084
21.0941  1087
21.1041  1133
21.1141  1132
21.1241  1071
21.1341  1093
21.1441  1137
21.1541  1140
21.1641  1137
21.1741  1096
21.1841  1058
21.1941  1075
21.2041  1082
21.2141  1060
21.2241  1037
21.2341  1035
21.2441  1007
21.2541   987
21.2641   934
21.2741   947
21.2841   920
21.2941   917
21.3041   941
21.3141   868
21.3241   913
21.3341   864
21.3441   832
21.3541   823
21.3641   846
21.3741   848
21.3841   787
21.3941   802
21.4041   760
21.4141   793
21.4241   788
21.4341   786
21.4441   774
21.4541   743
21.4641   746
21.4741   837
21.4841   776
21.4941   772
21.5041   796
21.5141   745
21.5241   730
21.5341   754
21.5441   752
21.5541   736
21.5641   716
21.5741   762
21.5841   752
21.5941   736
21.6041   742
21.6141   739
21.6241   794
21.6341   731
21.6441   755
21.6541   715
21.6641   744
21.6741   713
21.6841   742
21.6941   686
21.7041   740
21.7141   763
21.7241   764
21.7341   742
21.7441   817
21.7541   781
21.7641   762
21.7741   760
21.7841   784
21.7941   738
21.8041   747
21.8141   821
21.8241   757
21.8341   786
21.8441   723
21.8541   770
21.8641   770
21.8741   718
21.8841   758
21.8941   763
21.9041   770
21.9141   713
21.9241   721
21.9341   762
21.9441   716
21.9541   772
21.9641   781
21.9741   736
21.9841   751
21.9941   742
22.0041   731
22.0141   765
22.0241   763
22.0341   749
22.0441   744
22.0541   743
22.0641   781
22.0741   766
22.0841   743
22.0941   788
22.1041   796
22.1141   766
22.1241   789
22.1341   715
22.1441   734
22.1541   731
22.1641   751
22.1741   725
22.1841   745
22.1941   775
22.2041   718
22.2141   757
22.2241   711
22.2341   737
22.2441   737
22.2541   754
22.2641   731
22.2741   793
22.2841   775
22.2941   716
22.3041   750
22.3141   730
22.3241   711
22.3341   767
22.3441   746
22.3541   728
22.3641   735
22.3741   771
22.3841   775
22.3941   775
22.4041   736
22.4141   712
22.4241   698
22.4341   729
22.4441   745
22.4541   729
22.4641   745
22.4741   739
22.4841   762
22.4941   762
22.5041   702
22.5141   725
22.5241   737
22.5341   760
22.5441   745
22.5541   756
22.5641   740
22.5741   698
22.5841   745
22.5941   757
22.6041   747
22.6141   711
22.6241   708
22.6341   709
22.6441   750
22.6541   742
22.6641   709
22.6741   712
22.6841   756
22.6941   728
22.7041   714
22.7141   745
22.7241   723
22.7341   742
22.7441   784
22.7541   712
22.7641   765
22.7741   752
22.7841   768
22.7941   726
22.8041   709
22.8141   683
22.8241   782
22.8341   727
22.8441   734
22.8541   750
22.8641   730
22.8741   731
22.8841   719
22.8941   688
22.9041   690
22.9141   740
22.9241   713
22.9341   679
22.9441   695
22.9541   743
22.9641   700
22.9741   765
22.9841   682
22.9941   767
23.0041   701
23.0141   733
23.0241   705
23.0341   738
23.0441   724
23.0541   730
23.0641   699
23.0741   696
23.0841   735
23.0941   709
23.1041   687
23.1141   722
23.1241   711
23.1341   709
23.1441   667
23.1541   749
23.1641   705
23.1741   697
23.1841   673
23.1941   764
23.2041   739
23.2141   669
23.2241   702
23.2341   757
23.2441   696
23.2541   717
23.2641   717
23.2741   698
23.2841   645
23.2941   681
23.3041   720
23.3141   662
23.3241   702
23.3341   738
23.3441   742
23.3541   650
23.3641   694
23.3741   697
23.3841   717
23.3941   688
23.4041   726
23.4141   703
23.4241   748
23.4341   681
23.4441   702
23.4541   729
23.4641   678
23.4741   742
23.4841   693
23.4941   698
23.5041   708
23.5141   738
23.5241   752
23.5341   711
23.5441   700
23.5541   712
23.5641   748
23.5741   741
23.5841   739
23.5941   716
23.6041   693
23.6141   683
23.6241   678
23.6341   711
23.6441   723
23.6541   720
23.6641   737
23.6741   772
23.6841   700
23.6941   746
23.7041   746
23.7141   755
23.7241   744
23.7341   726
23.7441   750
23.7541   790
23.7641   771
23.7741   776
23.7841   754
23.7941   773
23.8041   756
23.8141   741
23.8241   741
23.8341   790
23.8441   736
23.8541   746
23.8641   779
23.8741   720
23.8841   681
23.8941   756
23.9041   740
23.9141   736
23.9241   716
23.9341   729
23.9441   688
23.9541   702
23.9641   735
23.9741   654
23.9841   710
23.9941   683
24.0041   672
24.0141   666
24.0241   678
24.0341   708
24.0441   723
24.0541   678
24.0641   683
24.0741   664
24.0841   632
24.0941   664
24.1041   655
24.1141   649
24.1241   659
24.1341   666
24.1441   672
24.1541   664
24.1641   668
24.1741   674
24.1841   675
24.1941   705
24.2041   692
24.2141   668
24.2241   631
24.2341   703
24.2441   695
24.2541   694
24.2641   707
24.2741   655
24.2841   635
24.2941   658
24.3041   682
24.3141   656
24.3241   680
24.3341   702
24.3441   688
24.3541   674
24.3641   666
24.3741   637
24.3841   679
24.3941   682
24.4041   703
24.4141   657
24.4241   720
24.4341   657
24.4441   628
24.4541   665
24.4641   636
24.4741   694
24.4841   628
24.4941   694
24.5041   659
24.5141   636
24.5241   627
24.5341   701
24.5441   660
24.5541   657
24.5641   691
24.5741   651
24.5841   679
24.5941   666
24.6041   647
24.6141   660
24.6241   644
24.6341   628
24.6441   673
24.6541   625
24.6641   628
24.6741   698
24.6841   668
24.6941   666
24.7041   643
24.7141   641
24.7241   650
24.7341   652
24.7441   634
24.7541   647
24.7641   645
24.7741   609
24.7841   623
24.7941   639
24.8041   598
24.8141   639
24.8241   624
24.8341   639
24.8441   619
24.8541   635
24.8641   636
24.8741   612
24.8841   627
24.8941   648
24.9041   641
24.9141   676
24.9241   661
24.9341   606
24.9441   584
24.9541   596
24.9641   632
24.9741   630
24.9841   638
24.9941   646
25.0041   644
25.0141   624
25.0241   674
25.0341   679
25.0441   652
25.0541   637
25.0641   615
25.0741   646
25.0841   603
25.0941   608
25.1041   667
25.1141   649
25.1241   686
25.1341   669
25.1441   653
25.1541   662
25.1641   626
25.1741   671
25.1841   668
25.1941   656
25.2041   619
25.2141   635
25.2241   636
25.2341   615
25.2441   632
25.2541   644
25.2641   607
25.2741   633
25.2841   666
25.2941   662
25.3041   645
25.3141   637
25.3241   576
25.3341   619
25.3441   635
25.3541   620
25.3641   638
25.3741   645
25.3841   609
25.3941   604
25.4041   606
25.4141   616
25.4241   584
25.4341   643
25.4441   621
25.4541   598
25.4641   598
25.4741   598
25.4841   602
25.4941   618
25.5041   597
25.5141   581
25.5241   600
25.5341   620
25.5441   608
25.5541   565
25.5641   606
25.5741   617
25.5841   588
25.5941   584
25.6041   616
25.6141   550
25.6241   582
25.6341   605
25.6441   601
25.6541   579
25.6641   588
25.6741   574
25.6841   576
25.6941   581
25.7041   591
25.7141   570
25.7241   614
25.7341   595
25.7441   576
25.7541   543
25.7641   585
25.7741   575
25.7841   579
25.7941   560
25.8041   539
25.8141   582
25.8241   607
25.8341   566
25.8441   573
25.8541   591
25.8641   591
25.8741   597
25.8841   573
25.8941   578
25.9041   581
25.9141   605
25.9241   582
25.9341   570
25.9441   592
25.9541   568
25.9641   564
25.9741   533
25.9841   602
25.9941   604
26.0041   553
26.0141   564
26.0241   540
26.0341   578
26.0441   587
26.0541   584
26.0641   563
26.0741   555
26.0841   584
26.0941   599
26.1041   589
26.1141   567
26.1241   550
26.1341   558
26.1441   578
26.1541   537
26.1641   554
26.1741   568
26.1841   578
26.1941   600
26.2041   615
26.2141   573
26.2241   562
26.2341   515
26.2441   540
26.2541   597
26.2641   551
26.2741   556
26.2841   540
26.2941   520
26.3041   572
26.3141   592
26.3241   521
26.3341   539
26.3441   567
26.3541   568
26.3641   558
26.3741   541
26.3841   576
26.3941   551
26.4041   607
26.4141   578
26.4241   613
26.4341   545
26.4441   579
26.4541   568
26.4641   593
26.4741   552
26.4841   548
26.4941   542
26.5041   531
26.5141   547
26.5241   553
26.5341   513
26.5441   548
26.5541   513
26.5641   521
26.5741   495
26.5841   519
26.5941   532
26.6041   512
26.6141   497
26.6241   531
26.6341   533
26.6441   541
26.6541   522
26.6641   561
26.6741   567
26.6841   521
26.6941   558
26.7041   505
26.7141   507
26.7241   491
26.7341   532
26.7441   520
26.7541   543
26.7641   555
26.7741   544
26.7841   518
26.7941   548
26.8041   534
26.8141   521
26.8241   559
26.8341   564
26.8441   522
26.8541   516
26.8641   486
26.8741   539
26.8841   469
26.8941   495
26.9041   505
26.9141   537
26.9241   526
26.9341   527
26.9441   515
26.9541   502
26.9641   513
26.9741   512
26.9841   507
26.9941   470
27.0041   549
27.0141   494
27.0241   457
27.0341   484
27.0441   501
27.0541   485
27.0641   521
27.0741   513
27.0841   457
27.0941   502
27.1041   498
27.1141   488
27.1241   486
27.1341   507
27.1441   464
27.1541   534
27.1641   527
27.1741   541
27.1841   509
27.1941   503
27.2041   501
27.2141   498
27.2241   475
27.2341   495
27.2441   496
27.2541   507
27.2641   497
27.2741   499
27.2841   516
27.2941   478
27.3041   489
27.3141   551
27.3241   517
27.3341   550
27.3441   508
27.3541   499
27.3641   510
27.3741   452
27.3841   497
27.3941   454
27.4041   480
27.4141   471
27.4241   483
27.4341   484
27.4441   502
27.4541   535
27.4641   520
27.4741   507
27.4841   479
27.4941   500
27.5041   504
27.5141   490
27.5241   462
27.5341   464
27.5441   492
27.5541   494
27.5641   451
27.5741   477
27.5841   517
27.5941   483
27.6041   490
27.6141   479
27.6241   468
27.6341   511
27.6441   501
27.6541   457
27.6641   481
27.6741   464
27.6841   477
27.6941   458
27.7041   451
27.7141   450
27.7241   452
27.7341   452
27.7441   481
27.7541   452
27.7641   445
27.7741   446
27.7841   460
27.7941   441
27.8041   479
27.8141   448
27.8241   479
27.8341   476
27.8441   477
27.8541   473
27.8641   442
27.8741   460
27.8841   466
27.8941   431
27.9041   441
27.9141   463
27.9241   497
27.9341   463
27.9441   464
27.9541   457
27.9641   468
27.9741   454
27.9841   450
27.9941   482
28.0041   489
28.0141   475
28.0241   456
28.0341   459
28.0441   440
28.0541   418
28.0641   469
28.0741   457
28.0841   466
28.0941   427
28.1041   487
28.1141   451
28.1241   437
28.1341   439
28.1441   438
28.1541   482
28.1641   446
28.1741   432
28.1841   442
28.1941   465
28.2041   442
28.2141   435
28.2241   459
28.2341   461
28.2441   452
28.2541   481
28.2641   457
28.2741   463
28.2841   489
28.2941   454
28.3041   454
28.3141   484
28.3241   447
28.3341   408
28.3441   430
28.3541   436
28.3641   463
28.3741   435
28.3841   442
28.3941   443
28.4041   455
28.4141   425
28.4241   439
28.4341   431
28.4441   440
28.4541   438
28.4641   438
28.4741   439
28.4841   403
28.4941   455
28.5041   408
28.5141   453
28.5241   408
28.5341   461
28.5441   438
28.5541   419
28.5641   448
28.5741   452
28.5841   411
28.5941   406
28.6041   457
28.6141   436
28.6241   420
28.6341   419
28.6441   432
28.6541   415
28.6641   425
28.6741   406
28.6841   410
28.6941   404
28.7041   386
28.7141   435
28.7241   443
28.7341   411
28.7441   380
28.7541   411
28.7641   427
28.7741   416
28.7841   375
28.7941   428
28.8041   414
28.8141   394
28.8241   426
28.8341   445
28.8441   431
28.8541   436
28.8641   402
28.8741   390
28.8841   422
28.8941   393
28.9041   384
28.9141   396
28.9241   418
28.9341   422
28.9441   391
28.9541   411
28.9641   407
28.9741   417
28.9841   398
28.9941   389
29.0041   375
29.0141   387
29.0241   394
29.0341   394
29.0441   386
29.0541   353
29.0641   386
29.0741   384
29.0841   386
29.0941   402
29.1041   376
29.1141   390
29.1241   384
29.1341   376
29.1441   387
29.1541   375
29.1641   408
29.1741   367
29.1841   393
29.1941   423
29.2041   356
29.2141   405
29.2241   361
29.2341   369
29.2441   361
29.2541   410
29.2641   360
29.2741   394
29.2841   380
29.2941   380
29.3041   364
29.3141   406
29.3241   397
29.3341   357
29.3441   369
29.3541   370
29.3641   380
29.3741   382
29.3841   388
29.3941   338
29.4041   382
29.4141   419
29.4241   381
29.4341   356
29.4441   365
29.4541   368
29.4641   380
29.4741   372
29.4841   386
29.4941   386
29.5041   372
29.5141   345
29.5241   362
29.5341   373
29.5441   361
29.5541   401
29.5641   374
29.5741   368
29.5841   364
29.5941   349
29.6041   364
29.6141   386
29.6241   365
29.6341   369
29.6441   382
29.6541   335
29.6641   369
29.6741   356
29.6841   360
29.6941   373
29.7041   373
29.7141   357
29.7241   341
29.7341   352
29.7441   361
29.7541   353
29.7641   351
29.7741   396
29.7841   374
29.7941   364
29.8041   364
29.8141   348
29.8241   353
29.8341   383
29.8441   350
29.8541   347
29.8641   340
29.8741   363
29.8841   322
29.8941   339
29.9041   339
29.9141   353
29.9241   361
29.9341   322
29.9441   326
29.9541   358
29.9641   334
29.9741   365
29.9841   336
29.9941   341
30.0041   343
30.0141   365
30.0241   342
30.0341   352
30.0441   343
30.0541   343
30.0641   317
30.0741   351
30.0841   335
30.0941   337
30.1041   343
30.1141   339
30.1241   339
30.1341   348
30.1441   363
30.1541   314
30.1641   339
30.1741   330
30.1841   322
30.1941   362
30.2041   328
30.2141   371
30.2241   328
30.2341   345
30.2441   324
30.2541   344
30.2641   338
30.2741   333
30.2841   349
30.2941   304
30.3041   366
30.3141   320
30.3241   299
30.3341   295
30.3441   341
30.3541   327
30.3641   321
30.3741   327
30.3841   322
30.3941   323
30.4041   313
30.4141   347
30.4241   325
30.4341   294
30.4441   299
30.4541   308
30.4641   319
30.4741   332
30.4841   345
30.4941   315
30.5041   336
30.5141   323
30.5241   296
30.5341   320
30.5441   341
30.5541   314
30.5641   299
30.5741   321
30.5841   331
30.5941   319
30.6041   295
30.6141   293
30.6241   269
30.6341   289
30.6441   339
30.6541   283
30.6641   321
30.6741   335
30.6841   330
30.6941   287
30.7041   309
30.7141   275
30.7241   333
30.7341   334
30.7441   302
30.7541   298
30.7641   335
30.7741   312
30.7841   289
30.7941   297
30.8041   298
30.8141   297
30.8241   300
30.8341   267
30.8441   327
30.8541   312
30.8641   288
30.8741   311
30.8841   305
30.8941   305
30.9041   312
30.9141   280
30.9241   313
30.9341   291
30.9441   282
30.9541   332
30.9641   298
30.9741   306
30.9841   308
30.9941   312
31.0041   347
31.0141   316
31.0241   279
31.0341   297
31.0441   275
31.0541   322
31.0641   306
31.0741   260
31.0841   314
31.0941   293
31.1041   262
31.1141   328
31.1241   298
31.1341   297
31.1441   250
31.1541   267
31.1641   284
31.1741   286
31.1841   287
31.1941   261
31.2041   292
31.2141   296
31.2241   272
31.2341   273
31.2441   287
31.2541   290
31.2641   287
31.2741   302
31.2841   279
31.2941   258
31.3041   284
31.3141   269
31.3241   281
31.3341   278
31.3441   274
31.3541   290
31.3641   275
31.3741   299
31.3841   308
31.3941   291
31.4041   259
31.4141   298
31.4241   281
31.4341   286
31.4441   256
31.4541   312
31.4641   266
31.4741   280
31.4841   272
31.4941   295
31.5041   287
31.5141   250
31.5241   245
31.5341   273
31.5441   278
31.5541   286
31.5641   262
31.5741   251
31.5841   263
31.5941   291
31.6041   305
31.6141   249
31.6241   271
31.6341   274
31.6441   264
31.6541   264
31.6641   261
31.6741   309
31.6841   250
31.6941   271
31.7041   283
31.7141   254
31.7241   247
31.7341   253
31.7441   232
31.7541   270
31.7641   283
31.7741   255
31.7841   273
31.7941   248
31.8041   258
31.8141   286
31.8241   250
31.8341   265
31.8441   258
31.8541   288
31.8641   278
31.8741   255
31.8841   270
31.8941   224
31.9041   259
31.9141   256
31.9241   266
31.9341   277
31.9441   259
31.9541   259
31.9641   257
31.9741   260
31.9841   252
31.9941   257
32.0041   261
32.0141   264
32.0241   261
32.0341   251
32.0441   260
32.0541   257
32.0641   269
32.0741   267
32.0841   250
32.0941   266
32.1041   260
32.1141   301
32.1241   258
32.1341   237
32.1441   251
32.1541   258
32.1641   232
32.1741   232
32.1841   248
32.1941   234
32.2041   270
32.2141   277
32.2241   253
32.2341   234
32.2441   258
32.2541   246
32.2641   223
32.2741   258
32.2841   251
32.2941   263
32.3041   219
32.3141   245
32.3241   231
32.3341   236
32.3441   224
32.3541   226
32.3641   239
32.3741   227
32.3841   227
32.3941   239
32.4041   229
32.4141   229
32.4241   227
32.4341   218
32.4441   241
32.4541   221
32.4641   224
32.4741   237
32.4841   240
32.4941   240
32.5041   219
32.5141   236
32.5241   224
32.5341   203
32.5441   227
32.5541   230
32.5641   237
32.5741   241
32.5841   223
32.5941   236
32.6041   261
32.6141   234
32.6241   225
32.6341   228
32.6441   210
32.6541   242
32.6641   218
32.6741   234
32.6841   231
32.6941   236
32.7041   216
32.7141   190
32.7241   226
32.7341   237
32.7441   233
32.7541   223
32.7641   215
32.7741   218
32.7841   194
32.7941   236
32.8041   217
32.8141   219
32.8241   228
32.8341   230
32.8441   220
32.8541   211
32.8641   194
32.8741   212
32.8841   226
32.8941   208
32.9041   201
32.9141   204
32.9241   235
32.9341   204
32.9441   235
32.9541   201
32.9641   214
32.9741   204
32.9841   220
32.9941   223
33.0041   215
33.0141   219
33.0241   219
33.0341   205
33.0441   196
33.0541   200
33.0641   212
33.0741   191
33.0841   216
33.0941   224
33.1041   211
33.1141   184
33.1241   191
33.1341   207
33.1441   222
33.1541   193
33.1641   174
33.1741   212
33.1841   213
33.1941   199
33.2041   189
33.2141   198
33.2241   214
33.2341   205
33.2441   191
33.2541   201
33.2641   192
33.2741   195
33.2841   220
33.2941   186
33.3041   202
33.3141   204
33.3241   198
33.3341   208
33.3441   186
33.3541   189
33.3641   195
33.3741   191
33.3841   202
33.3941   175
33.4041   196
33.4141   198
33.4241   192
33.4341   222
33.4441   213
33.4541   206
33.4641   210
33.4741   177
33.4841   226
33.4941   173
33.5041   184
33.5141   183
33.5241   185
33.5341   209
33.5441   204
33.5541   214
33.5641   203
33.5741   168
33.5841   193
33.5941   169
33.6041   181
33.6141   203
33.6241   186
33.6341   178
33.6441   188
33.6541   212
33.6641   183
33.6741   202
33.6841   184
33.6941   181
33.7041   174
33.7141   179
33.7241   185
33.7341   182
33.7441   165
33.7541   175
33.7641   181
33.7741   190
33.7841   162
33.7941   171
33.8041   189
33.8141   218
33.8241   186
33.8341   178
33.8441   167
33.8541   193
33.8641   216
33.8741   176
33.8841   178
33.8941   175
33.9041   186
33.9141   181
33.9241   184
33.9341   177
33.9441   169
33.9541   153
33.9641   170
33.9741   183
33.9841   169
33.9941   187
34.0041   181
34.0141   173
34.0241   157
34.0341   156
34.0441   189
34.0541   170
34.0641   160
34.0741   169
34.0841   173
34.0941   162
34.1041   185
34.1141   208
34.1241   179
34.1341   157
34.1441   170
34.1541   160
34.1641   159
34.1741   156
34.1841   176
34.1941   169
34.2041   172
34.2141   166
34.2241   151
34.2341   164
34.2441   157
34.2541   162
34.2641   149
34.2741   141
34.2841   158
34.2941   148
34.3041   150
34.3141   138
34.3241   170
34.3341   156
34.3441   172
34.3541   153
34.3641   168
34.3741   138
34.3841   170
34.3941   165
34.4041   170
34.4141   146
34.4241   164
34.4341   161
34.4441   149
34.4541   145
34.4641   159
34.4741   162
34.4841   152
34.4941   139
34.5041   139
34.5141   149
34.5241   157
34.5341   141
34.5441   161
34.5541   141
34.5641   146
34.5741   176
34.5841   140
34.5941   126
34.6041   168
34.6141   144
34.6241   148
34.6341   150
34.6441   166
34.6541   164
34.6641   169
34.6741   154
34.6841   153
34.6941   176
34.7041   142
34.7141   145
34.7241   121
34.7341   161
34.7441   157
34.7541   159
34.7641   151
34.7741   158
34.7841   155
34.7941   147
34.8041   166
34.8141   129
34.8241   150
34.8341   144
34.8441   151
34.8541   149
34.8641   162
34.8741   146
34.8841   152
34.8941   159
34.9041   169
34.9141   134
34.9241   139
34.9341   153
34.9441   145
34.9541   120
34.9641   123
34.9741   166
34.9841   132
34.9941   172
35.0041   166
35.0141   160
35.0241   146
35.0341   158
35.0441   176
35.0541   140
35.0641   145
35.0741   156
35.0841   131
35.0941   144
35.1041   122
35.1141   161
35.1241   136
35.1341   147
35.1441   141
35.1541   133
35.1641   112
35.1741   140
35.1841   138
35.1941   156
35.2041   146
35.2141   152
35.2241   138
35.2341   133
35.2441   146
35.2541   140
35.2641   131
35.2741   133
35.2841   125
35.2941   136
35.3041   136
35.3141   128
35.3241   135
35.3341   122
35.3441   125
35.3541   117
35.3641   144
35.3741   122
35.3841   140
35.3941   135
35.4041   131
35.4141   118
35.4241   123
35.4341   127
35.4441   102
35.4541   128
35.4641   142
35.4741   126
35.4841   129
35.4941   141
35.5041   128
35.5141   130
35.5241   126
35.5341    92
35.5441   127
35.5541   122
35.5641   109
35.5741   118
35.5841   134
35.5941   116
35.6041   113
35.6141   130
35.6241   119
35.6341   130
35.6441   121
35.6541   126
35.6641   120
35.6741   150
35.6841   124
35.6941   135
35.7041   130
35.7141   127
35.7241   118
35.7341   126
35.7441   119
35.7541   126
35.7641   135
35.7741   111
35.7841   139
35.7941   104
35.8041   118
35.8141   126
35.8241   123
35.8341   130
35.8441   117
35.8541   110
35.8641   123
35.8741   131
35.8841   146
35.8941   119
35.9041   127
35.9141   103
35.9241   102
35.9341   101
35.9441   122
35.9541   119
35.9641   125
35.9741   132
35.9841   101
35.9941   113
36.0041   121
36.0141   114
36.0241   123
36.0341   109
36.0441    97
36.0541   114
36.0641   110
36.0741   102
36.0841   111
36.0941   119
36.1041   111
36.1141   108
36.1241    97
36.1341    99
36.1441   116
36.1541    94
36.1641   109
36.1741   108
36.1841   122
36.1941   114
36.2041   125
36.2141   119
36.2241   119
36.2341   116
36.2441   117
36.2541   112
36.2641   144
36.2741   112
36.2841    94
36.2941   114
36.3041    98
36.3141   118
36.3241   122
36.3341   123
36.3441   119
36.3541   111
36.3641   104
36.3741   106
36.3841   100
36.3941   111
36.4041   107
36.4141   119
36.4241   121
36.4341   108
36.4441    95
36.4541   103
36.4641   107
36.4741    95
36.4841   107
36.4941   107
36.5041   113
36.5141    97
36.5241    94
36.5341    68
36.5441    99
36.5541    94
36.5641    84
36.5741   105
36.5841   118
36.5941    99
36.6041    85
36.6141   104
36.6241   100
36.6341    90
36.6441    87
36.6541   113
36.6641    93
36.6741   106
36.6841   103
36.6941    93
36.7041    88
36.7141    91
36.7241    89
36.7341   100
36.7441   122
36.7541   110
36.7641    86
36.7741    98
36.7841   105
36.7941    86
36.8041    90
36.8141    83
36.8241   111
36.8341   100
36.8441    83
36.8541    88
36.8641    97
36.8741    95
36.8841    90
36.8941    90
36.9041   104
36.9141    91
36.9241   101
36.9341    90
36.9441    98
36.9541    92
36.9641    90
36.9741   105
36.9841    95
36.9941    85
37.0041    96
37.0141    78
37.0241    89
37.0341    97
37.0441    91
37.0541    93
37.0641   100
37.0741    82
37.0841    86
37.0941    95
37.1041    89
37.1141    84
37.1241    95
37.1341    77
37.1441    84
37.1541    88
37.1641    83
37.1741    89
37.1841    83
37.1941    92
37.2041    82
37.2141    87
37.2241    81
37.2341    95
37.2441    79
37.2541    84
37.2641    87
37.2741    71
37.2841    79
37.2941    85
37.3041    71
37.3141    83
37.3241    87
37.3341    76
37.3441    76
37.3541   103
37.3641    85
37.3741    86
37.3841    93
37.3941    73
37.4041    79
37.4141    89
37.4241    84
37.4341    93
37.4441    85
37.4541    76
37.4641    70
37.4741    71
37.4841    85
37.4941    79
37.5041    68
37.5141    90
37.5241    71
37.5341    74
37.5441    67
37.5541    84
37.5641    93
37.5741    73
37.5841    85
37.5941    75
37.6041    70
37.6141    92
37.6241    76
37.6341    85
37.6441    79
37.6541    71
37.6641    57
37.6741    83
37.6841    62
37.6941    91
37.7041    87
37.7141    62
37.7241    67
37.7341    75
37.7441    59
37.7541    67
37.7641    88
37.7741    72
37.7841    76
37.7941    64
37.8041    71
37.8141    78
37.8241    73
37.8341    69
37.8441    78
37.8541    72
37.8641    62
37.8741    68
37.8841    59
37.8941    63
37.9041    58
37.9141    59
37.9241    76
37.9341    87
37.9441    69
37.9541    75
37.9641    57
37.9741    78
37.9841    60
37.9941    63
38.0041    65
38.0141    65
38.0241    64
38.0341    75
38.0441    80
38.0541    72
38.0641    72
38.0741    80
38.0841    75
38.0941    75
38.1041    58
38.1141    67
38.1241    71
38.1341    55
38.1441    64
38.1541    74
38.1641    64
38.1741    68
38.1841    57
38.1941    54
38.2041    75
38.2141    64
38.2241    60
38.2341    68
38.2441    75
38.2541    72
38.2641    63
38.2741    52
38.2841    57
38.2941    64
38.3041    64
38.3141    69
38.3241    60
38.3341    57
38.3441    62
38.3541    66
38.3641    63
38.3741    55
38.3841    67
38.3941    64
38.4041    65
38.4141    63
38.4241    58
38.4341    62
38.4441    54
38.4541    74
38.4641    58
38.4741    67
38.4841    66
38.4941    61
38.5041    53
38.5141    56
38.5241    66
38.5341    61
38.5441    62
38.5541    59
38.5641    68
38.5741    56
38.5841    53
38.5941    49
38.6041    62
38.6141    55
38.6241    67
38.6341    57
38.6441    54
38.6541    74
38.6641    60
38.6741    58
38.6841    54
38.6941    60
38.7041    55
38.7141    50
38.7241    69
38.7341    58
38.7441    54
38.7541    39
38.7641    58
38.7741    71
38.7841    59
38.7941    62
38.8041    63
38.8141    57
38.8241    64
38.8341    42
38.8441    55
38.8541    61
38.8641    63
38.8741    46
38.8841    29
38.8941    39
38.9041    64
38.9141    56
38.9241    40
38.9341    38
38.9441    58
38.9541    51
38.9641    55
38.9741    56
38.9841    44
38.9941    54
39.0041    51
39.0141    57
39.0241    38
39.0341    66
39.0441    53
39.0541    49
39.0641    42
39.0741    52
39.0841    49
39.0941    44
39.1041    53
39.1141    41
39.1241    45
39.1341    59
39.1441    48
39.1541    51
39.1641    51
39.1741    40
39.1841    39
39.1941    49
39.2041    49
39.2141    48
39.2241    45
39.2341    47
39.2441    54
39.2541    49
39.2641    49
39.2741    46
39.2841    50
39.2941    47
39.3041    43
39.3141    52
39.3241    43
39.3341    47
39.3441    41
39.3541    41
39.3641    58
39.3741    53
39.3841    42
39.3941    38
39.4041    42
39.4141    46
39.4241    39
39.4341    32
39.4441    42
39.4541    47
39.4641    53
39.4741    36
39.4841    43
39.4941    36
39.5041    42
39.5141    46
39.5241    44
39.5341    41
39.5441    45
39.5541    36
39.5641    40
39.5741    38
39.5841    44
39.5941    44
39.6041    36
39.6141    32
39.6241    39
39.6341    38
39.6441    30
39.6541    39
39.6641    46
39.6741    40
39.6841    36
39.6941    33
39.7041    32
39.7141    50
39.7241    34
39.7341    43
39.7441    37
39.7541    40
39.7641    40
39.7741    27
39.7841    47
39.7941    44
39.8041    36
39.8141    27
39.8241    35
39.8341    35
39.8441    37
39.8541    35
39.8641    43
39.8741    38
39.8841    35
39.8941    42
39.9041    37
39.9141    34
39.9241    32
39.9341    44
39.9441    40
39.9541    44
39.9641    32
39.9741    41
39.9841    38
