Bruker Nano GmbH Berlin, Germany
Esprit 1.9

Date: 4/1/2021 5:01:52 PM
Real time: 25695
Life time: 24249
Pulse density: 82910


Detector type: XFlash 430
Window type: Custom type
Detector thickness: 0.45
Si dead layer:0.029

Calibration, lin.: 10
Calibration, abs.: -955.9
Mn FWHM: 137.05
Fano factor: 0.121
Channels: 4096

Energy Counts
-0.9559     0
-0.9459     0
-0.9359     0
-0.9259     0
-0.9159     0
-0.9059     0
-0.8959     0
-0.8859     0
-0.8759     0
-0.8659     0
-0.8559     0
-0.8459     0
-0.8359     0
-0.8259     0
-0.8159     0
-0.8059     0
-0.7959     0
-0.7859     0
-0.7759     0
-0.7659     0
-0.7559     0
-0.7459     0
-0.7359     0
-0.7259     0
-0.7159     0
-0.7059     0
-0.6959     0
-0.6859     0
-0.6759     0
-0.6659     0
-0.6559     0
-0.6459     0
-0.6359     0
-0.6259     0
-0.6159     0
-0.6059     0
-0.5959     0
-0.5859     0
-0.5759     0
-0.5659     0
-0.5559     0
-0.5459     0
-0.5359     0
-0.5259     0
-0.5159     0
-0.5059     0
-0.4959     0
-0.4859     0
-0.4759     0
-0.4659     0
-0.4559     0
-0.4459     0
-0.4359     0
-0.4259     0
-0.4159     0
-0.4059     0
-0.3959     0
-0.3859     0
-0.3759     0
-0.3659     0
-0.3559     0
-0.3459     0
-0.3359     0
-0.3259     0
-0.3159     0
-0.3059     0
-0.2959     0
-0.2859     0
-0.2759     0
-0.2659     0
-0.2559     0
-0.2459     0
-0.2359     0
-0.2259     0
-0.2159     0
-0.2059     0
-0.1959     0
-0.1859     0
-0.1759     0
-0.1659     0
-0.1559     0
-0.1459     1
-0.1359     0
-0.1259     2
-0.1159     7
-0.1059    19
-0.0959    69
-0.0859   283
-0.0759   954
-0.0659  2733
-0.0559  7156
-0.0459 15395
-0.0359 29023
-0.0259 46239
-0.0159 63580
-0.0059 74800
 0.0041 74325
 0.0141 64063
 0.0241 47511
 0.0341 30066
 0.0441 16019
 0.0541  7513
 0.0641  3009
 0.0741  1016
 0.0841   316
 0.0941    89
 0.1041    24
 0.1141    13
 0.1241     7
 0.1341     9
 0.1441     5
 0.1541     4
 0.1641     4
 0.1741    18
 0.1841   198
 0.1941   397
 0.2041   325
 0.2141   313
 0.2241   339
 0.2341   344
 0.2441   362
 0.2541   379
 0.2641   357
 0.2741   374
 0.2841   344
 0.2941   353
 0.3041   339
 0.3141   347
 0.3241   349
 0.3341   310
 0.3441   331
 0.3541   329
 0.3641   311
 0.3741   313
 0.3841   301
 0.3941   316
 0.4041   309
 0.4141   313
 0.4241   322
 0.4341   300
 0.4441   275
 0.4541   285
 0.4641   281
 0.4741   297
 0.4841   307
 0.4941   293
 0.5041   306
 0.5141   297
 0.5241   300
 0.5341   287
 0.5441   275
 0.5541   281
 0.5641   282
 0.5741   295
 0.5841   294
 0.5941   268
 0.6041   277
 0.6141   262
 0.6241   250
 0.6341   271
 0.6441   271
 0.6541   273
 0.6641   248
 0.6741   241
 0.6841   264
 0.6941   281
 0.7041   266
 0.7141   265
 0.7241   274
 0.7341   264
 0.7441   247
 0.7541   240
 0.7641   262
 0.7741   256
 0.7841   223
 0.7941   240
 0.8041   249
 0.8141   251
 0.8241   248
 0.8341   243
 0.8441   228
 0.8541   226
 0.8641   247
 0.8741   259
 0.8841   249
 0.8941   231
 0.9041   239
 0.9141   241
 0.9241   221
 0.9341   233
 0.9441   222
 0.9541   233
 0.9641   234
 0.9741   223
 0.9841   205
 0.9941   218
 1.0041   236
 1.0141   254
 1.0241   235
 1.0341   214
 1.0441   207
 1.0541   242
 1.0641   203
 1.0741   228
 1.0841   214
 1.0941   220
 1.1041   227
 1.1141   217
 1.1241   221
 1.1341   220
 1.1441   234
 1.1541   218
 1.1641   204
 1.1741   228
 1.1841   194
 1.1941   222
 1.2041   232
 1.2141   229
 1.2241   234
 1.2341   221
 1.2441   211
 1.2541   175
 1.2641   203
 1.2741   212
 1.2841   200
 1.2941   222
 1.3041   221
 1.3141   211
 1.3241   198
 1.3341   201
 1.3441   217
 1.3541   210
 1.3641   191
 1.3741   182
 1.3841   203
 1.3941   187
 1.4041   209
 1.4141   226
 1.4241   193
 1.4341   195
 1.4441   184
 1.4541   193
 1.4641   210
 1.4741   219
 1.4841   205
 1.4941   187
 1.5041   201
 1.5141   204
 1.5241   201
 1.5341   204
 1.5441   208
 1.5541   201
 1.5641   189
 1.5741   187
 1.5841   175
 1.5941   185
 1.6041   202
 1.6141   188
 1.6241   180
 1.6341   198
 1.6441   208
 1.6541   254
 1.6641   287
 1.6741   382
 1.6841   455
 1.6941   563
 1.7041   709
 1.7141   769
 1.7241   927
 1.7341   902
 1.7441   937
 1.7541   849
 1.7641   778
 1.7741   680
 1.7841   546
 1.7941   476
 1.8041   396
 1.8141   325
 1.8241   307
 1.8341   278
 1.8441   255
 1.8541   278
 1.8641   244
 1.8741   230
 1.8841   209
 1.8941   219
 1.9041   232
 1.9141   229
 1.9241   207
 1.9341   205
 1.9441   241
 1.9541   216
 1.9641   220
 1.9741   225
 1.9841   238
 1.9941   241
 2.0041   249
 2.0141   248
 2.0241   260
 2.0341   252
 2.0441   217
 2.0541   228
 2.0641   218
 2.0741   193
 2.0841   191
 2.0941   200
 2.1041   183
 2.1141   179
 2.1241   169
 2.1341   177
 2.1441   169
 2.1541   178
 2.1641   159
 2.1741   193
 2.1841   166
 2.1941   168
 2.2041   193
 2.2141   164
 2.2241   169
 2.2341   188
 2.2441   180
 2.2541   183
 2.2641   179
 2.2741   175
 2.2841   177
 2.2941   167
 2.3041   156
 2.3141   179
 2.3241   162
 2.3341   163
 2.3441   166
 2.3541   170
 2.3641   168
 2.3741   174
 2.3841   150
 2.3941   150
 2.4041   166
 2.4141   151
 2.4241   148
 2.4341   153
 2.4441   146
 2.4541   164
 2.4641   174
 2.4741   159
 2.4841   153
 2.4941   142
 2.5041   156
 2.5141   161
 2.5241   160
 2.5341   170
 2.5441   157
 2.5541   135
 2.5641   142
 2.5741   162
 2.5841   143
 2.5941   137
 2.6041   157
 2.6141   138
 2.6241   128
 2.6341   158
 2.6441   154
 2.6541   129
 2.6641   142
 2.6741   168
 2.6841   128
 2.6941   137
 2.7041   144
 2.7141   134
 2.7241   159
 2.7341   137
 2.7441   144
 2.7541   136
 2.7641   151
 2.7741   141
 2.7841   160
 2.7941   146
 2.8041   165
 2.8141   154
 2.8241   138
 2.8341   149
 2.8441   146
 2.8541   145
 2.8641   137
 2.8741   154
 2.8841   141
 2.8941   124
 2.9041   143
 2.9141   150
 2.9241   142
 2.9341   172
 2.9441   150
 2.9541   122
 2.9641   154
 2.9741   143
 2.9841   131
 2.9941   154
 3.0041   134
 3.0141   151
 3.0241   145
 3.0341   135
 3.0441   124
 3.0541   113
 3.0641   128
 3.0741   124
 3.0841   127
 3.0941   111
 3.1041   125
 3.1141   119
 3.1241   145
 3.1341   135
 3.1441   131
 3.1541   115
 3.1641   134
 3.1741   132
 3.1841   134
 3.1941   144
 3.2041   147
 3.2141   132
 3.2241   159
 3.2341   172
 3.2441   182
 3.2541   200
 3.2641   198
 3.2741   263
 3.2841   255
 3.2941   280
 3.3041   261
 3.3141   272
 3.3241   271
 3.3341   254
 3.3441   259
 3.3541   219
 3.3641   219
 3.3741   171
 3.3841   155
 3.3941   161
 3.4041   154
 3.4141   112
 3.4241   119
 3.4341   113
 3.4441   114
 3.4541   136
 3.4641   134
 3.4741   144
 3.4841   151
 3.4941   132
 3.5041   167
 3.5141   158
 3.5241   215
 3.5341   244
 3.5441   307
 3.5541   382
 3.5641   530
 3.5741   724
 3.5841  1013
 3.5941  1414
 3.6041  1970
 3.6141  2680
 3.6241  3562
 3.6341  4593
 3.6441  5695
 3.6541  6642
 3.6641  7568
 3.6741  8310
 3.6841  8683
 3.6941  8572
 3.7041  8323
 3.7141  7779
 3.7241  6903
 3.7341  5836
 3.7441  4727
 3.7541  3691
 3.7641  2755
 3.7741  1947
 3.7841  1352
 3.7941   929
 3.8041   639
 3.8141   444
 3.8241   341
 3.8341   249
 3.8441   230
 3.8541   202
 3.8641   182
 3.8741   194
 3.8841   221
 3.8941   234
 3.9041   326
 3.9141   393
 3.9241   495
 3.9341   686
 3.9441   782
 3.9541  1003
 3.9641  1265
 3.9741  1415
 3.9841  1554
 3.9941  1783
 4.0041  1828
 4.0141  1768
 4.0241  1734
 4.0341  1699
 4.0441  1531
 4.0541  1291
 4.0641  1131
 4.0741   898
 4.0841   705
 4.0941   509
 4.1041   427
 4.1141   323
 4.1241   232
 4.1341   166
 4.1441   138
 4.1541   126
 4.1641   100
 4.1741    98
 4.1841   101
 4.1941    95
 4.2041   103
 4.2141    78
 4.2241    88
 4.2341   104
 4.2441   100
 4.2541   102
 4.2641    88
 4.2741    96
 4.2841    93
 4.2941   106
 4.3041    91
 4.3141    95
 4.3241    83
 4.3341    94
 4.3441    74
 4.3541    83
 4.3641   101
 4.3741   101
 4.3841   104
 4.3941   103
 4.4041   124
 4.4141   140
 4.4241   174
 4.4341   198
 4.4441   236
 4.4541   267
 4.4641   276
 4.4741   334
 4.4841   359
 4.4941   356
 4.5041   376
 4.5141   396
 4.5241   349
 4.5341   340
 4.5441   310
 4.5541   281
 4.5641   241
 4.5741   190
 4.5841   182
 4.5941   194
 4.6041   135
 4.6141   130
 4.6241   127
 4.6341   109
 4.6441   106
 4.6541   105
 4.6641   101
 4.6741   109
 4.6841   106
 4.6941   117
 4.7041   117
 4.7141   122
 4.7241    87
 4.7341    98
 4.7441    88
 4.7541   106
 4.7641   102
 4.7741   114
 4.7841    97
 4.7941   109
 4.8041   119
 4.8141   126
 4.8241   117
 4.8341   126
 4.8441   126
 4.8541   153
 4.8641   120
 4.8741   120
 4.8841   153
 4.8941   157
 4.9041   159
 4.9141   153
 4.9241   144
 4.9341   174
 4.9441   164
 4.9541   160
 4.9641   143
 4.9741   149
 4.9841   157
 4.9941   141
 5.0041   131
 5.0141   132
 5.0241   121
 5.0341   124
 5.0441   122
 5.0541   127
 5.0641   104
 5.0741   118
 5.0841   106
 5.0941   103
 5.1041   106
 5.1141   111
 5.1241    88
 5.1341   125
 5.1441   115
 5.1541   109
 5.1641    95
 5.1741    89
 5.1841   122
 5.1941    99
 5.2041   114
 5.2141   128
 5.2241    90
 5.2341   101
 5.2441    90
 5.2541   106
 5.2641   109
 5.2741   106
 5.2841   117
 5.2941    95
 5.3041   121
 5.3141   117
 5.3241   120
 5.3341   119
 5.3441   146
 5.3541   126
 5.3641   130
 5.3741   152
 5.3841   130
 5.3941   159
 5.4041   136
 5.4141   158
 5.4241   148
 5.4341   139
 5.4441   156
 5.4541   129
 5.4641   135
 5.4741   133
 5.4841   114
 5.4941   132
 5.5041   114
 5.5141   124
 5.5241   114
 5.5341    95
 5.5441   109
 5.5541   121
 5.5641   117
 5.5741   118
 5.5841   110
 5.5941    95
 5.6041   127
 5.6141   126
 5.6241   114
 5.6341   129
 5.6441   112
 5.6541   135
 5.6641   108
 5.6741    97
 5.6841    99
 5.6941   135
 5.7041   117
 5.7141   121
 5.7241   117
 5.7341   141
 5.7441   159
 5.7541   160
 5.7641   171
 5.7741   204
 5.7841   234
 5.7941   274
 5.8041   334
 5.8141   358
 5.8241   460
 5.8341   517
 5.8441   604
 5.8541   673
 5.8641   698
 5.8741   763
 5.8841   795
 5.8941   838
 5.9041   753
 5.9141   736
 5.9241   703
 5.9341   657
 5.9441   595
 5.9541   534
 5.9641   424
 5.9741   373
 5.9841   328
 5.9941   292
 6.0041   250
 6.0141   203
 6.0241   192
 6.0341   167
 6.0441   166
 6.0541   160
 6.0641   176
 6.0741   150
 6.0841   144
 6.0941   168
 6.1041   156
 6.1141   142
 6.1241   160
 6.1341   179
 6.1441   192
 6.1541   177
 6.1641   143
 6.1741   192
 6.1841   190
 6.1941   207
 6.2041   263
 6.2141   352
 6.2241   435
 6.2341   634
 6.2441   855
 6.2541  1146
 6.2641  1604
 6.2741  2156
 6.2841  2808
 6.2941  3739
 6.3041  4888
 6.3141  6004
 6.3241  7511
 6.3341  9083
 6.3441 10575
 6.3541 12074
 6.3641 13405
 6.3741 14406
 6.3841 15345
 6.3941 15552
 6.4041 15698
 6.4141 14994
 6.4241 14416
 6.4341 13015
 6.4441 11472
 6.4541 10022
 6.4641  8815
 6.4741  7078
 6.4841  5718
 6.4941  4435
 6.5041  3387
 6.5141  2563
 6.5241  1821
 6.5341  1384
 6.5441   971
 6.5541   753
 6.5641   549
 6.5741   425
 6.5841   333
 6.5941   262
 6.6041   228
 6.6141   177
 6.6241   178
 6.6341   185
 6.6441   155
 6.6541   199
 6.6641   176
 6.6741   177
 6.6841   193
 6.6941   181
 6.7041   165
 6.7141   181
 6.7241   197
 6.7341   168
 6.7441   174
 6.7541   197
 6.7641   200
 6.7741   182
 6.7841   234
 6.7941   177
 6.8041   202
 6.8141   216
 6.8241   237
 6.8341   218
 6.8441   251
 6.8541   248
 6.8641   260
 6.8741   298
 6.8841   354
 6.8941   356
 6.9041   438
 6.9141   494
 6.9241   605
 6.9341   685
 6.9441   859
 6.9541   979
 6.9641  1192
 6.9741  1398
 6.9841  1673
 6.9941  1817
 7.0041  2135
 7.0141  2309
 7.0241  2542
 7.0341  2600
 7.0441  2726
 7.0541  2794
 7.0641  2735
 7.0741  2627
 7.0841  2459
 7.0941  2257
 7.1041  2043
 7.1141  1842
 7.1241  1509
 7.1341  1410
 7.1441  1099
 7.1541   900
 7.1641   795
 7.1741   628
 7.1841   536
 7.1941   450
 7.2041   392
 7.2141   342
 7.2241   311
 7.2341   276
 7.2441   272
 7.2541   242
 7.2641   238
 7.2741   246
 7.2841   259
 7.2941   267
 7.3041   263
 7.3141   263
 7.3241   252
 7.3341   299
 7.3441   308
 7.3541   284
 7.3641   316
 7.3741   309
 7.3841   336
 7.3941   334
 7.4041   331
 7.4141   324
 7.4241   328
 7.4341   345
 7.4441   302
 7.4541   356
 7.4641   317
 7.4741   299
 7.4841   275
 7.4941   262
 7.5041   243
 7.5141   269
 7.5241   269
 7.5341   281
 7.5441   233
 7.5541   243
 7.5641   226
 7.5741   222
 7.5841   249
 7.5941   214
 7.6041   248
 7.6141   230
 7.6241   237
 7.6341   244
 7.6441   242
 7.6541   217
 7.6641   259
 7.6741   244
 7.6841   247
 7.6941   255
 7.7041   237
 7.7141   236
 7.7241   266
 7.7341   268
 7.7441   238
 7.7541   292
 7.7641   268
 7.7741   294
 7.7841   294
 7.7941   271
 7.8041   305
 7.8141   303
 7.8241   292
 7.8341   332
 7.8441   317
 7.8541   344
 7.8641   310
 7.8741   350
 7.8841   362
 7.8941   387
 7.9041   388
 7.9141   411
 7.9241   445
 7.9341   469
 7.9441   464
 7.9541   479
 7.9641   523
 7.9741   579
 7.9841   563
 7.9941   650
 8.0041   673
 8.0141   802
 8.0241   808
 8.0341   882
 8.0441   942
 8.0541   943
 8.0641  1013
 8.0741  1120
 8.0841  1185
 8.0941  1241
 8.1041  1254
 8.1141  1354
 8.1241  1476
 8.1341  1442
 8.1441  1478
 8.1541  1533
 8.1641  1598
 8.1741  1604
 8.1841  1617
 8.1941  1700
 8.2041  1704
 8.2141  1632
 8.2241  1686
 8.2341  1699
 8.2441  1710
 8.2541  1816
 8.2641  1925
 8.2741  2001
 8.2841  2135
 8.2941  2315
 8.3041  2415
 8.3141  2570
 8.3241  2796
 8.3341  3081
 8.3441  3279
 8.3541  3443
 8.3641  3543
 8.3741  3735
 8.3841  3640
 8.3941  3691
 8.4041  3650
 8.4141  3481
 8.4241  3320
 8.4341  2925
 8.4441  2742
 8.4541  2548
 8.4641  2312
 8.4741  1890
 8.4841  1715
 8.4941  1422
 8.5041  1190
 8.5141   969
 8.5241   870
 8.5341   775
 8.5441   633
 8.5541   556
 8.5641   519
 8.5741   508
 8.5841   456
 8.5941   420
 8.6041   401
 8.6141   408
 8.6241   427
 8.6341   440
 8.6441   440
 8.6541   426
 8.6641   455
 8.6741   399
 8.6841   444
 8.6941   397
 8.7041   410
 8.7141   389
 8.7241   365
 8.7341   383
 8.7441   381
 8.7541   373
 8.7641   368
 8.7741   377
 8.7841   338
 8.7941   365
 8.8041   335
 8.8141   362
 8.8241   393
 8.8341   349
 8.8441   368
 8.8541   351
 8.8641   364
 8.8741   363
 8.8841   364
 8.8941   360
 8.9041   371
 8.9141   383
 8.9241   380
 8.9341   378
 8.9441   379
 8.9541   412
 8.9641   373
 8.9741   429
 8.9841   422
 8.9941   422
 9.0041   415
 9.0141   446
 9.0241   467
 9.0341   427
 9.0441   465
 9.0541   430
 9.0641   490
 9.0741   526
 9.0841   533
 9.0941   519
 9.1041   573
 9.1141   570
 9.1241   628
 9.1341   587
 9.1441   616
 9.1541   696
 9.1641   702
 9.1741   725
 9.1841   733
 9.1941   766
 9.2041   854
 9.2141   864
 9.2241   940
 9.2341   969
 9.2441  1075
 9.2541  1064
 9.2641  1109
 9.2741  1096
 9.2841  1158
 9.2941  1209
 9.3041  1242
 9.3141  1284
 9.3241  1352
 9.3341  1390
 9.3441  1426
 9.3541  1431
 9.3641  1468
 9.3741  1548
 9.3841  1535
 9.3941  1515
 9.4041  1536
 9.4141  1544
 9.4241  1604
 9.4341  1639
 9.4441  1599
 9.4541  1599
 9.4641  1717
 9.4741  1727
 9.4841  1767
 9.4941  1823
 9.5041  1774
 9.5141  1850
 9.5241  1861
 9.5341  1924
 9.5441  2057
 9.5541  2237
 9.5641  2255
 9.5741  2337
 9.5841  2534
 9.5941  2663
 9.6041  2753
 9.6141  3014
 9.6241  3045
 9.6341  3156
 9.6441  3279
 9.6541  3380
 9.6641  3351
 9.6741  3365
 9.6841  3252
 9.6941  3150
 9.7041  3027
 9.7141  2875
 9.7241  2812
 9.7341  2596
 9.7441  2372
 9.7541  2283
 9.7641  2059
 9.7741  1936
 9.7841  1855
 9.7941  1655
 9.8041  1602
 9.8141  1499
 9.8241  1465
 9.8341  1440
 9.8441  1367
 9.8541  1347
 9.8641  1344
 9.8741  1345
 9.8841  1394
 9.8941  1437
 9.9041  1437
 9.9141  1457
 9.9241  1511
 9.9341  1524
 9.9441  1517
 9.9541  1507
 9.9641  1547
 9.9741  1491
 9.9841  1415
 9.9941  1361
10.0041  1240
10.0141  1220
10.0241  1045
10.0341   996
10.0441   890
10.0541   822
10.0641   750
10.0741   658
10.0841   622
10.0941   545
10.1041   494
10.1141   409
10.1241   406
10.1341   388
10.1441   352
10.1541   317
10.1641   310
10.1741   303
10.1841   289
10.1941   285
10.2041   253
10.2141   256
10.2241   247
10.2341   256
10.2441   249
10.2541   250
10.2641   236
10.2741   207
10.2841   202
10.2941   219
10.3041   218
10.3141   210
10.3241   193
10.3341   171
10.3441   183
10.3541   197
10.3641   192
10.3741   181
10.3841   193
10.3941   196
10.4041   200
10.4141   208
10.4241   208
10.4341   196
10.4441   209
10.4541   191
10.4641   217
10.4741   222
10.4841   213
10.4941   203
10.5041   202
10.5141   217
10.5241   234
10.5341   215
10.5441   214
10.5541   231
10.5641   231
10.5741   216
10.5841   222
10.5941   221
10.6041   211
10.6141   230
10.6241   231
10.6341   228
10.6441   212
10.6541   237
10.6641   257
10.6741   231
10.6841   231
10.6941   267
10.7041   249
10.7141   248
10.7241   255
10.7341   272
10.7441   265
10.7541   264
10.7641   277
10.7741   318
10.7841   313
10.7941   314
10.8041   302
10.8141   318
10.8241   292
10.8341   323
10.8441   344
10.8541   352
10.8641   331
10.8741   289
10.8841   308
10.8941   334
10.9041   335
10.9141   355
10.9241   332
10.9341   349
10.9441   361
10.9541   342
10.9641   344
10.9741   315
10.9841   307
10.9941   330
11.0041   299
11.0141   295
11.0241   327
11.0341   334
11.0441   316
11.0541   307
11.0641   294
11.0741   292
11.0841   308
11.0941   319
11.1041   311
11.1141   290
11.1241   305
11.1341   315
11.1441   345
11.1541   332
11.1641   352
11.1741   363
11.1841   362
11.1941   383
11.2041   402
11.2141   433
11.2241   449
11.2341   464
11.2441   481
11.2541   491
11.2641   510
11.2741   522
11.2841   504
11.2941   459
11.3041   494
11.3141   504
11.3241   461
11.3341   461
11.3441   426
11.3541   399
11.3641   384
11.3741   355
11.3841   340
11.3941   318
11.4041   303
11.4141   282
11.4241   287
11.4341   285
11.4441   284
11.4541   260
11.4641   256
11.4741   259
11.4841   250
11.4941   265
11.5041   244
11.5141   234
11.5241   246
11.5341   254
11.5441   264
11.5541   275
11.5641   268
11.5741   273
11.5841   277
11.5941   269
11.6041   265
11.6141   252
11.6241   258
11.6341   250
11.6441   254
11.6541   270
11.6641   276
11.6741   252
11.6841   238
11.6941   243
11.7041   244
11.7141   254
11.7241   246
11.7341   222
11.7441   219
11.7541   218
11.7641   219
11.7741   207
11.7841   179
11.7941   192
11.8041   180
11.8141   191
11.8241   183
11.8341   187
11.8441   197
11.8541   192
11.8641   184
11.8741   180
11.8841   191
11.8941   202
11.9041   188
11.9141   174
11.9241   194
11.9341   213
11.9441   211
11.9541   225
11.9641   218
11.9741   200
11.9841   212
11.9941   204
12.0041   199
12.0141   201
12.0241   193
12.0341   194
12.0441   203
12.0541   213
12.0641   197
12.0741   202
12.0841   212
12.0941   210
12.1041   194
12.1141   175
12.1241   195
12.1341   210
12.1441   194
12.1541   188
12.1641   177
12.1741   191
12.1841   196
12.1941   175
12.2041   179
12.2141   197
12.2241   203
12.2341   187
12.2441   173
12.2541   166
12.2641   174
12.2741   193
12.2841   199
12.2941   197
12.3041   187
12.3141   181
12.3241   193
12.3341   188
12.3441   179
12.3541   177
12.3641   194
12.3741   187
12.3841   199
12.3941   191
12.4041   187
12.4141   192
12.4241   207
12.4341   193
12.4441   184
12.4541   181
12.4641   177
12.4741   179
12.4841   197
12.4941   214
12.5041   199
12.5141   198
12.5241   203
12.5341   202
12.5441   197
12.5541   205
12.5641   197
12.5741   207
12.5841   212
12.5941   225
12.6041   225
12.6141   210
12.6241   208
12.6341   214
12.6441   213
12.6541   212
12.6641   210
12.6741   206
12.6841   212
12.6941   213
12.7041   204
12.7141   206
12.7241   214
12.7341   203
12.7441   195
12.7541   225
12.7641   235
12.7741   224
12.7841   213
12.7941   208
12.8041   219
12.8141   217
12.8241   212
12.8341   203
12.8441   227
12.8541   224
12.8641   208
12.8741   218
12.8841   228
12.8941   219
12.9041   223
12.9141   227
12.9241   241
12.9341   223
12.9441   211
12.9541   209
12.9641   211
12.9741   241
12.9841   242
12.9941   235
13.0041   221
13.0141   221
13.0241   235
13.0341   242
13.0441   228
13.0541   214
13.0641   231
13.0741   238
13.0841   238
13.0941   219
13.1041   218
13.1141   232
13.1241   237
13.1341   233
13.1441   232
13.1541   247
13.1641   244
13.1741   245
13.1841   248
13.1941   248
13.2041   238
13.2141   234
13.2241   260
13.2341   245
13.2441   250
13.2541   261
13.2641   246
13.2741   260
13.2841   273
13.2941   284
13.3041   304
13.3141   315
13.3241   321
13.3341   296
13.3441   289
13.3541   310
13.3641   313
13.3741   309
13.3841   320
13.3941   313
13.4041   320
13.4141   328
13.4241   311
13.4341   299
13.4441   297
13.4541   298
13.4641   297
13.4741   305
13.4841   304
13.4941   281
13.5041   269
13.5141   274
13.5241   296
13.5341   299
13.5441   268
13.5541   266
13.5641   281
13.5741   283
13.5841   270
13.5941   254
13.6041   262
13.6141   254
13.6241   260
13.6341   278
13.6441   287
13.6541   276
13.6641   264
13.6741   272
13.6841   283
13.6941   273
13.7041   275
13.7141   274
13.7241   275
13.7341   271
13.7441   272
13.7541   284
13.7641   285
13.7741   290
13.7841   286
13.7941   276
13.8041   274
13.8141   274
13.8241   269
13.8341   272
13.8441   281
13.8541   288
13.8641   288
13.8741   301
13.8841   309
13.8941   313
13.9041   325
13.9141   315
13.9241   320
13.9341   328
13.9441   325
13.9541   355
13.9641   372
13.9741   378
13.9841   395
13.9941   404
14.0041   429
14.0141   467
14.0241   486
14.0341   505
14.0441   547
14.0541   578
14.0641   599
14.0741   606
14.0841   641
14.0941   678
14.1041   693
14.1141   701
14.1241   733
14.1341   761
14.1441   747
14.1541   738
14.1641   734
14.1741   739
14.1841   694
14.1941   667
14.2041   661
14.2141   605
14.2241   583
14.2341   592
14.2441   575
14.2541   516
14.2641   479
14.2741   460
14.2841   428
14.2941   417
14.3041   398
14.3141   399
14.3241   387
14.3341   371
14.3441   363
14.3541   336
14.3641   327
14.3741   328
14.3841   314
14.3941   304
14.4041   313
14.4141   330
14.4241   316
14.4341   319
14.4441   327
14.4541   310
14.4641   310
14.4741   320
14.4841   321
14.4941   320
14.5041   338
14.5141   353
14.5241   335
14.5341   342
14.5441   330
14.5541   322
14.5641   348
14.5741   370
14.5841   382
14.5941   347
14.6041   323
14.6141   339
14.6241   336
14.6341   336
14.6441   355
14.6541   342
14.6641   352
14.6741   357
14.6841   368
14.6941   361
14.7041   329
14.7141   330
14.7241   345
14.7341   348
14.7441   338
14.7541   330
14.7641   351
14.7741   390
14.7841   400
14.7941   382
14.8041   359
14.8141   375
14.8241   393
14.8341   375
14.8441   361
14.8541   375
14.8641   388
14.8741   381
14.8841   380
14.8941   418
14.9041   418
14.9141   419
14.9241   399
14.9341   381
14.9441   389
14.9541   390
14.9641   396
14.9741   415
14.9841   404
14.9941   390
15.0041   391
15.0141   392
15.0241   387
15.0341   398
15.0441   413
15.0541   405
15.0641   403
15.0741   396
15.0841   384
15.0941   378
15.1041   387
15.1141   387
15.1241   376
15.1341   382
15.1441   400
15.1541   382
15.1641   379
15.1741   359
15.1841   357
15.1941   400
15.2041   398
15.2141   397
15.2241   374
15.2341   391
15.2441   408
15.2541   388
15.2641   390
15.2741   375
15.2841   385
15.2941   406
15.3041   419
15.3141   413
15.3241   405
15.3341   385
15.3441   386
15.3541   414
15.3641   400
15.3741   377
15.3841   392
15.3941   398
15.4041   392
15.4141   394
15.4241   406
15.4341   404
15.4441   382
15.4541   401
15.4641   416
15.4741   426
15.4841   433
15.4941   414
15.5041   420
15.5141   431
15.5241   453
15.5341   452
15.5441   452
15.5541   468
15.5641   462
15.5741   465
15.5841   486
15.5941   506
15.6041   499
15.6141   512
15.6241   542
15.6341   550
15.6441   578
15.6541   611
15.6641   628
15.6741   650
15.6841   666
15.6941   674
15.7041   711
15.7141   727
15.7241   750
15.7341   767
15.7441   741
15.7541   736
15.7641   768
15.7741   755
15.7841   766
15.7941   731
15.8041   729
15.8141   719
15.8241   704
15.8341   697
15.8441   665
15.8541   675
15.8641   643
15.8741   624
15.8841   595
15.8941   577
15.9041   565
15.9141   553
15.9241   557
15.9341   567
15.9441   525
15.9541   486
15.9641   484
15.9741   491
15.9841   482
15.9941   469
16.0041   469
16.0141   479
16.0241   486
16.0341   480
16.0441   490
16.0541   485
16.0641   480
16.0741   496
16.0841   476
16.0941   473
16.1041   471
16.1141   453
16.1241   453
16.1341   468
16.1441   482
16.1541   470
16.1641   476
16.1741   491
16.1841   479
16.1941   468
16.2041   460
16.2141   492
16.2241   497
16.2341   480
16.2441   479
16.2541   462
16.2641   466
16.2741   472
16.2841   489
16.2941   503
16.3041   474
16.3141   469
16.3241   481
16.3341   513
16.3441   501
16.3541   510
16.3641   504
16.3741   460
16.3841   472
16.3941   485
16.4041   478
16.4141   501
16.4241   493
16.4341   494
16.4441   510
16.4541   500
16.4641   513
16.4741   517
16.4841   501
16.4941   486
16.5041   500
16.5141   500
16.5241   493
16.5341   505
16.5441   512
16.5541   493
16.5641   516
16.5741   527
16.5841   500
16.5941   499
16.6041   537
16.6141   545
16.6241   509
16.6341   520
16.6441   535
16.6541   536
16.6641   541
16.6741   533
16.6841   535
16.6941   569
16.7041   524
16.7141   521
16.7241   512
16.7341   525
16.7441   511
16.7541   477
16.7641   511
16.7741   541
16.7841   520
16.7941   533
16.8041   543
16.8141   502
16.8241   482
16.8341   513
16.8441   500
16.8541   504
16.8641   526
16.8741   536
16.8841   572
16.8941   571
16.9041   536
16.9141   525
16.9241   514
16.9341   484
16.9441   493
16.9541   504
16.9641   520
16.9741   533
16.9841   543
16.9941   556
17.0041   559
17.0141   533
17.0241   543
17.0341   503
17.0441   545
17.0541   541
17.0641   540
17.0741   546
17.0841   543
17.0941   546
17.1041   534
17.1141   531
17.1241   544
17.1341   547
17.1441   535
17.1541   550
17.1641   551
17.1741   535
17.1841   553
17.1941   570
17.2041   527
17.2141   555
17.2241   570
17.2341   543
17.2441   567
17.2541   584
17.2641   564
17.2741   546
17.2841   559
17.2941   560
17.3041   565
17.3141   537
17.3241   562
17.3341   555
17.3441   549
17.3541   557
17.3641   568
17.3741   555
17.3841   574
17.3941   623
17.4041   577
17.4141   558
17.4241   564
17.4341   563
17.4441   558
17.4541   573
17.4641   576
17.4741   565
17.4841   630
17.4941   573
17.5041   590
17.5141   632
17.5241   617
17.5341   590
17.5441   612
17.5541   599
17.5641   598
17.5741   613
17.5841   605
17.5941   607
17.6041   607
17.6141   592
17.6241   646
17.6341   622
17.6441   634
17.6541   655
17.6641   606
17.6741   659
17.6841   600
17.6941   614
17.7041   634
17.7141   637
17.7241   616
17.7341   596
17.7441   631
17.7541   656
17.7641   667
17.7741   650
17.7841   603
17.7941   627
17.8041   613
17.8141   616
17.8241   665
17.8341   636
17.8441   583
17.8541   623
17.8641   660
17.8741   610
17.8841   614
17.8941   625
17.9041   629
17.9141   625
17.9241   627
17.9341   618
17.9441   620
17.9541   621
17.9641   649
17.9741   633
17.9841   647
17.9941   653
18.0041   578
18.0141   628
18.0241   619
18.0341   642
18.0441   627
18.0541   621
18.0641   611
18.0741   635
18.0841   644
18.0941   613
18.1041   606
18.1141   599
18.1241   651
18.1341   632
18.1441   643
18.1541   620
18.1641   624
18.1741   630
18.1841   643
18.1941   646
18.2041   623
18.2141   636
18.2241   635
18.2341   606
18.2441   625
18.2541   597
18.2641   594
18.2741   630
18.2841   666
18.2941   622
18.3041   613
18.3141   627
18.3241   630
18.3341   609
18.3441   630
18.3541   639
18.3641   600
18.3741   611
18.3841   667
18.3941   654
18.4041   612
18.4141   615
18.4241   624
18.4341   642
18.4441   625
18.4541   654
18.4641   619
18.4741   636
18.4841   664
18.4941   664
18.5041   636
18.5141   645
18.5241   665
18.5341   662
18.5441   646
18.5541   601
18.5641   638
18.5741   662
18.5841   646
18.5941   668
18.6041   664
18.6141   661
18.6241   680
18.6341   656
18.6441   661
18.6541   643
18.6641   671
18.6741   696
18.6841   669
18.6941   703
18.7041   694
18.7141   654
18.7241   617
18.7341   646
18.7441   658
18.7541   666
18.7641   672
18.7741   676
18.7841   652
18.7941   675
18.8041   643
18.8141   651
18.8241   675
18.8341   673
18.8441   666
18.8541   711
18.8641   671
18.8741   677
18.8841   666
18.8941   652
18.9041   665
18.9141   671
18.9241   695
18.9341   650
18.9441   651
18.9541   668
18.9641   668
18.9741   642
18.9841   651
18.9941   661
19.0041   682
19.0141   665
19.0241   693
19.0341   654
19.0441   661
19.0541   635
19.0641   680
19.0741   647
19.0841   678
19.0941   675
19.1041   695
19.1141   631
19.1241   631
19.1341   681
19.1441   714
19.1541   709
19.1641   646
19.1741   662
19.1841   667
19.1941   704
19.2041   639
19.2141   631
19.2241   673
19.2341   693
19.2441   663
19.2541   691
19.2641   684
19.2741   684
19.2841   660
19.2941   642
19.3041   682
19.3141   676
19.3241   676
19.3341   691
19.3441   679
19.3541   691
19.3641   696
19.3741   657
19.3841   688
19.3941   691
19.4041   713
19.4141   706
19.4241   679
19.4341   687
19.4441   685
19.4541   713
19.4641   706
19.4741   699
19.4841   675
19.4941   706
19.5041   701
19.5141   678
19.5241   681
19.5341   651
19.5441   686
19.5541   662
19.5641   666
19.5741   698
19.5841   679
19.5941   698
19.6041   692
19.6141   687
19.6241   678
19.6341   704
19.6441   716
19.6541   693
19.6641   721
19.6741   710
19.6841   653
19.6941   675
19.7041   687
19.7141   686
19.7241   711
19.7341   729
19.7441   702
19.7541   731
19.7641   721
19.7741   708
19.7841   668
19.7941   715
19.8041   699
19.8141   687
19.8241   648
19.8341   710
19.8441   709
19.8541   716
19.8641   688
19.8741   667
19.8841   716
19.8941   702
19.9041   712
19.9141   728
19.9241   719
19.9341   733
19.9441   713
19.9541   726
19.9641   707
19.9741   716
19.9841   714
19.9941   683
20.0041   692
20.0141   689
20.0241   717
20.0341   671
20.0441   661
20.0541   693
20.0641   745
20.0741   696
20.0841   689
20.0941   708
20.1041   723
20.1141   681
20.1241   683
20.1341   667
20.1441   642
20.1541   663
20.1641   673
20.1741   689
20.1841   673
20.1941   682
20.2041   688
20.2141   701
20.2241   656
20.2341   690
20.2441   723
20.2541   711
20.2641   707
20.2741   679
20.2841   749
20.2941   706
20.3041   683
20.3141   708
20.3241   634
20.3341   716
20.3441   724
20.3541   676
20.3641   702
20.3741   704
20.3841   731
20.3941   717
20.4041   701
20.4141   747
20.4241   698
20.4341   674
20.4441   673
20.4541   705
20.4641   721
20.4741   707
20.4841   693
20.4941   689
20.5041   674
20.5141   724
20.5241   743
20.5341   705
20.5441   694
20.5541   714
20.5641   728
20.5741   736
20.5841   714
20.5941   705
20.6041   690
20.6141   714
20.6241   710
20.6341   694
20.6441   688
20.6541   697
20.6641   710
20.6741   678
20.6841   723
20.6941   708
20.7041   694
20.7141   726
20.7241   704
20.7341   681
20.7441   686
20.7541   738
20.7641   726
20.7741   729
20.7841   755
20.7941   708
20.8041   761
20.8141   728
20.8241   726
20.8341   723
20.8441   762
20.8541   739
20.8641   742
20.8741   768
20.8841   755
20.8941   788
20.9041   791
20.9141   768
20.9241   783
20.9341   838
20.9441   880
20.9541   860
20.9641   855
20.9741   862
20.9841   932
20.9941   944
21.0041   936
21.0141   942
21.0241   969
21.0341   899
21.0441   956
21.0541   935
21.0641   999
21.0741   993
21.0841  1021
21.0941   994
21.1041  1040
21.1141   975
21.1241  1008
21.1341   989
21.1441  1035
21.1541   979
21.1641   956
21.1741  1018
21.1841   977
21.1941  1003
21.2041   956
21.2141   953
21.2241   918
21.2341   931
21.2441   922
21.2541   868
21.2641   902
21.2741   914
21.2841   803
21.2941   828
21.3041   870
21.3141   813
21.3241   817
21.3341   780
21.3441   802
21.3541   777
21.3641   709
21.3741   717
21.3841   784
21.3941   691
21.4041   723
21.4141   713
21.4241   749
21.4341   707
21.4441   737
21.4541   718
21.4641   722
21.4741   733
21.4841   678
21.4941   699
21.5041   706
21.5141   723
21.5241   716
21.5341   714
21.5441   683
21.5541   722
21.5641   673
21.5741   668
21.5841   711
21.5941   691
21.6041   723
21.6141   722
21.6241   716
21.6341   678
21.6441   712
21.6541   704
21.6641   662
21.6741   713
21.6841   789
21.6941   713
21.7041   712
21.7141   753
21.7241   710
21.7341   700
21.7441   711
21.7541   678
21.7641   733
21.7741   733
21.7841   717
21.7941   711
21.8041   679
21.8141   729
21.8241   733
21.8341   684
21.8441   685
21.8541   713
21.8641   731
21.8741   659
21.8841   707
21.8941   746
21.9041   743
21.9141   743
21.9241   729
21.9341   752
21.9441   738
21.9541   673
21.9641   708
21.9741   663
21.9841   666
21.9941   697
22.0041   690
22.0141   726
22.0241   689
22.0341   725
22.0441   660
22.0541   723
22.0641   686
22.0741   714
22.0841   699
22.0941   703
22.1041   678
22.1141   736
22.1241   680
22.1341   672
22.1441   676
22.1541   704
22.1641   665
22.1741   659
22.1841   707
22.1941   705
22.2041   698
22.2141   686
22.2241   696
22.2341   659
22.2441   657
22.2541   667
22.2641   700
22.2741   707
22.2841   702
22.2941   672
22.3041   679
22.3141   685
22.3241   696
22.3341   690
22.3441   683
22.3541   715
22.3641   679
22.3741   712
22.3841   680
22.3941   700
22.4041   699
22.4141   692
22.4241   695
22.4341   700
22.4441   663
22.4541   726
22.4641   731
22.4741   711
22.4841   691
22.4941   689
22.5041   642
22.5141   698
22.5241   687
22.5341   683
22.5441   633
22.5541   685
22.5641   693
22.5741   618
22.5841   743
22.5941   667
22.6041   689
22.6141   694
22.6241   678
22.6341   715
22.6441   730
22.6541   682
22.6641   685
22.6741   684
22.6841   741
22.6941   677
22.7041   643
22.7141   631
22.7241   693
22.7341   640
22.7441   711
22.7541   679
22.7641   711
22.7741   686
22.7841   688
22.7941   670
22.8041   679
22.8141   735
22.8241   687
22.8341   671
22.8441   668
22.8541   672
22.8641   642
22.8741   681
22.8841   654
22.8941   662
22.9041   676
22.9141   677
22.9241   710
22.9341   678
22.9441   690
22.9541   683
22.9641   700
22.9741   675
22.9841   640
22.9941   670
23.0041   667
23.0141   690
23.0241   629
23.0341   710
23.0441   632
23.0541   679
23.0641   607
23.0741   670
23.0841   667
23.0941   678
23.1041   636
23.1141   704
23.1241   651
23.1341   713
23.1441   696
23.1541   610
23.1641   647
23.1741   699
23.1841   675
23.1941   689
23.2041   673
23.2141   647
23.2241   651
23.2341   648
23.2441   658
23.2541   617
23.2641   614
23.2741   639
23.2841   630
23.2941   639
23.3041   644
23.3141   635
23.3241   617
23.3341   658
23.3441   685
23.3541   637
23.3641   687
23.3741   599
23.3841   574
23.3941   648
23.4041   671
23.4141   678
23.4241   653
23.4341   658
23.4441   642
23.4541   653
23.4641   628
23.4741   651
23.4841   640
23.4941   653
23.5041   664
23.5141   682
23.5241   647
23.5341   634
23.5441   649
23.5541   666
23.5641   650
23.5741   659
23.5841   645
23.5941   651
23.6041   671
23.6141   698
23.6241   702
23.6341   674
23.6441   678
23.6541   646
23.6641   651
23.6741   660
23.6841   665
23.6941   633
23.7041   699
23.7141   692
23.7241   657
23.7341   638
23.7441   663
23.7541   637
23.7641   678
23.7741   692
23.7841   699
23.7941   698
23.8041   700
23.8141   659
23.8241   664
23.8341   746
23.8441   678
23.8541   682
23.8641   641
23.8741   672
23.8841   666
23.8941   690
23.9041   704
23.9141   712
23.9241   662
23.9341   678
23.9441   703
23.9541   629
23.9641   653
23.9741   681
23.9841   630
23.9941   631
24.0041   671
24.0141   679
24.0241   639
24.0341   612
24.0441   653
24.0541   604
24.0641   623
24.0741   655
24.0841   621
24.0941   643
24.1041   652
24.1141   619
24.1241   605
24.1341   602
24.1441   607
24.1541   660
24.1641   649
24.1741   578
24.1841   604
24.1941   613
24.2041   615
24.2141   636
24.2241   661
24.2341   637
24.2441   654
24.2541   608
24.2641   640
24.2741   653
24.2841   660
24.2941   640
24.3041   573
24.3141   613
24.3241   586
24.3341   611
24.3441   590
24.3541   651
24.3641   654
24.3741   639
24.3841   631
24.3941   635
24.4041   651
24.4141   571
24.4241   622
24.4341   614
24.4441   601
24.4541   587
24.4641   611
24.4741   569
24.4841   620
24.4941   620
24.5041   610
24.5141   605
24.5241   589
24.5341   584
24.5441   642
24.5541   592
24.5641   610
24.5741   568
24.5841   629
24.5941   625
24.6041   608
24.6141   592
24.6241   587
24.6341   613
24.6441   618
24.6541   603
24.6641   625
24.6741   618
24.6841   581
24.6941   582
24.7041   590
24.7141   565
24.7241   593
24.7341   603
24.7441   600
24.7541   619
24.7641   566
24.7741   611
24.7841   553
24.7941   605
24.8041   572
24.8141   559
24.8241   578
24.8341   587
24.8441   624
24.8541   588
24.8641   583
24.8741   629
24.8841   570
24.8941   577
24.9041   570
24.9141   590
24.9241   613
24.9341   549
24.9441   569
24.9541   587
24.9641   592
24.9741   570
24.9841   607
24.9941   594
25.0041   527
25.0141   566
25.0241   569
25.0341   581
25.0441   562
25.0541   565
25.0641   576
25.0741   559
25.0841   601
25.0941   626
25.1041   582
25.1141   591
25.1241   605
25.1341   591
25.1441   673
25.1541   564
25.1641   553
25.1741   560
25.1841   574
25.1941   615
25.2041   604
25.2141   585
25.2241   606
25.2341   594
25.2441   568
25.2541   581
25.2641   576
25.2741   560
25.2841   560
25.2941   554
25.3041   571
25.3141   548
25.3241   578
25.3341   610
25.3441   577
25.3541   612
25.3641   623
25.3741   600
25.3841   576
25.3941   563
25.4041   604
25.4141   596
25.4241   555
25.4341   531
25.4441   590
25.4541   584
25.4641   568
25.4741   568
25.4841   592
25.4941   557
25.5041   573
25.5141   576
25.5241   535
25.5341   533
25.5441   562
25.5541   543
25.5641   517
25.5741   565
25.5841   568
25.5941   540
25.6041   551
25.6141   530
25.6241   541
25.6341   500
25.6441   476
25.6541   533
25.6641   548
25.6741   515
25.6841   517
25.6941   536
25.7041   558
25.7141   511
25.7241   564
25.7341   548
25.7441   503
25.7541   541
25.7641   547
25.7741   547
25.7841   550
25.7941   523
25.8041   551
25.8141   572
25.8241   571
25.8341   556
25.8441   551
25.8541   526
25.8641   516
25.8741   514
25.8841   494
25.8941   538
25.9041   561
25.9141   549
25.9241   535
25.9341   521
25.9441   496
25.9541   556
25.9641   575
25.9741   521
25.9841   516
25.9941   509
26.0041   519
26.0141   526
26.0241   547
26.0341   531
26.0441   483
26.0541   503
26.0641   519
26.0741   547
26.0841   483
26.0941   500
26.1041   520
26.1141   529
26.1241   516
26.1341   546
26.1441   559
26.1541   550
26.1641   530
26.1741   524
26.1841   508
26.1941   541
26.2041   534
26.2141   500
26.2241   515
26.2341   483
26.2441   503
26.2541   519
26.2641   525
26.2741   560
26.2841   520
26.2941   522
26.3041   516
26.3141   508
26.3241   518
26.3341   516
26.3441   531
26.3541   523
26.3641   508
26.3741   504
26.3841   486
26.3941   488
26.4041   501
26.4141   493
26.4241   500
26.4341   514
26.4441   467
26.4541   477
26.4641   489
26.4741   506
26.4841   512
26.4941   451
26.5041   506
26.5141   517
26.5241   520
26.5341   479
26.5441   479
26.5541   496
26.5641   480
26.5741   499
26.5841   464
26.5941   490
26.6041   451
26.6141   469
26.6241   479
26.6341   465
26.6441   443
26.6541   492
26.6641   493
26.6741   454
26.6841   477
26.6941   469
26.7041   489
26.7141   478
26.7241   476
26.7341   453
26.7441   494
26.7541   477
26.7641   490
26.7741   465
26.7841   467
26.7941   469
26.8041   490
26.8141   499
26.8241   490
26.8341   464
26.8441   443
26.8541   470
26.8641   466
26.8741   461
26.8841   470
26.8941   468
26.9041   493
26.9141   513
26.9241   444
26.9341   450
26.9441   452
26.9541   474
26.9641   436
26.9741   484
26.9841   476
26.9941   485
27.0041   485
27.0141   449
27.0241   468
27.0341   473
27.0441   493
27.0541   449
27.0641   501
27.0741   456
27.0841   498
27.0941   481
27.1041   466
27.1141   477
27.1241   495
27.1341   464
27.1441   449
27.1541   479
27.1641   469
27.1741   444
27.1841   435
27.1941   452
27.2041   458
27.2141   477
27.2241   475
27.2341   457
27.2441   457
27.2541   476
27.2641   459
27.2741   511
27.2841   497
27.2941   452
27.3041   480
27.3141   452
27.3241   476
27.3341   479
27.3441   445
27.3541   493
27.3641   465
27.3741   449
27.3841   440
27.3941   474
27.4041   450
27.4141   433
27.4241   440
27.4341   444
27.4441   460
27.4541   431
27.4641   470
27.4741   476
27.4841   474
27.4941   455
27.5041   444
27.5141   457
27.5241   452
27.5341   453
27.5441   448
27.5541   433
27.5641   389
27.5741   454
27.5841   421
27.5941   432
27.6041   482
27.6141   459
27.6241   432
27.6341   494
27.6441   430
27.6541   448
27.6641   453
27.6741   423
27.6841   433
27.6941   444
27.7041   433
27.7141   464
27.7241   440
27.7341   413
27.7441   399
27.7541   417
27.7641   432
27.7741   409
27.7841   430
27.7941   403
27.8041   468
27.8141   451
27.8241   407
27.8341   418
27.8441   437
27.8541   396
27.8641   417
27.8741   422
27.8841   382
27.8941   407
27.9041   425
27.9141   439
27.9241   420
27.9341   442
27.9441   409
27.9541   389
27.9641   430
27.9741   424
27.9841   410
27.9941   405
28.0041   443
28.0141   399
28.0241   398
28.0341   376
28.0441   394
28.0541   420
28.0641   423
28.0741   409
28.0841   430
28.0941   405
28.1041   383
28.1141   388
28.1241   414
28.1341   418
28.1441   394
28.1541   420
28.1641   414
28.1741   388
28.1841   403
28.1941   410
28.2041   439
28.2141   357
28.2241   428
28.2341   429
28.2441   429
28.2541   395
28.2641   406
28.2741   414
28.2841   395
28.2941   382
28.3041   406
28.3141   401
28.3241   375
28.3341   410
28.3441   412
28.3541   402
28.3641   440
28.3741   391
28.3841   427
28.3941   385
28.4041   423
28.4141   398
28.4241   370
28.4341   411
28.4441   395
28.4541   411
28.4641   399
28.4741   406
28.4841   379
28.4941   395
28.5041   418
28.5141   418
28.5241   398
28.5341   398
28.5441   410
28.5541   402
28.5641   408
28.5741   387
28.5841   370
28.5941   375
28.6041   374
28.6141   402
28.6241   393
28.6341   397
28.6441   399
28.6541   417
28.6641   405
28.6741   393
28.6841   366
28.6941   352
28.7041   361
28.7141   363
28.7241   402
28.7341   402
28.7441   398
28.7541   402
28.7641   364
28.7741   375
28.7841   346
28.7941   373
28.8041   364
28.8141   359
28.8241   348
28.8341   365
28.8441   378
28.8541   335
28.8641   354
28.8741   385
28.8841   398
28.8941   369
28.9041   384
28.9141   381
28.9241   391
28.9341   366
28.9441   370
28.9541   373
28.9641   340
28.9741   377
28.9841   388
28.9941   371
29.0041   373
29.0141   360
29.0241   323
29.0341   360
29.0441   374
29.0541   369
29.0641   343
29.0741   336
29.0841   355
29.0941   381
29.1041   365
29.1141   355
29.1241   386
29.1341   355
29.1441   355
29.1541   371
29.1641   385
29.1741   367
29.1841   366
29.1941   381
29.2041   358
29.2141   332
29.2241   348
29.2341   360
29.2441   367
29.2541   350
29.2641   360
29.2741   339
29.2841   334
29.2941   332
29.3041   350
29.3141   362
29.3241   344
29.3341   373
29.3441   347
29.3541   322
29.3641   352
29.3741   339
29.3841   334
29.3941   330
29.4041   346
29.4141   358
29.4241   351
29.4341   339
29.4441   313
29.4541   316
29.4641   329
29.4741   357
29.4841   328
29.4941   314
29.5041   370
29.5141   347
29.5241   348
29.5341   344
29.5441   342
29.5541   309
29.5641   345
29.5741   355
29.5841   346
29.5941   363
29.6041   321
29.6141   342
29.6241   330
29.6341   346
29.6441   310
29.6541   356
29.6641   315
29.6741   347
29.6841   335
29.6941   352
29.7041   315
29.7141   313
29.7241   354
29.7341   329
29.7441   345
29.7541   321
29.7641   298
29.7741   314
29.7841   346
29.7941   319
29.8041   341
29.8141   329
29.8241   329
29.8341   344
29.8441   330
29.8541   346
29.8641   330
29.8741   267
29.8841   330
29.8941   325
29.9041   322
29.9141   307
29.9241   327
29.9341   289
29.9441   332
29.9541   317
29.9641   336
29.9741   322
29.9841   301
29.9941   301
30.0041   277
30.0141   324
30.0241   292
30.0341   327
30.0441   325
30.0541   297
30.0641   325
30.0741   316
30.0841   299
30.0941   311
30.1041   276
30.1141   305
30.1241   294
30.1341   318
30.1441   339
30.1541   302
30.1641   293
30.1741   322
30.1841   321
30.1941   307
30.2041   290
30.2141   293
30.2241   291
30.2341   311
30.2441   318
30.2541   316
30.2641   329
30.2741   302
30.2841   281
30.2941   304
30.3041   266
30.3141   326
30.3241   326
30.3341   305
30.3441   322
30.3541   324
30.3641   308
30.3741   270
30.3841   291
30.3941   273
30.4041   309
30.4141   259
30.4241   289
30.4341   281
30.4441   318
30.4541   310
30.4641   294
30.4741   295
30.4841   293
30.4941   311
30.5041   298
30.5141   295
30.5241   272
30.5341   288
30.5441   287
30.5541   291
30.5641   264
30.5741   287
30.5841   315
30.5941   283
30.6041   287
30.6141   301
30.6241   275
30.6341   263
30.6441   273
30.6541   288
30.6641   273
30.6741   278
30.6841   279
30.6941   308
30.7041   279
30.7141   256
30.7241   298
30.7341   290
30.7441   285
30.7541   271
30.7641   272
30.7741   277
30.7841   274
30.7941   272
30.8041   272
30.8141   296
30.8241   306
30.8341   262
30.8441   281
30.8541   274
30.8641   275
30.8741   283
30.8841   269
30.8941   274
30.9041   271
30.9141   287
30.9241   301
30.9341   274
30.9441   290
30.9541   297
30.9641   267
30.9741   271
30.9841   260
30.9941   283
31.0041   266
31.0141   263
31.0241   239
31.0341   270
31.0441   290
31.0541   250
31.0641   249
31.0741   265
31.0841   285
31.0941   305
31.1041   253
31.1141   270
31.1241   297
31.1341   279
31.1441   257
31.1541   269
31.1641   287
31.1741   262
31.1841   251
31.1941   257
31.2041   236
31.2141   255
31.2241   267
31.2341   263
31.2441   280
31.2541   273
31.2641   252
31.2741   245
31.2841   264
31.2941   246
31.3041   263
31.3141   247
31.3241   241
31.3341   285
31.3441   241
31.3541   260
31.3641   223
31.3741   286
31.3841   258
31.3941   256
31.4041   251
31.4141   260
31.4241   281
31.4341   234
31.4441   263
31.4541   243
31.4641   231
31.4741   240
31.4841   255
31.4941   290
31.5041   243
31.5141   236
31.5241   265
31.5341   249
31.5441   247
31.5541   229
31.5641   231
31.5741   252
31.5841   251
31.5941   258
31.6041   249
31.6141   235
31.6241   230
31.6341   256
31.6441   282
31.6541   227
31.6641   227
31.6741   233
31.6841   229
31.6941   252
31.7041   279
31.7141   271
31.7241   234
31.7341   230
31.7441   250
31.7541   249
31.7641   264
31.7741   247
31.7841   259
31.7941   257
31.8041   266
31.8141   249
31.8241   241
31.8341   235
31.8441   250
31.8541   244
31.8641   223
31.8741   255
31.8841   241
31.8941   246
31.9041   234
31.9141   237
31.9241   226
31.9341   259
31.9441   250
31.9541   203
31.9641   229
31.9741   236
31.9841   223
31.9941   258
32.0041   221
32.0141   233
32.0241   227
32.0341   236
32.0441   204
32.0541   238
32.0641   212
32.0741   221
32.0841   248
32.0941   234
32.1041   207
32.1141   233
32.1241   214
32.1341   220
32.1441   238
32.1541   216
32.1641   212
32.1741   206
32.1841   233
32.1941   246
32.2041   260
32.2141   224
32.2241   215
32.2341   248
32.2441   217
32.2541   212
32.2641   241
32.2741   235
32.2841   256
32.2941   247
32.3041   210
32.3141   214
32.3241   222
32.3341   246
32.3441   228
32.3541   215
32.3641   221
32.3741   218
32.3841   221
32.3941   250
32.4041   212
32.4141   204
32.4241   202
32.4341   192
32.4441   214
32.4541   221
32.4641   225
32.4741   222
32.4841   214
32.4941   193
32.5041   204
32.5141   197
32.5241   210
32.5341   220
32.5441   196
32.5541   196
32.5641   201
32.5741   206
32.5841   201
32.5941   207
32.6041   223
32.6141   212
32.6241   222
32.6341   204
32.6441   186
32.6541   202
32.6641   182
32.6741   205
32.6841   185
32.6941   173
32.7041   201
32.7141   211
32.7241   193
32.7341   198
32.7441   219
32.7541   174
32.7641   210
32.7741   197
32.7841   201
32.7941   202
32.8041   179
32.8141   192
32.8241   213
32.8341   198
32.8441   193
32.8541   200
32.8641   187
32.8741   205
32.8841   192
32.8941   208
32.9041   187
32.9141   198
32.9241   200
32.9341   185
32.9441   190
32.9541   212
32.9641   218
32.9741   203
32.9841   200
32.9941   210
33.0041   195
33.0141   178
33.0241   164
33.0341   202
33.0441   187
33.0541   184
33.0641   174
33.0741   190
33.0841   194
33.0941   170
33.1041   203
33.1141   189
33.1241   196
33.1341   201
33.1441   192
33.1541   196
33.1641   180
33.1741   180
33.1841   177
33.1941   196
33.2041   163
33.2141   163
33.2241   189
33.2341   169
33.2441   162
33.2541   169
33.2641   187
33.2741   190
33.2841   188
33.2941   190
33.3041   198
33.3141   182
33.3241   174
33.3341   164
33.3441   196
33.3541   191
33.3641   179
33.3741   174
33.3841   181
33.3941   180
33.4041   172
33.4141   155
33.4241   170
33.4341   162
33.4441   196
33.4541   177
33.4641   208
33.4741   182
33.4841   185
33.4941   179
33.5041   181
33.5141   176
33.5241   187
33.5341   168
33.5441   162
33.5541   178
33.5641   202
33.5741   168
33.5841   171
33.5941   183
33.6041   172
33.6141   183
33.6241   160
33.6341   164
33.6441   177
33.6541   174
33.6641   171
33.6741   150
33.6841   201
33.6941   185
33.7041   178
33.7141   165
33.7241   165
33.7341   177
33.7441   166
33.7541   170
33.7641   163
33.7741   139
33.7841   167
33.7941   157
33.8041   157
33.8141   164
33.8241   167
33.8341   159
33.8441   156
33.8541   169
33.8641   162
33.8741   155
33.8841   177
33.8941   140
33.9041   155
33.9141   146
33.9241   173
33.9341   174
33.9441   141
33.9541   150
33.9641   159
33.9741   155
33.9841   180
33.9941   153
34.0041   178
34.0141   166
34.0241   158
34.0341   163
34.0441   170
34.0541   156
34.0641   141
34.0741   170
34.0841   142
34.0941   185
34.1041   133
34.1141   151
34.1241   159
34.1341   177
34.1441   149
34.1541   163
34.1641   148
34.1741   154
34.1841   155
34.1941   164
34.2041   168
34.2141   148
34.2241   162
34.2341   154
34.2441   174
34.2541   154
34.2641   173
34.2741   152
34.2841   155
34.2941   140
34.3041   149
34.3141   151
34.3241   156
34.3341   121
34.3441   156
34.3541   163
34.3641   139
34.3741   135
34.3841   128
34.3941   142
34.4041   143
34.4141   152
34.4241   175
34.4341   162
34.4441   137
34.4541   147
34.4641   153
34.4741   129
34.4841   158
34.4941   143
34.5041   150
34.5141   144
34.5241   148
34.5341   113
34.5441   140
34.5541   125
34.5641   147
34.5741   140
34.5841   125
34.5941   132
34.6041   146
34.6141   157
34.6241   158
34.6341   145
34.6441   148
34.6541   141
34.6641   141
34.6741   123
34.6841   131
34.6941   137
34.7041   149
34.7141   153
34.7241   137
34.7341   136
34.7441   135
34.7541   148
34.7641   142
34.7741   124
34.7841   150
34.7941   118
34.8041   148
34.8141   155
34.8241   143
34.8341   127
34.8441   130
34.8541   127
34.8641   136
34.8741   145
34.8841   130
34.8941   138
34.9041   140
34.9141   156
34.9241   120
34.9341   136
34.9441   135
34.9541   128
34.9641   140
34.9741   149
34.9841   129
34.9941   126
35.0041   135
35.0141   124
35.0241   137
35.0341   132
35.0441   113
35.0541   127
35.0641   125
35.0741   131
35.0841   135
35.0941   122
35.1041   128
35.1141   145
35.1241   113
35.1341   127
35.1441   135
35.1541   134
35.1641   117
35.1741   143
35.1841   142
35.1941   119
35.2041   119
35.2141   128
35.2241   121
35.2341   119
35.2441   118
35.2541   129
35.2641   116
35.2741   120
35.2841   125
35.2941   134
35.3041   117
35.3141   120
35.3241   115
35.3341   110
35.3441   115
35.3541   114
35.3641   136
35.3741   106
35.3841   101
35.3941   118
35.4041   106
35.4141   109
35.4241   116
35.4341   128
35.4441   120
35.4541   123
35.4641   135
35.4741   151
35.4841   120
35.4941   141
35.5041   130
35.5141   107
35.5241   123
35.5341   121
35.5441   116
35.5541   118
35.5641   113
35.5741   108
35.5841   101
35.5941    96
35.6041   109
35.6141   109
35.6241   114
35.6341   115
35.6441   133
35.6541    98
35.6641   112
35.6741   114
35.6841   118
35.6941   110
35.7041   123
35.7141   117
35.7241   112
35.7341   123
35.7441    97
35.7541   116
35.7641   124
35.7741   111
35.7841    97
35.7941   122
35.8041   117
35.8141   100
35.8241   108
35.8341   102
35.8441   102
35.8541   109
35.8641    97
35.8741   111
35.8841   115
35.8941   112
35.9041    99
35.9141   118
35.9241   117
35.9341   104
35.9441    96
35.9541   107
35.9641    97
35.9741   107
35.9841   119
35.9941   104
36.0041    83
36.0141   103
36.0241   105
36.0341    96
36.0441   105
36.0541   103
36.0641   102
36.0741   108
36.0841   104
36.0941   106
36.1041   101
36.1141    94
36.1241   108
36.1341   104
36.1441   105
36.1541   115
36.1641   113
36.1741   110
36.1841   108
36.1941    95
36.2041   103
36.2141   102
36.2241   126
36.2341    89
36.2441    90
36.2541   122
36.2641   107
36.2741   116
36.2841   119
36.2941   108
36.3041   114
36.3141    95
36.3241    90
36.3341   111
36.3441    90
36.3541   107
36.3641   102
36.3741    91
36.3841    91
36.3941    85
36.4041    94
36.4141    82
36.4241    95
36.4341    85
36.4441    86
36.4541   101
36.4641    88
36.4741    93
36.4841   106
36.4941    99
36.5041    92
36.5141    87
36.5241   107
36.5341   100
36.5441   100
36.5541    91
36.5641   103
36.5741    91
36.5841    84
36.5941    92
36.6041    96
36.6141    93
36.6241   108
36.6341    94
36.6441    96
36.6541    88
36.6641   112
36.6741    97
36.6841    85
36.6941    85
36.7041    88
36.7141    90
36.7241   100
36.7341    61
36.7441    80
36.7541    96
36.7641    83
36.7741    79
36.7841    79
36.7941    91
36.8041    93
36.8141    93
36.8241    92
36.8341    79
36.8441    79
36.8541    85
36.8641    78
36.8741    88
36.8841    82
36.8941    75
36.9041    71
36.9141    83
36.9241   102
36.9341    98
36.9441    74
36.9541    76
36.9641    95
36.9741   106
36.9841    97
36.9941    85
37.0041    86
37.0141    78
37.0241    85
37.0341    70
37.0441    87
37.0541    85
37.0641    81
37.0741    91
37.0841    72
37.0941    80
37.1041    78
37.1141    65
37.1241    89
37.1341    80
37.1441    77
37.1541    84
37.1641    87
37.1741    90
37.1841    88
37.1941    80
37.2041    73
37.2141    68
37.2241    82
37.2341    87
37.2441    81
37.2541    75
37.2641    81
37.2741    62
37.2841    66
37.2941    72
37.3041    79
37.3141    68
37.3241    77
37.3341    70
37.3441    85
37.3541    65
37.3641    71
37.3741    81
37.3841    82
37.3941    79
37.4041    87
37.4141    74
37.4241    74
37.4341    70
37.4441    75
37.4541    75
37.4641    85
37.4741    62
37.4841    79
37.4941    75
37.5041    78
37.5141    74
37.5241    70
37.5341    41
37.5441    69
37.5541    69
37.5641    66
37.5741    69
37.5841    71
37.5941    77
37.6041    83
37.6141    79
37.6241    80
37.6341    60
37.6441    51
37.6541    65
37.6641    69
37.6741    70
37.6841    80
37.6941    76
37.7041    96
37.7141    64
37.7241    75
37.7341    67
37.7441    74
37.7541    72
37.7641    63
37.7741    71
37.7841    68
37.7941    67
37.8041    71
37.8141    62
37.8241    69
37.8341    73
37.8441    69
37.8541    79
37.8641    65
37.8741    75
37.8841    76
37.8941    73
37.9041    60
37.9141    42
37.9241    61
37.9341    59
37.9441    71
37.9541    59
37.9641    75
37.9741    70
37.9841    61
37.9941    71
38.0041    69
38.0141    59
38.0241    69
38.0341    69
38.0441    63
38.0541    64
38.0641    69
38.0741    69
38.0841    62
38.0941    73
38.1041    64
38.1141    64
38.1241    63
38.1341    67
38.1441    59
38.1541    60
38.1641    64
38.1741    63
38.1841    58
38.1941    59
38.2041    68
38.2141    66
38.2241    60
38.2341    57
38.2441    50
38.2541    63
38.2641    66
38.2741    70
38.2841    53
38.2941    64
38.3041    54
38.3141    47
38.3241    59
38.3341    65
38.3441    52
38.3541    57
38.3641    70
38.3741    48
38.3841    59
38.3941    46
38.4041    66
38.4141    51
38.4241    64
38.4341    55
38.4441    61
38.4541    47
38.4641    55
38.4741    57
38.4841    53
38.4941    53
38.5041    59
38.5141    68
38.5241    58
38.5341    63
38.5441    54
38.5541    66
38.5641    57
38.5741    55
38.5841    50
38.5941    54
38.6041    57
38.6141    55
38.6241    52
38.6341    53
38.6441    57
38.6541    43
38.6641    66
38.6741    56
38.6841    54
38.6941    43
38.7041    63
38.7141    47
38.7241    64
38.7341    47
38.7441    49
38.7541    56
38.7641    48
38.7741    53
38.7841    50
38.7941    57
38.8041    58
38.8141    53
38.8241    49
38.8341    43
38.8441    55
38.8541    49
38.8641    44
38.8741    46
38.8841    47
38.8941    49
38.9041    65
38.9141    40
38.9241    47
38.9341    37
38.9441    46
38.9541    37
38.9641    49
38.9741    54
38.9841    47
38.9941    59
39.0041    59
39.0141    60
39.0241    45
39.0341    47
39.0441    40
39.0541    41
39.0641    49
39.0741    39
39.0841    44
39.0941    45
39.1041    46
39.1141    54
39.1241    52
39.1341    48
39.1441    40
39.1541    52
39.1641    44
39.1741    45
39.1841    34
39.1941    59
39.2041    45
39.2141    52
39.2241    37
39.2341    41
39.2441    38
39.2541    41
39.2641    52
39.2741    42
39.2841    39
39.2941    43
39.3041    55
39.3141    40
39.3241    51
39.3341    48
39.3441    38
39.3541    42
39.3641    42
39.3741    47
39.3841    42
39.3941    48
39.4041    39
39.4141    42
39.4241    43
39.4341    55
39.4441    45
39.4541    43
39.4641    38
39.4741    37
39.4841    34
39.4941    47
39.5041    46
39.5141    49
39.5241    34
39.5341    44
39.5441    58
39.5541    43
39.5641    43
39.5741    32
39.5841    33
39.5941    52
39.6041    44
39.6141    45
39.6241    28
39.6341    39
39.6441    30
39.6541    46
39.6641    27
39.6741    38
39.6841    42
39.6941    31
39.7041    42
39.7141    39
39.7241    35
39.7341    35
39.7441    40
39.7541    35
39.7641    35
39.7741    45
39.7841    37
39.7941    34
39.8041    47
39.8141    44
39.8241    36
39.8341    25
39.8441    37
39.8541    29
39.8641    40
39.8741    38
39.8841    29
39.8941    36
39.9041    42
39.9141    23
39.9241    35
39.9341    46
39.9441    27
39.9541    35
39.9641    30
39.9741    30
39.9841    45
39.9941    34
