Bruker Nano GmbH Berlin, Germany
Esprit 1.9

Date: 4/21/2021 2:20:59 PM
Real time: 29010
Life time: 27286
Pulse density: 84733


Detector type: XFlash 430
Window type: Custom type
Detector thickness: 0.45
Si dead layer:0.029

Calibration, lin.: 10
Calibration, abs.: -955.9
Mn FWHM: 137.05
Fano factor: 0.121
Channels: 4096

Energy Counts
-0.9559     0
-0.9459     0
-0.9359     0
-0.9259     0
-0.9159     0
-0.9059     0
-0.8959     0
-0.8859     0
-0.8759     0
-0.8659     0
-0.8559     0
-0.8459     0
-0.8359     0
-0.8259     0
-0.8159     0
-0.8059     0
-0.7959     0
-0.7859     0
-0.7759     0
-0.7659     0
-0.7559     0
-0.7459     0
-0.7359     0
-0.7259     0
-0.7159     0
-0.7059     0
-0.6959     0
-0.6859     0
-0.6759     0
-0.6659     0
-0.6559     0
-0.6459     0
-0.6359     0
-0.6259     0
-0.6159     0
-0.6059     0
-0.5959     0
-0.5859     0
-0.5759     0
-0.5659     0
-0.5559     0
-0.5459     0
-0.5359     0
-0.5259     0
-0.5159     0
-0.5059     0
-0.4959     0
-0.4859     0
-0.4759     0
-0.4659     0
-0.4559     0
-0.4459     0
-0.4359     0
-0.4259     0
-0.4159     0
-0.4059     0
-0.3959     0
-0.3859     0
-0.3759     0
-0.3659     0
-0.3559     0
-0.3459     0
-0.3359     0
-0.3259     0
-0.3159     0
-0.3059     0
-0.2959     0
-0.2859     0
-0.2759     0
-0.2659     0
-0.2559     0
-0.2459     0
-0.2359     0
-0.2259     0
-0.2159     0
-0.2059     0
-0.1959     0
-0.1859     0
-0.1759     0
-0.1659     0
-0.1559     0
-0.1459     0
-0.1359     0
-0.1259     3
-0.1159     3
-0.1059    17
-0.0959    81
-0.0859   310
-0.0759  1060
-0.0659  3174
-0.0559  7809
-0.0459 17521
-0.0359 32260
-0.0259 51852
-0.0159 71402
-0.0059 83525
 0.0041 83814
 0.0141 72736
 0.0241 53660
 0.0341 33695
 0.0441 18246
 0.0541  8676
 0.0641  3397
 0.0741  1193
 0.0841   358
 0.0941   104
 0.1041    27
 0.1141    15
 0.1241    12
 0.1341     6
 0.1441    12
 0.1541    10
 0.1641    10
 0.1741     4
 0.1841   254
 0.1941   521
 0.2041   445
 0.2141   444
 0.2241   478
 0.2341   486
 0.2441   452
 0.2541   442
 0.2641   491
 0.2741   490
 0.2841   464
 0.2941   465
 0.3041   467
 0.3141   451
 0.3241   453
 0.3341   428
 0.3441   460
 0.3541   427
 0.3641   429
 0.3741   433
 0.3841   431
 0.3941   431
 0.4041   427
 0.4141   428
 0.4241   406
 0.4341   411
 0.4441   415
 0.4541   404
 0.4641   391
 0.4741   422
 0.4841   403
 0.4941   415
 0.5041   418
 0.5141   419
 0.5241   418
 0.5341   388
 0.5441   389
 0.5541   422
 0.5641   433
 0.5741   393
 0.5841   358
 0.5941   358
 0.6041   379
 0.6141   355
 0.6241   344
 0.6341   360
 0.6441   377
 0.6541   376
 0.6641   391
 0.6741   382
 0.6841   361
 0.6941   372
 0.7041   373
 0.7141   374
 0.7241   359
 0.7341   345
 0.7441   361
 0.7541   351
 0.7641   335
 0.7741   353
 0.7841   354
 0.7941   335
 0.8041   349
 0.8141   363
 0.8241   345
 0.8341   372
 0.8441   345
 0.8541   334
 0.8641   346
 0.8741   325
 0.8841   324
 0.8941   319
 0.9041   331
 0.9141   334
 0.9241   313
 0.9341   325
 0.9441   323
 0.9541   312
 0.9641   306
 0.9741   301
 0.9841   311
 0.9941   324
 1.0041   317
 1.0141   308
 1.0241   328
 1.0341   299
 1.0441   300
 1.0541   309
 1.0641   311
 1.0741   307
 1.0841   304
 1.0941   306
 1.1041   294
 1.1141   298
 1.1241   273
 1.1341   313
 1.1441   298
 1.1541   311
 1.1641   328
 1.1741   292
 1.1841   302
 1.1941   300
 1.2041   283
 1.2141   276
 1.2241   284
 1.2341   258
 1.2441   275
 1.2541   283
 1.2641   316
 1.2741   302
 1.2841   298
 1.2941   298
 1.3041   295
 1.3141   294
 1.3241   314
 1.3341   264
 1.3441   311
 1.3541   292
 1.3641   254
 1.3741   273
 1.3841   293
 1.3941   291
 1.4041   299
 1.4141   290
 1.4241   277
 1.4341   251
 1.4441   310
 1.4541   277
 1.4641   274
 1.4741   254
 1.4841   284
 1.4941   284
 1.5041   295
 1.5141   303
 1.5241   284
 1.5341   274
 1.5441   265
 1.5541   278
 1.5641   279
 1.5741   280
 1.5841   292
 1.5941   263
 1.6041   277
 1.6141   259
 1.6241   250
 1.6341   263
 1.6441   314
 1.6541   340
 1.6641   363
 1.6741   454
 1.6841   553
 1.6941   590
 1.7041   774
 1.7141   811
 1.7241   956
 1.7341  1001
 1.7441   999
 1.7541   943
 1.7641   850
 1.7741   773
 1.7841   643
 1.7941   511
 1.8041   460
 1.8141   390
 1.8241   374
 1.8341   367
 1.8441   321
 1.8541   348
 1.8641   284
 1.8741   301
 1.8841   327
 1.8941   306
 1.9041   296
 1.9141   280
 1.9241   286
 1.9341   299
 1.9441   274
 1.9541   283
 1.9641   289
 1.9741   293
 1.9841   330
 1.9941   331
 2.0041   326
 2.0141   303
 2.0241   324
 2.0341   349
 2.0441   324
 2.0541   304
 2.0641   274
 2.0741   278
 2.0841   225
 2.0941   275
 2.1041   261
 2.1141   262
 2.1241   269
 2.1341   239
 2.1441   267
 2.1541   272
 2.1641   260
 2.1741   237
 2.1841   228
 2.1941   272
 2.2041   257
 2.2141   232
 2.2241   267
 2.2341   258
 2.2441   254
 2.2541   258
 2.2641   233
 2.2741   225
 2.2841   259
 2.2941   246
 2.3041   218
 2.3141   184
 2.3241   235
 2.3341   246
 2.3441   218
 2.3541   238
 2.3641   220
 2.3741   201
 2.3841   200
 2.3941   223
 2.4041   213
 2.4141   249
 2.4241   230
 2.4341   241
 2.4441   198
 2.4541   235
 2.4641   194
 2.4741   238
 2.4841   216
 2.4941   245
 2.5041   216
 2.5141   227
 2.5241   241
 2.5341   192
 2.5441   208
 2.5541   198
 2.5641   218
 2.5741   180
 2.5841   200
 2.5941   232
 2.6041   208
 2.6141   196
 2.6241   203
 2.6341   223
 2.6441   192
 2.6541   201
 2.6641   215
 2.6741   208
 2.6841   188
 2.6941   196
 2.7041   204
 2.7141   213
 2.7241   208
 2.7341   187
 2.7441   187
 2.7541   204
 2.7641   206
 2.7741   204
 2.7841   217
 2.7941   207
 2.8041   212
 2.8141   245
 2.8241   224
 2.8341   189
 2.8441   189
 2.8541   206
 2.8641   206
 2.8741   222
 2.8841   205
 2.8941   214
 2.9041   184
 2.9141   180
 2.9241   183
 2.9341   195
 2.9441   202
 2.9541   187
 2.9641   196
 2.9741   210
 2.9841   183
 2.9941   186
 3.0041   217
 3.0141   191
 3.0241   201
 3.0341   191
 3.0441   182
 3.0541   181
 3.0641   189
 3.0741   210
 3.0841   187
 3.0941   185
 3.1041   211
 3.1141   188
 3.1241   181
 3.1341   176
 3.1441   187
 3.1541   177
 3.1641   165
 3.1741   173
 3.1841   161
 3.1941   167
 3.2041   188
 3.2141   192
 3.2241   198
 3.2341   202
 3.2441   241
 3.2541   242
 3.2641   273
 3.2741   272
 3.2841   287
 3.2941   337
 3.3041   350
 3.3141   368
 3.3241   309
 3.3341   346
 3.3441   333
 3.3541   285
 3.3641   258
 3.3741   240
 3.3841   214
 3.3941   196
 3.4041   185
 3.4141   182
 3.4241   163
 3.4341   159
 3.4441   179
 3.4541   175
 3.4641   174
 3.4741   158
 3.4841   165
 3.4941   190
 3.5041   195
 3.5141   194
 3.5241   200
 3.5341   242
 3.5441   254
 3.5541   343
 3.5641   406
 3.5741   523
 3.5841   760
 3.5941   984
 3.6041  1348
 3.6141  1764
 3.6241  2273
 3.6341  2914
 3.6441  3647
 3.6541  4325
 3.6641  4818
 3.6741  5387
 3.6841  5494
 3.6941  5647
 3.7041  5358
 3.7141  4963
 3.7241  4425
 3.7341  3783
 3.7441  3204
 3.7541  2435
 3.7641  1929
 3.7741  1361
 3.7841   995
 3.7941   683
 3.8041   475
 3.8141   378
 3.8241   262
 3.8341   225
 3.8441   207
 3.8541   191
 3.8641   209
 3.8741   198
 3.8841   217
 3.8941   234
 3.9041   281
 3.9141   303
 3.9241   387
 3.9341   450
 3.9441   559
 3.9541   662
 3.9641   769
 3.9741   914
 3.9841  1009
 3.9941  1043
 4.0041  1171
 4.0141  1124
 4.0241  1138
 4.0341  1113
 4.0441   992
 4.0541   840
 4.0641   760
 4.0741   625
 4.0841   503
 4.0941   425
 4.1041   324
 4.1141   263
 4.1241   202
 4.1341   165
 4.1441   160
 4.1541   148
 4.1641   122
 4.1741   123
 4.1841   128
 4.1941   108
 4.2041    91
 4.2141   121
 4.2241   126
 4.2341    85
 4.2441   134
 4.2541   117
 4.2641   115
 4.2741   121
 4.2841   116
 4.2941   105
 4.3041   121
 4.3141    99
 4.3241   114
 4.3341   126
 4.3441   117
 4.3541   127
 4.3641   139
 4.3741   125
 4.3841   135
 4.3941   132
 4.4041   150
 4.4141   168
 4.4241   172
 4.4341   201
 4.4441   258
 4.4541   256
 4.4641   299
 4.4741   299
 4.4841   312
 4.4941   329
 4.5041   318
 4.5141   304
 4.5241   287
 4.5341   302
 4.5441   263
 4.5541   239
 4.5641   212
 4.5741   217
 4.5841   191
 4.5941   174
 4.6041   143
 4.6141   153
 4.6241   135
 4.6341   107
 4.6441   126
 4.6541   129
 4.6641   122
 4.6741   132
 4.6841   140
 4.6941   145
 4.7041   126
 4.7141   137
 4.7241   114
 4.7341   122
 4.7441   103
 4.7541   132
 4.7641   106
 4.7741   130
 4.7841   124
 4.7941   131
 4.8041   121
 4.8141   148
 4.8241   135
 4.8341   133
 4.8441   154
 4.8541   132
 4.8641   146
 4.8741   149
 4.8841   161
 4.8941   161
 4.9041   165
 4.9141   173
 4.9241   140
 4.9341   179
 4.9441   157
 4.9541   147
 4.9641   172
 4.9741   150
 4.9841   180
 4.9941   167
 5.0041   167
 5.0141   140
 5.0241   134
 5.0341   136
 5.0441   150
 5.0541   124
 5.0641   125
 5.0741   121
 5.0841   129
 5.0941   138
 5.1041   140
 5.1141   134
 5.1241   129
 5.1341   133
 5.1441   118
 5.1541   121
 5.1641   121
 5.1741   127
 5.1841   133
 5.1941   114
 5.2041   120
 5.2141   120
 5.2241   118
 5.2341    97
 5.2441   124
 5.2541   129
 5.2641   139
 5.2741   125
 5.2841   123
 5.2941   127
 5.3041   127
 5.3141   129
 5.3241   140
 5.3341   144
 5.3441   128
 5.3541   145
 5.3641   157
 5.3741   167
 5.3841   128
 5.3941   150
 5.4041   170
 5.4141   140
 5.4241   156
 5.4341   168
 5.4441   147
 5.4541   157
 5.4641   149
 5.4741   151
 5.4841   148
 5.4941   158
 5.5041   126
 5.5141   144
 5.5241   112
 5.5341   137
 5.5441   132
 5.5541   132
 5.5641   142
 5.5741   136
 5.5841   115
 5.5941   133
 5.6041   133
 5.6141   143
 5.6241   131
 5.6341   131
 5.6441   148
 5.6541   138
 5.6641   116
 5.6741   121
 5.6841   146
 5.6941   123
 5.7041   132
 5.7141   125
 5.7241   155
 5.7341   133
 5.7441   144
 5.7541   150
 5.7641   147
 5.7741   168
 5.7841   175
 5.7941   158
 5.8041   178
 5.8141   192
 5.8241   221
 5.8341   230
 5.8441   259
 5.8541   283
 5.8641   259
 5.8741   288
 5.8841   339
 5.8941   313
 5.9041   306
 5.9141   326
 5.9241   275
 5.9341   276
 5.9441   272
 5.9541   254
 5.9641   232
 5.9741   208
 5.9841   193
 5.9941   184
 6.0041   178
 6.0141   168
 6.0241   182
 6.0341   156
 6.0441   163
 6.0541   152
 6.0641   157
 6.0741   173
 6.0841   162
 6.0941   148
 6.1041   150
 6.1141   178
 6.1241   175
 6.1341   178
 6.1441   180
 6.1541   157
 6.1641   178
 6.1741   184
 6.1841   226
 6.1941   233
 6.2041   259
 6.2141   294
 6.2241   378
 6.2341   465
 6.2441   625
 6.2541   849
 6.2641  1083
 6.2741  1421
 6.2841  1926
 6.2941  2562
 6.3041  3295
 6.3141  4204
 6.3241  5148
 6.3341  6106
 6.3441  7152
 6.3541  8184
 6.3641  8948
 6.3741 10019
 6.3841 10633
 6.3941 10824
 6.4041 10655
 6.4141 10369
 6.4241  9986
 6.4341  9057
 6.4441  8004
 6.4541  7110
 6.4641  6066
 6.4741  5105
 6.4841  4037
 6.4941  3202
 6.5041  2463
 6.5141  1809
 6.5241  1347
 6.5341  1021
 6.5441   690
 6.5541   582
 6.5641   461
 6.5741   374
 6.5841   287
 6.5941   260
 6.6041   215
 6.6141   220
 6.6241   213
 6.6341   192
 6.6441   193
 6.6541   176
 6.6641   210
 6.6741   201
 6.6841   180
 6.6941   201
 6.7041   201
 6.7141   203
 6.7241   208
 6.7341   181
 6.7441   196
 6.7541   216
 6.7641   203
 6.7741   197
 6.7841   198
 6.7941   207
 6.8041   210
 6.8141   216
 6.8241   198
 6.8341   249
 6.8441   266
 6.8541   249
 6.8641   264
 6.8741   259
 6.8841   279
 6.8941   334
 6.9041   334
 6.9141   406
 6.9241   481
 6.9341   552
 6.9441   600
 6.9541   732
 6.9641   877
 6.9741   989
 6.9841  1171
 6.9941  1325
 7.0041  1554
 7.0141  1587
 7.0241  1801
 7.0341  1817
 7.0441  1886
 7.0541  2003
 7.0641  1919
 7.0741  1902
 7.0841  1792
 7.0941  1645
 7.1041  1492
 7.1141  1349
 7.1241  1118
 7.1341  1094
 7.1441   803
 7.1541   776
 7.1641   643
 7.1741   541
 7.1841   437
 7.1941   359
 7.2041   385
 7.2141   312
 7.2241   298
 7.2341   297
 7.2441   276
 7.2541   282
 7.2641   265
 7.2741   299
 7.2841   283
 7.2941   296
 7.3041   331
 7.3141   282
 7.3241   295
 7.3341   359
 7.3441   360
 7.3541   323
 7.3641   332
 7.3741   353
 7.3841   349
 7.3941   377
 7.4041   375
 7.4141   390
 7.4241   374
 7.4341   332
 7.4441   352
 7.4541   344
 7.4641   351
 7.4741   340
 7.4841   329
 7.4941   306
 7.5041   331
 7.5141   266
 7.5241   319
 7.5341   311
 7.5441   258
 7.5541   264
 7.5641   259
 7.5741   278
 7.5841   270
 7.5941   306
 7.6041   262
 7.6141   301
 7.6241   292
 7.6341   284
 7.6441   278
 7.6541   308
 7.6641   297
 7.6741   280
 7.6841   296
 7.6941   281
 7.7041   309
 7.7141   342
 7.7241   339
 7.7341   320
 7.7441   321
 7.7541   313
 7.7641   365
 7.7741   355
 7.7841   372
 7.7941   359
 7.8041   370
 7.8141   394
 7.8241   364
 7.8341   377
 7.8441   447
 7.8541   413
 7.8641   418
 7.8741   423
 7.8841   448
 7.8941   479
 7.9041   526
 7.9141   498
 7.9241   539
 7.9341   556
 7.9441   594
 7.9541   607
 7.9641   652
 7.9741   705
 7.9841   719
 7.9941   774
 8.0041   808
 8.0141   900
 8.0241   961
 8.0341  1056
 8.0441  1119
 8.0541  1101
 8.0641  1270
 8.0741  1301
 8.0841  1444
 8.0941  1512
 8.1041  1578
 8.1141  1634
 8.1241  1759
 8.1341  1818
 8.1441  1855
 8.1541  1843
 8.1641  1887
 8.1741  1983
 8.1841  1976
 8.1941  2056
 8.2041  2075
 8.2141  2081
 8.2241  2143
 8.2341  2138
 8.2441  2172
 8.2541  2250
 8.2641  2352
 8.2741  2422
 8.2841  2641
 8.2941  2788
 8.3041  3007
 8.3141  3207
 8.3241  3513
 8.3341  3772
 8.3441  4018
 8.3541  4151
 8.3641  4352
 8.3741  4460
 8.3841  4482
 8.3941  4506
 8.4041  4331
 8.4141  4209
 8.4241  4045
 8.4341  3680
 8.4441  3455
 8.4541  3032
 8.4641  2610
 8.4741  2369
 8.4841  2080
 8.4941  1745
 8.5041  1408
 8.5141  1193
 8.5241  1059
 8.5341   874
 8.5441   756
 8.5541   685
 8.5641   604
 8.5741   520
 8.5841   530
 8.5941   500
 8.6041   497
 8.6141   467
 8.6241   462
 8.6341   451
 8.6441   460
 8.6541   463
 8.6641   524
 8.6741   496
 8.6841   497
 8.6941   489
 8.7041   481
 8.7141   469
 8.7241   463
 8.7341   485
 8.7441   481
 8.7541   490
 8.7641   508
 8.7741   441
 8.7841   459
 8.7941   451
 8.8041   440
 8.8141   429
 8.8241   470
 8.8341   462
 8.8441   447
 8.8541   418
 8.8641   440
 8.8741   441
 8.8841   425
 8.8941   453
 8.9041   462
 8.9141   458
 8.9241   437
 8.9341   448
 8.9441   510
 8.9541   499
 8.9641   479
 8.9741   491
 8.9841   489
 8.9941   478
 9.0041   524
 9.0141   562
 9.0241   552
 9.0341   550
 9.0441   563
 9.0541   593
 9.0641   614
 9.0741   612
 9.0841   648
 9.0941   653
 9.1041   658
 9.1141   721
 9.1241   735
 9.1341   755
 9.1441   772
 9.1541   848
 9.1641   836
 9.1741   883
 9.1841   961
 9.1941   964
 9.2041  1005
 9.2141  1047
 9.2241  1098
 9.2341  1200
 9.2441  1218
 9.2541  1262
 9.2641  1298
 9.2741  1374
 9.2841  1478
 9.2941  1516
 9.3041  1535
 9.3141  1689
 9.3241  1670
 9.3341  1756
 9.3441  1888
 9.3541  1815
 9.3641  1876
 9.3741  1890
 9.3841  1951
 9.3941  1963
 9.4041  1980
 9.4141  2082
 9.4241  2020
 9.4341  2147
 9.4441  2189
 9.4541  2154
 9.4641  2180
 9.4741  2264
 9.4841  2277
 9.4941  2332
 9.5041  2340
 9.5141  2458
 9.5241  2490
 9.5341  2628
 9.5441  2718
 9.5541  2740
 9.5641  2904
 9.5741  3097
 9.5841  3228
 9.5941  3439
 9.6041  3637
 9.6141  3843
 9.6241  3885
 9.6341  4020
 9.6441  4158
 9.6541  4319
 9.6641  4363
 9.6741  4285
 9.6841  4214
 9.6941  4153
 9.7041  4006
 9.7141  3752
 9.7241  3545
 9.7341  3346
 9.7441  3145
 9.7541  2927
 9.7641  2690
 9.7741  2512
 9.7841  2316
 9.7941  2146
 9.8041  2047
 9.8141  1959
 9.8241  1849
 9.8341  1788
 9.8441  1799
 9.8541  1813
 9.8641  1859
 9.8741  1819
 9.8841  1807
 9.8941  1947
 9.9041  2019
 9.9141  1977
 9.9241  2015
 9.9341  2104
 9.9441  2072
 9.9541  2104
 9.9641  2060
 9.9741  1991
 9.9841  1929
 9.9941  1825
10.0041  1709
10.0141  1623
10.0241  1498
10.0341  1357
10.0441  1278
10.0541  1115
10.0641   990
10.0741   913
10.0841   824
10.0941   749
10.1041   670
10.1141   627
10.1241   541
10.1341   523
10.1441   500
10.1541   446
10.1641   414
10.1741   400
10.1841   358
10.1941   363
10.2041   361
10.2141   341
10.2241   342
10.2341   322
10.2441   308
10.2541   307
10.2641   326
10.2741   278
10.2841   286
10.2941   288
10.3041   269
10.3141   267
10.3241   266
10.3341   267
10.3441   282
10.3541   279
10.3641   255
10.3741   249
10.3841   260
10.3941   261
10.4041   268
10.4141   275
10.4241   272
10.4341   271
10.4441   275
10.4541   286
10.4641   288
10.4741   292
10.4841   297
10.4941   262
10.5041   275
10.5141   260
10.5241   262
10.5341   269
10.5441   299
10.5541   289
10.5641   302
10.5741   290
10.5841   304
10.5941   291
10.6041   285
10.6141   297
10.6241   297
10.6341   301
10.6441   284
10.6541   302
10.6641   309
10.6741   309
10.6841   327
10.6941   312
10.7041   312
10.7141   322
10.7241   320
10.7341   336
10.7441   361
10.7541   382
10.7641   386
10.7741   381
10.7841   379
10.7941   384
10.8041   390
10.8141   443
10.8241   419
10.8341   398
10.8441   395
10.8541   396
10.8641   421
10.8741   431
10.8841   448
10.8941   453
10.9041   436
10.9141   446
10.9241   438
10.9341   430
10.9441   445
10.9541   452
10.9641   462
10.9741   452
10.9841   416
10.9941   428
11.0041   424
11.0141   416
11.0241   426
11.0341   412
11.0441   415
11.0541   407
11.0641   409
11.0741   407
11.0841   406
11.0941   412
11.1041   410
11.1141   402
11.1241   382
11.1341   396
11.1441   423
11.1541   430
11.1641   459
11.1741   481
11.1841   481
11.1941   506
11.2041   537
11.2141   563
11.2241   587
11.2341   572
11.2441   606
11.2541   665
11.2641   662
11.2741   658
11.2841   652
11.2941   624
11.3041   634
11.3141   645
11.3241   627
11.3341   598
11.3441   526
11.3541   523
11.3641   520
11.3741   490
11.3841   452
11.3941   430
11.4041   411
11.4141   368
11.4241   377
11.4341   362
11.4441   330
11.4541   323
11.4641   318
11.4741   301
11.4841   278
11.4941   299
11.5041   325
11.5141   316
11.5241   312
11.5341   310
11.5441   300
11.5541   321
11.5641   317
11.5741   329
11.5841   329
11.5941   339
11.6041   349
11.6141   332
11.6241   348
11.6341   354
11.6441   337
11.6541   347
11.6641   349
11.6741   340
11.6841   331
11.6941   317
11.7041   298
11.7141   289
11.7241   305
11.7341   319
11.7441   317
11.7541   290
11.7641   271
11.7741   272
11.7841   268
11.7941   231
11.8041   228
11.8141   231
11.8241   226
11.8341   226
11.8441   217
11.8541   229
11.8641   241
11.8741   240
11.8841   235
11.8941   242
11.9041   259
11.9141   242
11.9241   245
11.9341   238
11.9441   234
11.9541   238
11.9641   235
11.9741   234
11.9841   248
11.9941   252
12.0041   253
12.0141   260
12.0241   261
12.0341   246
12.0441   238
12.0541   211
12.0641   235
12.0741   260
12.0841   228
12.0941   234
12.1041   253
12.1141   241
12.1241   253
12.1341   256
12.1441   222
12.1541   233
12.1641   241
12.1741   238
12.1841   238
12.1941   232
12.2041   226
12.2141   237
12.2241   255
12.2341   227
12.2441   213
12.2541   213
12.2641   214
12.2741   236
12.2841   249
12.2941   240
12.3041   237
12.3141   227
12.3241   211
12.3341   232
12.3441   230
12.3541   229
12.3641   252
12.3741   225
12.3841   221
12.3941   220
12.4041   204
12.4141   217
12.4241   229
12.4341   218
12.4441   236
12.4541   224
12.4641   215
12.4741   230
12.4841   234
12.4941   242
12.5041   242
12.5141   248
12.5241   242
12.5341   246
12.5441   245
12.5541   234
12.5641   261
12.5741   257
12.5841   253
12.5941   263
12.6041   265
12.6141   265
12.6241   260
12.6341   263
12.6441   264
12.6541   262
12.6641   249
12.6741   240
12.6841   265
12.6941   265
12.7041   256
12.7141   245
12.7241   251
12.7341   256
12.7441   258
12.7541   256
12.7641   241
12.7741   225
12.7841   246
12.7941   261
12.8041   261
12.8141   258
12.8241   241
12.8341   260
12.8441   261
12.8541   239
12.8641   246
12.8741   259
12.8841   255
12.8941   245
12.9041   250
12.9141   260
12.9241   266
12.9341   263
12.9441   264
12.9541   255
12.9641   258
12.9741   268
12.9841   270
12.9941   275
13.0041   261
13.0141   271
13.0241   266
13.0341   265
13.0441   272
13.0541   271
13.0641   266
13.0741   277
13.0841   274
13.0941   271
13.1041   294
13.1141   307
13.1241   305
13.1341   295
13.1441   279
13.1541   296
13.1641   304
13.1741   302
13.1841   306
13.1941   305
13.2041   306
13.2141   293
13.2241   317
13.2341   327
13.2441   343
13.2541   359
13.2641   361
13.2741   368
13.2841   395
13.2941   424
13.3041   419
13.3141   443
13.3241   450
13.3341   455
13.3441   489
13.3541   501
13.3641   517
13.3741   530
13.3841   523
13.3941   516
13.4041   527
13.4141   485
13.4241   447
13.4341   457
13.4441   450
13.4541   434
13.4641   416
13.4741   402
13.4841   402
13.4941   400
13.5041   389
13.5141   376
13.5241   345
13.5341   351
13.5441   368
13.5541   353
13.5641   322
13.5741   298
13.5841   305
13.5941   326
13.6041   321
13.6141   309
13.6241   319
13.6341   335
13.6441   340
13.6541   347
13.6641   334
13.6741   326
13.6841   336
13.6941   321
13.7041   316
13.7141   326
13.7241   320
13.7341   320
13.7441   313
13.7541   310
13.7641   325
13.7741   318
13.7841   306
13.7941   315
13.8041   320
13.8141   330
13.8241   336
13.8341   328
13.8441   337
13.8541   339
13.8641   335
13.8741   352
13.8841   343
13.8941   327
13.9041   338
13.9141   351
13.9241   354
13.9341   347
13.9441   372
13.9541   383
13.9641   348
13.9741   390
13.9841   435
13.9941   415
14.0041   441
14.0141   475
14.0241   470
14.0341   495
14.0441   533
14.0541   548
14.0641   575
14.0741   588
14.0841   586
14.0941   601
14.1041   639
14.1141   670
14.1241   671
14.1341   661
14.1441   666
14.1541   690
14.1641   682
14.1741   665
14.1841   661
14.1941   648
14.2041   636
14.2141   625
14.2241   605
14.2341   571
14.2441   550
14.2541   522
14.2641   499
14.2741   494
14.2841   476
14.2941   457
14.3041   424
14.3141   392
14.3241   397
14.3341   401
14.3441   371
14.3541   362
14.3641   389
14.3741   378
14.3841   372
14.3941   367
14.4041   377
14.4141   383
14.4241   356
14.4341   360
14.4441   361
14.4541   361
14.4641   369
14.4741   347
14.4841   372
14.4941   384
14.5041   358
14.5141   384
14.5241   398
14.5341   383
14.5441   376
14.5541   380
14.5641   351
14.5741   363
14.5841   391
14.5941   398
14.6041   420
14.6141   388
14.6241   383
14.6341   385
14.6441   398
14.6541   404
14.6641   390
14.6741   394
14.6841   386
14.6941   375
14.7041   392
14.7141   408
14.7241   423
14.7341   415
14.7441   391
14.7541   386
14.7641   405
14.7741   404
14.7841   396
14.7941   413
14.8041   429
14.8141   425
14.8241   434
14.8341   456
14.8441   442
14.8541   439
14.8641   452
14.8741   438
14.8841   461
14.8941   469
14.9041   444
14.9141   450
14.9241   460
14.9341   466
14.9441   467
14.9541   463
14.9641   463
14.9741   490
14.9841   495
14.9941   460
15.0041   458
15.0141   470
15.0241   482
15.0341   453
15.0441   424
15.0541   430
15.0641   450
15.0741   453
15.0841   437
15.0941   423
15.1041   428
15.1141   427
15.1241   422
15.1341   424
15.1441   450
15.1541   431
15.1641   427
15.1741   443
15.1841   439
15.1941   432
15.2041   425
15.2141   417
15.2241   436
15.2341   443
15.2441   416
15.2541   428
15.2641   442
15.2741   419
15.2841   421
15.2941   429
15.3041   435
15.3141   422
15.3241   433
15.3341   452
15.3441   461
15.3541   433
15.3641   411
15.3741   435
15.3841   420
15.3941   440
15.4041   448
15.4141   437
15.4241   450
15.4341   452
15.4441   462
15.4541   448
15.4641   448
15.4741   462
15.4841   432
15.4941   448
15.5041   464
15.5141   462
15.5241   465
15.5341   494
15.5441   500
15.5541   498
15.5641   499
15.5741   551
15.5841   582
15.5941   584
15.6041   595
15.6141   605
15.6241   640
15.6341   685
15.6441   702
15.6541   702
15.6641   739
15.6741   779
15.6841   788
15.6941   805
15.7041   851
15.7141   841
15.7241   841
15.7341   884
15.7441   902
15.7541   899
15.7641   871
15.7741   888
15.7841   889
15.7941   846
15.8041   846
15.8141   840
15.8241   817
15.8341   784
15.8441   740
15.8541   751
15.8641   725
15.8741   701
15.8841   692
15.8941   682
15.9041   625
15.9141   639
15.9241   642
15.9341   590
15.9441   569
15.9541   543
15.9641   531
15.9741   509
15.9841   500
15.9941   525
16.0041   544
16.0141   530
16.0241   518
16.0341   534
16.0441   531
16.0541   505
16.0641   498
16.0741   510
16.0841   499
16.0941   496
16.1041   532
16.1141   524
16.1241   527
16.1341   505
16.1441   502
16.1541   516
16.1641   514
16.1741   506
16.1841   468
16.1941   503
16.2041   509
16.2141   488
16.2241   475
16.2341   488
16.2441   520
16.2541   518
16.2641   530
16.2741   547
16.2841   512
16.2941   521
16.3041   521
16.3141   516
16.3241   537
16.3341   515
16.3441   527
16.3541   548
16.3641   537
16.3741   524
16.3841   517
16.3941   540
16.4041   534
16.4141   540
16.4241   541
16.4341   527
16.4441   545
16.4541   520
16.4641   516
16.4741   536
16.4841   543
16.4941   521
16.5041   540
16.5141   550
16.5241   536
16.5341   543
16.5441   569
16.5541   530
16.5641   518
16.5741   513
16.5841   530
16.5941   566
16.6041   581
16.6141   569
16.6241   554
16.6341   560
16.6441   553
16.6541   538
16.6641   545
16.6741   545
16.6841   553
16.6941   584
16.7041   568
16.7141   569
16.7241   561
16.7341   556
16.7441   558
16.7541   533
16.7641   556
16.7741   597
16.7841   598
16.7941   594
16.8041   551
16.8141   547
16.8241   584
16.8341   574
16.8441   579
16.8541   580
16.8641   570
16.8741   585
16.8841   543
16.8941   535
16.9041   562
16.9141   570
16.9241   571
16.9341   566
16.9441   592
16.9541   567
16.9641   601
16.9741   562
16.9841   550
16.9941   578
17.0041   590
17.0141   600
17.0241   601
17.0341   617
17.0441   601
17.0541   574
17.0641   595
17.0741   601
17.0841   580
17.0941   581
17.1041   607
17.1141   606
17.1241   596
17.1341   612
17.1441   617
17.1541   618
17.1641   602
17.1741   616
17.1841   631
17.1941   607
17.2041   589
17.2141   608
17.2241   599
17.2341   628
17.2441   617
17.2541   624
17.2641   639
17.2741   637
17.2841   604
17.2941   610
17.3041   635
17.3141   641
17.3241   608
17.3341   583
17.3441   633
17.3541   635
17.3641   604
17.3741   585
17.3841   618
17.3941   631
17.4041   662
17.4141   633
17.4241   626
17.4341   635
17.4441   647
17.4541   619
17.4641   630
17.4741   642
17.4841   627
17.4941   640
17.5041   686
17.5141   695
17.5241   673
17.5341   675
17.5441   652
17.5541   697
17.5641   676
17.5741   675
17.5841   706
17.5941   676
17.6041   681
17.6141   686
17.6241   734
17.6341   725
17.6441   713
17.6541   671
17.6641   728
17.6741   731
17.6841   730
17.6941   743
17.7041   712
17.7141   681
17.7241   698
17.7341   680
17.7441   661
17.7541   701
17.7641   714
17.7741   726
17.7841   698
17.7941   680
17.8041   701
17.8141   688
17.8241   697
17.8341   715
17.8441   699
17.8541   705
17.8641   675
17.8741   678
17.8841   681
17.8941   666
17.9041   666
17.9141   662
17.9241   677
17.9341   715
17.9441   729
17.9541   676
17.9641   685
17.9741   667
17.9841   700
17.9941   702
18.0041   674
18.0141   692
18.0241   690
18.0341   701
18.0441   729
18.0541   699
18.0641   687
18.0741   696
18.0841   695
18.0941   680
18.1041   703
18.1141   710
18.1241   692
18.1341   709
18.1441   718
18.1541   667
18.1641   680
18.1741   721
18.1841   737
18.1941   686
18.2041   664
18.2141   698
18.2241   702
18.2341   736
18.2441   737
18.2541   721
18.2641   706
18.2741   671
18.2841   680
18.2941   684
18.3041   720
18.3141   713
18.3241   670
18.3341   687
18.3441   689
18.3541   703
18.3641   731
18.3741   742
18.3841   721
18.3941   731
18.4041   756
18.4141   760
18.4241   713
18.4341   708
18.4441   725
18.4541   705
18.4641   706
18.4741   717
18.4841   742
18.4941   733
18.5041   725
18.5141   704
18.5241   704
18.5341   763
18.5441   768
18.5541   728
18.5641   739
18.5741   724
18.5841   742
18.5941   679
18.6041   671
18.6141   686
18.6241   734
18.6341   710
18.6441   748
18.6541   762
18.6641   742
18.6741   754
18.6841   758
18.6941   742
18.7041   769
18.7141   785
18.7241   751
18.7341   720
18.7441   752
18.7541   752
18.7641   753
18.7741   714
18.7841   720
18.7941   731
18.8041   745
18.8141   785
18.8241   748
18.8341   744
18.8441   732
18.8541   717
18.8641   763
18.8741   757
18.8841   754
18.8941   762
18.9041   781
18.9141   788
18.9241   780
18.9341   776
18.9441   790
18.9541   770
18.9641   750
18.9741   771
18.9841   762
18.9941   768
19.0041   760
19.0141   753
19.0241   782
19.0341   773
19.0441   745
19.0541   795
19.0641   718
19.0741   752
19.0841   782
19.0941   753
19.1041   768
19.1141   766
19.1241   781
19.1341   768
19.1441   793
19.1541   778
19.1641   761
19.1741   775
19.1841   786
19.1941   768
19.2041   817
19.2141   759
19.2241   828
19.2341   792
19.2441   792
19.2541   788
19.2641   816
19.2741   807
19.2841   775
19.2941   756
19.3041   809
19.3141   798
19.3241   837
19.3341   785
19.3441   809
19.3541   813
19.3641   827
19.3741   795
19.3841   784
19.3941   764
19.4041   795
19.4141   815
19.4241   813
19.4341   804
19.4441   801
19.4541   787
19.4641   775
19.4741   765
19.4841   783
19.4941   773
19.5041   771
19.5141   801
19.5241   814
19.5341   742
19.5441   788
19.5541   826
19.5641   780
19.5741   808
19.5841   777
19.5941   801
19.6041   833
19.6141   793
19.6241   865
19.6341   820
19.6441   834
19.6541   813
19.6641   766
19.6741   790
19.6841   816
19.6941   819
19.7041   810
19.7141   809
19.7241   804
19.7341   799
19.7441   833
19.7541   807
19.7641   813
19.7741   778
19.7841   765
19.7941   820
19.8041   814
19.8141   790
19.8241   798
19.8341   826
19.8441   859
19.8541   875
19.8641   827
19.8741   795
19.8841   788
19.8941   829
19.9041   754
19.9141   743
19.9241   805
19.9341   827
19.9441   791
19.9541   841
19.9641   809
19.9741   794
19.9841   803
19.9941   817
20.0041   820
20.0141   879
20.0241   871
20.0341   852
20.0441   815
20.0541   829
20.0641   828
20.0741   803
20.0841   835
20.0941   870
20.1041   845
20.1141   830
20.1241   822
20.1341   835
20.1441   883
20.1541   854
20.1641   802
20.1741   874
20.1841   818
20.1941   836
20.2041   845
20.2141   810
20.2241   832
20.2341   828
20.2441   811
20.2541   843
20.2641   822
20.2741   824
20.2841   824
20.2941   808
20.3041   847
20.3141   833
20.3241   841
20.3341   881
20.3441   850
20.3541   853
20.3641   872
20.3741   841
20.3841   841
20.3941   828
20.4041   823
20.4141   856
20.4241   882
20.4341   811
20.4441   845
20.4541   897
20.4641   875
20.4741   881
20.4841   890
20.4941   856
20.5041   855
20.5141   814
20.5241   838
20.5341   893
20.5441   888
20.5541   794
20.5641   863
20.5741   862
20.5841   881
20.5941   879
20.6041   862
20.6141   840
20.6241   929
20.6341   899
20.6441   853
20.6541   844
20.6641   860
20.6741   865
20.6841   819
20.6941   881
20.7041   885
20.7141   870
20.7241   864
20.7341   830
20.7441   838
20.7541   810
20.7641   883
20.7741   888
20.7841   808
20.7941   897
20.8041   876
20.8141   907
20.8241   888
20.8341   911
20.8441   847
20.8541   923
20.8641   920
20.8741   924
20.8841   916
20.8941   977
20.9041   981
20.9141  1043
20.9241  1035
20.9341  1043
20.9441  1100
20.9541  1088
20.9641  1146
20.9741  1106
20.9841  1140
20.9941  1123
21.0041  1170
21.0141  1190
21.0241  1177
21.0341  1170
21.0441  1239
21.0541  1245
21.0641  1294
21.0741  1243
21.0841  1291
21.0941  1276
21.1041  1342
21.1141  1360
21.1241  1290
21.1341  1341
21.1441  1282
21.1541  1347
21.1641  1388
21.1741  1309
21.1841  1222
21.1941  1261
21.2041  1288
21.2141  1168
21.2241  1217
21.2341  1182
21.2441  1223
21.2541  1229
21.2641  1124
21.2741  1122
21.2841  1101
21.2941  1100
21.3041  1032
21.3141  1016
21.3241  1001
21.3341   974
21.3441  1019
21.3541   971
21.3641   954
21.3741   942
21.3841   901
21.3941   889
21.4041   909
21.4141   922
21.4241   885
21.4341   912
21.4441   897
21.4541   885
21.4641   886
21.4741   902
21.4841   949
21.4941   907
21.5041   916
21.5141   909
21.5241   846
21.5341   874
21.5441   880
21.5541   899
21.5641   872
21.5741   916
21.5841   916
21.5941   896
21.6041   820
21.6141   859
21.6241   848
21.6341   854
21.6441   913
21.6541   935
21.6641   825
21.6741   879
21.6841   870
21.6941   850
21.7041   886
21.7141   863
21.7241   881
21.7341   865
21.7441   828
21.7541   866
21.7641   889
21.7741   895
21.7841   849
21.7941   879
21.8041   795
21.8141   841
21.8241   919
21.8341   891
21.8441   904
21.8541   835
21.8641   863
21.8741   904
21.8841   861
21.8941   888
21.9041   882
21.9141   868
21.9241   886
21.9341   868
21.9441   828
21.9541   910
21.9641   889
21.9741   875
21.9841   854
21.9941   890
22.0041   872
22.0141   919
22.0241   874
22.0341   859
22.0441   877
22.0541   892
22.0641   882
22.0741   893
22.0841   869
22.0941   847
22.1041   903
22.1141   817
22.1241   869
22.1341   887
22.1441   869
22.1541   870
22.1641   838
22.1741   888
22.1841   869
22.1941   870
22.2041   836
22.2141   865
22.2241   914
22.2341   857
22.2441   910
22.2541   936
22.2641   848
22.2741   817
22.2841   862
22.2941   849
22.3041   846
22.3141   882
22.3241   877
22.3341   881
22.3441   811
22.3541   835
22.3641   831
22.3741   880
22.3841   877
22.3941   957
22.4041   852
22.4141   872
22.4241   849
22.4341   846
22.4441   856
22.4541   913
22.4641   913
22.4741   879
22.4841   875
22.4941   872
22.5041   892
22.5141   862
22.5241   880
22.5341   892
22.5441   890
22.5541   896
22.5641   890
22.5741   863
22.5841   906
22.5941   888
22.6041   856
22.6141   843
22.6241   845
22.6341   916
22.6441   872
22.6541   845
22.6641   882
22.6741   876
22.6841   910
22.6941   889
22.7041   856
22.7141   843
22.7241   854
22.7341   887
22.7441   914
22.7541   866
22.7641   874
22.7741   904
22.7841   866
22.7941   867
22.8041   874
22.8141   881
22.8241   890
22.8341   839
22.8441   896
22.8541   891
22.8641   936
22.8741   889
22.8841   882
22.8941   823
22.9041   862
22.9141   872
22.9241   832
22.9341   810
22.9441   835
22.9541   865
22.9641   873
22.9741   865
22.9841   843
22.9941   857
23.0041   905
23.0141   889
23.0241   902
23.0341   857
23.0441   868
23.0541   907
23.0641   853
23.0741   841
23.0841   830
23.0941   870
23.1041   818
23.1141   895
23.1241   870
23.1341   892
23.1441   864
23.1541   851
23.1641   841
23.1741   879
23.1841   841
23.1941   854
23.2041   854
23.2141   857
23.2241   850
23.2341   848
23.2441   832
23.2541   917
23.2641   872
23.2741   822
23.2841   826
23.2941   855
23.3041   824
23.3141   864
23.3241   876
23.3341   878
23.3441   837
23.3541   879
23.3641   857
23.3741   818
23.3841   861
23.3941   871
23.4041   817
23.4141   869
23.4241   849
23.4341   838
23.4441   880
23.4541   875
23.4641   892
23.4741   842
23.4841   839
23.4941   876
23.5041   865
23.5141   869
23.5241   806
23.5341   867
23.5441   876
23.5541   848
23.5641   847
23.5741   864
23.5841   855
23.5941   856
23.6041   869
23.6141   866
23.6241   857
23.6341   829
23.6441   848
23.6541   907
23.6641   858
23.6741   873
23.6841   903
23.6941   867
23.7041   879
23.7141   922
23.7241   972
23.7341   919
23.7441   893
23.7541   933
23.7641   928
23.7741   955
23.7841   939
23.7941   912
23.8041   879
23.8141   960
23.8241   880
23.8341   881
23.8441   930
23.8541   881
23.8641   912
23.8741   890
23.8841   925
23.8941   932
23.9041   908
23.9141   904
23.9241   901
23.9341   878
23.9441   857
23.9541   839
23.9641   829
23.9741   889
23.9841   885
23.9941   829
24.0041   875
24.0141   872
24.0241   894
24.0341   830
24.0441   833
24.0541   839
24.0641   763
24.0741   794
24.0841   813
24.0941   873
24.1041   868
24.1141   817
24.1241   850
24.1341   850
24.1441   824
24.1541   907
24.1641   830
24.1741   835
24.1841   804
24.1941   838
24.2041   858
24.2141   848
24.2241   880
24.2341   854
24.2441   848
24.2541   855
24.2641   831
24.2741   820
24.2841   862
24.2941   867
24.3041   873
24.3141   804
24.3241   829
24.3341   858
24.3441   845
24.3541   857
24.3641   815
24.3741   846
24.3841   773
24.3941   833
24.4041   840
24.4141   827
24.4241   792
24.4341   853
24.4441   803
24.4541   814
24.4641   857
24.4741   844
24.4841   799
24.4941   793
24.5041   809
24.5141   846
24.5241   816
24.5341   820
24.5441   824
24.5541   784
24.5641   807
24.5741   799
24.5841   822
24.5941   823
24.6041   773
24.6141   827
24.6241   791
24.6341   787
24.6441   751
24.6541   780
24.6641   795
24.6741   801
24.6841   840
24.6941   799
24.7041   775
24.7141   803
24.7241   838
24.7341   813
24.7441   775
24.7541   817
24.7641   794
24.7741   782
24.7841   796
24.7941   790
24.8041   821
24.8141   794
24.8241   772
24.8341   781
24.8441   772
24.8541   833
24.8641   795
24.8741   824
24.8841   760
24.8941   752
24.9041   777
24.9141   811
24.9241   791
24.9341   842
24.9441   759
24.9541   801
24.9641   776
24.9741   766
24.9841   792
24.9941   789
25.0041   823
25.0141   803
25.0241   826
25.0341   810
25.0441   811
25.0541   801
25.0641   760
25.0741   835
25.0841   795
25.0941   780
25.1041   760
25.1141   756
25.1241   825
25.1341   797
25.1441   768
25.1541   797
25.1641   804
25.1741   784
25.1841   793
25.1941   757
25.2041   798
25.2141   788
25.2241   774
25.2341   790
25.2441   787
25.2541   809
25.2641   822
25.2741   798
25.2841   788
25.2941   768
25.3041   781
25.3141   797
25.3241   826
25.3341   754
25.3441   804
25.3541   796
25.3641   837
25.3741   796
25.3841   798
25.3941   803
25.4041   809
25.4141   790
25.4241   782
25.4341   727
25.4441   791
25.4541   767
25.4641   752
25.4741   753
25.4841   763
25.4941   802
25.5041   751
25.5141   742
25.5241   779
25.5341   744
25.5441   740
25.5541   732
25.5641   736
25.5741   732
25.5841   783
25.5941   739
25.6041   711
25.6141   729
25.6241   739
25.6341   743
25.6441   785
25.6541   780
25.6641   720
25.6741   729
25.6841   774
25.6941   753
25.7041   732
25.7141   699
25.7241   768
25.7341   751
25.7441   764
25.7541   754
25.7641   719
25.7741   732
25.7841   713
25.7941   709
25.8041   730
25.8141   746
25.8241   711
25.8341   754
25.8441   757
25.8541   722
25.8641   757
25.8741   725
25.8841   733
25.8941   699
25.9041   711
25.9141   724
25.9241   733
25.9341   764
25.9441   730
25.9541   743
25.9641   753
25.9741   715
25.9841   735
25.9941   719
26.0041   753
26.0141   742
26.0241   754
26.0341   740
26.0441   725
26.0541   767
26.0641   732
26.0741   770
26.0841   767
26.0941   748
26.1041   760
26.1141   757
26.1241   725
26.1341   702
26.1441   715
26.1541   739
26.1641   752
26.1741   692
26.1841   753
26.1941   757
26.2041   706
26.2141   718
26.2241   698
26.2341   701
26.2441   738
26.2541   702
26.2641   721
26.2741   726
26.2841   716
26.2941   727
26.3041   697
26.3141   727
26.3241   697
26.3341   712
26.3441   697
26.3541   708
26.3641   697
26.3741   697
26.3841   751
26.3941   730
26.4041   688
26.4141   675
26.4241   710
26.4341   740
26.4441   662
26.4541   727
26.4641   659
26.4741   664
26.4841   692
26.4941   690
26.5041   669
26.5141   686
26.5241   694
26.5341   682
26.5441   723
26.5541   704
26.5641   702
26.5741   692
26.5841   675
26.5941   704
26.6041   718
26.6141   730
26.6241   682
26.6341   706
26.6441   671
26.6541   718
26.6641   694
26.6741   686
26.6841   692
26.6941   710
26.7041   689
26.7141   683
26.7241   691
26.7341   692
26.7441   683
26.7541   689
26.7641   686
26.7741   618
26.7841   669
26.7941   668
26.8041   663
26.8141   634
26.8241   676
26.8341   665
26.8441   631
26.8541   665
26.8641   723
26.8741   696
26.8841   685
26.8941   632
26.9041   640
26.9141   649
26.9241   647
26.9341   618
26.9441   694
26.9541   702
26.9641   623
26.9741   652
26.9841   654
26.9941   665
27.0041   637
27.0141   666
27.0241   636
27.0341   655
27.0441   652
27.0541   679
27.0641   712
27.0741   682
27.0841   667
27.0941   629
27.1041   629
27.1141   678
27.1241   671
27.1341   674
27.1441   637
27.1541   671
27.1641   662
27.1741   626
27.1841   626
27.1941   643
27.2041   640
27.2141   690
27.2241   682
27.2341   613
27.2441   666
27.2541   676
27.2641   683
27.2741   657
27.2841   669
27.2941   653
27.3041   649
27.3141   624
27.3241   645
27.3341   640
27.3441   638
27.3541   689
27.3641   695
27.3741   678
27.3841   605
27.3941   633
27.4041   650
27.4141   672
27.4241   625
27.4341   654
27.4441   666
27.4541   639
27.4641   638
27.4741   657
27.4841   648
27.4941   629
27.5041   631
27.5141   679
27.5241   631
27.5341   608
27.5441   626
27.5541   628
27.5641   632
27.5741   628
27.5841   648
27.5941   640
27.6041   599
27.6141   637
27.6241   631
27.6341   638
27.6441   614
27.6541   598
27.6641   606
27.6741   616
27.6841   574
27.6941   648
27.7041   615
27.7141   620
27.7241   581
27.7341   604
27.7441   651
27.7541   613
27.7641   607
27.7741   607
27.7841   588
27.7941   615
27.8041   608
27.8141   570
27.8241   634
27.8341   581
27.8441   617
27.8541   660
27.8641   612
27.8741   579
27.8841   623
27.8941   601
27.9041   628
27.9141   615
27.9241   601
27.9341   566
27.9441   593
27.9541   567
27.9641   642
27.9741   608
27.9841   622
27.9941   573
28.0041   582
28.0141   596
28.0241   566
28.0341   591
28.0441   567
28.0541   575
28.0641   573
28.0741   554
28.0841   581
28.0941   595
28.1041   624
28.1141   591
28.1241   614
28.1341   631
28.1441   577
28.1541   579
28.1641   583
28.1741   593
28.1841   561
28.1941   568
28.2041   563
28.2141   569
28.2241   562
28.2341   563
28.2441   587
28.2541   566
28.2641   545
28.2741   546
28.2841   619
28.2941   560
28.3041   532
28.3141   582
28.3241   599
28.3341   585
28.3441   579
28.3541   585
28.3641   604
28.3741   557
28.3841   550
28.3941   570
28.4041   580
28.4141   549
28.4241   605
28.4341   546
28.4441   586
28.4541   563
28.4641   554
28.4741   588
28.4841   596
28.4941   566
28.5041   559
28.5141   580
28.5241   566
28.5341   547
28.5441   561
28.5541   563
28.5641   559
28.5741   591
28.5841   534
28.5941   545
28.6041   569
28.6141   528
28.6241   561
28.6341   561
28.6441   597
28.6541   547
28.6641   542
28.6741   543
28.6841   539
28.6941   537
28.7041   546
28.7141   512
28.7241   516
28.7341   505
28.7441   524
28.7541   572
28.7641   535
28.7741   550
28.7841   597
28.7941   584
28.8041   592
28.8141   529
28.8241   553
28.8341   542
28.8441   505
28.8541   519
28.8641   504
28.8741   530
28.8841   540
28.8941   510
28.9041   518
28.9141   509
28.9241   505
28.9341   544
28.9441   530
28.9541   523
28.9641   526
28.9741   555
28.9841   537
28.9941   532
29.0041   538
29.0141   545
29.0241   534
29.0341   507
29.0441   540
29.0541   531
29.0641   497
29.0741   505
29.0841   538
29.0941   505
29.1041   495
29.1141   539
29.1241   540
29.1341   512
29.1441   528
29.1541   515
29.1641   502
29.1741   533
29.1841   529
29.1941   520
29.2041   522
29.2141   516
29.2241   467
29.2341   523
29.2441   528
29.2541   492
29.2641   511
29.2741   503
29.2841   532
29.2941   521
29.3041   502
29.3141   509
29.3241   458
29.3341   544
29.3441   497
29.3541   514
29.3641   527
29.3741   523
29.3841   457
29.3941   500
29.4041   499
29.4141   495
29.4241   506
29.4341   500
29.4441   484
29.4541   489
29.4641   517
29.4741   503
29.4841   471
29.4941   461
29.5041   455
29.5141   467
29.5241   501
29.5341   515
29.5441   483
29.5541   490
29.5641   501
29.5741   479
29.5841   495
29.5941   507
29.6041   453
29.6141   507
29.6241   469
29.6341   461
29.6441   493
29.6541   496
29.6641   479
29.6741   498
29.6841   468
29.6941   485
29.7041   484
29.7141   473
29.7241   480
29.7341   486
29.7441   465
29.7541   459
29.7641   469
29.7741   421
29.7841   494
29.7941   480
29.8041   492
29.8141   470
29.8241   487
29.8341   469
29.8441   492
29.8541   485
29.8641   487
29.8741   438
29.8841   431
29.8941   473
29.9041   465
29.9141   452
29.9241   512
29.9341   460
29.9441   514
29.9541   463
29.9641   492
29.9741   456
29.9841   471
29.9941   468
30.0041   484
30.0141   471
30.0241   483
30.0341   445
30.0441   438
30.0541   457
30.0641   487
30.0741   468
30.0841   492
30.0941   499
30.1041   447
30.1141   449
30.1241   424
30.1341   428
30.1441   447
30.1541   430
30.1641   422
30.1741   465
30.1841   432
30.1941   448
30.2041   489
30.2141   448
30.2241   484
30.2341   462
30.2441   419
30.2541   434
30.2641   445
30.2741   448
30.2841   417
30.2941   413
30.3041   456
30.3141   425
30.3241   443
30.3341   427
30.3441   432
30.3541   459
30.3641   463
30.3741   450
30.3841   450
30.3941   420
30.4041   434
30.4141   412
30.4241   422
30.4341   424
30.4441   438
30.4541   414
30.4641   431
30.4741   424
30.4841   425
30.4941   415
30.5041   414
30.5141   411
30.5241   474
30.5341   440
30.5441   451
30.5541   404
30.5641   406
30.5741   409
30.5841   427
30.5941   424
30.6041   427
30.6141   446
30.6241   452
30.6341   427
30.6441   422
30.6541   422
30.6641   443
30.6741   434
30.6841   465
30.6941   426
30.7041   433
30.7141   446
30.7241   416
30.7341   411
30.7441   426
30.7541   452
30.7641   463
30.7741   424
30.7841   476
30.7941   443
30.8041   423
30.8141   440
30.8241   423
30.8341   428
30.8441   388
30.8541   413
30.8641   415
30.8741   423
30.8841   413
30.8941   439
30.9041   407
30.9141   435
30.9241   373
30.9341   376
30.9441   421
30.9541   409
30.9641   398
30.9741   415
30.9841   385
30.9941   367
31.0041   431
31.0141   411
31.0241   402
31.0341   357
31.0441   411
31.0541   401
31.0641   384
31.0741   395
31.0841   383
31.0941   371
31.1041   390
31.1141   384
31.1241   357
31.1341   386
31.1441   359
31.1541   421
31.1641   365
31.1741   426
31.1841   397
31.1941   378
31.2041   375
31.2141   408
31.2241   412
31.2341   393
31.2441   420
31.2541   386
31.2641   377
31.2741   380
31.2841   379
31.2941   377
31.3041   375
31.3141   375
31.3241   354
31.3341   385
31.3441   389
31.3541   392
31.3641   390
31.3741   374
31.3841   356
31.3941   364
31.4041   360
31.4141   387
31.4241   360
31.4341   360
31.4441   370
31.4541   391
31.4641   365
31.4741   385
31.4841   386
31.4941   410
31.5041   358
31.5141   366
31.5241   372
31.5341   382
31.5441   396
31.5541   401
31.5641   372
31.5741   378
31.5841   383
31.5941   429
31.6041   390
31.6141   350
31.6241   368
31.6341   389
31.6441   369
31.6541   381
31.6641   351
31.6741   362
31.6841   368
31.6941   387
31.7041   376
31.7141   376
31.7241   359
31.7341   343
31.7441   362
31.7541   390
31.7641   375
31.7741   416
31.7841   369
31.7941   369
31.8041   369
31.8141   403
31.8241   388
31.8341   365
31.8441   346
31.8541   362
31.8641   382
31.8741   375
31.8841   344
31.8941   353
31.9041   336
31.9141   339
31.9241   364
31.9341   380
31.9441   345
31.9541   359
31.9641   374
31.9741   397
31.9841   355
31.9941   367
32.0041   374
32.0141   354
32.0241   364
32.0341   374
32.0441   343
32.0541   357
32.0641   354
32.0741   336
32.0841   361
32.0941   359
32.1041   355
32.1141   343
32.1241   352
32.1341   340
32.1441   353
32.1541   367
32.1641   382
32.1741   401
32.1841   367
32.1941   373
32.2041   364
32.2141   320
32.2241   314
32.2341   359
32.2441   356
32.2541   364
32.2641   344
32.2741   314
32.2841   325
32.2941   367
32.3041   338
32.3141   360
32.3241   338
32.3341   336
32.3441   320
32.3541   345
32.3641   343
32.3741   351
32.3841   343
32.3941   353
32.4041   337
32.4141   311
32.4241   325
32.4341   324
32.4441   372
32.4541   318
32.4641   305
32.4741   333
32.4841   303
32.4941   322
32.5041   322
32.5141   324
32.5241   332
32.5341   332
32.5441   331
32.5541   307
32.5641   297
32.5741   346
32.5841   312
32.5941   311
32.6041   321
32.6141   312
32.6241   321
32.6341   340
32.6441   311
32.6541   345
32.6641   301
32.6741   325
32.6841   317
32.6941   293
32.7041   297
32.7141   305
32.7241   279
32.7341   318
32.7441   302
32.7541   319
32.7641   285
32.7741   299
32.7841   298
32.7941   302
32.8041   297
32.8141   304
32.8241   287
32.8341   312
32.8441   289
32.8541   298
32.8641   301
32.8741   303
32.8841   312
32.8941   308
32.9041   283
32.9141   299
32.9241   301
32.9341   276
32.9441   292
32.9541   292
32.9641   286
32.9741   296
32.9841   292
32.9941   301
33.0041   328
33.0141   314
33.0241   297
33.0341   282
33.0441   308
33.0541   286
33.0641   316
33.0741   278
33.0841   280
33.0941   294
33.1041   300
33.1141   267
33.1241   275
33.1341   264
33.1441   304
33.1541   272
33.1641   295
33.1741   275
33.1841   281
33.1941   284
33.2041   267
33.2141   308
33.2241   306
33.2341   278
33.2441   283
33.2541   262
33.2641   284
33.2741   272
33.2841   274
33.2941   264
33.3041   259
33.3141   232
33.3241   276
33.3341   290
33.3441   272
33.3541   270
33.3641   287
33.3741   269
33.3841   278
33.3941   269
33.4041   270
33.4141   287
33.4241   302
33.4341   279
33.4441   292
33.4541   275
33.4641   288
33.4741   277
33.4841   274
33.4941   290
33.5041   275
33.5141   260
33.5241   264
33.5341   264
33.5441   276
33.5541   228
33.5641   271
33.5741   248
33.5841   270
33.5941   273
33.6041   239
33.6141   268
33.6241   250
33.6341   270
33.6441   275
33.6541   252
33.6641   264
33.6741   274
33.6841   260
33.6941   258
33.7041   272
33.7141   250
33.7241   244
33.7341   252
33.7441   263
33.7541   259
33.7641   264
33.7741   230
33.7841   211
33.7941   273
33.8041   252
33.8141   286
33.8241   259
33.8341   256
33.8441   247
33.8541   253
33.8641   242
33.8741   236
33.8841   242
33.8941   239
33.9041   249
33.9141   259
33.9241   240
33.9341   222
33.9441   249
33.9541   247
33.9641   233
33.9741   259
33.9841   244
33.9941   250
34.0041   256
34.0141   248
34.0241   239
34.0341   265
34.0441   229
34.0541   258
34.0641   217
34.0741   258
34.0841   220
34.0941   245
34.1041   233
34.1141   255
34.1241   237
34.1341   259
34.1441   235
34.1541   224
34.1641   221
34.1741   215
34.1841   237
34.1941   263
34.2041   237
34.2141   235
34.2241   257
34.2341   225
34.2441   224
34.2541   224
34.2641   227
34.2741   263
34.2841   256
34.2941   235
34.3041   242
34.3141   262
34.3241   226
34.3341   211
34.3441   235
34.3541   222
34.3641   204
34.3741   233
34.3841   232
34.3941   220
34.4041   200
34.4141   226
34.4241   229
34.4341   223
34.4441   202
34.4541   230
34.4641   228
34.4741   226
34.4841   245
34.4941   226
34.5041   222
34.5141   228
34.5241   240
34.5341   235
34.5441   214
34.5541   226
34.5641   238
34.5741   206
34.5841   222
34.5941   230
34.6041   241
34.6141   195
34.6241   210
34.6341   209
34.6441   220
34.6541   209
34.6641   223
34.6741   212
34.6841   219
34.6941   202
34.7041   221
34.7141   224
34.7241   232
34.7341   212
34.7441   226
34.7541   223
34.7641   202
34.7741   214
34.7841   216
34.7941   180
34.8041   207
34.8141   221
34.8241   216
34.8341   216
34.8441   196
34.8541   188
34.8641   209
34.8741   205
34.8841   194
34.8941   200
34.9041   209
34.9141   212
34.9241   214
34.9341   200
34.9441   192
34.9541   199
34.9641   217
34.9741   178
34.9841   213
34.9941   198
35.0041   192
35.0141   172
35.0241   179
35.0341   180
35.0441   184
35.0541   196
35.0641   197
35.0741   209
35.0841   187
35.0941   202
35.1041   214
35.1141   204
35.1241   217
35.1341   191
35.1441   192
35.1541   181
35.1641   198
35.1741   211
35.1841   193
35.1941   189
35.2041   160
35.2141   184
35.2241   182
35.2341   177
35.2441   190
35.2541   184
35.2641   198
35.2741   208
35.2841   170
35.2941   206
35.3041   195
35.3141   214
35.3241   183
35.3341   175
35.3441   198
35.3541   195
35.3641   201
35.3741   183
35.3841   178
35.3941   187
35.4041   175
35.4141   185
35.4241   198
35.4341   198
35.4441   177
35.4541   160
35.4641   158
35.4741   186
35.4841   184
35.4941   185
35.5041   173
35.5141   172
35.5241   194
35.5341   176
35.5441   182
35.5541   163
35.5641   202
35.5741   167
35.5841   168
35.5941   188
35.6041   172
35.6141   170
35.6241   188
35.6341   174
35.6441   214
35.6541   172
35.6641   167
35.6741   174
35.6841   178
35.6941   182
35.7041   166
35.7141   172
35.7241   165
35.7341   175
35.7441   140
35.7541   164
35.7641   159
35.7741   164
35.7841   172
35.7941   164
35.8041   177
35.8141   156
35.8241   171
35.8341   192
35.8441   186
35.8541   170
35.8641   156
35.8741   185
35.8841   191
35.8941   167
35.9041   159
35.9141   155
35.9241   176
35.9341   141
35.9441   165
35.9541   169
35.9641   165
35.9741   158
35.9841   168
35.9941   164
36.0041   170
36.0141   149
36.0241   199
36.0341   150
36.0441   150
36.0541   178
36.0641   153
36.0741   154
36.0841   173
36.0941   147
36.1041   149
36.1141   165
36.1241   144
36.1341   145
36.1441   165
36.1541   176
36.1641   161
36.1741   179
36.1841   156
36.1941   151
36.2041   159
36.2141   137
36.2241   175
36.2341   156
36.2441   151
36.2541   147
36.2641   148
36.2741   175
36.2841   162
36.2941   170
36.3041   161
36.3141   147
36.3241   138
36.3341   181
36.3441   161
36.3541   138
36.3641   136
36.3741   144
36.3841   144
36.3941   135
36.4041   139
36.4141   159
36.4241   152
36.4341   122
36.4441   143
36.4541   138
36.4641   137
36.4741   152
36.4841   161
36.4941   160
36.5041   153
36.5141   147
36.5241   139
36.5341   128
36.5441   155
36.5541   132
36.5641   145
36.5741   155
36.5841   144
36.5941   135
36.6041   137
36.6141   118
36.6241   127
36.6341   153
36.6441   141
36.6541   142
36.6641   148
36.6741   136
36.6841   150
36.6941   121
36.7041   126
36.7141   148
36.7241   153
36.7341   135
36.7441   132
36.7541   130
36.7641   136
36.7741   137
36.7841   131
36.7941   129
36.8041   133
36.8141   124
36.8241   138
36.8341   108
36.8441   145
36.8541   137
36.8641   144
36.8741   135
36.8841   144
36.8941   138
36.9041   127
36.9141   147
36.9241   141
36.9341   131
36.9441   150
36.9541   122
36.9641   126
36.9741   136
36.9841   134
36.9941   124
37.0041   135
37.0141   114
37.0241   111
37.0341   129
37.0441   130
37.0541   129
37.0641   135
37.0741   133
37.0841   139
37.0941   144
37.1041   112
37.1141   118
37.1241   140
37.1341   143
37.1441   134
37.1541   146
37.1641   127
37.1741   122
37.1841   114
37.1941   137
37.2041   130
37.2141   103
37.2241   109
37.2341   122
37.2441   133
37.2541   115
37.2641   115
37.2741   129
37.2841   118
37.2941   103
37.3041   126
37.3141   125
37.3241   131
37.3341   126
37.3441   129
37.3541   120
37.3641   120
37.3741   123
37.3841   125
37.3941   110
37.4041   119
37.4141   113
37.4241   113
37.4341   100
37.4441   100
37.4541   130
37.4641   105
37.4741   127
37.4841   129
37.4941   115
37.5041   113
37.5141   115
37.5241   116
37.5341   121
37.5441   108
37.5541   113
37.5641   124
37.5741   111
37.5841   123
37.5941   101
37.6041    98
37.6141   109
37.6241    98
37.6341   119
37.6441   130
37.6541   120
37.6641    99
37.6741   103
37.6841   123
37.6941   109
37.7041   104
37.7141    95
37.7241   105
37.7341   122
37.7441   120
37.7541   101
37.7641   128
37.7741   110
37.7841   106
37.7941   116
37.8041   104
37.8141   112
37.8241   119
37.8341   107
37.8441   117
37.8541   120
37.8641   108
37.8741    96
37.8841   108
37.8941   121
37.9041   108
37.9141    91
37.9241   114
37.9341   104
37.9441   102
37.9541   109
37.9641   100
37.9741    98
37.9841   104
37.9941    93
38.0041    93
38.0141    95
38.0241   110
38.0341    89
38.0441   109
38.0541   103
38.0641   107
38.0741   115
38.0841   109
38.0941   109
38.1041   107
38.1141    97
38.1241    96
38.1341    99
38.1441    90
38.1541    82
38.1641   104
38.1741   118
38.1841    92
38.1941   105
38.2041   109
38.2141    84
38.2241    83
38.2341   106
38.2441   100
38.2541    95
38.2641   106
38.2741    98
38.2841    99
38.2941    92
38.3041   102
38.3141    88
38.3241    96
38.3341    93
38.3441    85
38.3541    86
38.3641    88
38.3741    93
38.3841    90
38.3941    98
38.4041    91
38.4141    86
38.4241    91
38.4341    81
38.4441    83
38.4541    84
38.4641    77
38.4741    87
38.4841    83
38.4941    96
38.5041    96
38.5141    94
38.5241    86
38.5341    88
38.5441    89
38.5541    89
38.5641    93
38.5741    78
38.5841    76
38.5941    88
38.6041    91
38.6141    66
38.6241    92
38.6341    80
38.6441    76
38.6541    73
38.6641    83
38.6741    90
38.6841    82
38.6941    85
38.7041    83
38.7141    85
38.7241    88
38.7341    81
38.7441    68
38.7541    89
38.7641    83
38.7741    77
38.7841    94
38.7941    65
38.8041    75
38.8141    69
38.8241    79
38.8341    83
38.8441    82
38.8541    79
38.8641    83
38.8741    75
38.8841    82
38.8941    78
38.9041    99
38.9141    77
38.9241    73
38.9341    75
38.9441    84
38.9541    82
38.9641    82
38.9741    75
38.9841    84
38.9941    66
39.0041    88
39.0141    80
39.0241    69
39.0341    81
39.0441    87
39.0541    72
39.0641    74
39.0741    79
39.0841    63
39.0941    64
39.1041    83
39.1141    69
39.1241    81
39.1341    72
39.1441    64
39.1541    90
39.1641    64
39.1741    81
39.1841    70
39.1941    76
39.2041    60
39.2141    70
39.2241    62
39.2341    75
39.2441    77
39.2541    69
39.2641    67
39.2741    66
39.2841    81
39.2941    72
39.3041    76
39.3141    75
39.3241    65
39.3341    68
39.3441    90
39.3541    62
39.3641    83
39.3741    56
39.3841    71
39.3941    58
39.4041    64
39.4141    61
39.4241    74
39.4341    61
39.4441    68
39.4541    56
39.4641    69
39.4741    66
39.4841    60
39.4941    71
39.5041    74
39.5141    58
39.5241    55
39.5341    58
39.5441    76
39.5541    46
39.5641    60
39.5741    58
39.5841    63
39.5941    62
39.6041    56
39.6141    65
39.6241    61
39.6341    57
39.6441    49
39.6541    62
39.6641    61
39.6741    61
39.6841    66
39.6941    49
39.7041    60
39.7141    51
39.7241    68
39.7341    54
39.7441    64
39.7541    50
39.7641    70
39.7741    55
39.7841    64
39.7941    54
39.8041    68
39.8141    51
39.8241    59
39.8341    51
39.8441    54
39.8541    53
39.8641    66
39.8741    58
39.8841    65
39.8941    49
39.9041    47
39.9141    46
39.9241    64
39.9341    48
39.9441    53
39.9541    57
39.9641    59
39.9741    55
39.9841    63
39.9941    51
