Bruker Nano GmbH Berlin, Germany
Esprit 1.9

Date: 4/21/2021 1:37:49 PM
Real time: 20908
Life time: 19637
Pulse density: 90130


Detector type: XFlash 430
Window type: Custom type
Detector thickness: 0.45
Si dead layer:0.029

Calibration, lin.: 10
Calibration, abs.: -955.9
Mn FWHM: 137.05
Fano factor: 0.121
Channels: 4095

Energy Counts
-0.9559     0
-0.9459     0
-0.9359     0
-0.9259     0
-0.9159     0
-0.9059     0
-0.8959     0
-0.8859     0
-0.8759     0
-0.8659     0
-0.8559     0
-0.8459     0
-0.8359     0
-0.8259     0
-0.8159     0
-0.8059     0
-0.7959     0
-0.7859     0
-0.7759     0
-0.7659     0
-0.7559     0
-0.7459     0
-0.7359     0
-0.7259     0
-0.7159     0
-0.7059     0
-0.6959     0
-0.6859     0
-0.6759     0
-0.6659     0
-0.6559     0
-0.6459     0
-0.6359     0
-0.6259     0
-0.6159     0
-0.6059     0
-0.5959     0
-0.5859     0
-0.5759     0
-0.5659     0
-0.5559     0
-0.5459     0
-0.5359     0
-0.5259     0
-0.5159     0
-0.5059     0
-0.4959     0
-0.4859     0
-0.4759     0
-0.4659     0
-0.4559     0
-0.4459     0
-0.4359     0
-0.4259     0
-0.4159     0
-0.4059     0
-0.3959     0
-0.3859     0
-0.3759     0
-0.3659     0
-0.3559     0
-0.3459     0
-0.3359     0
-0.3259     0
-0.3159     0
-0.3059     0
-0.2959     0
-0.2859     0
-0.2759     0
-0.2659     0
-0.2559     0
-0.2459     0
-0.2359     0
-0.2259     0
-0.2159     0
-0.2059     0
-0.1959     0
-0.1859     0
-0.1759     0
-0.1659     0
-0.1559     0
-0.1459     0
-0.1359     0
-0.1259     2
-0.1159     4
-0.1059    11
-0.0959    82
-0.0859   237
-0.0759   748
-0.0659  2283
-0.0559  5663
-0.0459 12529
-0.0359 23411
-0.0259 37707
-0.0159 51175
-0.0059 60074
 0.0041 60465
 0.0141 51991
 0.0241 38476
 0.0341 24474
 0.0441 13112
 0.0541  6077
 0.0641  2486
 0.0741   885
 0.0841   250
 0.0941    66
 0.1041    20
 0.1141     9
 0.1241    11
 0.1341     6
 0.1441     8
 0.1541     0
 0.1641     4
 0.1741    22
 0.1841   159
 0.1941   317
 0.2041   280
 0.2141   270
 0.2241   289
 0.2341   277
 0.2441   280
 0.2541   254
 0.2641   270
 0.2741   294
 0.2841   299
 0.2941   273
 0.3041   281
 0.3141   268
 0.3241   259
 0.3341   244
 0.3441   290
 0.3541   257
 0.3641   250
 0.3741   267
 0.3841   256
 0.3941   255
 0.4041   244
 0.4141   242
 0.4241   244
 0.4341   233
 0.4441   236
 0.4541   235
 0.4641   249
 0.4741   258
 0.4841   246
 0.4941   227
 0.5041   236
 0.5141   254
 0.5241   244
 0.5341   248
 0.5441   223
 0.5541   214
 0.5641   226
 0.5741   220
 0.5841   231
 0.5941   232
 0.6041   228
 0.6141   210
 0.6241   209
 0.6341   215
 0.6441   221
 0.6541   220
 0.6641   199
 0.6741   189
 0.6841   194
 0.6941   208
 0.7041   227
 0.7141   215
 0.7241   210
 0.7341   213
 0.7441   228
 0.7541   225
 0.7641   186
 0.7741   188
 0.7841   212
 0.7941   226
 0.8041   203
 0.8141   191
 0.8241   209
 0.8341   198
 0.8441   194
 0.8541   192
 0.8641   187
 0.8741   183
 0.8841   177
 0.8941   181
 0.9041   194
 0.9141   212
 0.9241   182
 0.9341   181
 0.9441   193
 0.9541   169
 0.9641   162
 0.9741   177
 0.9841   200
 0.9941   189
 1.0041   196
 1.0141   162
 1.0241   193
 1.0341   193
 1.0441   177
 1.0541   178
 1.0641   188
 1.0741   193
 1.0841   182
 1.0941   186
 1.1041   175
 1.1141   151
 1.1241   168
 1.1341   181
 1.1441   184
 1.1541   178
 1.1641   166
 1.1741   163
 1.1841   165
 1.1941   160
 1.2041   177
 1.2141   193
 1.2241   177
 1.2341   166
 1.2441   155
 1.2541   160
 1.2641   162
 1.2741   190
 1.2841   170
 1.2941   164
 1.3041   163
 1.3141   164
 1.3241   153
 1.3341   137
 1.3441   158
 1.3541   166
 1.3641   158
 1.3741   182
 1.3841   159
 1.3941   161
 1.4041   158
 1.4141   147
 1.4241   160
 1.4341   170
 1.4441   160
 1.4541   145
 1.4641   160
 1.4741   169
 1.4841   159
 1.4941   149
 1.5041   157
 1.5141   163
 1.5241   165
 1.5341   158
 1.5441   142
 1.5541   162
 1.5641   157
 1.5741   145
 1.5841   167
 1.5941   161
 1.6041   142
 1.6141   141
 1.6241   149
 1.6341   174
 1.6441   198
 1.6541   179
 1.6641   221
 1.6741   289
 1.6841   377
 1.6941   454
 1.7041   483
 1.7141   598
 1.7241   689
 1.7341   729
 1.7441   741
 1.7541   694
 1.7641   612
 1.7741   505
 1.7841   432
 1.7941   380
 1.8041   325
 1.8141   268
 1.8241   229
 1.8341   219
 1.8441   193
 1.8541   182
 1.8641   196
 1.8741   198
 1.8841   191
 1.8941   174
 1.9041   172
 1.9141   170
 1.9241   171
 1.9341   162
 1.9441   161
 1.9541   164
 1.9641   174
 1.9741   194
 1.9841   203
 1.9941   204
 2.0041   202
 2.0141   203
 2.0241   200
 2.0341   188
 2.0441   178
 2.0541   184
 2.0641   177
 2.0741   155
 2.0841   124
 2.0941   146
 2.1041   140
 2.1141   150
 2.1241   149
 2.1341   152
 2.1441   141
 2.1541   148
 2.1641   140
 2.1741   135
 2.1841   144
 2.1941   127
 2.2041   168
 2.2141   144
 2.2241   150
 2.2341   143
 2.2441   132
 2.2541   138
 2.2641   132
 2.2741   143
 2.2841   133
 2.2941   137
 2.3041   140
 2.3141   128
 2.3241   141
 2.3341   144
 2.3441   149
 2.3541   130
 2.3641   141
 2.3741   143
 2.3841   123
 2.3941   139
 2.4041   127
 2.4141   116
 2.4241   128
 2.4341   126
 2.4441   125
 2.4541   128
 2.4641   142
 2.4741   131
 2.4841   133
 2.4941   130
 2.5041   128
 2.5141   142
 2.5241   127
 2.5341   108
 2.5441   128
 2.5541   151
 2.5641   149
 2.5741   150
 2.5841   142
 2.5941   141
 2.6041   146
 2.6141   156
 2.6241   139
 2.6341   176
 2.6441   147
 2.6541   141
 2.6641   129
 2.6741   143
 2.6841   117
 2.6941   135
 2.7041   145
 2.7141   138
 2.7241   121
 2.7341   127
 2.7441   120
 2.7541   128
 2.7641   111
 2.7741   112
 2.7841   127
 2.7941   132
 2.8041   121
 2.8141   136
 2.8241   137
 2.8341   125
 2.8441   150
 2.8541   130
 2.8641   139
 2.8741   121
 2.8841   114
 2.8941   134
 2.9041   123
 2.9141   112
 2.9241    99
 2.9341   114
 2.9441    97
 2.9541   108
 2.9641   107
 2.9741   126
 2.9841   100
 2.9941   112
 3.0041   117
 3.0141   104
 3.0241   135
 3.0341   104
 3.0441    97
 3.0541   128
 3.0641   104
 3.0741   104
 3.0841   108
 3.0941   111
 3.1041   123
 3.1141    94
 3.1241   122
 3.1341    97
 3.1441   105
 3.1541    94
 3.1641   103
 3.1741    99
 3.1841   128
 3.1941   109
 3.2041   117
 3.2141   105
 3.2241   124
 3.2341   135
 3.2441   152
 3.2541   176
 3.2641   162
 3.2741   223
 3.2841   212
 3.2941   244
 3.3041   257
 3.3141   241
 3.3241   265
 3.3341   223
 3.3441   199
 3.3541   189
 3.3641   162
 3.3741   147
 3.3841   133
 3.3941   135
 3.4041   115
 3.4141   117
 3.4241    94
 3.4341    87
 3.4441    85
 3.4541    86
 3.4641    98
 3.4741    93
 3.4841   102
 3.4941   106
 3.5041    95
 3.5141   101
 3.5241   100
 3.5341   125
 3.5441   127
 3.5541   143
 3.5641   180
 3.5741   198
 3.5841   222
 3.5941   307
 3.6041   365
 3.6141   481
 3.6241   556
 3.6341   747
 3.6441   892
 3.6541  1046
 3.6641  1162
 3.6741  1214
 3.6841  1415
 3.6941  1345
 3.7041  1308
 3.7141  1163
 3.7241  1043
 3.7341   897
 3.7441   741
 3.7541   602
 3.7641   514
 3.7741   336
 3.7841   253
 3.7941   222
 3.8041   142
 3.8141   111
 3.8241   114
 3.8341   100
 3.8441    94
 3.8541    90
 3.8641    87
 3.8741    90
 3.8841    81
 3.8941   100
 3.9041   104
 3.9141   100
 3.9241   109
 3.9341   144
 3.9441   144
 3.9541   176
 3.9641   191
 3.9741   199
 3.9841   242
 3.9941   258
 4.0041   251
 4.0141   275
 4.0241   250
 4.0341   230
 4.0441   218
 4.0541   212
 4.0641   207
 4.0741   156
 4.0841   159
 4.0941   138
 4.1041   110
 4.1141    95
 4.1241    81
 4.1341    96
 4.1441    75
 4.1541    67
 4.1641    77
 4.1741    86
 4.1841    74
 4.1941    76
 4.2041    75
 4.2141    79
 4.2241    73
 4.2341    61
 4.2441    77
 4.2541    64
 4.2641    69
 4.2741    81
 4.2841    73
 4.2941    82
 4.3041    74
 4.3141    90
 4.3241    77
 4.3341    81
 4.3441    91
 4.3541    98
 4.3641    94
 4.3741   117
 4.3841   142
 4.3941   184
 4.4041   237
 4.4141   298
 4.4241   348
 4.4341   453
 4.4441   570
 4.4541   682
 4.4641   766
 4.4741   878
 4.4841  1038
 4.4941  1099
 4.5041  1070
 4.5141  1103
 4.5241   979
 4.5341   973
 4.5441   853
 4.5541   778
 4.5641   660
 4.5741   545
 4.5841   426
 4.5941   302
 4.6041   273
 4.6141   223
 4.6241   172
 4.6341   152
 4.6441   124
 4.6541   137
 4.6641   111
 4.6741   132
 4.6841   111
 4.6941    86
 4.7041    98
 4.7141    87
 4.7241    73
 4.7341    92
 4.7441    81
 4.7541   101
 4.7641    99
 4.7741    92
 4.7841   113
 4.7941   112
 4.8041   118
 4.8141   118
 4.8241   138
 4.8341   137
 4.8441   168
 4.8541   164
 4.8641   217
 4.8741   226
 4.8841   240
 4.8941   235
 4.9041   264
 4.9141   290
 4.9241   298
 4.9341   291
 4.9441   288
 4.9541   273
 4.9641   239
 4.9741   241
 4.9841   228
 4.9941   183
 5.0041   192
 5.0141   149
 5.0241   136
 5.0341   117
 5.0441    92
 5.0541   106
 5.0641   114
 5.0741    97
 5.0841    98
 5.0941    95
 5.1041    74
 5.1141    86
 5.1241   100
 5.1341    83
 5.1441    90
 5.1541    78
 5.1641    83
 5.1741    97
 5.1841    98
 5.1941   100
 5.2041   102
 5.2141    94
 5.2241    86
 5.2341    96
 5.2441   101
 5.2541    89
 5.2641    88
 5.2741    87
 5.2841   101
 5.2941   105
 5.3041    86
 5.3141   109
 5.3241    93
 5.3341   112
 5.3441   123
 5.3541   127
 5.3641   130
 5.3741   130
 5.3841   147
 5.3941   130
 5.4041   151
 5.4141   157
 5.4241   153
 5.4341   148
 5.4441   150
 5.4541   142
 5.4641   146
 5.4741   123
 5.4841   110
 5.4941    91
 5.5041   106
 5.5141   107
 5.5241   105
 5.5341    98
 5.5441    96
 5.5541   102
 5.5641    96
 5.5741   103
 5.5841   119
 5.5941   112
 5.6041   105
 5.6141    88
 5.6241    95
 5.6341   100
 5.6441   105
 5.6541   124
 5.6641   102
 5.6741   113
 5.6841   111
 5.6941   102
 5.7041   105
 5.7141   105
 5.7241   107
 5.7341   135
 5.7441   124
 5.7541   125
 5.7641   186
 5.7741   168
 5.7841   187
 5.7941   255
 5.8041   276
 5.8141   356
 5.8241   388
 5.8341   475
 5.8441   517
 5.8541   578
 5.8641   614
 5.8741   662
 5.8841   682
 5.8941   684
 5.9041   703
 5.9141   641
 5.9241   591
 5.9341   558
 5.9441   529
 5.9541   454
 5.9641   386
 5.9741   353
 5.9841   309
 5.9941   274
 6.0041   222
 6.0141   170
 6.0241   168
 6.0341   170
 6.0441   142
 6.0541   134
 6.0641   140
 6.0741   146
 6.0841   152
 6.0941   119
 6.1041   164
 6.1141   154
 6.1241   167
 6.1341   166
 6.1441   185
 6.1541   199
 6.1641   213
 6.1741   237
 6.1841   247
 6.1941   360
 6.2041   447
 6.2141   502
 6.2241   658
 6.2341   945
 6.2441  1334
 6.2541  1843
 6.2641  2453
 6.2741  3382
 6.2841  4588
 6.2941  6084
 6.3041  8008
 6.3141 10012
 6.3241 12708
 6.3341 15130
 6.3441 17787
 6.3541 20354
 6.3641 22609
 6.3741 24305
 6.3841 25864
 6.3941 26040
 6.4041 26311
 6.4141 26040
 6.4241 24292
 6.4341 22103
 6.4441 19791
 6.4541 17368
 6.4641 14754
 6.4741 12086
 6.4841  9721
 6.4941  7483
 6.5041  5911
 6.5141  4378
 6.5241  3215
 6.5341  2334
 6.5441  1530
 6.5541  1087
 6.5641   738
 6.5741   570
 6.5841   454
 6.5941   317
 6.6041   245
 6.6141   218
 6.6241   201
 6.6341   195
 6.6441   181
 6.6541   144
 6.6641   153
 6.6741   172
 6.6841   145
 6.6941   157
 6.7041   149
 6.7141   158
 6.7241   157
 6.7341   171
 6.7441   182
 6.7541   165
 6.7641   189
 6.7741   192
 6.7841   202
 6.7941   178
 6.8041   206
 6.8141   212
 6.8241   218
 6.8341   224
 6.8441   258
 6.8541   254
 6.8641   295
 6.8741   337
 6.8841   363
 6.8941   435
 6.9041   542
 6.9141   683
 6.9241   777
 6.9341   992
 6.9441  1176
 6.9541  1467
 6.9641  1828
 6.9741  2044
 6.9841  2473
 6.9941  3021
 7.0041  3372
 7.0141  3802
 7.0241  4076
 7.0341  4150
 7.0441  4450
 7.0541  4494
 7.0641  4282
 7.0741  4185
 7.0841  3936
 7.0941  3624
 7.1041  3205
 7.1141  2815
 7.1241  2453
 7.1341  2077
 7.1441  1634
 7.1541  1405
 7.1641  1102
 7.1741   833
 7.1841   645
 7.1941   529
 7.2041   456
 7.2141   363
 7.2241   314
 7.2341   254
 7.2441   234
 7.2541   191
 7.2641   209
 7.2741   228
 7.2841   224
 7.2941   199
 7.3041   220
 7.3141   211
 7.3241   212
 7.3341   225
 7.3441   253
 7.3541   256
 7.3641   280
 7.3741   242
 7.3841   250
 7.3941   274
 7.4041   272
 7.4141   276
 7.4241   278
 7.4341   288
 7.4441   281
 7.4541   273
 7.4641   264
 7.4741   256
 7.4841   270
 7.4941   242
 7.5041   235
 7.5141   232
 7.5241   245
 7.5341   218
 7.5441   196
 7.5541   206
 7.5641   197
 7.5741   208
 7.5841   204
 7.5941   204
 7.6041   219
 7.6141   195
 7.6241   193
 7.6341   211
 7.6441   195
 7.6541   184
 7.6641   204
 7.6741   230
 7.6841   221
 7.6941   224
 7.7041   226
 7.7141   225
 7.7241   174
 7.7341   216
 7.7441   221
 7.7541   220
 7.7641   232
 7.7741   208
 7.7841   242
 7.7941   252
 7.8041   242
 7.8141   225
 7.8241   252
 7.8341   255
 7.8441   271
 7.8541   286
 7.8641   301
 7.8741   294
 7.8841   313
 7.8941   309
 7.9041   350
 7.9141   358
 7.9241   368
 7.9341   415
 7.9441   438
 7.9541   457
 7.9641   461
 7.9741   487
 7.9841   469
 7.9941   539
 8.0041   594
 8.0141   597
 8.0241   677
 8.0341   741
 8.0441   777
 8.0541   828
 8.0641   875
 8.0741   870
 8.0841   913
 8.0941  1014
 8.1041  1057
 8.1141  1135
 8.1241  1120
 8.1341  1223
 8.1441  1250
 8.1541  1243
 8.1641  1280
 8.1741  1317
 8.1841  1340
 8.1941  1308
 8.2041  1327
 8.2141  1336
 8.2241  1408
 8.2341  1427
 8.2441  1428
 8.2541  1473
 8.2641  1586
 8.2741  1670
 8.2841  1750
 8.2941  1875
 8.3041  2076
 8.3141  2202
 8.3241  2495
 8.3341  2654
 8.3441  2825
 8.3541  2928
 8.3641  3069
 8.3741  3306
 8.3841  3349
 8.3941  3327
 8.4041  3254
 8.4141  3228
 8.4241  3018
 8.4341  2857
 8.4441  2562
 8.4541  2307
 8.4641  2110
 8.4741  1920
 8.4841  1628
 8.4941  1379
 8.5041  1148
 8.5141  1004
 8.5241   828
 8.5341   707
 8.5441   630
 8.5541   553
 8.5641   523
 8.5741   473
 8.5841   432
 8.5941   414
 8.6041   452
 8.6141   440
 8.6241   425
 8.6341   425
 8.6441   450
 8.6541   418
 8.6641   397
 8.6741   413
 8.6841   412
 8.6941   375
 8.7041   350
 8.7141   349
 8.7241   365
 8.7341   338
 8.7441   335
 8.7541   317
 8.7641   309
 8.7741   340
 8.7841   295
 8.7941   308
 8.8041   288
 8.8141   304
 8.8241   289
 8.8341   301
 8.8441   309
 8.8541   313
 8.8641   317
 8.8741   308
 8.8841   323
 8.8941   344
 8.9041   322
 8.9141   294
 8.9241   317
 8.9341   294
 8.9441   316
 8.9541   305
 8.9641   373
 8.9741   355
 8.9841   343
 8.9941   332
 9.0041   347
 9.0141   350
 9.0241   375
 9.0341   382
 9.0441   378
 9.0541   379
 9.0641   393
 9.0741   404
 9.0841   414
 9.0941   424
 9.1041   473
 9.1141   468
 9.1241   446
 9.1341   529
 9.1441   530
 9.1541   564
 9.1641   582
 9.1741   602
 9.1841   626
 9.1941   664
 9.2041   716
 9.2141   724
 9.2241   763
 9.2341   799
 9.2441   857
 9.2541   837
 9.2641   891
 9.2741   968
 9.2841  1041
 9.2941  1091
 9.3041  1067
 9.3141  1091
 9.3241  1140
 9.3341  1229
 9.3441  1173
 9.3541  1194
 9.3641  1232
 9.3741  1218
 9.3841  1285
 9.3941  1334
 9.4041  1326
 9.4141  1338
 9.4241  1351
 9.4341  1362
 9.4441  1360
 9.4541  1416
 9.4641  1460
 9.4741  1458
 9.4841  1455
 9.4941  1537
 9.5041  1527
 9.5141  1579
 9.5241  1701
 9.5341  1754
 9.5441  1778
 9.5541  1833
 9.5641  1925
 9.5741  2041
 9.5841  2192
 9.5941  2401
 9.6041  2549
 9.6141  2541
 9.6241  2723
 9.6341  2847
 9.6441  2895
 9.6541  2940
 9.6641  2952
 9.6741  2972
 9.6841  2903
 9.6941  2793
 9.7041  2758
 9.7141  2666
 9.7241  2592
 9.7341  2296
 9.7441  2200
 9.7541  2069
 9.7641  1890
 9.7741  1755
 9.7841  1634
 9.7941  1516
 9.8041  1440
 9.8141  1324
 9.8241  1266
 9.8341  1236
 9.8441  1258
 9.8541  1199
 9.8641  1186
 9.8741  1167
 9.8841  1182
 9.8941  1210
 9.9041  1236
 9.9141  1186
 9.9241  1215
 9.9341  1228
 9.9441  1284
 9.9541  1231
 9.9641  1230
 9.9741  1190
 9.9841  1150
 9.9941  1047
10.0041  1029
10.0141   941
10.0241   872
10.0341   800
10.0441   735
10.0541   635
10.0641   568
10.0741   529
10.0841   478
10.0941   422
10.1041   374
10.1141   341
10.1241   301
10.1341   277
10.1441   271
10.1541   244
10.1641   241
10.1741   229
10.1841   209
10.1941   209
10.2041   222
10.2141   222
10.2241   186
10.2341   207
10.2441   201
10.2541   190
10.2641   177
10.2741   186
10.2841   186
10.2941   163
10.3041   177
10.3141   180
10.3241   176
10.3341   180
10.3441   170
10.3541   172
10.3641   168
10.3741   188
10.3841   180
10.3941   170
10.4041   168
10.4141   170
10.4241   148
10.4341   166
10.4441   167
10.4541   179
10.4641   186
10.4741   146
10.4841   161
10.4941   179
10.5041   179
10.5141   183
10.5241   172
10.5341   174
10.5441   189
10.5541   189
10.5641   180
10.5741   196
10.5841   201
10.5941   184
10.6041   188
10.6141   189
10.6241   182
10.6341   180
10.6441   203
10.6541   199
10.6641   203
10.6741   190
10.6841   208
10.6941   204
10.7041   212
10.7141   214
10.7241   195
10.7341   203
10.7441   240
10.7541   238
10.7641   247
10.7741   237
10.7841   234
10.7941   254
10.8041   270
10.8141   260
10.8241   255
10.8341   263
10.8441   259
10.8541   274
10.8641   288
10.8741   307
10.8841   302
10.8941   298
10.9041   291
10.9141   285
10.9241   296
10.9341   284
10.9441   290
10.9541   290
10.9641   280
10.9741   263
10.9841   265
10.9941   257
11.0041   259
11.0141   247
11.0241   245
11.0341   247
11.0441   242
11.0541   254
11.0641   259
11.0741   259
11.0841   260
11.0941   261
11.1041   255
11.1141   254
11.1241   268
11.1341   264
11.1441   266
11.1541   276
11.1641   285
11.1741   286
11.1841   307
11.1941   317
11.2041   323
11.2141   324
11.2241   339
11.2341   393
11.2441   402
11.2541   398
11.2641   378
11.2741   384
11.2841   393
11.2941   392
11.3041   399
11.3141   399
11.3241   377
11.3341   355
11.3441   332
11.3541   341
11.3641   322
11.3741   291
11.3841   274
11.3941   266
11.4041   259
11.4141   261
11.4241   260
11.4341   244
11.4441   209
11.4541   208
11.4641   206
11.4741   208
11.4841   204
11.4941   205
11.5041   200
11.5141   199
11.5241   204
11.5341   209
11.5441   214
11.5541   191
11.5641   198
11.5741   198
11.5841   209
11.5941   219
11.6041   229
11.6141   203
11.6241   209
11.6341   207
11.6441   210
11.6541   202
11.6641   201
11.6741   195
11.6841   199
11.6941   200
11.7041   198
11.7141   202
11.7241   186
11.7341   174
11.7441   167
11.7541   177
11.7641   192
11.7741   174
11.7841   151
11.7941   134
11.8041   142
11.8141   157
11.8241   159
11.8341   148
11.8441   151
11.8541   147
11.8641   152
11.8741   148
11.8841   150
11.8941   138
11.9041   143
11.9141   151
11.9241   151
11.9341   153
11.9441   147
11.9541   135
11.9641   136
11.9741   146
11.9841   142
11.9941   147
12.0041   163
12.0141   155
12.0241   158
12.0341   150
12.0441   139
12.0541   141
12.0641   140
12.0741   157
12.0841   148
12.0941   134
12.1041   144
12.1141   154
12.1241   150
12.1341   134
12.1441   152
12.1541   156
12.1641   152
12.1741   151
12.1841   153
12.1941   160
12.2041   146
12.2141   139
12.2241   154
12.2341   161
12.2441   142
12.2541   157
12.2641   156
12.2741   147
12.2841   155
12.2941   146
12.3041   134
12.3141   142
12.3241   136
12.3341   140
12.3441   140
12.3541   137
12.3641   151
12.3741   162
12.3841   154
12.3941   149
12.4041   153
12.4141   165
12.4241   153
12.4341   164
12.4441   146
12.4541   144
12.4641   157
12.4741   150
12.4841   147
12.4941   158
12.5041   166
12.5141   158
12.5241   168
12.5341   168
12.5441   163
12.5541   175
12.5641   167
12.5741   165
12.5841   150
12.5941   154
12.6041   160
12.6141   172
12.6241   175
12.6341   164
12.6441   167
12.6541   167
12.6641   165
12.6741   168
12.6841   165
12.6941   160
12.7041   165
12.7141   170
12.7241   170
12.7341   165
12.7441   161
12.7541   160
12.7641   160
12.7741   161
12.7841   161
12.7941   158
12.8041   156
12.8141   159
12.8241   170
12.8341   178
12.8441   170
12.8541   152
12.8641   144
12.8741   155
12.8841   166
12.8941   165
12.9041   162
12.9141   161
12.9241   160
12.9341   154
12.9441   151
12.9541   160
12.9641   164
12.9741   157
12.9841   149
12.9941   149
13.0041   154
13.0141   180
13.0241   183
13.0341   178
13.0441   162
13.0541   159
13.0641   194
13.0741   179
13.0841   154
13.0941   162
13.1041   168
13.1141   179
13.1241   181
13.1341   166
13.1441   178
13.1541   194
13.1641   180
13.1741   168
13.1841   176
13.1941   183
13.2041   174
13.2141   171
13.2241   190
13.2341   189
13.2441   192
13.2541   210
13.2641   215
13.2741   215
13.2841   212
13.2941   217
13.3041   218
13.3141   224
13.3241   230
13.3341   242
13.3441   240
13.3541   226
13.3641   225
13.3741   228
13.3841   225
13.3941   219
13.4041   219
13.4141   216
13.4241   214
13.4341   224
13.4441   232
13.4541   225
13.4641   218
13.4741   214
13.4841   205
13.4941   201
13.5041   205
13.5141   204
13.5241   200
13.5341   205
13.5441   218
13.5541   226
13.5641   224
13.5741   215
13.5841   201
13.5941   198
13.6041   202
13.6141   202
13.6241   201
13.6341   202
13.6441   205
13.6541   206
13.6641   203
13.6741   191
13.6841   197
13.6941   207
13.7041   212
13.7141   208
13.7241   199
13.7341   193
13.7441   203
13.7541   203
13.7641   190
13.7741   212
13.7841   213
13.7941   197
13.8041   209
13.8141   223
13.8241   216
13.8341   200
13.8441   196
13.8541   222
13.8641   236
13.8741   225
13.8841   211
13.8941   215
13.9041   224
13.9141   237
13.9241   243
13.9341   235
13.9441   248
13.9541   262
13.9641   274
13.9741   283
13.9841   290
13.9941   296
14.0041   307
14.0141   326
14.0241   345
14.0341   368
14.0441   399
14.0541   422
14.0641   438
14.0741   461
14.0841   491
14.0941   514
14.1041   517
14.1141   523
14.1241   544
14.1341   549
14.1441   539
14.1541   550
14.1641   562
14.1741   546
14.1841   514
14.1941   476
14.2041   442
14.2141   431
14.2241   433
14.2341   411
14.2441   389
14.2541   383
14.2641   354
14.2741   327
14.2841   325
14.2941   308
14.3041   286
14.3141   291
14.3241   288
14.3341   264
14.3441   246
14.3541   241
14.3641   254
14.3741   261
14.3841   249
14.3941   226
14.4041   216
14.4141   233
14.4241   238
14.4341   230
14.4441   224
14.4541   233
14.4641   238
14.4741   219
14.4841   221
14.4941   221
14.5041   225
14.5141   239
14.5241   244
14.5341   240
14.5441   243
14.5541   253
14.5641   250
14.5741   239
14.5841   230
14.5941   235
14.6041   240
14.6141   249
14.6241   259
14.6341   251
14.6441   257
14.6541   252
14.6641   240
14.6741   238
14.6841   246
14.6941   255
14.7041   268
14.7141   263
14.7241   251
14.7341   257
14.7441   270
14.7541   272
14.7641   279
14.7741   280
14.7841   277
14.7941   278
14.8041   273
14.8141   277
14.8241   279
14.8341   284
14.8441   294
14.8541   289
14.8641   297
14.8741   319
14.8841   337
14.8941   332
14.9041   315
14.9141   333
14.9241   336
14.9341   336
14.9441   346
14.9541   361
14.9641   350
14.9741   339
14.9841   347
14.9941   319
15.0041   313
15.0141   320
15.0241   303
15.0341   299
15.0441   305
15.0541   311
15.0641   318
15.0741   290
15.0841   264
15.0941   277
15.1041   277
15.1141   273
15.1241   283
15.1341   276
15.1441   272
15.1541   274
15.1641   275
15.1741   279
15.1841   273
15.1941   281
15.2041   279
15.2141   272
15.2241   274
15.2341   273
15.2441   270
15.2541   270
15.2641   292
15.2741   289
15.2841   270
15.2941   265
15.3041   282
15.3141   286
15.3241   286
15.3341   277
15.3441   260
15.3541   267
15.3641   284
15.3741   272
15.3841   251
15.3941   262
15.4041   280
15.4141   273
15.4241   284
15.4341   290
15.4441   279
15.4541   270
15.4641   277
15.4741   294
15.4841   316
15.4941   312
15.5041   327
15.5141   326
15.5241   332
15.5341   336
15.5441   344
15.5541   368
15.5641   370
15.5741   426
15.5841   442
15.5941   430
15.6041   452
15.6141   473
15.6241   514
15.6341   563
15.6441   609
15.6541   664
15.6641   673
15.6741   704
15.6841   727
15.6941   749
15.7041   776
15.7141   813
15.7241   837
15.7341   826
15.7441   836
15.7541   841
15.7641   831
15.7741   838
15.7841   866
15.7941   846
15.8041   821
15.8141   809
15.8241   770
15.8341   738
15.8441   706
15.8541   651
15.8641   597
15.8741   584
15.8841   569
15.8941   516
15.9041   487
15.9141   483
15.9241   445
15.9341   424
15.9441   392
15.9541   366
15.9641   357
15.9741   347
15.9841   333
15.9941   327
16.0041   325
16.0141   310
16.0241   325
16.0341   322
16.0441   332
16.0541   332
16.0641   330
16.0741   324
16.0841   329
16.0941   313
16.1041   317
16.1141   325
16.1241   317
16.1341   316
16.1441   317
16.1541   302
16.1641   301
16.1741   324
16.1841   307
16.1941   305
16.2041   335
16.2141   325
16.2241   314
16.2341   332
16.2441   326
16.2541   311
16.2641   302
16.2741   310
16.2841   334
16.2941   303
16.3041   316
16.3141   311
16.3241   321
16.3341   338
16.3441   320
16.3541   308
16.3641   316
16.3741   327
16.3841   339
16.3941   346
16.4041   329
16.4141   330
16.4241   338
16.4341   335
16.4441   354
16.4541   338
16.4641   319
16.4741   328
16.4841   344
16.4941   352
16.5041   355
16.5141   358
16.5241   352
16.5341   370
16.5441   382
16.5541   385
16.5641   361
16.5741   361
16.5841   365
16.5941   371
16.6041   382
16.6141   411
16.6241   392
16.6341   386
16.6441   368
16.6541   396
16.6641   380
16.6741   367
16.6841   365
16.6941   398
16.7041   375
16.7141   367
16.7241   375
16.7341   369
16.7441   374
16.7541   410
16.7641   385
16.7741   367
16.7841   372
16.7941   376
16.8041   360
16.8141   334
16.8241   347
16.8341   358
16.8441   337
16.8541   354
16.8641   365
16.8741   344
16.8841   332
16.8941   332
16.9041   343
16.9141   362
16.9241   365
16.9341   363
16.9441   382
16.9541   390
16.9641   364
16.9741   363
16.9841   366
16.9941   328
17.0041   328
17.0141   352
17.0241   363
17.0341   353
17.0441   357
17.0541   351
17.0641   354
17.0741   367
17.0841   337
17.0941   336
17.1041   357
17.1141   365
17.1241   354
17.1341   347
17.1441   380
17.1541   388
17.1641   348
17.1741   362
17.1841   367
17.1941   350
17.2041   348
17.2141   365
17.2241   360
17.2341   355
17.2441   361
17.2541   367
17.2641   364
17.2741   386
17.2841   377
17.2941   375
17.3041   365
17.3141   378
17.3241   360
17.3341   358
17.3441   362
17.3541   387
17.3641   392
17.3741   420
17.3841   389
17.3941   382
17.4041   369
17.4141   400
17.4241   372
17.4341   374
17.4441   356
17.4541   396
17.4641   383
17.4741   364
17.4841   394
17.4941   423
17.5041   432
17.5141   423
17.5241   397
17.5341   393
17.5441   438
17.5541   428
17.5641   403
17.5741   454
17.5841   490
17.5941   482
17.6041   473
17.6141   473
17.6241   467
17.6341   488
17.6441   495
17.6541   492
17.6641   487
17.6741   462
17.6841   512
17.6941   506
17.7041   505
17.7141   479
17.7241   467
17.7341   460
17.7441   420
17.7541   451
17.7641   452
17.7741   457
17.7841   432
17.7941   415
17.8041   425
17.8141   414
17.8241   412
17.8341   416
17.8441   445
17.8541   432
17.8641   442
17.8741   426
17.8841   403
17.8941   412
17.9041   413
17.9141   425
17.9241   430
17.9341   415
17.9441   395
17.9541   408
17.9641   439
17.9741   436
17.9841   431
17.9941   455
18.0041   420
18.0141   434
18.0241   436
18.0341   449
18.0441   412
18.0541   415
18.0641   438
18.0741   422
18.0841   419
18.0941   434
18.1041   436
18.1141   417
18.1241   427
18.1341   401
18.1441   399
18.1541   411
18.1641   429
18.1741   390
18.1841   422
18.1941   381
18.2041   393
18.2141   415
18.2241   413
18.2341   420
18.2441   384
18.2541   409
18.2641   426
18.2741   416
18.2841   400
18.2941   390
18.3041   408
18.3141   431
18.3241   401
18.3341   426
18.3441   440
18.3541   418
18.3641   416
18.3741   407
18.3841   451
18.3941   412
18.4041   419
18.4141   422
18.4241   430
18.4341   404
18.4441   416
18.4541   440
18.4641   453
18.4741   413
18.4841   425
18.4941   440
18.5041   430
18.5141   437
18.5241   446
18.5341   428
18.5441   430
18.5541   449
18.5641   447
18.5741   452
18.5841   441
18.5941   442
18.6041   415
18.6141   418
18.6241   403
18.6341   430
18.6441   428
18.6541   441
18.6641   423
18.6741   435
18.6841   438
18.6941   442
18.7041   447
18.7141   428
18.7241   428
18.7341   426
18.7441   463
18.7541   486
18.7641   463
18.7741   426
18.7841   445
18.7941   424
18.8041   455
18.8141   448
18.8241   418
18.8341   451
18.8441   475
18.8541   456
18.8641   434
18.8741   415
18.8841   433
18.8941   435
18.9041   446
18.9141   472
18.9241   469
18.9341   445
18.9441   425
18.9541   433
18.9641   433
18.9741   442
18.9841   463
18.9941   419
19.0041   423
19.0141   474
19.0241   443
19.0341   447
19.0441   431
19.0541   453
19.0641   452
19.0741   414
19.0841   453
19.0941   455
19.1041   413
19.1141   447
19.1241   445
19.1341   436
19.1441   460
19.1541   465
19.1641   491
19.1741   465
19.1841   466
19.1941   461
19.2041   490
19.2141   490
19.2241   461
19.2341   460
19.2441   478
19.2541   472
19.2641   441
19.2741   449
19.2841   475
19.2941   437
19.3041   465
19.3141   462
19.3241   458
19.3341   469
19.3441   462
19.3541   446
19.3641   472
19.3741   456
19.3841   475
19.3941   466
19.4041   451
19.4141   460
19.4241   452
19.4341   458
19.4441   465
19.4541   469
19.4641   470
19.4741   467
19.4841   476
19.4941   439
19.5041   461
19.5141   439
19.5241   465
19.5341   444
19.5441   482
19.5541   459
19.5641   454
19.5741   454
19.5841   475
19.5941   486
19.6041   471
19.6141   500
19.6241   497
19.6341   478
19.6441   442
19.6541   490
19.6641   469
19.6741   455
19.6841   490
19.6941   510
19.7041   471
19.7141   478
19.7241   483
19.7341   478
19.7441   476
19.7541   453
19.7641   454
19.7741   512
19.7841   509
19.7941   440
19.8041   467
19.8141   471
19.8241   463
19.8341   461
19.8441   451
19.8541   466
19.8641   516
19.8741   500
19.8841   489
19.8941   435
19.9041   426
19.9141   469
19.9241   501
19.9341   466
19.9441   483
19.9541   513
19.9641   450
19.9741   455
19.9841   486
19.9941   499
20.0041   515
20.0141   489
20.0241   479
20.0341   465
20.0441   485
20.0541   479
20.0641   430
20.0741   468
20.0841   499
20.0941   473
20.1041   510
20.1141   525
20.1241   486
20.1341   492
20.1441   506
20.1541   467
20.1641   485
20.1741   440
20.1841   470
20.1941   473
20.2041   461
20.2141   479
20.2241   512
20.2341   460
20.2441   511
20.2541   509
20.2641   473
20.2741   497
20.2841   486
20.2941   504
20.3041   518
20.3141   461
20.3241   474
20.3341   488
20.3441   479
20.3541   504
20.3641   533
20.3741   453
20.3841   467
20.3941   461
20.4041   460
20.4141   516
20.4241   465
20.4341   514
20.4441   488
20.4541   503
20.4641   491
20.4741   482
20.4841   506
20.4941   490
20.5041   473
20.5141   520
20.5241   480
20.5341   478
20.5441   503
20.5541   521
20.5641   464
20.5741   493
20.5841   505
20.5941   531
20.6041   518
20.6141   515
20.6241   488
20.6341   489
20.6441   498
20.6541   517
20.6641   468
20.6741   467
20.6841   467
20.6941   486
20.7041   468
20.7141   486
20.7241   484
20.7341   521
20.7441   497
20.7541   458
20.7641   479
20.7741   504
20.7841   468
20.7941   553
20.8041   507
20.8141   517
20.8241   528
20.8341   517
20.8441   541
20.8541   496
20.8641   527
20.8741   548
20.8841   540
20.8941   501
20.9041   574
20.9141   565
20.9241   577
20.9341   575
20.9441   579
20.9541   607
20.9641   596
20.9741   634
20.9841   619
20.9941   689
21.0041   688
21.0141   678
21.0241   689
21.0341   716
21.0441   676
21.0541   723
21.0641   728
21.0741   766
21.0841   719
21.0941   746
21.1041   774
21.1141   758
21.1241   749
21.1341   761
21.1441   813
21.1541   782
21.1641   768
21.1741   771
21.1841   745
21.1941   696
21.2041   741
21.2141   704
21.2241   685
21.2341   671
21.2441   655
21.2541   650
21.2641   649
21.2741   592
21.2841   597
21.2941   582
21.3041   596
21.3141   564
21.3241   610
21.3341   564
21.3441   554
21.3541   549
21.3641   573
21.3741   523
21.3841   520
21.3941   519
21.4041   506
21.4141   505
21.4241   528
21.4341   498
21.4441   530
21.4541   530
21.4641   494
21.4741   486
21.4841   509
21.4941   488
21.5041   480
21.5141   510
21.5241   517
21.5341   500
21.5441   519
21.5541   494
21.5641   501
21.5741   540
21.5841   534
21.5941   536
21.6041   498
21.6141   475
21.6241   495
21.6341   478
21.6441   504
21.6541   457
21.6641   481
21.6741   512
21.6841   494
21.6941   467
21.7041   512
21.7141   507
21.7241   530
21.7341   535
21.7441   504
21.7541   473
21.7641   520
21.7741   485
21.7841   486
21.7941   488
21.8041   491
21.8141   490
21.8241   463
21.8341   481
21.8441   479
21.8541   459
21.8641   527
21.8741   525
21.8841   500
21.8941   489
21.9041   506
21.9141   516
21.9241   531
21.9341   529
21.9441   515
21.9541   486
21.9641   509
21.9741   498
21.9841   475
21.9941   475
22.0041   489
22.0141   487
22.0241   493
22.0341   482
22.0441   484
22.0541   511
22.0641   489
22.0741   496
22.0841   484
22.0941   503
22.1041   473
22.1141   489
22.1241   520
22.1341   527
22.1441   505
22.1541   521
22.1641   472
22.1741   518
22.1841   515
22.1941   529
22.2041   525
22.2141   478
22.2241   463
22.2341   468
22.2441   463
22.2541   489
22.2641   497
22.2741   489
22.2841   496
22.2941   470
22.3041   481
22.3141   479
22.3241   505
22.3341   506
22.3441   495
22.3541   524
22.3641   453
22.3741   517
22.3841   521
22.3941   487
22.4041   535
22.4141   502
22.4241   477
22.4341   476
22.4441   563
22.4541   505
22.4641   495
22.4741   548
22.4841   494
22.4941   493
22.5041   496
22.5141   515
22.5241   463
22.5341   501
22.5441   471
22.5541   457
22.5641   510
22.5741   497
22.5841   532
22.5941   517
22.6041   499
22.6141   515
22.6241   501
22.6341   513
22.6441   462
22.6541   497
22.6641   492
22.6741   524
22.6841   482
22.6941   489
22.7041   492
22.7141   499
22.7241   474
22.7341   448
22.7441   447
22.7541   429
22.7641   486
22.7741   457
22.7841   534
22.7941   527
22.8041   509
22.8141   476
22.8241   525
22.8341   500
22.8441   493
22.8541   474
22.8641   531
22.8741   480
22.8841   513
22.8941   463
22.9041   422
22.9141   456
22.9241   492
22.9341   491
22.9441   499
22.9541   497
22.9641   522
22.9741   447
22.9841   470
22.9941   482
23.0041   522
23.0141   527
23.0241   501
23.0341   474
23.0441   479
23.0541   470
23.0641   489
23.0741   504
23.0841   481
23.0941   492
23.1041   499
23.1141   475
23.1241   539
23.1341   499
23.1441   537
23.1541   481
23.1641   478
23.1741   503
23.1841   525
23.1941   504
23.2041   509
23.2141   515
23.2241   485
23.2341   464
23.2441   486
23.2541   482
23.2641   481
23.2741   473
23.2841   506
23.2941   454
23.3041   477
23.3141   479
23.3241   514
23.3341   488
23.3441   475
23.3541   489
23.3641   509
23.3741   479
23.3841   451
23.3941   433
23.4041   499
23.4141   465
23.4241   444
23.4341   474
23.4441   490
23.4541   498
23.4641   500
23.4741   497
23.4841   502
23.4941   509
23.5041   494
23.5141   480
23.5241   488
23.5341   532
23.5441   521
23.5541   481
23.5641   468
23.5741   466
23.5841   474
23.5941   446
23.6041   499
23.6141   495
23.6241   479
23.6341   486
23.6441   471
23.6541   494
23.6641   514
23.6741   500
23.6841   467
23.6941   483
23.7041   545
23.7141   503
23.7241   511
23.7341   526
23.7441   516
23.7541   538
23.7641   497
23.7741   534
23.7841   513
23.7941   543
23.8041   502
23.8141   511
23.8241   570
23.8341   508
23.8441   471
23.8541   506
23.8641   498
23.8741   532
23.8841   491
23.8941   512
23.9041   490
23.9141   489
23.9241   464
23.9341   504
23.9441   463
23.9541   484
23.9641   474
23.9741   562
23.9841   447
23.9941   494
24.0041   480
24.0141   500
24.0241   450
24.0341   481
24.0441   524
24.0541   465
24.0641   504
24.0741   453
24.0841   444
24.0941   467
24.1041   454
24.1141   484
24.1241   447
24.1341   483
24.1441   476
24.1541   468
24.1641   480
24.1741   433
24.1841   463
24.1941   491
24.2041   477
24.2141   460
24.2241   493
24.2341   507
24.2441   454
24.2541   466
24.2641   474
24.2741   470
24.2841   466
24.2941   442
24.3041   473
24.3141   507
24.3241   475
24.3341   464
24.3441   467
24.3541   467
24.3641   493
24.3741   449
24.3841   463
24.3941   490
24.4041   464
24.4141   479
24.4241   492
24.4341   458
24.4441   487
24.4541   525
24.4641   480
24.4741   466
24.4841   454
24.4941   485
24.5041   482
24.5141   477
24.5241   466
24.5341   448
24.5441   488
24.5541   479
24.5641   472
24.5741   446
24.5841   443
24.5941   452
24.6041   430
24.6141   446
24.6241   479
24.6341   436
24.6441   426
24.6541   451
24.6641   411
24.6741   471
24.6841   466
24.6941   488
24.7041   471
24.7141   439
24.7241   467
24.7341   502
24.7441   432
24.7541   433
24.7641   469
24.7741   443
24.7841   461
24.7941   465
24.8041   459
24.8141   434
24.8241   434
24.8341   427
24.8441   446
24.8541   452
24.8641   455
24.8741   472
24.8841   465
24.8941   431
24.9041   474
24.9141   480
24.9241   466
24.9341   465
24.9441   434
24.9541   445
24.9641   421
24.9741   476
24.9841   483
24.9941   463
25.0041   456
25.0141   476
25.0241   451
25.0341   459
25.0441   486
25.0541   426
25.0641   426
25.0741   449
25.0841   498
25.0941   461
25.1041   462
25.1141   434
25.1241   469
25.1341   444
25.1441   414
25.1541   462
25.1641   409
25.1741   481
25.1841   470
25.1941   443
25.2041   472
25.2141   422
25.2241   459
25.2341   423
25.2441   434
25.2541   467
25.2641   473
25.2741   459
25.2841   461
25.2941   466
25.3041   454
25.3141   451
25.3241   480
25.3341   444
25.3441   440
25.3541   457
25.3641   458
25.3741   441
25.3841   424
25.3941   424
25.4041   456
25.4141   407
25.4241   416
25.4341   424
25.4441   447
25.4541   460
25.4641   441
25.4741   432
25.4841   424
25.4941   443
25.5041   415
25.5141   438
25.5241   456
25.5341   424
25.5441   396
25.5541   433
25.5641   442
25.5741   429
25.5841   417
25.5941   424
25.6041   450
25.6141   434
25.6241   412
25.6341   424
25.6441   413
25.6541   425
25.6641   393
25.6741   460
25.6841   404
25.6941   388
25.7041   404
25.7141   403
25.7241   446
25.7341   405
25.7441   458
25.7541   416
25.7641   435
25.7741   438
25.7841   437
25.7941   422
25.8041   421
25.8141   399
25.8241   413
25.8341   431
25.8441   413
25.8541   398
25.8641   405
25.8741   402
25.8841   476
25.8941   417
25.9041   373
25.9141   412
25.9241   413
25.9341   432
25.9441   425
25.9541   416
25.9641   440
25.9741   419
25.9841   380
25.9941   385
26.0041   425
26.0141   413
26.0241   419
26.0341   427
26.0441   419
26.0541   397
26.0641   408
26.0741   429
26.0841   392
26.0941   425
26.1041   369
26.1141   390
26.1241   393
26.1341   402
26.1441   430
26.1541   402
26.1641   406
26.1741   402
26.1841   400
26.1941   393
26.2041   421
26.2141   389
26.2241   388
26.2341   414
26.2441   386
26.2541   413
26.2641   412
26.2741   393
26.2841   415
26.2941   397
26.3041   412
26.3141   436
26.3241   417
26.3341   387
26.3441   404
26.3541   402
26.3641   429
26.3741   412
26.3841   398
26.3941   382
26.4041   407
26.4141   369
26.4241   405
26.4341   421
26.4441   383
26.4541   399
26.4641   398
26.4741   387
26.4841   382
26.4941   415
26.5041   407
26.5141   415
26.5241   385
26.5341   395
26.5441   417
26.5541   404
26.5641   383
26.5741   389
26.5841   411
26.5941   406
26.6041   379
26.6141   380
26.6241   394
26.6341   380
26.6441   358
26.6541   394
26.6641   381
26.6741   393
26.6841   375
26.6941   380
26.7041   405
26.7141   410
26.7241   416
26.7341   378
26.7441   367
26.7541   392
26.7641   385
26.7741   398
26.7841   407
26.7941   387
26.8041   383
26.8141   371
26.8241   366
26.8341   359
26.8441   355
26.8541   371
26.8641   345
26.8741   384
26.8841   356
26.8941   363
26.9041   381
26.9141   395
26.9241   366
26.9341   361
26.9441   378
26.9541   406
26.9641   412
26.9741   376
26.9841   394
26.9941   359
27.0041   372
27.0141   354
27.0241   386
27.0341   376
27.0441   384
27.0541   370
27.0641   355
27.0741   380
27.0841   418
27.0941   379
27.1041   363
27.1141   370
27.1241   358
27.1341   383
27.1441   368
27.1541   380
27.1641   386
27.1741   362
27.1841   391
27.1941   367
27.2041   345
27.2141   377
27.2241   355
27.2341   394
27.2441   394
27.2541   398
27.2641   365
27.2741   353
27.2841   357
27.2941   382
27.3041   340
27.3141   341
27.3241   360
27.3341   366
27.3441   365
27.3541   384
27.3641   387
27.3741   363
27.3841   364
27.3941   349
27.4041   398
27.4141   360
27.4241   373
27.4341   350
27.4441   391
27.4541   358
27.4641   388
27.4741   347
27.4841   373
27.4941   371
27.5041   373
27.5141   381
27.5241   381
27.5341   344
27.5441   364
27.5541   393
27.5641   354
27.5741   374
27.5841   372
27.5941   342
27.6041   359
27.6141   393
27.6241   365
27.6341   339
27.6441   334
27.6541   337
27.6641   345
27.6741   352
27.6841   366
27.6941   356
27.7041   371
27.7141   308
27.7241   347
27.7341   329
27.7441   329
27.7541   324
27.7641   318
27.7741   321
27.7841   362
27.7941   346
27.8041   343
27.8141   336
27.8241   341
27.8341   338
27.8441   344
27.8541   317
27.8641   321
27.8741   340
27.8841   348
27.8941   356
27.9041   318
27.9141   363
27.9241   342
27.9341   338
27.9441   327
27.9541   341
27.9641   337
27.9741   310
27.9841   335
27.9941   358
28.0041   335
28.0141   341
28.0241   308
28.0341   334
28.0441   369
28.0541   332
28.0641   354
28.0741   338
28.0841   351
28.0941   325
28.1041   318
28.1141   313
28.1241   329
28.1341   331
28.1441   314
28.1541   303
28.1641   314
28.1741   337
28.1841   291
28.1941   315
28.2041   344
28.2141   338
28.2241   361
28.2341   316
28.2441   315
28.2541   318
28.2641   335
28.2741   326
28.2841   351
28.2941   325
28.3041   350
28.3141   321
28.3241   335
28.3341   337
28.3441   344
28.3541   310
28.3641   305
28.3741   332
28.3841   332
28.3941   313
28.4041   308
28.4141   304
28.4241   320
28.4341   324
28.4441   328
28.4541   303
28.4641   341
28.4741   329
28.4841   339
28.4941   319
28.5041   358
28.5141   334
28.5241   323
28.5341   342
28.5441   315
28.5541   327
28.5641   316
28.5741   342
28.5841   309
28.5941   303
28.6041   311
28.6141   318
28.6241   333
28.6341   316
28.6441   309
28.6541   313
28.6641   316
28.6741   319
28.6841   306
28.6941   296
28.7041   305
28.7141   277
28.7241   304
28.7341   298
28.7441   301
28.7541   272
28.7641   340
28.7741   301
28.7841   310
28.7941   285
28.8041   312
28.8141   300
28.8241   283
28.8341   313
28.8441   300
28.8541   295
28.8641   280
28.8741   292
28.8841   289
28.8941   313
28.9041   303
28.9141   314
28.9241   310
28.9341   316
28.9441   292
28.9541   329
28.9641   292
28.9741   291
28.9841   288
28.9941   298
29.0041   301
29.0141   297
29.0241   313
29.0341   302
29.0441   305
29.0541   293
29.0641   296
29.0741   328
29.0841   326
29.0941   278
29.1041   290
29.1141   303
29.1241   304
29.1341   288
29.1441   302
29.1541   278
29.1641   285
29.1741   297
29.1841   283
29.1941   302
29.2041   290
29.2141   279
29.2241   289
29.2341   306
29.2441   272
29.2541   267
29.2641   274
29.2741   274
29.2841   269
29.2941   290
29.3041   276
29.3141   302
29.3241   285
29.3341   302
29.3441   297
29.3541   314
29.3641   284
29.3741   265
29.3841   288
29.3941   277
29.4041   284
29.4141   293
29.4241   258
29.4341   287
29.4441   267
29.4541   307
29.4641   289
29.4741   289
29.4841   291
29.4941   276
29.5041   292
29.5141   273
29.5241   260
29.5341   256
29.5441   270
29.5541   291
29.5641   320
29.5741   266
29.5841   259
29.5941   284
29.6041   304
29.6141   290
29.6241   289
29.6341   238
29.6441   284
29.6541   284
29.6641   278
29.6741   261
29.6841   278
29.6941   279
29.7041   282
29.7141   264
29.7241   267
29.7341   285
29.7441   254
29.7541   298
29.7641   264
29.7741   278
29.7841   277
29.7941   252
29.8041   247
29.8141   289
29.8241   278
29.8341   273
29.8441   271
29.8541   253
29.8641   258
29.8741   268
29.8841   275
29.8941   253
29.9041   258
29.9141   269
29.9241   270
29.9341   244
29.9441   275
29.9541   258
29.9641   246
29.9741   282
29.9841   269
29.9941   265
30.0041   286
30.0141   255
30.0241   260
30.0341   271
30.0441   267
30.0541   268
30.0641   272
30.0741   262
30.0841   233
30.0941   247
30.1041   272
30.1141   271
30.1241   274
30.1341   260
30.1441   254
30.1541   256
30.1641   241
30.1741   236
30.1841   264
30.1941   241
30.2041   260
30.2141   227
30.2241   255
30.2341   264
30.2441   248
30.2541   239
30.2641   253
30.2741   244
30.2841   287
30.2941   282
30.3041   274
30.3141   262
30.3241   262
30.3341   220
30.3441   240
30.3541   218
30.3641   238
30.3741   233
30.3841   234
30.3941   263
30.4041   234
30.4141   258
30.4241   220
30.4341   249
30.4441   235
30.4541   249
30.4641   275
30.4741   227
30.4841   241
30.4941   245
30.5041   258
30.5141   240
30.5241   221
30.5341   247
30.5441   220
30.5541   229
30.5641   240
30.5741   249
30.5841   251
30.5941   249
30.6041   236
30.6141   256
30.6241   234
30.6341   235
30.6441   249
30.6541   236
30.6641   253
30.6741   247
30.6841   253
30.6941   238
30.7041   226
30.7141   211
30.7241   223
30.7341   236
30.7441   230
30.7541   217
30.7641   235
30.7741   226
30.7841   231
30.7941   223
30.8041   233
30.8141   221
30.8241   224
30.8341   220
30.8441   237
30.8541   250
30.8641   217
30.8741   227
30.8841   248
30.8941   256
30.9041   256
30.9141   220
30.9241   240
30.9341   232
30.9441   240
30.9541   259
30.9641   237
30.9741   240
30.9841   220
30.9941   238
31.0041   235
31.0141   215
31.0241   235
31.0341   198
31.0441   219
31.0541   239
31.0641   247
31.0741   206
31.0841   244
31.0941   220
31.1041   226
31.1141   230
31.1241   228
31.1341   209
31.1441   222
31.1541   225
31.1641   199
31.1741   184
31.1841   226
31.1941   204
31.2041   207
31.2141   215
31.2241   241
31.2341   196
31.2441   211
31.2541   196
31.2641   196
31.2741   221
31.2841   240
31.2941   229
31.3041   220
31.3141   211
31.3241   235
31.3341   210
31.3441   204
31.3541   201
31.3641   223
31.3741   229
31.3841   217
31.3941   218
31.4041   217
31.4141   188
31.4241   219
31.4341   232
31.4441   200
31.4541   216
31.4641   213
31.4741   221
31.4841   204
31.4941   198
31.5041   220
31.5141   190
31.5241   206
31.5341   186
31.5441   214
31.5541   212
31.5641   193
31.5741   209
31.5841   197
31.5941   209
31.6041   210
31.6141   217
31.6241   195
31.6341   217
31.6441   215
31.6541   257
31.6641   231
31.6741   197
31.6841   208
31.6941   219
31.7041   201
31.7141   222
31.7241   195
31.7341   224
31.7441   222
31.7541   212
31.7641   203
31.7741   214
31.7841   194
31.7941   214
31.8041   207
31.8141   238
31.8241   207
31.8341   221
31.8441   241
31.8541   242
31.8641   226
31.8741   213
31.8841   209
31.8941   179
31.9041   190
31.9141   202
31.9241   212
31.9341   221
31.9441   180
31.9541   202
31.9641   201
31.9741   184
31.9841   206
31.9941   203
32.0041   198
32.0141   205
32.0241   228
32.0341   212
32.0441   211
32.0541   199
32.0641   178
32.0741   191
32.0841   194
32.0941   200
32.1041   210
32.1141   206
32.1241   207
32.1341   199
32.1441   209
32.1541   207
32.1641   206
32.1741   214
32.1841   195
32.1941   216
32.2041   207
32.2141   207
32.2241   205
32.2341   198
32.2441   209
32.2541   207
32.2641   209
32.2741   206
32.2841   189
32.2941   194
32.3041   204
32.3141   192
32.3241   191
32.3341   186
32.3441   184
32.3541   203
32.3641   205
32.3741   189
32.3841   201
32.3941   183
32.4041   181
32.4141   186
32.4241   181
32.4341   176
32.4441   180
32.4541   162
32.4641   160
32.4741   213
32.4841   167
32.4941   189
32.5041   185
32.5141   188
32.5241   168
32.5341   157
32.5441   190
32.5541   188
32.5641   141
32.5741   178
32.5841   187
32.5941   171
32.6041   160
32.6141   176
32.6241   168
32.6341   153
32.6441   179
32.6541   180
32.6641   182
32.6741   150
32.6841   171
32.6941   188
32.7041   199
32.7141   186
32.7241   169
32.7341   159
32.7441   186
32.7541   169
32.7641   164
32.7741   194
32.7841   176
32.7941   158
32.8041   162
32.8141   175
32.8241   178
32.8341   170
32.8441   157
32.8541   171
32.8641   164
32.8741   178
32.8841   177
32.8941   187
32.9041   149
32.9141   167
32.9241   187
32.9341   145
32.9441   158
32.9541   183
32.9641   168
32.9741   154
32.9841   141
32.9941   174
33.0041   173
33.0141   161
33.0241   185
33.0341   159
33.0441   168
33.0541   171
33.0641   151
33.0741   159
33.0841   164
33.0941   164
33.1041   157
33.1141   167
33.1241   157
33.1341   167
33.1441   167
33.1541   141
33.1641   148
33.1741   154
33.1841   161
33.1941   155
33.2041   158
33.2141   148
33.2241   176
33.2341   139
33.2441   173
33.2541   169
33.2641   173
33.2741   169
33.2841   185
33.2941   158
33.3041   150
33.3141   156
33.3241   149
33.3341   160
33.3441   174
33.3541   166
33.3641   154
33.3741   136
33.3841   175
33.3941   150
33.4041   151
33.4141   155
33.4241   161
33.4341   134
33.4441   161
33.4541   169
33.4641   113
33.4741   131
33.4841   144
33.4941   151
33.5041   140
33.5141   150
33.5241   161
33.5341   149
33.5441   143
33.5541   149
33.5641   147
33.5741   141
33.5841   162
33.5941   146
33.6041   130
33.6141   169
33.6241   135
33.6341   128
33.6441   139
33.6541   122
33.6641   159
33.6741   141
33.6841   140
33.6941   124
33.7041   134
33.7141   156
33.7241   133
33.7341   143
33.7441   125
33.7541   150
33.7641   136
33.7741   123
33.7841   135
33.7941   150
33.8041   123
33.8141   136
33.8241   147
33.8341   152
33.8441   136
33.8541   132
33.8641   129
33.8741   133
33.8841   126
33.8941   131
33.9041   129
33.9141   136
33.9241   128
33.9341   132
33.9441   134
33.9541   139
33.9641   140
33.9741   137
33.9841   155
33.9941   140
34.0041   135
34.0141   132
34.0241   137
34.0341   135
34.0441   142
34.0541   121
34.0641   138
34.0741   152
34.0841   152
34.0941   137
34.1041   134
34.1141   131
34.1241   122
34.1341   136
34.1441   125
34.1541   152
34.1641   131
34.1741   133
34.1841   138
34.1941   143
34.2041   121
34.2141   121
34.2241   117
34.2341   126
34.2441   121
34.2541   119
34.2641   127
34.2741   123
34.2841   123
34.2941   137
34.3041   145
34.3141   146
34.3241   159
34.3341   114
34.3441   117
34.3541   122
34.3641   135
34.3741   116
34.3841   132
34.3941   124
34.4041   128
34.4141   138
34.4241   117
34.4341   135
34.4441   134
34.4541   131
34.4641   127
34.4741   110
34.4841   112
34.4941   131
34.5041   122
34.5141   125
34.5241   120
34.5341   138
34.5441   131
34.5541   138
34.5641   116
34.5741   126
34.5841   111
34.5941   109
34.6041   113
34.6141   102
34.6241   115
34.6341   117
34.6441   131
34.6541   122
34.6641   132
34.6741   103
34.6841   125
34.6941   110
34.7041   125
34.7141   110
34.7241   126
34.7341   105
34.7441   118
34.7541   117
34.7641   109
34.7741   123
34.7841   114
34.7941    99
34.8041   109
34.8141   120
34.8241   118
34.8341   112
34.8441   132
34.8541    97
34.8641   113
34.8741   104
34.8841   108
34.8941   124
34.9041    97
34.9141   111
34.9241   110
34.9341   107
34.9441   130
34.9541   111
34.9641   114
34.9741   121
34.9841    93
34.9941   101
35.0041   112
35.0141    97
35.0241   115
35.0341   104
35.0441   113
35.0541   100
35.0641   113
35.0741   101
35.0841   107
35.0941   108
35.1041   110
35.1141   101
35.1241   122
35.1341   110
35.1441   115
35.1541   115
35.1641   114
35.1741   116
35.1841   107
35.1941   102
35.2041    94
35.2141    83
35.2241   119
35.2341   112
35.2441   119
35.2541   123
35.2641   109
35.2741   114
35.2841   118
35.2941   119
35.3041   104
35.3141   110
35.3241   108
35.3341   100
35.3441   113
35.3541   122
35.3641    96
35.3741   109
35.3841   113
35.3941   111
35.4041   106
35.4141   116
35.4241    98
35.4341   112
35.4441    85
35.4541    99
35.4641   120
35.4741   103
35.4841   103
35.4941    88
35.5041   105
35.5141    94
35.5241    99
35.5341   104
35.5441    98
35.5541   101
35.5641   113
35.5741   133
35.5841    99
35.5941    87
35.6041    86
35.6141    95
35.6241   100
35.6341   108
35.6441    98
35.6541   111
35.6641   104
35.6741    94
35.6841   106
35.6941    93
35.7041    87
35.7141    91
35.7241   104
35.7341    98
35.7441   108
35.7541   112
35.7641    86
35.7741    94
35.7841    99
35.7941   108
35.8041    97
35.8141    93
35.8241   113
35.8341   104
35.8441    87
35.8541    80
35.8641    71
35.8741   100
35.8841    99
35.8941    90
35.9041    92
35.9141    88
35.9241    84
35.9341    97
35.9441    91
35.9541    72
35.9641    94
35.9741    79
35.9841    87
35.9941    80
36.0041    97
36.0141    87
36.0241    90
36.0341    89
36.0441    89
36.0541    76
36.0641    84
36.0741    84
36.0841    94
36.0941    89
36.1041    87
36.1141    79
36.1241    82
36.1341    92
36.1441    77
36.1541    87
36.1641    92
36.1741    91
36.1841    97
36.1941    85
36.2041    85
36.2141    99
36.2241   101
36.2341    82
36.2441    77
36.2541    89
36.2641    96
36.2741   106
36.2841    96
36.2941   106
36.3041   108
36.3141   102
36.3241    93
36.3341    94
36.3441   111
36.3541    73
36.3641    82
36.3741    89
36.3841   101
36.3941    82
36.4041   103
36.4141   102
36.4241    79
36.4341    81
36.4441    65
36.4541   101
36.4641    98
36.4741    83
36.4841    79
36.4941    68
36.5041    69
36.5141    82
36.5241    82
36.5341    84
36.5441    86
36.5541    85
36.5641    89
36.5741    89
36.5841    90
36.5941    90
36.6041    87
36.6141    86
36.6241    95
36.6341    77
36.6441    65
36.6541    97
36.6641    71
36.6741    68
36.6841    64
36.6941    70
36.7041    75
36.7141    82
36.7241    71
36.7341    72
36.7441    89
36.7541    79
36.7641    81
36.7741    78
36.7841    77
36.7941    76
36.8041    90
36.8141    61
36.8241    82
36.8341    71
36.8441    75
36.8541    79
36.8641    82
36.8741    71
36.8841    61
36.8941    56
36.9041    52
36.9141    88
36.9241    81
36.9341    77
36.9441    74
36.9541    68
36.9641    71
36.9741    82
36.9841    76
36.9941    75
37.0041    82
37.0141    77
37.0241    74
37.0341    64
37.0441    68
37.0541    73
37.0641    88
37.0741    61
37.0841    64
37.0941    78
37.1041    77
37.1141    84
37.1241    70
37.1341    72
37.1441    59
37.1541    64
37.1641    62
37.1741    73
37.1841    77
37.1941    68
37.2041    73
37.2141    71
37.2241    85
37.2341    70
37.2441    74
37.2541    83
37.2641    58
37.2741    65
37.2841    72
37.2941    70
37.3041    92
37.3141    68
37.3241    66
37.3341    59
37.3441    51
37.3541    82
37.3641    72
37.3741    78
37.3841    73
37.3941    75
37.4041    66
37.4141    60
37.4241    60
37.4341    63
37.4441    59
37.4541    66
37.4641    66
37.4741    70
37.4841    68
37.4941    60
37.5041    60
37.5141    67
37.5241    65
37.5341    65
37.5441    51
37.5541    55
37.5641    67
37.5741    57
37.5841    65
37.5941    70
37.6041    67
37.6141    51
37.6241    59
37.6341    63
37.6441    55
37.6541    72
37.6641    73
37.6741    60
37.6841    58
37.6941    55
37.7041    60
37.7141    73
37.7241    72
37.7341    72
37.7441    58
37.7541    67
37.7641    65
37.7741    68
37.7841    67
37.7941    63
37.8041    67
37.8141    71
37.8241    56
37.8341    66
37.8441    48
37.8541    56
37.8641    51
37.8741    57
37.8841    56
37.8941    60
37.9041    48
37.9141    53
37.9241    67
37.9341    52
37.9441    58
37.9541    55
37.9641    71
37.9741    58
37.9841    56
37.9941    43
38.0041    57
38.0141    70
38.0241    48
38.0341    58
38.0441    65
38.0541    53
38.0641    59
38.0741    59
38.0841    64
38.0941    63
38.1041    65
38.1141    54
38.1241    52
38.1341    69
38.1441    66
38.1541    49
38.1641    53
38.1741    46
38.1841    62
38.1941    78
38.2041    55
38.2141    66
38.2241    51
38.2341    50
38.2441    59
38.2541    55
38.2641    64
38.2741    52
38.2841    57
38.2941    53
38.3041    58
38.3141    55
38.3241    55
38.3341    44
38.3441    51
38.3541    70
38.3641    59
38.3741    54
38.3841    60
38.3941    61
38.4041    46
38.4141    45
38.4241    54
38.4341    45
38.4441    49
38.4541    49
38.4641    43
38.4741    37
38.4841    45
38.4941    56
38.5041    52
38.5141    54
38.5241    40
38.5341    48
38.5441    53
38.5541    38
38.5641    39
38.5741    64
38.5841    48
38.5941    51
38.6041    51
38.6141    62
38.6241    54
38.6341    53
38.6441    59
38.6541    42
38.6641    50
38.6741    46
38.6841    56
38.6941    51
38.7041    36
38.7141    45
38.7241    46
38.7341    43
38.7441    33
38.7541    46
38.7641    38
38.7741    39
38.7841    38
38.7941    47
38.8041    53
38.8141    58
38.8241    45
38.8341    39
38.8441    54
38.8541    35
38.8641    38
38.8741    34
38.8841    47
38.8941    46
38.9041    44
38.9141    45
38.9241    41
38.9341    40
38.9441    48
38.9541    44
38.9641    44
38.9741    50
38.9841    51
38.9941    37
39.0041    43
39.0141    33
39.0241    51
39.0341    46
39.0441    44
39.0541    33
39.0641    40
39.0741    34
39.0841    45
39.0941    45
39.1041    46
39.1141    36
39.1241    43
39.1341    36
39.1441    38
39.1541    43
39.1641    36
39.1741    44
39.1841    43
39.1941    34
39.2041    57
39.2141    48
39.2241    47
39.2341    44
39.2441    40
39.2541    29
39.2641    37
39.2741    38
39.2841    31
39.2941    27
39.3041    32
39.3141    34
39.3241    29
39.3341    38
39.3441    45
39.3541    34
39.3641    38
39.3741    41
39.3841    43
39.3941    41
39.4041    38
39.4141    36
39.4241    29
39.4341    19
39.4441    41
39.4541    40
39.4641    35
39.4741    34
39.4841    37
39.4941    40
39.5041    50
39.5141    26
39.5241    38
39.5341    42
39.5441    35
39.5541    33
39.5641    45
39.5741    39
39.5841    39
39.5941    35
39.6041    25
39.6141    36
39.6241    39
39.6341    30
39.6441    29
39.6541    35
39.6641    41
39.6741    28
39.6841    31
39.6941    50
39.7041    21
39.7141    27
39.7241    32
39.7341    25
39.7441    36
39.7541    31
39.7641    31
39.7741    37
39.7841    37
39.7941    41
39.8041    38
39.8141    31
39.8241    31
39.8341    30
39.8441    35
39.8541    39
39.8641    25
39.8741    37
39.8841    31
39.8941    35
39.9041    28
39.9141    32
39.9241    42
39.9341    37
39.9441    26
39.9541    30
39.9641    21
39.9741    26
39.9841    17
