Bruker Nano GmbH Berlin, Germany
Esprit 1.9

Date: 5/14/2021 1:36:20 PM
Real time: 19282
Life time: 18108
Pulse density: 88639


Detector type: XFlash 430
Window type: Custom type
Detector thickness: 0.45
Si dead layer:0.029

Calibration, lin.: 10
Calibration, abs.: -955.9
Mn FWHM: 137.05
Fano factor: 0.121
Channels: 4096

Energy Counts
-0.9559     0
-0.9459     0
-0.9359     0
-0.9259     0
-0.9159     0
-0.9059     0
-0.8959     0
-0.8859     0
-0.8759     0
-0.8659     0
-0.8559     0
-0.8459     0
-0.8359     0
-0.8259     0
-0.8159     0
-0.8059     0
-0.7959     0
-0.7859     0
-0.7759     0
-0.7659     0
-0.7559     0
-0.7459     0
-0.7359     0
-0.7259     0
-0.7159     0
-0.7059     0
-0.6959     0
-0.6859     0
-0.6759     0
-0.6659     0
-0.6559     0
-0.6459     0
-0.6359     0
-0.6259     0
-0.6159     0
-0.6059     0
-0.5959     0
-0.5859     0
-0.5759     0
-0.5659     0
-0.5559     0
-0.5459     0
-0.5359     0
-0.5259     0
-0.5159     0
-0.5059     0
-0.4959     0
-0.4859     0
-0.4759     0
-0.4659     0
-0.4559     0
-0.4459     0
-0.4359     0
-0.4259     0
-0.4159     0
-0.4059     0
-0.3959     0
-0.3859     0
-0.3759     0
-0.3659     0
-0.3559     0
-0.3459     0
-0.3359     0
-0.3259     0
-0.3159     0
-0.3059     0
-0.2959     0
-0.2859     0
-0.2759     0
-0.2659     0
-0.2559     0
-0.2459     0
-0.2359     0
-0.2259     0
-0.2159     0
-0.2059     0
-0.1959     0
-0.1859     0
-0.1759     0
-0.1659     0
-0.1559     0
-0.1459     0
-0.1359     0
-0.1259     0
-0.1159     3
-0.1059    15
-0.0959    59
-0.0859   204
-0.0759   724
-0.0659  2096
-0.0559  5168
-0.0459 11642
-0.0359 21596
-0.0259 34028
-0.0159 47182
-0.0059 55766
 0.0041 55556
 0.0141 48025
 0.0241 35657
 0.0341 22436
 0.0441 12291
 0.0541  5813
 0.0641  2239
 0.0741   777
 0.0841   247
 0.0941    59
 0.1041    18
 0.1141    14
 0.1241     9
 0.1341     9
 0.1441     4
 0.1541     3
 0.1641     5
 0.1741     3
 0.1841   178
 0.1941   331
 0.2041   287
 0.2141   326
 0.2241   300
 0.2341   303
 0.2441   289
 0.2541   292
 0.2641   317
 0.2741   317
 0.2841   308
 0.2941   285
 0.3041   295
 0.3141   305
 0.3241   292
 0.3341   286
 0.3441   279
 0.3541   269
 0.3641   276
 0.3741   264
 0.3841   253
 0.3941   250
 0.4041   264
 0.4141   247
 0.4241   259
 0.4341   261
 0.4441   243
 0.4541   249
 0.4641   272
 0.4741   272
 0.4841   252
 0.4941   244
 0.5041   252
 0.5141   255
 0.5241   272
 0.5341   267
 0.5441   241
 0.5541   246
 0.5641   253
 0.5741   252
 0.5841   254
 0.5941   234
 0.6041   241
 0.6141   236
 0.6241   228
 0.6341   221
 0.6441   220
 0.6541   222
 0.6641   205
 0.6741   215
 0.6841   230
 0.6941   232
 0.7041   232
 0.7141   224
 0.7241   217
 0.7341   207
 0.7441   208
 0.7541   222
 0.7641   218
 0.7741   227
 0.7841   228
 0.7941   213
 0.8041   208
 0.8141   209
 0.8241   212
 0.8341   215
 0.8441   214
 0.8541   205
 0.8641   196
 0.8741   208
 0.8841   201
 0.8941   214
 0.9041   212
 0.9141   189
 0.9241   199
 0.9341   204
 0.9441   207
 0.9541   192
 0.9641   204
 0.9741   207
 0.9841   193
 0.9941   225
 1.0041   206
 1.0141   201
 1.0241   192
 1.0341   189
 1.0441   198
 1.0541   182
 1.0641   203
 1.0741   207
 1.0841   190
 1.0941   176
 1.1041   197
 1.1141   170
 1.1241   191
 1.1341   188
 1.1441   201
 1.1541   197
 1.1641   188
 1.1741   195
 1.1841   162
 1.1941   176
 1.2041   179
 1.2141   196
 1.2241   189
 1.2341   165
 1.2441   180
 1.2541   205
 1.2641   195
 1.2741   177
 1.2841   173
 1.2941   167
 1.3041   170
 1.3141   176
 1.3241   201
 1.3341   171
 1.3441   177
 1.3541   172
 1.3641   174
 1.3741   198
 1.3841   158
 1.3941   155
 1.4041   153
 1.4141   169
 1.4241   173
 1.4341   179
 1.4441   172
 1.4541   164
 1.4641   166
 1.4741   186
 1.4841   187
 1.4941   205
 1.5041   181
 1.5141   198
 1.5241   164
 1.5341   168
 1.5441   165
 1.5541   146
 1.5641   163
 1.5741   171
 1.5841   159
 1.5941   177
 1.6041   164
 1.6141   167
 1.6241   180
 1.6341   170
 1.6441   186
 1.6541   215
 1.6641   242
 1.6741   311
 1.6841   347
 1.6941   460
 1.7041   537
 1.7141   618
 1.7241   720
 1.7341   759
 1.7441   737
 1.7541   667
 1.7641   617
 1.7741   548
 1.7841   479
 1.7941   386
 1.8041   312
 1.8141   265
 1.8241   232
 1.8341   213
 1.8441   198
 1.8541   222
 1.8641   209
 1.8741   171
 1.8841   170
 1.8941   184
 1.9041   170
 1.9141   147
 1.9241   164
 1.9341   171
 1.9441   167
 1.9541   179
 1.9641   208
 1.9741   208
 1.9841   206
 1.9941   194
 2.0041   221
 2.0141   212
 2.0241   180
 2.0341   213
 2.0441   202
 2.0541   160
 2.0641   184
 2.0741   190
 2.0841   177
 2.0941   167
 2.1041   157
 2.1141   147
 2.1241   166
 2.1341   149
 2.1441   139
 2.1541   150
 2.1641   147
 2.1741   183
 2.1841   151
 2.1941   147
 2.2041   136
 2.2141   154
 2.2241   154
 2.2341   137
 2.2441   158
 2.2541   145
 2.2641   168
 2.2741   143
 2.2841   145
 2.2941   145
 2.3041   164
 2.3141   149
 2.3241   151
 2.3341   147
 2.3441   132
 2.3541   139
 2.3641   161
 2.3741   155
 2.3841   137
 2.3941   152
 2.4041   140
 2.4141   148
 2.4241   123
 2.4341   125
 2.4441   132
 2.4541   123
 2.4641   121
 2.4741   143
 2.4841   147
 2.4941   115
 2.5041   145
 2.5141   126
 2.5241   137
 2.5341   133
 2.5441   132
 2.5541   120
 2.5641   133
 2.5741   142
 2.5841   131
 2.5941   149
 2.6041   116
 2.6141   126
 2.6241   111
 2.6341   147
 2.6441   157
 2.6541   138
 2.6641   150
 2.6741   119
 2.6841   127
 2.6941   125
 2.7041   138
 2.7141   117
 2.7241   123
 2.7341   136
 2.7441   124
 2.7541   128
 2.7641   127
 2.7741   122
 2.7841   135
 2.7941   117
 2.8041   127
 2.8141   130
 2.8241   117
 2.8341   138
 2.8441   129
 2.8541   140
 2.8641   134
 2.8741   120
 2.8841   122
 2.8941   128
 2.9041   128
 2.9141   135
 2.9241   119
 2.9341   138
 2.9441   105
 2.9541   104
 2.9641   121
 2.9741   128
 2.9841   120
 2.9941   116
 3.0041   130
 3.0141   133
 3.0241   134
 3.0341   110
 3.0441   111
 3.0541   118
 3.0641   127
 3.0741   113
 3.0841   110
 3.0941   118
 3.1041   105
 3.1141   107
 3.1241    98
 3.1341    97
 3.1441   121
 3.1541   113
 3.1641   131
 3.1741   107
 3.1841   102
 3.1941   112
 3.2041   162
 3.2141   159
 3.2241   133
 3.2341   184
 3.2441   214
 3.2541   255
 3.2641   286
 3.2741   326
 3.2841   352
 3.2941   383
 3.3041   441
 3.3141   420
 3.3241   417
 3.3341   416
 3.3441   344
 3.3541   317
 3.3641   250
 3.3741   245
 3.3841   199
 3.3941   183
 3.4041   146
 3.4141   126
 3.4241   122
 3.4341   107
 3.4441    95
 3.4541   103
 3.4641   100
 3.4741   122
 3.4841   111
 3.4941   111
 3.5041   122
 3.5141   138
 3.5241   135
 3.5341   133
 3.5441   169
 3.5541   211
 3.5641   246
 3.5741   241
 3.5841   293
 3.5941   384
 3.6041   460
 3.6141   550
 3.6241   687
 3.6341   832
 3.6441  1013
 3.6541  1171
 3.6641  1239
 3.6741  1376
 3.6841  1464
 3.6941  1414
 3.7041  1346
 3.7141  1310
 3.7241  1171
 3.7341   982
 3.7441   823
 3.7541   647
 3.7641   474
 3.7741   363
 3.7841   283
 3.7941   220
 3.8041   165
 3.8141   144
 3.8241   116
 3.8341   112
 3.8441    94
 3.8541    84
 3.8641    96
 3.8741   105
 3.8841    89
 3.8941    95
 3.9041   126
 3.9141   125
 3.9241   131
 3.9341   155
 3.9441   166
 3.9541   194
 3.9641   237
 3.9741   259
 3.9841   253
 3.9941   302
 4.0041   280
 4.0141   284
 4.0241   276
 4.0341   285
 4.0441   241
 4.0541   219
 4.0641   191
 4.0741   174
 4.0841   150
 4.0941   133
 4.1041   107
 4.1141    90
 4.1241    84
 4.1341    91
 4.1441    87
 4.1541    71
 4.1641    77
 4.1741    77
 4.1841    68
 4.1941    73
 4.2041    57
 4.2141    72
 4.2241    76
 4.2341    63
 4.2441    72
 4.2541    66
 4.2641    73
 4.2741    80
 4.2841    78
 4.2941    68
 4.3041    65
 4.3141    82
 4.3241    87
 4.3341    84
 4.3441    89
 4.3541    88
 4.3641   103
 4.3741    98
 4.3841   124
 4.3941   118
 4.4041   168
 4.4141   179
 4.4241   224
 4.4341   281
 4.4441   306
 4.4541   334
 4.4641   397
 4.4741   425
 4.4841   479
 4.4941   505
 4.5041   456
 4.5141   497
 4.5241   456
 4.5341   444
 4.5441   381
 4.5541   320
 4.5641   284
 4.5741   254
 4.5841   248
 4.5941   178
 4.6041   166
 4.6141   150
 4.6241   130
 4.6341    85
 4.6441   112
 4.6541   113
 4.6641    78
 4.6741    82
 4.6841   100
 4.6941    93
 4.7041    94
 4.7141    97
 4.7241    97
 4.7341    98
 4.7441   108
 4.7541   101
 4.7641   106
 4.7741   103
 4.7841   108
 4.7941   136
 4.8041   152
 4.8141   137
 4.8241   171
 4.8341   162
 4.8441   167
 4.8541   195
 4.8641   202
 4.8741   189
 4.8841   188
 4.8941   224
 4.9041   179
 4.9141   187
 4.9241   172
 4.9341   191
 4.9441   151
 4.9541   169
 4.9641   146
 4.9741   150
 4.9841   137
 4.9941   141
 5.0041   120
 5.0141   134
 5.0241   113
 5.0341   121
 5.0441   130
 5.0541   122
 5.0641   106
 5.0741   101
 5.0841    98
 5.0941   106
 5.1041   101
 5.1141   105
 5.1241    92
 5.1341    97
 5.1441    93
 5.1541   107
 5.1641   108
 5.1741   120
 5.1841   119
 5.1941   133
 5.2041    98
 5.2141   107
 5.2241   113
 5.2341   113
 5.2441   117
 5.2541   122
 5.2641   115
 5.2741   111
 5.2841   104
 5.2941   106
 5.3041   117
 5.3141   107
 5.3241   118
 5.3341   127
 5.3441   123
 5.3541   121
 5.3641   105
 5.3741   132
 5.3841   131
 5.3941   109
 5.4041   107
 5.4141   127
 5.4241   112
 5.4341   116
 5.4441   120
 5.4541   114
 5.4641   106
 5.4741   115
 5.4841   115
 5.4941   106
 5.5041   110
 5.5141   111
 5.5241   127
 5.5341   103
 5.5441   120
 5.5541   108
 5.5641   104
 5.5741   109
 5.5841   117
 5.5941   115
 5.6041    77
 5.6141   111
 5.6241    99
 5.6341    96
 5.6441   106
 5.6541   107
 5.6641   116
 5.6741   117
 5.6841   110
 5.6941   101
 5.7041   122
 5.7141   108
 5.7241   105
 5.7341    98
 5.7441   110
 5.7541   132
 5.7641   140
 5.7741   128
 5.7841   141
 5.7941   153
 5.8041   174
 5.8141   186
 5.8241   205
 5.8341   210
 5.8441   233
 5.8541   230
 5.8641   272
 5.8741   289
 5.8841   253
 5.8941   268
 5.9041   282
 5.9141   266
 5.9241   271
 5.9341   256
 5.9441   242
 5.9541   220
 5.9641   191
 5.9741   176
 5.9841   152
 5.9941   160
 6.0041   150
 6.0141   133
 6.0241   131
 6.0341   120
 6.0441   131
 6.0541   128
 6.0641   118
 6.0741   125
 6.0841   132
 6.0941   144
 6.1041   108
 6.1141   129
 6.1241   129
 6.1341   138
 6.1441   137
 6.1541   159
 6.1641   152
 6.1741   163
 6.1841   181
 6.1941   185
 6.2041   243
 6.2141   283
 6.2241   373
 6.2341   556
 6.2441   648
 6.2541   926
 6.2641  1258
 6.2741  1761
 6.2841  2327
 6.2941  3010
 6.3041  3925
 6.3141  4969
 6.3241  6122
 6.3341  7219
 6.3441  8508
 6.3541  9798
 6.3641 10780
 6.3741 11651
 6.3841 12346
 6.3941 12777
 6.4041 12678
 6.4141 12242
 6.4241 11557
 6.4341 10619
 6.4441  9366
 6.4541  8094
 6.4641  7158
 6.4741  5679
 6.4841  4678
 6.4941  3531
 6.5041  2707
 6.5141  2081
 6.5241  1594
 6.5341  1090
 6.5441   789
 6.5541   556
 6.5641   409
 6.5741   321
 6.5841   241
 6.5941   231
 6.6041   174
 6.6141   201
 6.6241   169
 6.6341   160
 6.6441   143
 6.6541   161
 6.6641   134
 6.6741   139
 6.6841   167
 6.6941   144
 6.7041   151
 6.7141   132
 6.7241   155
 6.7341   155
 6.7441   120
 6.7541   136
 6.7641   148
 6.7741   143
 6.7841   135
 6.7941   154
 6.8041   170
 6.8141   167
 6.8241   175
 6.8341   178
 6.8441   180
 6.8541   183
 6.8641   204
 6.8741   221
 6.8841   278
 6.8941   304
 6.9041   371
 6.9141   391
 6.9241   436
 6.9341   515
 6.9441   672
 6.9541   814
 6.9641   945
 6.9741  1111
 6.9841  1272
 6.9941  1477
 7.0041  1631
 7.0141  1888
 7.0241  2031
 7.0341  2100
 7.0441  2266
 7.0541  2208
 7.0641  2109
 7.0741  2097
 7.0841  1875
 7.0941  1800
 7.1041  1665
 7.1141  1411
 7.1241  1236
 7.1341  1079
 7.1441   932
 7.1541   726
 7.1641   623
 7.1741   517
 7.1841   408
 7.1941   365
 7.2041   296
 7.2141   260
 7.2241   236
 7.2341   225
 7.2441   210
 7.2541   197
 7.2641   192
 7.2741   193
 7.2841   213
 7.2941   201
 7.3041   221
 7.3141   219
 7.3241   218
 7.3341   234
 7.3441   264
 7.3541   247
 7.3641   239
 7.3741   241
 7.3841   266
 7.3941   254
 7.4041   256
 7.4141   250
 7.4241   288
 7.4341   300
 7.4441   260
 7.4541   262
 7.4641   224
 7.4741   219
 7.4841   260
 7.4941   236
 7.5041   223
 7.5141   223
 7.5241   226
 7.5341   203
 7.5441   212
 7.5541   216
 7.5641   185
 7.5741   186
 7.5841   174
 7.5941   171
 7.6041   187
 7.6141   206
 7.6241   169
 7.6341   197
 7.6441   215
 7.6541   196
 7.6641   207
 7.6741   213
 7.6841   230
 7.6941   198
 7.7041   216
 7.7141   231
 7.7241   221
 7.7341   222
 7.7441   207
 7.7541   236
 7.7641   254
 7.7741   258
 7.7841   261
 7.7941   247
 7.8041   270
 7.8141   265
 7.8241   269
 7.8341   277
 7.8441   274
 7.8541   278
 7.8641   290
 7.8741   300
 7.8841   308
 7.8941   311
 7.9041   318
 7.9141   332
 7.9241   364
 7.9341   387
 7.9441   386
 7.9541   413
 7.9641   439
 7.9741   511
 7.9841   515
 7.9941   564
 8.0041   590
 8.0141   637
 8.0241   687
 8.0341   704
 8.0441   758
 8.0541   834
 8.0641   930
 8.0741   965
 8.0841  1016
 8.0941  1079
 8.1041  1106
 8.1141  1184
 8.1241  1235
 8.1341  1228
 8.1441  1216
 8.1541  1268
 8.1641  1306
 8.1741  1349
 8.1841  1387
 8.1941  1353
 8.2041  1399
 8.2141  1379
 8.2241  1426
 8.2341  1435
 8.2441  1453
 8.2541  1616
 8.2641  1669
 8.2741  1793
 8.2841  1911
 8.2941  1990
 8.3041  2139
 8.3141  2327
 8.3241  2529
 8.3341  2780
 8.3441  2941
 8.3541  3119
 8.3641  3247
 8.3741  3368
 8.3841  3332
 8.3941  3260
 8.4041  3198
 8.4141  3204
 8.4241  2847
 8.4341  2804
 8.4441  2573
 8.4541  2301
 8.4641  2100
 8.4741  1763
 8.4841  1530
 8.4941  1322
 8.5041  1079
 8.5141   903
 8.5241   748
 8.5341   668
 8.5441   550
 8.5541   515
 8.5641   432
 8.5741   425
 8.5841   374
 8.5941   393
 8.6041   349
 8.6141   334
 8.6241   351
 8.6341   343
 8.6441   372
 8.6541   352
 8.6641   345
 8.6741   389
 8.6841   354
 8.6941   360
 8.7041   367
 8.7141   358
 8.7241   372
 8.7341   351
 8.7441   325
 8.7541   294
 8.7641   301
 8.7741   306
 8.7841   326
 8.7941   322
 8.8041   323
 8.8141   302
 8.8241   292
 8.8341   295
 8.8441   286
 8.8541   317
 8.8641   324
 8.8741   309
 8.8841   301
 8.8941   304
 8.9041   332
 8.9141   327
 8.9241   325
 8.9341   323
 8.9441   334
 8.9541   345
 8.9641   377
 8.9741   343
 8.9841   362
 8.9941   363
 9.0041   360
 9.0141   400
 9.0241   394
 9.0341   435
 9.0441   404
 9.0541   419
 9.0641   421
 9.0741   461
 9.0841   484
 9.0941   484
 9.1041   492
 9.1141   500
 9.1241   543
 9.1341   536
 9.1441   557
 9.1541   578
 9.1641   600
 9.1741   628
 9.1841   700
 9.1941   681
 9.2041   716
 9.2141   748
 9.2241   780
 9.2341   851
 9.2441   876
 9.2541   954
 9.2641   957
 9.2741  1052
 9.2841  1002
 9.2941  1035
 9.3041  1078
 9.3141  1108
 9.3241  1179
 9.3341  1205
 9.3441  1173
 9.3541  1232
 9.3641  1260
 9.3741  1225
 9.3841  1319
 9.3941  1368
 9.4041  1276
 9.4141  1350
 9.4241  1391
 9.4341  1360
 9.4441  1419
 9.4541  1447
 9.4641  1448
 9.4741  1448
 9.4841  1516
 9.4941  1539
 9.5041  1541
 9.5141  1591
 9.5241  1666
 9.5341  1777
 9.5441  1817
 9.5541  1865
 9.5641  1971
 9.5741  2071
 9.5841  2236
 9.5941  2359
 9.6041  2494
 9.6141  2631
 9.6241  2776
 9.6341  2873
 9.6441  2970
 9.6541  3052
 9.6641  3037
 9.6741  2994
 9.6841  2938
 9.6941  2903
 9.7041  2810
 9.7141  2717
 9.7241  2521
 9.7341  2401
 9.7441  2139
 9.7541  2049
 9.7641  1948
 9.7741  1722
 9.7841  1605
 9.7941  1436
 9.8041  1378
 9.8141  1357
 9.8241  1284
 9.8341  1223
 9.8441  1265
 9.8541  1235
 9.8641  1232
 9.8741  1219
 9.8841  1259
 9.8941  1301
 9.9041  1321
 9.9141  1352
 9.9241  1331
 9.9341  1329
 9.9441  1328
 9.9541  1369
 9.9641  1362
 9.9741  1283
 9.9841  1296
 9.9941  1174
10.0041  1090
10.0141  1032
10.0241   929
10.0341   867
10.0441   790
10.0541   713
10.0641   631
10.0741   562
10.0841   495
10.0941   485
10.1041   412
10.1141   373
10.1241   339
10.1341   347
10.1441   307
10.1541   276
10.1641   272
10.1741   243
10.1841   240
10.1941   244
10.2041   225
10.2141   214
10.2241   217
10.2341   211
10.2441   214
10.2541   217
10.2641   179
10.2741   198
10.2841   170
10.2941   164
10.3041   191
10.3141   193
10.3241   160
10.3341   165
10.3441   165
10.3541   169
10.3641   166
10.3741   176
10.3841   162
10.3941   164
10.4041   172
10.4141   163
10.4241   182
10.4341   183
10.4441   170
10.4541   190
10.4641   169
10.4741   182
10.4841   190
10.4941   173
10.5041   195
10.5141   206
10.5241   190
10.5341   184
10.5441   197
10.5541   197
10.5641   179
10.5741   183
10.5841   197
10.5941   193
10.6041   216
10.6141   199
10.6241   212
10.6341   220
10.6441   202
10.6541   215
10.6641   231
10.6741   198
10.6841   196
10.6941   194
10.7041   216
10.7141   225
10.7241   218
10.7341   221
10.7441   229
10.7541   226
10.7641   230
10.7741   242
10.7841   253
10.7941   254
10.8041   255
10.8141   253
10.8241   275
10.8341   266
10.8441   272
10.8541   277
10.8641   302
10.8741   300
10.8841   295
10.8941   273
10.9041   284
10.9141   325
10.9241   294
10.9341   288
10.9441   287
10.9541   272
10.9641   267
10.9741   302
10.9841   291
10.9941   297
11.0041   309
11.0141   274
11.0241   280
11.0341   273
11.0441   251
11.0541   254
11.0641   271
11.0741   268
11.0841   261
11.0941   277
11.1041   267
11.1141   270
11.1241   267
11.1341   251
11.1441   258
11.1541   266
11.1641   268
11.1741   304
11.1841   334
11.1941   336
11.2041   343
11.2141   372
11.2241   375
11.2341   397
11.2441   408
11.2541   402
11.2641   410
11.2741   427
11.2841   410
11.2941   422
11.3041   422
11.3141   401
11.3241   392
11.3341   357
11.3441   364
11.3541   349
11.3641   332
11.3741   310
11.3841   319
11.3941   307
11.4041   281
11.4141   263
11.4241   241
11.4341   231
11.4441   225
11.4541   227
11.4641   216
11.4741   212
11.4841   213
11.4941   223
11.5041   200
11.5141   200
11.5241   214
11.5341   208
11.5441   213
11.5541   194
11.5641   198
11.5741   198
11.5841   219
11.5941   213
11.6041   226
11.6141   226
11.6241   223
11.6341   219
11.6441   209
11.6541   213
11.6641   205
11.6741   206
11.6841   221
11.6941   211
11.7041   202
11.7141   193
11.7241   194
11.7341   193
11.7441   176
11.7541   172
11.7641   187
11.7741   189
11.7841   166
11.7941   162
11.8041   152
11.8141   150
11.8241   145
11.8341   147
11.8441   159
11.8541   155
11.8641   152
11.8741   153
11.8841   152
11.8941   153
11.9041   162
11.9141   151
11.9241   142
11.9341   138
11.9441   162
11.9541   164
11.9641   156
11.9741   161
11.9841   139
11.9941   142
12.0041   160
12.0141   166
12.0241   157
12.0341   153
12.0441   155
12.0541   151
12.0641   162
12.0741   156
12.0841   155
12.0941   160
12.1041   149
12.1141   156
12.1241   146
12.1341   152
12.1441   154
12.1541   156
12.1641   155
12.1741   143
12.1841   151
12.1941   167
12.2041   155
12.2141   153
12.2241   153
12.2341   150
12.2441   151
12.2541   155
12.2641   164
12.2741   151
12.2841   161
12.2941   160
12.3041   140
12.3141   127
12.3241   137
12.3341   155
12.3441   153
12.3541   153
12.3641   166
12.3741   162
12.3841   164
12.3941   158
12.4041   159
12.4141   158
12.4241   149
12.4341   144
12.4441   151
12.4541   175
12.4641   162
12.4741   159
12.4841   156
12.4941   154
12.5041   169
12.5141   175
12.5241   175
12.5341   166
12.5441   164
12.5541   181
12.5641   189
12.5741   182
12.5841   178
12.5941   166
12.6041   172
12.6141   188
12.6241   176
12.6341   171
12.6441   195
12.6541   197
12.6641   194
12.6741   183
12.6841   183
12.6941   175
12.7041   167
12.7141   169
12.7241   180
12.7341   183
12.7441   184
12.7541   184
12.7641   169
12.7741   173
12.7841   173
12.7941   155
12.8041   164
12.8141   179
12.8241   181
12.8341   188
12.8441   178
12.8541   178
12.8641   179
12.8741   190
12.8841   186
12.8941   187
12.9041   184
12.9141   189
12.9241   200
12.9341   184
12.9441   176
12.9541   185
12.9641   200
12.9741   199
12.9841   201
12.9941   196
13.0041   182
13.0141   193
13.0241   181
13.0341   172
13.0441   177
13.0541   187
13.0641   182
13.0741   183
13.0841   191
13.0941   171
13.1041   168
13.1141   195
13.1241   195
13.1341   191
13.1441   203
13.1541   197
13.1641   199
13.1741   198
13.1841   196
13.1941   219
13.2041   232
13.2141   215
13.2241   231
13.2341   256
13.2441   267
13.2541   286
13.2641   290
13.2741   317
13.2841   334
13.2941   337
13.3041   352
13.3141   366
13.3241   377
13.3341   386
13.3441   394
13.3541   396
13.3641   409
13.3741   433
13.3841   426
13.3941   414
13.4041   393
13.4141   386
13.4241   411
13.4341   392
13.4441   362
13.4541   360
13.4641   345
13.4741   315
13.4841   295
13.4941   289
13.5041   289
13.5141   272
13.5241   248
13.5341   253
13.5441   239
13.5541   219
13.5641   220
13.5741   221
13.5841   214
13.5941   217
13.6041   219
13.6141   210
13.6241   217
13.6341   205
13.6441   186
13.6541   193
13.6641   206
13.6741   209
13.6841   215
13.6941   220
13.7041   217
13.7141   221
13.7241   217
13.7341   197
13.7441   217
13.7541   225
13.7641   218
13.7741   222
13.7841   221
13.7941   225
13.8041   216
13.8141   216
13.8241   233
13.8341   243
13.8441   239
13.8541   228
13.8641   225
13.8741   239
13.8841   261
13.8941   262
13.9041   268
13.9141   298
13.9241   322
13.9341   329
13.9441   360
13.9541   402
13.9641   412
13.9741   460
13.9841   531
13.9941   561
14.0041   606
14.0141   666
14.0241   758
14.0341   852
14.0441   922
14.0541   995
14.0641  1052
14.0741  1145
14.0841  1249
14.0941  1317
14.1041  1330
14.1141  1350
14.1241  1408
14.1341  1448
14.1441  1464
14.1541  1442
14.1641  1446
14.1741  1444
14.1841  1379
14.1941  1325
14.2041  1263
14.2141  1183
14.2241  1086
14.2341  1034
14.2441   959
14.2541   824
14.2641   751
14.2741   688
14.2841   598
14.2941   541
14.3041   526
14.3141   472
14.3241   405
14.3341   370
14.3441   349
14.3541   334
14.3641   313
14.3741   292
14.3841   296
14.3941   290
14.4041   262
14.4141   257
14.4241   261
14.4341   254
14.4441   254
14.4541   258
14.4641   246
14.4741   241
14.4841   246
14.4941   226
14.5041   206
14.5141   208
14.5241   224
14.5341   239
14.5441   238
14.5541   236
14.5641   234
14.5741   244
14.5841   255
14.5941   256
14.6041   251
14.6141   247
14.6241   248
14.6341   236
14.6441   242
14.6541   269
14.6641   262
14.6741   249
14.6841   248
14.6941   248
14.7041   260
14.7141   267
14.7241   266
14.7341   266
14.7441   266
14.7541   256
14.7641   258
14.7741   276
14.7841   281
14.7941   268
14.8041   271
14.8141   296
14.8241   318
14.8341   308
14.8441   294
14.8541   282
14.8641   284
14.8741   320
14.8841   320
14.8941   311
14.9041   319
14.9141   328
14.9241   332
14.9341   346
14.9441   345
14.9541   344
14.9641   348
14.9741   339
14.9841   348
14.9941   352
15.0041   356
15.0141   357
15.0241   330
15.0341   334
15.0441   343
15.0541   309
15.0641   275
15.0741   294
15.0841   299
15.0941   314
15.1041   302
15.1141   297
15.1241   288
15.1341   277
15.1441   288
15.1541   296
15.1641   296
15.1741   283
15.1841   268
15.1941   281
15.2041   281
15.2141   285
15.2241   291
15.2341   292
15.2441   276
15.2541   298
15.2641   292
15.2741   281
15.2841   278
15.2941   276
15.3041   284
15.3141   268
15.3241   287
15.3341   283
15.3441   295
15.3541   286
15.3641   277
15.3741   292
15.3841   279
15.3941   296
15.4041   309
15.4141   305
15.4241   299
15.4341   289
15.4441   297
15.4541   329
15.4641   316
15.4741   314
15.4841   335
15.4941   336
15.5041   332
15.5141   359
15.5241   375
15.5341   363
15.5441   374
15.5541   392
15.5641   424
15.5741   426
15.5841   454
15.5941   494
15.6041   504
15.6141   534
15.6241   592
15.6341   627
15.6441   688
15.6541   694
15.6641   724
15.6741   799
15.6841   834
15.6941   854
15.7041   877
15.7141   933
15.7241   968
15.7341   997
15.7441  1002
15.7541  1002
15.7641  1030
15.7741  1039
15.7841   988
15.7941   997
15.8041   984
15.8141   964
15.8241   940
15.8341   901
15.8441   872
15.8541   821
15.8641   813
15.8741   770
15.8841   677
15.8941   633
15.9041   634
15.9141   614
15.9241   553
15.9341   523
15.9441   510
15.9541   463
15.9641   467
15.9741   441
15.9841   411
15.9941   417
16.0041   410
16.0141   386
16.0241   391
16.0341   383
16.0441   372
16.0541   363
16.0641   398
16.0741   402
16.0841   373
16.0941   360
16.1041   378
16.1141   359
16.1241   353
16.1341   361
16.1441   381
16.1541   374
16.1641   354
16.1741   358
16.1841   375
16.1941   358
16.2041   367
16.2141   357
16.2241   332
16.2341   319
16.2441   339
16.2541   331
16.2641   326
16.2741   350
16.2841   350
16.2941   332
16.3041   342
16.3141   354
16.3241   370
16.3341   358
16.3441   340
16.3541   346
16.3641   380
16.3741   379
16.3841   357
16.3941   341
16.4041   330
16.4141   350
16.4241   352
16.4341   331
16.4441   355
16.4541   351
16.4641   352
16.4741   363
16.4841   379
16.4941   373
16.5041   381
16.5141   370
16.5241   365
16.5341   370
16.5441   369
16.5541   366
16.5641   370
16.5741   383
16.5841   390
16.5941   369
16.6041   365
16.6141   374
16.6241   365
16.6341   397
16.6441   403
16.6541   387
16.6641   372
16.6741   372
16.6841   371
16.6941   380
16.7041   383
16.7141   385
16.7241   380
16.7341   366
16.7441   371
16.7541   377
16.7641   364
16.7741   363
16.7841   377
16.7941   386
16.8041   358
16.8141   346
16.8241   330
16.8341   362
16.8441   398
16.8541   392
16.8641   386
16.8741   354
16.8841   387
16.8941   402
16.9041   390
16.9141   367
16.9241   359
16.9341   354
16.9441   348
16.9541   356
16.9641   380
16.9741   355
16.9841   357
16.9941   371
17.0041   404
17.0141   399
17.0241   378
17.0341   396
17.0441   369
17.0541   389
17.0641   383
17.0741   375
17.0841   382
17.0941   390
17.1041   361
17.1141   372
17.1241   372
17.1341   377
17.1441   388
17.1541   386
17.1641   404
17.1741   403
17.1841   379
17.1941   371
17.2041   355
17.2141   373
17.2241   414
17.2341   384
17.2441   367
17.2541   369
17.2641   363
17.2741   403
17.2841   368
17.2941   373
17.3041   394
17.3141   404
17.3241   401
17.3341   399
17.3441   378
17.3541   390
17.3641   375
17.3741   400
17.3841   378
17.3941   403
17.4041   420
17.4141   378
17.4241   382
17.4341   405
17.4441   400
17.4541   431
17.4641   416
17.4741   434
17.4841   435
17.4941   420
17.5041   440
17.5141   428
17.5241   415
17.5341   425
17.5441   434
17.5541   456
17.5641   459
17.5741   479
17.5841   474
17.5941   469
17.6041   451
17.6141   477
17.6241   508
17.6341   502
17.6441   513
17.6541   495
17.6641   521
17.6741   511
17.6841   489
17.6941   473
17.7041   500
17.7141   499
17.7241   518
17.7341   489
17.7441   487
17.7541   451
17.7641   487
17.7741   474
17.7841   481
17.7941   462
17.8041   446
17.8141   434
17.8241   459
17.8341   480
17.8441   473
17.8541   459
17.8641   446
17.8741   461
17.8841   433
17.8941   422
17.9041   436
17.9141   465
17.9241   462
17.9341   433
17.9441   455
17.9541   415
17.9641   420
17.9741   416
17.9841   437
17.9941   447
18.0041   421
18.0141   422
18.0241   444
18.0341   418
18.0441   406
18.0541   442
18.0641   423
18.0741   395
18.0841   419
18.0941   421
18.1041   448
18.1141   453
18.1241   425
18.1341   448
18.1441   436
18.1541   421
18.1641   417
18.1741   426
18.1841   424
18.1941   458
18.2041   447
18.2141   473
18.2241   477
18.2341   450
18.2441   441
18.2541   437
18.2641   430
18.2741   421
18.2841   424
18.2941   434
18.3041   468
18.3141   447
18.3241   443
18.3341   424
18.3441   439
18.3541   434
18.3641   435
18.3741   471
18.3841   438
18.3941   436
18.4041   436
18.4141   432
18.4241   454
18.4341   447
18.4441   449
18.4541   428
18.4641   431
18.4741   448
18.4841   461
18.4941   451
18.5041   458
18.5141   444
18.5241   465
18.5341   464
18.5441   449
18.5541   485
18.5641   461
18.5741   418
18.5841   427
18.5941   429
18.6041   456
18.6141   473
18.6241   457
18.6341   441
18.6441   449
18.6541   456
18.6641   440
18.6741   483
18.6841   447
18.6941   451
18.7041   452
18.7141   448
18.7241   482
18.7341   454
18.7441   485
18.7541   479
18.7641   503
18.7741   453
18.7841   428
18.7941   462
18.8041   505
18.8141   478
18.8241   449
18.8341   459
18.8441   498
18.8541   499
18.8641   468
18.8741   443
18.8841   435
18.8941   492
18.9041   484
18.9141   465
18.9241   486
18.9341   488
18.9441   467
18.9541   464
18.9641   464
18.9741   460
18.9841   493
18.9941   485
19.0041   467
19.0141   487
19.0241   494
19.0341   473
19.0441   445
19.0541   457
19.0641   483
19.0741   485
19.0841   479
19.0941   467
19.1041   441
19.1141   480
19.1241   467
19.1341   467
19.1441   462
19.1541   463
19.1641   490
19.1741   457
19.1841   460
19.1941   488
19.2041   478
19.2141   477
19.2241   491
19.2341   488
19.2441   471
19.2541   448
19.2641   468
19.2741   492
19.2841   509
19.2941   501
19.3041   488
19.3141   499
19.3241   496
19.3341   491
19.3441   475
19.3541   491
19.3641   463
19.3741   474
19.3841   438
19.3941   470
19.4041   479
19.4141   472
19.4241   521
19.4341   511
19.4441   507
19.4541   519
19.4641   498
19.4741   494
19.4841   495
19.4941   496
19.5041   480
19.5141   509
19.5241   496
19.5341   485
19.5441   472
19.5541   489
19.5641   476
19.5741   483
19.5841   494
19.5941   498
19.6041   496
19.6141   508
19.6241   506
19.6341   466
19.6441   484
19.6541   493
19.6641   528
19.6741   500
19.6841   508
19.6941   513
19.7041   504
19.7141   521
19.7241   509
19.7341   477
19.7441   497
19.7541   537
19.7641   503
19.7741   511
19.7841   496
19.7941   492
19.8041   481
19.8141   526
19.8241   522
19.8341   523
19.8441   531
19.8541   510
19.8641   536
19.8741   510
19.8841   491
19.8941   527
19.9041   479
19.9141   505
19.9241   498
19.9341   493
19.9441   484
19.9541   489
19.9641   519
19.9741   519
19.9841   521
19.9941   517
20.0041   531
20.0141   502
20.0241   510
20.0341   504
20.0441   490
20.0541   529
20.0641   492
20.0741   497
20.0841   497
20.0941   505
20.1041   528
20.1141   519
20.1241   515
20.1341   544
20.1441   494
20.1541   470
20.1641   503
20.1741   509
20.1841   515
20.1941   505
20.2041   490
20.2141   499
20.2241   540
20.2341   515
20.2441   505
20.2541   522
20.2641   504
20.2741   505
20.2841   517
20.2941   490
20.3041   536
20.3141   513
20.3241   526
20.3341   522
20.3441   504
20.3541   514
20.3641   550
20.3741   532
20.3841   527
20.3941   537
20.4041   533
20.4141   531
20.4241   523
20.4341   521
20.4441   524
20.4541   522
20.4641   484
20.4741   518
20.4841   528
20.4941   523
20.5041   525
20.5141   490
20.5241   524
20.5341   527
20.5441   524
20.5541   503
20.5641   552
20.5741   504
20.5841   504
20.5941   516
20.6041   536
20.6141   514
20.6241   546
20.6341   541
20.6441   518
20.6541   561
20.6641   557
20.6741   498
20.6841   496
20.6941   516
20.7041   530
20.7141   561
20.7241   509
20.7341   498
20.7441   545
20.7541   533
20.7641   534
20.7741   519
20.7841   538
20.7941   530
20.8041   522
20.8141   561
20.8241   517
20.8341   536
20.8441   538
20.8541   566
20.8641   593
20.8741   566
20.8841   559
20.8941   634
20.9041   598
20.9141   599
20.9241   586
20.9341   626
20.9441   662
20.9541   711
20.9641   687
20.9741   670
20.9841   702
20.9941   695
21.0041   727
21.0141   709
21.0241   744
21.0341   774
21.0441   805
21.0541   789
21.0641   802
21.0741   841
21.0841   827
21.0941   811
21.1041   805
21.1141   791
21.1241   856
21.1341   817
21.1441   807
21.1541   796
21.1641   827
21.1741   814
21.1841   799
21.1941   789
21.2041   755
21.2141   797
21.2241   732
21.2341   802
21.2441   767
21.2541   739
21.2641   689
21.2741   665
21.2841   690
21.2941   667
21.3041   649
21.3141   623
21.3241   620
21.3341   621
21.3441   591
21.3541   598
21.3641   549
21.3741   569
21.3841   548
21.3941   536
21.4041   515
21.4141   542
21.4241   538
21.4341   517
21.4441   558
21.4541   536
21.4641   559
21.4741   551
21.4841   538
21.4941   543
21.5041   539
21.5141   520
21.5241   501
21.5341   543
21.5441   504
21.5541   520
21.5641   553
21.5741   541
21.5841   546
21.5941   535
21.6041   504
21.6141   515
21.6241   543
21.6341   553
21.6441   569
21.6541   555
21.6641   521
21.6741   527
21.6841   502
21.6941   522
21.7041   502
21.7141   511
21.7241   572
21.7341   544
21.7441   545
21.7541   528
21.7641   501
21.7741   511
21.7841   559
21.7941   511
21.8041   557
21.8141   533
21.8241   504
21.8341   493
21.8441   544
21.8541   503
21.8641   529
21.8741   540
21.8841   529
21.8941   498
21.9041   559
21.9141   523
21.9241   535
21.9341   548
21.9441   540
21.9541   509
21.9641   535
21.9741   553
21.9841   542
21.9941   497
22.0041   546
22.0141   554
22.0241   493
22.0341   556
22.0441   529
22.0541   573
22.0641   541
22.0741   535
22.0841   537
22.0941   557
22.1041   531
22.1141   549
22.1241   578
22.1341   553
22.1441   525
22.1541   538
22.1641   549
22.1741   572
22.1841   524
22.1941   540
22.2041   543
22.2141   539
22.2241   526
22.2341   489
22.2441   539
22.2541   500
22.2641   493
22.2741   513
22.2841   526
22.2941   527
22.3041   528
22.3141   516
22.3241   587
22.3341   524
22.3441   565
22.3541   501
22.3641   501
22.3741   543
22.3841   506
22.3941   526
22.4041   540
22.4141   561
22.4241   530
22.4341   568
22.4441   527
22.4541   497
22.4641   564
22.4741   556
22.4841   575
22.4941   579
22.5041   522
22.5141   577
22.5241   528
22.5341   539
22.5441   536
22.5541   522
22.5641   549
22.5741   516
22.5841   528
22.5941   498
22.6041   576
22.6141   518
22.6241   500
22.6341   559
22.6441   552
22.6541   489
22.6641   518
22.6741   565
22.6841   539
22.6941   517
22.7041   528
22.7141   504
22.7241   530
22.7341   525
22.7441   520
22.7541   542
22.7641   531
22.7741   521
22.7841   489
22.7941   552
22.8041   547
22.8141   542
22.8241   541
22.8341   558
22.8441   515
22.8541   508
22.8641   546
22.8741   518
22.8841   533
22.8941   542
22.9041   553
22.9141   514
22.9241   533
22.9341   535
22.9441   534
22.9541   538
22.9641   516
22.9741   500
22.9841   499
22.9941   550
23.0041   494
23.0141   497
23.0241   521
23.0341   494
23.0441   517
23.0541   528
23.0641   505
23.0741   505
23.0841   565
23.0941   538
23.1041   535
23.1141   495
23.1241   513
23.1341   513
23.1441   517
23.1541   504
23.1641   522
23.1741   537
23.1841   543
23.1941   535
23.2041   487
23.2141   502
23.2241   505
23.2341   481
23.2441   497
23.2541   484
23.2641   496
23.2741   537
23.2841   531
23.2941   509
23.3041   500
23.3141   572
23.3241   514
23.3341   522
23.3441   553
23.3541   519
23.3641   482
23.3741   539
23.3841   527
23.3941   519
23.4041   483
23.4141   521
23.4241   474
23.4341   517
23.4441   512
23.4541   515
23.4641   543
23.4741   541
23.4841   524
23.4941   561
23.5041   496
23.5141   533
23.5241   519
23.5341   486
23.5441   510
23.5541   552
23.5641   525
23.5741   514
23.5841   532
23.5941   548
23.6041   532
23.6141   511
23.6241   501
23.6341   574
23.6441   497
23.6541   489
23.6641   541
23.6741   562
23.6841   521
23.6941   529
23.7041   517
23.7141   562
23.7241   529
23.7341   557
23.7441   576
23.7541   543
23.7641   554
23.7741   585
23.7841   560
23.7941   575
23.8041   569
23.8141   541
23.8241   571
23.8341   550
23.8441   563
23.8541   549
23.8641   538
23.8741   511
23.8841   548
23.8941   540
23.9041   498
23.9141   524
23.9241   518
23.9341   559
23.9441   551
23.9541   519
23.9641   516
23.9741   521
23.9841   510
23.9941   566
24.0041   518
24.0141   503
24.0241   509
24.0341   510
24.0441   505
24.0541   529
24.0641   506
24.0741   524
24.0841   515
24.0941   471
24.1041   519
24.1141   546
24.1241   481
24.1341   512
24.1441   520
24.1541   518
24.1641   526
24.1741   500
24.1841   488
24.1941   480
24.2041   533
24.2141   515
24.2241   510
24.2341   517
24.2441   526
24.2541   503
24.2641   517
24.2741   525
24.2841   502
24.2941   499
24.3041   508
24.3141   536
24.3241   471
24.3341   527
24.3441   498
24.3541   488
24.3641   522
24.3741   506
24.3841   510
24.3941   510
24.4041   478
24.4141   473
24.4241   524
24.4341   520
24.4441   501
24.4541   500
24.4641   495
24.4741   498
24.4841   459
24.4941   515
24.5041   521
24.5141   513
24.5241   477
24.5341   472
24.5441   503
24.5541   483
24.5641   530
24.5741   498
24.5841   490
24.5941   465
24.6041   470
24.6141   458
24.6241   483
24.6341   482
24.6441   473
24.6541   497
24.6641   501
24.6741   527
24.6841   522
24.6941   479
24.7041   477
24.7141   494
24.7241   466
24.7341   460
24.7441   440
24.7541   481
24.7641   439
24.7741   503
24.7841   447
24.7941   457
24.8041   491
24.8141   533
24.8241   518
24.8341   516
24.8441   485
24.8541   443
24.8641   495
24.8741   481
24.8841   468
24.8941   462
24.9041   483
24.9141   478
24.9241   469
24.9341   473
24.9441   522
24.9541   466
24.9641   484
24.9741   491
24.9841   463
24.9941   493
25.0041   482
25.0141   481
25.0241   480
25.0341   504
25.0441   486
25.0541   478
25.0641   461
25.0741   513
25.0841   495
25.0941   488
25.1041   491
25.1141   447
25.1241   461
25.1341   501
25.1441   519
25.1541   474
25.1641   498
25.1741   502
25.1841   510
25.1941   493
25.2041   495
25.2141   504
25.2241   470
25.2341   486
25.2441   531
25.2541   487
25.2641   483
25.2741   459
25.2841   493
25.2941   465
25.3041   448
25.3141   474
25.3241   494
25.3341   453
25.3441   492
25.3541   505
25.3641   459
25.3741   469
25.3841   477
25.3941   514
25.4041   488
25.4141   511
25.4241   456
25.4341   473
25.4441   469
25.4541   459
25.4641   459
25.4741   483
25.4841   476
25.4941   482
25.5041   481
25.5141   453
25.5241   496
25.5341   459
25.5441   473
25.5541   436
25.5641   509
25.5741   459
25.5841   469
25.5941   480
25.6041   466
25.6141   493
25.6241   446
25.6341   481
25.6441   476
25.6541   472
25.6641   442
25.6741   442
25.6841   416
25.6941   473
25.7041   451
25.7141   456
25.7241   463
25.7341   452
25.7441   470
25.7541   439
25.7641   453
25.7741   471
25.7841   483
25.7941   452
25.8041   491
25.8141   479
25.8241   419
25.8341   428
25.8441   418
25.8541   469
25.8641   419
25.8741   465
25.8841   468
25.8941   447
25.9041   469
25.9141   470
25.9241   448
25.9341   472
25.9441   437
25.9541   425
25.9641   411
25.9741   406
25.9841   432
25.9941   426
26.0041   467
26.0141   458
26.0241   455
26.0341   455
26.0441   429
26.0541   444
26.0641   440
26.0741   483
26.0841   440
26.0941   429
26.1041   409
26.1141   424
26.1241   451
26.1341   464
26.1441   459
26.1541   463
26.1641   473
26.1741   415
26.1841   400
26.1941   457
26.2041   428
26.2141   449
26.2241   458
26.2341   471
26.2441   460
26.2541   457
26.2641   454
26.2741   412
26.2841   404
26.2941   456
26.3041   438
26.3141   431
26.3241   436
26.3341   458
26.3441   457
26.3541   420
26.3641   449
26.3741   469
26.3841   445
26.3941   453
26.4041   414
26.4141   395
26.4241   418
26.4341   458
26.4441   434
26.4541   428
26.4641   427
26.4741   412
26.4841   441
26.4941   410
26.5041   432
26.5141   436
26.5241   444
26.5341   410
26.5441   421
26.5541   416
26.5641   421
26.5741   461
26.5841   420
26.5941   417
26.6041   426
26.6141   423
26.6241   420
26.6341   414
26.6441   390
26.6541   407
26.6641   413
26.6741   425
26.6841   429
26.6941   439
26.7041   429
26.7141   429
26.7241   405
26.7341   446
26.7441   435
26.7541   377
26.7641   393
26.7741   427
26.7841   435
26.7941   406
26.8041   423
26.8141   417
26.8241   408
26.8341   431
26.8441   428
26.8541   427
26.8641   405
26.8741   411
26.8841   422
26.8941   420
26.9041   400
26.9141   402
26.9241   414
26.9341   408
26.9441   373
26.9541   398
26.9641   445
26.9741   425
26.9841   393
26.9941   403
27.0041   422
27.0141   414
27.0241   408
27.0341   403
27.0441   399
27.0541   415
27.0641   412
27.0741   388
27.0841   401
27.0941   414
27.1041   382
27.1141   401
27.1241   356
27.1341   413
27.1441   387
27.1541   393
27.1641   406
27.1741   388
27.1841   392
27.1941   402
27.2041   399
27.2141   371
27.2241   424
27.2341   384
27.2441   383
27.2541   382
27.2641   408
27.2741   406
27.2841   386
27.2941   436
27.3041   387
27.3141   404
27.3241   418
27.3341   418
27.3441   385
27.3541   397
27.3641   385
27.3741   397
27.3841   364
27.3941   363
27.4041   395
27.4141   396
27.4241   386
27.4341   392
27.4441   408
27.4541   398
27.4641   386
27.4741   403
27.4841   355
27.4941   376
27.5041   416
27.5141   361
27.5241   381
27.5341   390
27.5441   392
27.5541   386
27.5641   392
27.5741   394
27.5841   355
27.5941   408
27.6041   381
27.6141   399
27.6241   393
27.6341   383
27.6441   390
27.6541   373
27.6641   407
27.6741   393
27.6841   398
27.6941   377
27.7041   365
27.7141   386
27.7241   411
27.7341   375
27.7441   364
27.7541   351
27.7641   368
27.7741   374
27.7841   375
27.7941   395
27.8041   353
27.8141   392
27.8241   408
27.8341   355
27.8441   378
27.8541   390
27.8641   394
27.8741   373
27.8841   367
27.8941   342
27.9041   363
27.9141   381
27.9241   348
27.9341   392
27.9441   363
27.9541   397
27.9641   352
27.9741   352
27.9841   373
27.9941   355
28.0041   361
28.0141   359
28.0241   355
28.0341   407
28.0441   356
28.0541   374
28.0641   363
28.0741   355
28.0841   391
28.0941   360
28.1041   393
28.1141   383
28.1241   340
28.1341   331
28.1441   336
28.1541   349
28.1641   346
28.1741   356
28.1841   341
28.1941   335
28.2041   351
28.2141   348
28.2241   359
28.2341   362
28.2441   375
28.2541   375
28.2641   370
28.2741   352
28.2841   354
28.2941   366
28.3041   352
28.3141   350
28.3241   387
28.3341   375
28.3441   346
28.3541   388
28.3641   376
28.3741   335
28.3841   337
28.3941   364
28.4041   373
28.4141   359
28.4241   344
28.4341   392
28.4441   340
28.4541   337
28.4641   368
28.4741   340
28.4841   345
28.4941   331
28.5041   329
28.5141   335
28.5241   334
28.5341   350
28.5441   325
28.5541   345
28.5641   350
28.5741   341
28.5841   340
28.5941   346
28.6041   342
28.6141   335
28.6241   323
28.6341   337
28.6441   349
28.6541   330
28.6641   351
28.6741   339
28.6841   333
28.6941   339
28.7041   325
28.7141   338
28.7241   323
28.7341   330
28.7441   333
28.7541   318
28.7641   334
28.7741   359
28.7841   359
28.7941   323
28.8041   364
28.8141   310
28.8241   349
28.8341   327
28.8441   338
28.8541   315
28.8641   320
28.8741   354
28.8841   342
28.8941   341
28.9041   345
28.9141   358
28.9241   344
28.9341   321
28.9441   334
28.9541   355
28.9641   330
28.9741   318
28.9841   333
28.9941   330
29.0041   351
29.0141   322
29.0241   328
29.0341   302
29.0441   353
29.0541   317
29.0641   354
29.0741   352
29.0841   335
29.0941   318
29.1041   288
29.1141   313
29.1241   338
29.1341   335
29.1441   303
29.1541   287
29.1641   326
29.1741   293
29.1841   297
29.1941   344
29.2041   328
29.2141   335
29.2241   314
29.2341   295
29.2441   320
29.2541   306
29.2641   299
29.2741   304
29.2841   307
29.2941   316
29.3041   325
29.3141   307
29.3241   323
29.3341   319
29.3441   304
29.3541   278
29.3641   311
29.3741   317
29.3841   326
29.3941   286
29.4041   310
29.4141   329
29.4241   300
29.4341   316
29.4441   325
29.4541   310
29.4641   283
29.4741   294
29.4841   314
29.4941   310
29.5041   316
29.5141   323
29.5241   294
29.5341   320
29.5441   277
29.5541   320
29.5641   291
29.5741   315
29.5841   307
29.5941   293
29.6041   279
29.6141   284
29.6241   307
29.6341   307
29.6441   311
29.6541   285
29.6641   289
29.6741   311
29.6841   323
29.6941   285
29.7041   304
29.7141   292
29.7241   309
29.7341   292
29.7441   304
29.7541   271
29.7641   279
29.7741   318
29.7841   282
29.7941   304
29.8041   302
29.8141   284
29.8241   300
29.8341   298
29.8441   308
29.8541   281
29.8641   275
29.8741   283
29.8841   269
29.8941   267
29.9041   295
29.9141   298
29.9241   275
29.9341   267
29.9441   262
29.9541   280
29.9641   319
29.9741   288
29.9841   301
29.9941   293
30.0041   278
30.0141   276
30.0241   284
30.0341   293
30.0441   266
30.0541   301
30.0641   263
30.0741   261
30.0841   262
30.0941   270
30.1041   319
30.1141   277
30.1241   280
30.1341   256
30.1441   274
30.1541   289
30.1641   303
30.1741   309
30.1841   296
30.1941   289
30.2041   290
30.2141   273
30.2241   302
30.2341   284
30.2441   294
30.2541   275
30.2641   273
30.2741   281
30.2841   269
30.2941   274
30.3041   279
30.3141   280
30.3241   280
30.3341   271
30.3441   280
30.3541   271
30.3641   299
30.3741   311
30.3841   286
30.3941   271
30.4041   281
30.4141   256
30.4241   259
30.4341   261
30.4441   281
30.4541   286
30.4641   288
30.4741   282
30.4841   261
30.4941   243
30.5041   260
30.5141   264
30.5241   263
30.5341   283
30.5441   282
30.5541   309
30.5641   268
30.5741   251
30.5841   244
30.5941   276
30.6041   256
30.6141   261
30.6241   269
30.6341   288
30.6441   250
30.6541   278
30.6641   247
30.6741   254
30.6841   238
30.6941   273
30.7041   288
30.7141   262
30.7241   275
30.7341   274
30.7441   253
30.7541   241
30.7641   230
30.7741   244
30.7841   257
30.7941   269
30.8041   257
30.8141   265
30.8241   235
30.8341   223
30.8441   264
30.8541   258
30.8641   242
30.8741   286
30.8841   255
30.8941   250
30.9041   246
30.9141   235
30.9241   265
30.9341   265
30.9441   268
30.9541   238
30.9641   261
30.9741   263
30.9841   258
30.9941   248
31.0041   274
31.0141   254
31.0241   271
31.0341   239
31.0441   258
31.0541   275
31.0641   246
31.0741   215
31.0841   227
31.0941   245
31.1041   246
31.1141   245
31.1241   252
31.1341   251
31.1441   241
31.1541   241
31.1641   273
31.1741   259
31.1841   251
31.1941   229
31.2041   232
31.2141   221
31.2241   215
31.2341   236
31.2441   223
31.2541   228
31.2641   262
31.2741   248
31.2841   251
31.2941   228
31.3041   262
31.3141   229
31.3241   290
31.3341   216
31.3441   248
31.3541   252
31.3641   230
31.3741   206
31.3841   246
31.3941   225
31.4041   232
31.4141   252
31.4241   286
31.4341   258
31.4441   227
31.4541   241
31.4641   225
31.4741   242
31.4841   244
31.4941   214
31.5041   236
31.5141   243
31.5241   248
31.5341   251
31.5441   237
31.5541   219
31.5641   237
31.5741   244
31.5841   241
31.5941   221
31.6041   226
31.6141   234
31.6241   230
31.6341   224
31.6441   220
31.6541   246
31.6641   242
31.6741   248
31.6841   240
31.6941   225
31.7041   233
31.7141   241
31.7241   267
31.7341   252
31.7441   240
31.7541   250
31.7641   281
31.7741   236
31.7841   243
31.7941   238
31.8041   253
31.8141   224
31.8241   244
31.8341   248
31.8441   234
31.8541   229
31.8641   262
31.8741   232
31.8841   235
31.8941   244
31.9041   240
31.9141   247
31.9241   256
31.9341   251
31.9441   258
31.9541   232
31.9641   235
31.9741   246
31.9841   249
31.9941   276
32.0041   253
32.0141   234
32.0241   246
32.0341   242
32.0441   212
32.0541   246
32.0641   237
32.0741   246
32.0841   242
32.0941   262
32.1041   243
32.1141   268
32.1241   275
32.1341   265
32.1441   251
32.1541   252
32.1641   261
32.1741   276
32.1841   278
32.1941   293
32.2041   275
32.2141   291
32.2241   260
32.2341   248
32.2441   256
32.2541   240
32.2641   222
32.2741   227
32.2841   225
32.2941   247
32.3041   248
32.3141   241
32.3241   261
32.3341   231
32.3441   228
32.3541   230
32.3641   248
32.3741   213
32.3841   232
32.3941   224
32.4041   180
32.4141   209
32.4241   206
32.4341   214
32.4441   200
32.4541   201
32.4641   199
32.4741   188
32.4841   186
32.4941   202
32.5041   203
32.5141   202
32.5241   202
32.5341   199
32.5441   207
32.5541   205
32.5641   195
32.5741   202
32.5841   185
32.5941   203
32.6041   198
32.6141   179
32.6241   196
32.6341   182
32.6441   174
32.6541   194
32.6641   180
32.6741   174
32.6841   177
32.6941   187
32.7041   198
32.7141   193
32.7241   167
32.7341   229
32.7441   193
32.7541   201
32.7641   201
32.7741   195
32.7841   174
32.7941   173
32.8041   183
32.8141   186
32.8241   202
32.8341   174
32.8441   166
32.8541   188
32.8641   175
32.8741   177
32.8841   183
32.8941   174
32.9041   173
32.9141   184
32.9241   191
32.9341   197
32.9441   181
32.9541   148
32.9641   157
32.9741   180
32.9841   184
32.9941   179
33.0041   173
33.0141   193
33.0241   176
33.0341   176
33.0441   171
33.0541   172
33.0641   173
33.0741   190
33.0841   177
33.0941   179
33.1041   176
33.1141   172
33.1241   182
33.1341   177
33.1441   184
33.1541   179
33.1641   176
33.1741   150
33.1841   170
33.1941   173
33.2041   159
33.2141   180
33.2241   164
33.2341   154
33.2441   166
33.2541   150
33.2641   163
33.2741   172
33.2841   184
33.2941   186
33.3041   170
33.3141   179
33.3241   178
33.3341   170
33.3441   176
33.3541   183
33.3641   201
33.3741   158
33.3841   160
33.3941   163
33.4041   167
33.4141   160
33.4241   173
33.4341   168
33.4441   176
33.4541   178
33.4641   168
33.4741   175
33.4841   173
33.4941   168
33.5041   162
33.5141   164
33.5241   153
33.5341   158
33.5441   160
33.5541   152
33.5641   155
33.5741   167
33.5841   150
33.5941   157
33.6041   152
33.6141   157
33.6241   151
33.6341   173
33.6441   163
33.6541   170
33.6641   163
33.6741   176
33.6841   155
33.6941   144
33.7041   181
33.7141   146
33.7241   169
33.7341   155
33.7441   126
33.7541   143
33.7641   145
33.7741   155
33.7841   137
33.7941   162
33.8041   128
33.8141   165
33.8241   157
33.8341   154
33.8441   147
33.8541   140
33.8641   145
33.8741   157
33.8841   146
33.8941   154
33.9041   158
33.9141   153
33.9241   147
33.9341   153
33.9441   164
33.9541   167
33.9641   153
33.9741   165
33.9841   154
33.9941   160
34.0041   129
34.0141   135
34.0241   146
34.0341   137
34.0441   153
34.0541   151
34.0641   155
34.0741   133
34.0841   144
34.0941   162
34.1041   165
34.1141   157
34.1241   136
34.1341   135
34.1441   144
34.1541   146
34.1641   126
34.1741   132
34.1841   141
34.1941   141
34.2041   153
34.2141   133
34.2241   145
34.2341   144
34.2441   146
34.2541   139
34.2641   122
34.2741   157
34.2841   145
34.2941   130
34.3041   167
34.3141   136
34.3241   134
34.3341   135
34.3441   126
34.3541   153
34.3641   160
34.3741   143
34.3841   127
34.3941   139
34.4041   132
34.4141   135
34.4241   132
34.4341   150
34.4441   138
34.4541   131
34.4641   135
34.4741   158
34.4841   142
34.4941   123
34.5041   143
34.5141   120
34.5241   129
34.5341   123
34.5441   121
34.5541   134
34.5641   118
34.5741   149
34.5841   135
34.5941   149
34.6041   140
34.6141   135
34.6241   142
34.6341   138
34.6441   147
34.6541   150
34.6641   136
34.6741   128
34.6841   151
34.6941   136
34.7041   139
34.7141   142
34.7241   135
34.7341   128
34.7441   130
34.7541   128
34.7641   137
34.7741   131
34.7841   140
34.7941   120
34.8041   122
34.8141   132
34.8241   126
34.8341   128
34.8441   125
34.8541   134
34.8641   152
34.8741   133
34.8841   118
34.8941   115
34.9041   108
34.9141   107
34.9241   119
34.9341   130
34.9441   110
34.9541   119
34.9641   113
34.9741   127
34.9841   119
34.9941   122
35.0041   127
35.0141   107
35.0241   110
35.0341   128
35.0441   147
35.0541   135
35.0641   127
35.0741   115
35.0841   142
35.0941   109
35.1041   108
35.1141   109
35.1241   127
35.1341   121
35.1441   105
35.1541   140
35.1641   118
35.1741   112
35.1841   108
35.1941   127
35.2041   122
35.2141   105
35.2241   104
35.2341   106
35.2441   130
35.2541   112
35.2641   120
35.2741   117
35.2841   129
35.2941   105
35.3041    97
35.3141   122
35.3241   132
35.3341   117
35.3441   108
35.3541   118
35.3641   112
35.3741   110
35.3841   115
35.3941   107
35.4041   100
35.4141   116
35.4241   112
35.4341    95
35.4441   100
35.4541   138
35.4641   112
35.4741   118
35.4841   103
35.4941   110
35.5041    94
35.5141   115
35.5241   105
35.5341   104
35.5441    93
35.5541   115
35.5641   105
35.5741   106
35.5841   116
35.5941   111
35.6041   108
35.6141   108
35.6241   117
35.6341   111
35.6441   114
35.6541   101
35.6641   103
35.6741   113
35.6841   108
35.6941    92
35.7041   121
35.7141   105
35.7241   112
35.7341    93
35.7441   104
35.7541   115
35.7641    94
35.7741    97
35.7841   103
35.7941   102
35.8041   110
35.8141   102
35.8241   102
35.8341   112
35.8441    84
35.8541    99
35.8641   101
35.8741   100
35.8841    92
35.8941   117
35.9041   100
35.9141   105
35.9241   104
35.9341    96
35.9441    99
35.9541   103
35.9641   104
35.9741   102
35.9841   114
35.9941    97
36.0041    97
36.0141    95
36.0241    93
36.0341   104
36.0441   104
36.0541   111
36.0641   117
36.0741    99
36.0841   119
36.0941    94
36.1041   110
36.1141    94
36.1241   109
36.1341   102
36.1441    87
36.1541    95
36.1641   108
36.1741   112
36.1841   111
36.1941    99
36.2041    90
36.2141   107
36.2241    79
36.2341   114
36.2441   106
36.2541    86
36.2641   101
36.2741   102
36.2841   113
36.2941   103
36.3041   104
36.3141   101
36.3241   105
36.3341    98
36.3441   111
36.3541    94
36.3641   104
36.3741    85
36.3841   104
36.3941    97
36.4041    94
36.4141    96
36.4241   100
36.4341   108
36.4441    96
36.4541   107
36.4641    91
36.4741    88
36.4841    99
36.4941   110
36.5041   102
36.5141    97
36.5241    92
36.5341   104
36.5441    98
36.5541    96
36.5641    95
36.5741   113
36.5841    89
36.5941   101
36.6041    85
36.6141    92
36.6241    78
36.6341    94
36.6441    96
36.6541    95
36.6641    98
36.6741    97
36.6841    90
36.6941    82
36.7041    74
36.7141    92
36.7241    89
36.7341    89
36.7441    80
36.7541   101
36.7641    84
36.7741    85
36.7841    73
36.7941    87
36.8041    91
36.8141    86
36.8241    80
36.8341    87
36.8441    84
36.8541    85
36.8641    89
36.8741    81
36.8841    75
36.8941    97
36.9041    84
36.9141    84
36.9241    73
36.9341    65
36.9441    93
36.9541    69
36.9641    70
36.9741    89
36.9841    90
36.9941    83
37.0041    84
37.0141    76
37.0241    85
37.0341    90
37.0441    73
37.0541    82
37.0641    80
37.0741    92
37.0841    90
37.0941    72
37.1041    76
37.1141    85
37.1241    80
37.1341    87
37.1441    90
37.1541    71
37.1641    84
37.1741    75
37.1841    88
37.1941    73
37.2041    82
37.2141    85
37.2241    91
37.2341    66
37.2441    62
37.2541    82
37.2641    81
37.2741    86
37.2841    75
37.2941    87
37.3041    86
37.3141    87
37.3241    79
37.3341    70
37.3441    69
37.3541    71
37.3641    88
37.3741    78
37.3841    72
37.3941    90
37.4041    72
37.4141    81
37.4241    71
37.4341    74
37.4441    66
37.4541    74
37.4641    74
37.4741    84
37.4841    65
37.4941    70
37.5041    72
37.5141    68
37.5241    78
37.5341    70
37.5441    64
37.5541    48
37.5641    64
37.5741    76
37.5841    63
37.5941    73
37.6041    63
37.6141    63
37.6241    64
37.6341    56
37.6441    71
37.6541    74
37.6641    67
37.6741    67
37.6841    72
37.6941    76
37.7041    71
37.7141    75
37.7241    62
37.7341    82
37.7441    69
37.7541    67
37.7641    77
37.7741    49
37.7841    65
37.7941    59
37.8041    64
37.8141    70
37.8241    57
37.8341    65
37.8441    68
37.8541    68
37.8641    62
37.8741    62
37.8841    53
37.8941    63
37.9041    53
37.9141    75
37.9241    78
37.9341    65
37.9441    54
37.9541    57
37.9641    55
37.9741    66
37.9841    52
37.9941    61
38.0041    58
38.0141    66
38.0241    63
38.0341    58
38.0441    52
38.0541    56
38.0641    66
38.0741    63
38.0841    63
38.0941    59
38.1041    52
38.1141    55
38.1241    57
38.1341    68
38.1441    60
38.1541    67
38.1641    63
38.1741    59
38.1841    57
38.1941    62
38.2041    53
38.2141    58
38.2241    54
38.2341    53
38.2441    65
38.2541    61
38.2641    63
38.2741    57
38.2841    56
38.2941    61
38.3041    50
38.3141    50
38.3241    63
38.3341    59
38.3441    53
38.3541    40
38.3641    55
38.3741    57
38.3841    56
38.3941    53
38.4041    55
38.4141    56
38.4241    58
38.4341    56
38.4441    67
38.4541    50
38.4641    70
38.4741    53
38.4841    45
38.4941    58
38.5041    58
38.5141    51
38.5241    53
38.5341    59
38.5441    58
38.5541    55
38.5641    67
38.5741    47
38.5841    58
38.5941    56
38.6041    55
38.6141    58
38.6241    53
38.6341    47
38.6441    59
38.6541    51
38.6641    50
38.6741    49
38.6841    59
38.6941    37
38.7041    53
38.7141    51
38.7241    40
38.7341    51
38.7441    49
38.7541    53
38.7641    52
38.7741    67
38.7841    41
38.7941    43
38.8041    36
38.8141    55
38.8241    47
38.8341    52
38.8441    50
38.8541    47
38.8641    52
38.8741    50
38.8841    46
38.8941    40
38.9041    57
38.9141    45
38.9241    36
38.9341    48
38.9441    40
38.9541    44
38.9641    51
38.9741    40
38.9841    48
38.9941    42
39.0041    54
39.0141    43
39.0241    52
39.0341    47
39.0441    55
39.0541    38
39.0641    35
39.0741    45
39.0841    44
39.0941    58
39.1041    49
39.1141    47
39.1241    48
39.1341    52
39.1441    60
39.1541    49
39.1641    46
39.1741    42
39.1841    44
39.1941    38
39.2041    52
39.2141    40
39.2241    43
39.2341    46
39.2441    41
39.2541    41
39.2641    41
39.2741    40
39.2841    43
39.2941    37
39.3041    38
39.3141    45
39.3241    41
39.3341    31
39.3441    27
39.3541    26
39.3641    47
39.3741    44
39.3841    41
39.3941    42
39.4041    37
39.4141    41
39.4241    48
39.4341    30
39.4441    35
39.4541    36
39.4641    31
39.4741    29
39.4841    48
39.4941    31
39.5041    49
39.5141    41
39.5241    44
39.5341    28
39.5441    28
39.5541    36
39.5641    41
39.5741    34
39.5841    28
39.5941    35
39.6041    42
39.6141    35
39.6241    47
39.6341    27
39.6441    27
39.6541    35
39.6641    41
39.6741    42
39.6841    31
39.6941    38
39.7041    36
39.7141    45
39.7241    44
39.7341    29
39.7441    40
39.7541    33
39.7641    36
39.7741    35
39.7841    32
39.7941    28
39.8041    40
39.8141    39
39.8241    32
39.8341    33
39.8441    31
39.8541    28
39.8641    25
39.8741    27
39.8841    33
39.8941    37
39.9041    33
39.9141    32
39.9241    35
39.9341    29
39.9441    31
39.9541    28
39.9641    33
39.9741    38
39.9841    29
39.9941    39
