Bruker Nano GmbH Berlin, Germany
Esprit 1.9

Date: 4/21/2021 2:29:56 PM
Real time: 21212
Life time: 19858
Pulse density: 93634


Detector type: XFlash 430
Window type: Custom type
Detector thickness: 0.45
Si dead layer:0.029

Calibration, lin.: 10
Calibration, abs.: -955.9
Mn FWHM: 137.05
Fano factor: 0.121
Channels: 4095

Energy Counts
-0.9559     0
-0.9459     0
-0.9359     0
-0.9259     0
-0.9159     0
-0.9059     0
-0.8959     0
-0.8859     0
-0.8759     0
-0.8659     0
-0.8559     0
-0.8459     0
-0.8359     0
-0.8259     0
-0.8159     0
-0.8059     0
-0.7959     0
-0.7859     0
-0.7759     0
-0.7659     0
-0.7559     0
-0.7459     0
-0.7359     0
-0.7259     0
-0.7159     0
-0.7059     0
-0.6959     0
-0.6859     0
-0.6759     0
-0.6659     0
-0.6559     0
-0.6459     0
-0.6359     0
-0.6259     0
-0.6159     0
-0.6059     0
-0.5959     0
-0.5859     0
-0.5759     0
-0.5659     0
-0.5559     0
-0.5459     0
-0.5359     0
-0.5259     0
-0.5159     0
-0.5059     0
-0.4959     0
-0.4859     0
-0.4759     0
-0.4659     0
-0.4559     0
-0.4459     0
-0.4359     0
-0.4259     0
-0.4159     0
-0.4059     0
-0.3959     0
-0.3859     0
-0.3759     0
-0.3659     0
-0.3559     0
-0.3459     0
-0.3359     0
-0.3259     0
-0.3159     0
-0.3059     0
-0.2959     0
-0.2859     0
-0.2759     0
-0.2659     0
-0.2559     0
-0.2459     0
-0.2359     0
-0.2259     0
-0.2159     0
-0.2059     0
-0.1959     0
-0.1859     0
-0.1759     0
-0.1659     0
-0.1559     0
-0.1459     0
-0.1359     0
-0.1259     2
-0.1159     3
-0.1059    19
-0.0959    63
-0.0859   213
-0.0759   743
-0.0659  2356
-0.0559  5963
-0.0459 12491
-0.0359 23678
-0.0259 37823
-0.0159 51512
-0.0059 60710
 0.0041 61043
 0.0141 52832
 0.0241 39189
 0.0341 24624
 0.0441 13354
 0.0541  6270
 0.0641  2504
 0.0741   803
 0.0841   258
 0.0941    73
 0.1041    22
 0.1141    11
 0.1241     6
 0.1341    10
 0.1441     4
 0.1541     8
 0.1641     8
 0.1741     3
 0.1841   171
 0.1941   341
 0.2041   326
 0.2141   304
 0.2241   303
 0.2341   281
 0.2441   288
 0.2541   332
 0.2641   325
 0.2741   299
 0.2841   295
 0.2941   308
 0.3041   294
 0.3141   290
 0.3241   293
 0.3341   279
 0.3441   289
 0.3541   308
 0.3641   302
 0.3741   279
 0.3841   294
 0.3941   274
 0.4041   290
 0.4141   287
 0.4241   265
 0.4341   272
 0.4441   287
 0.4541   257
 0.4641   262
 0.4741   254
 0.4841   290
 0.4941   292
 0.5041   263
 0.5141   259
 0.5241   256
 0.5341   272
 0.5441   276
 0.5541   261
 0.5641   252
 0.5741   243
 0.5841   242
 0.5941   237
 0.6041   241
 0.6141   243
 0.6241   227
 0.6341   236
 0.6441   236
 0.6541   231
 0.6641   218
 0.6741   223
 0.6841   218
 0.6941   192
 0.7041   219
 0.7141   245
 0.7241   226
 0.7341   231
 0.7441   232
 0.7541   225
 0.7641   229
 0.7741   238
 0.7841   233
 0.7941   217
 0.8041   213
 0.8141   208
 0.8241   207
 0.8341   229
 0.8441   218
 0.8541   208
 0.8641   224
 0.8741   216
 0.8841   194
 0.8941   212
 0.9041   218
 0.9141   215
 0.9241   219
 0.9341   232
 0.9441   214
 0.9541   223
 0.9641   226
 0.9741   224
 0.9841   210
 0.9941   229
 1.0041   234
 1.0141   200
 1.0241   201
 1.0341   198
 1.0441   189
 1.0541   209
 1.0641   180
 1.0741   186
 1.0841   204
 1.0941   180
 1.1041   192
 1.1141   184
 1.1241   175
 1.1341   188
 1.1441   174
 1.1541   182
 1.1641   170
 1.1741   185
 1.1841   184
 1.1941   188
 1.2041   206
 1.2141   188
 1.2241   187
 1.2341   198
 1.2441   183
 1.2541   177
 1.2641   179
 1.2741   169
 1.2841   179
 1.2941   198
 1.3041   176
 1.3141   194
 1.3241   204
 1.3341   185
 1.3441   169
 1.3541   177
 1.3641   186
 1.3741   175
 1.3841   184
 1.3941   185
 1.4041   186
 1.4141   192
 1.4241   167
 1.4341   159
 1.4441   176
 1.4541   189
 1.4641   185
 1.4741   174
 1.4841   186
 1.4941   163
 1.5041   171
 1.5141   178
 1.5241   162
 1.5341   182
 1.5441   184
 1.5541   167
 1.5641   167
 1.5741   157
 1.5841   175
 1.5941   182
 1.6041   163
 1.6141   178
 1.6241   166
 1.6341   156
 1.6441   179
 1.6541   228
 1.6641   262
 1.6741   312
 1.6841   374
 1.6941   473
 1.7041   537
 1.7141   663
 1.7241   728
 1.7341   766
 1.7441   716
 1.7541   725
 1.7641   661
 1.7741   557
 1.7841   425
 1.7941   366
 1.8041   346
 1.8141   314
 1.8241   238
 1.8341   223
 1.8441   245
 1.8541   183
 1.8641   201
 1.8741   190
 1.8841   196
 1.8941   194
 1.9041   192
 1.9141   155
 1.9241   162
 1.9341   165
 1.9441   168
 1.9541   178
 1.9641   232
 1.9741   226
 1.9841   225
 1.9941   229
 2.0041   212
 2.0141   246
 2.0241   225
 2.0341   203
 2.0441   200
 2.0541   183
 2.0641   175
 2.0741   176
 2.0841   159
 2.0941   177
 2.1041   176
 2.1141   183
 2.1241   171
 2.1341   174
 2.1441   154
 2.1541   166
 2.1641   175
 2.1741   165
 2.1841   149
 2.1941   155
 2.2041   168
 2.2141   163
 2.2241   149
 2.2341   153
 2.2441   167
 2.2541   167
 2.2641   166
 2.2741   133
 2.2841   155
 2.2941   160
 2.3041   141
 2.3141   147
 2.3241   159
 2.3341   161
 2.3441   152
 2.3541   146
 2.3641   160
 2.3741   143
 2.3841   149
 2.3941   170
 2.4041   166
 2.4141   141
 2.4241   155
 2.4341   159
 2.4441   133
 2.4541   130
 2.4641   140
 2.4741   137
 2.4841   141
 2.4941   131
 2.5041   150
 2.5141   170
 2.5241   142
 2.5341   155
 2.5441   134
 2.5541   140
 2.5641   129
 2.5741   135
 2.5841   155
 2.5941   142
 2.6041   178
 2.6141   143
 2.6241   135
 2.6341   168
 2.6441   152
 2.6541   140
 2.6641   136
 2.6741   135
 2.6841   122
 2.6941   143
 2.7041   133
 2.7141   140
 2.7241   121
 2.7341   127
 2.7441   127
 2.7541   123
 2.7641   126
 2.7741   136
 2.7841   144
 2.7941   148
 2.8041   136
 2.8141   121
 2.8241   146
 2.8341   154
 2.8441   126
 2.8541   139
 2.8641   129
 2.8741   148
 2.8841   126
 2.8941   125
 2.9041   135
 2.9141   135
 2.9241   105
 2.9341   122
 2.9441   124
 2.9541   138
 2.9641   126
 2.9741   127
 2.9841   121
 2.9941   116
 3.0041   136
 3.0141   132
 3.0241   122
 3.0341   104
 3.0441   135
 3.0541   126
 3.0641   125
 3.0741   116
 3.0841   129
 3.0941   116
 3.1041   122
 3.1141   132
 3.1241   121
 3.1341   115
 3.1441   116
 3.1541   108
 3.1641   116
 3.1741   112
 3.1841   118
 3.1941   126
 3.2041   126
 3.2141   109
 3.2241   150
 3.2341   181
 3.2441   212
 3.2541   215
 3.2641   243
 3.2741   294
 3.2841   323
 3.2941   350
 3.3041   371
 3.3141   374
 3.3241   372
 3.3341   390
 3.3441   344
 3.3541   329
 3.3641   258
 3.3741   202
 3.3841   178
 3.3941   150
 3.4041   135
 3.4141   130
 3.4241   126
 3.4341   115
 3.4441   113
 3.4541   114
 3.4641   102
 3.4741   108
 3.4841   118
 3.4941   111
 3.5041   134
 3.5141   127
 3.5241   120
 3.5341   132
 3.5441   158
 3.5541   152
 3.5641   206
 3.5741   277
 3.5841   300
 3.5941   330
 3.6041   414
 3.6141   569
 3.6241   717
 3.6341   780
 3.6441   945
 3.6541  1135
 3.6641  1310
 3.6741  1406
 3.6841  1455
 3.6941  1433
 3.7041  1395
 3.7141  1304
 3.7241  1159
 3.7341  1049
 3.7441   845
 3.7541   664
 3.7641   492
 3.7741   434
 3.7841   310
 3.7941   197
 3.8041   177
 3.8141   135
 3.8241   122
 3.8341   113
 3.8441    93
 3.8541   100
 3.8641    90
 3.8741   109
 3.8841   101
 3.8941   121
 3.9041   126
 3.9141   122
 3.9241   134
 3.9341   153
 3.9441   174
 3.9541   214
 3.9641   213
 3.9741   252
 3.9841   278
 3.9941   290
 4.0041   305
 4.0141   295
 4.0241   282
 4.0341   279
 4.0441   238
 4.0541   197
 4.0641   194
 4.0741   181
 4.0841   151
 4.0941   147
 4.1041   132
 4.1141   111
 4.1241   105
 4.1341    97
 4.1441    99
 4.1541    74
 4.1641    89
 4.1741    84
 4.1841    71
 4.1941    76
 4.2041    74
 4.2141    83
 4.2241    87
 4.2341    67
 4.2441    71
 4.2541    79
 4.2641    78
 4.2741    79
 4.2841    91
 4.2941    84
 4.3041    83
 4.3141    89
 4.3241    64
 4.3341    75
 4.3441    90
 4.3541    94
 4.3641    96
 4.3741   115
 4.3841   122
 4.3941   135
 4.4041   159
 4.4141   187
 4.4241   234
 4.4341   287
 4.4441   323
 4.4541   383
 4.4641   448
 4.4741   454
 4.4841   518
 4.4941   562
 4.5041   544
 4.5141   587
 4.5241   510
 4.5341   443
 4.5441   450
 4.5541   374
 4.5641   345
 4.5741   306
 4.5841   223
 4.5941   192
 4.6041   166
 4.6141   134
 4.6241   137
 4.6341   103
 4.6441   110
 4.6541    91
 4.6641    92
 4.6741   122
 4.6841    89
 4.6941   117
 4.7041    95
 4.7141    83
 4.7241    76
 4.7341   107
 4.7441   103
 4.7541   102
 4.7641   103
 4.7741   101
 4.7841   117
 4.7941   100
 4.8041   123
 4.8141   135
 4.8241   129
 4.8341   127
 4.8441   155
 4.8541   130
 4.8641   158
 4.8741   154
 4.8841   174
 4.8941   195
 4.9041   170
 4.9141   174
 4.9241   197
 4.9341   180
 4.9441   178
 4.9541   176
 4.9641   174
 4.9741   150
 4.9841   163
 4.9941   145
 5.0041   147
 5.0141   127
 5.0241   120
 5.0341   123
 5.0441   102
 5.0541   113
 5.0641    99
 5.0741   115
 5.0841   106
 5.0941   103
 5.1041    82
 5.1141    99
 5.1241   121
 5.1341   103
 5.1441   119
 5.1541    91
 5.1641    92
 5.1741   101
 5.1841   115
 5.1941   104
 5.2041   100
 5.2141   117
 5.2241    93
 5.2341   110
 5.2441   100
 5.2541    92
 5.2641   107
 5.2741    98
 5.2841    99
 5.2941   100
 5.3041   113
 5.3141   100
 5.3241   108
 5.3341   124
 5.3441   103
 5.3541   119
 5.3641   136
 5.3741   128
 5.3841   103
 5.3941   120
 5.4041   123
 5.4141   138
 5.4241   142
 5.4341   121
 5.4441   139
 5.4541   120
 5.4641   106
 5.4741   117
 5.4841   128
 5.4941   111
 5.5041   109
 5.5141   115
 5.5241    99
 5.5341   115
 5.5441   105
 5.5541    97
 5.5641   113
 5.5741   106
 5.5841   106
 5.5941   109
 5.6041    83
 5.6141   117
 5.6241    98
 5.6341   109
 5.6441   110
 5.6541   112
 5.6641   112
 5.6741    86
 5.6841   108
 5.6941   108
 5.7041   101
 5.7141   125
 5.7241   114
 5.7341   106
 5.7441   109
 5.7541   143
 5.7641   134
 5.7741   173
 5.7841   182
 5.7941   186
 5.8041   185
 5.8141   240
 5.8241   264
 5.8341   297
 5.8441   314
 5.8541   361
 5.8641   380
 5.8741   423
 5.8841   479
 5.8941   432
 5.9041   440
 5.9141   484
 5.9241   448
 5.9341   386
 5.9441   360
 5.9541   317
 5.9641   287
 5.9741   265
 5.9841   216
 5.9941   190
 6.0041   192
 6.0141   174
 6.0241   138
 6.0341   122
 6.0441   150
 6.0541   137
 6.0641   146
 6.0741   139
 6.0841   161
 6.0941   144
 6.1041   175
 6.1141   180
 6.1241   166
 6.1341   137
 6.1441   163
 6.1541   178
 6.1641   197
 6.1741   210
 6.1841   238
 6.1941   281
 6.2041   352
 6.2141   465
 6.2241   626
 6.2341   832
 6.2441  1170
 6.2541  1490
 6.2641  2139
 6.2741  3128
 6.2841  4187
 6.2941  5409
 6.3041  6990
 6.3141  8699
 6.3241 10987
 6.3341 13301
 6.3441 15430
 6.3541 17746
 6.3641 19787
 6.3741 21525
 6.3841 22557
 6.3941 23260
 6.4041 23597
 6.4141 22228
 6.4241 21295
 6.4341 19457
 6.4441 17312
 6.4541 15317
 6.4641 13117
 6.4741 10711
 6.4841  8462
 6.4941  6671
 6.5041  5208
 6.5141  3833
 6.5241  2711
 6.5341  1927
 6.5441  1431
 6.5541  1002
 6.5641   690
 6.5741   514
 6.5841   435
 6.5941   309
 6.6041   216
 6.6141   215
 6.6241   222
 6.6341   165
 6.6441   180
 6.6541   184
 6.6641   161
 6.6741   154
 6.6841   166
 6.6941   181
 6.7041   167
 6.7141   163
 6.7241   192
 6.7341   198
 6.7441   175
 6.7541   196
 6.7641   178
 6.7741   196
 6.7841   197
 6.7941   187
 6.8041   219
 6.8141   254
 6.8241   243
 6.8341   221
 6.8441   276
 6.8541   225
 6.8641   333
 6.8741   344
 6.8841   384
 6.8941   461
 6.9041   529
 6.9141   624
 6.9241   762
 6.9341   952
 6.9441  1104
 6.9541  1398
 6.9641  1634
 6.9741  2040
 6.9841  2312
 6.9941  2634
 7.0041  3025
 7.0141  3327
 7.0241  3669
 7.0341  3923
 7.0441  3957
 7.0541  3982
 7.0641  4028
 7.0741  3837
 7.0841  3636
 7.0941  3258
 7.1041  3005
 7.1141  2648
 7.1241  2231
 7.1341  1883
 7.1441  1573
 7.1541  1282
 7.1641  1011
 7.1741   786
 7.1841   639
 7.1941   532
 7.2041   431
 7.2141   360
 7.2241   347
 7.2341   273
 7.2441   252
 7.2541   224
 7.2641   246
 7.2741   252
 7.2841   215
 7.2941   218
 7.3041   246
 7.3141   201
 7.3241   238
 7.3341   246
 7.3441   264
 7.3541   275
 7.3641   279
 7.3741   305
 7.3841   281
 7.3941   288
 7.4041   307
 7.4141   299
 7.4241   294
 7.4341   318
 7.4441   307
 7.4541   274
 7.4641   284
 7.4741   269
 7.4841   281
 7.4941   257
 7.5041   244
 7.5141   205
 7.5241   243
 7.5341   212
 7.5441   233
 7.5541   227
 7.5641   233
 7.5741   223
 7.5841   227
 7.5941   228
 7.6041   229
 7.6141   195
 7.6241   242
 7.6341   210
 7.6441   228
 7.6541   236
 7.6641   232
 7.6741   255
 7.6841   213
 7.6941   238
 7.7041   229
 7.7141   219
 7.7241   256
 7.7341   218
 7.7441   236
 7.7541   244
 7.7641   274
 7.7741   264
 7.7841   265
 7.7941   262
 7.8041   291
 7.8141   336
 7.8241   303
 7.8341   270
 7.8441   324
 7.8541   294
 7.8641   336
 7.8741   338
 7.8841   371
 7.8941   347
 7.9041   394
 7.9141   356
 7.9241   374
 7.9341   433
 7.9441   437
 7.9541   451
 7.9641   491
 7.9741   528
 7.9841   578
 7.9941   591
 8.0041   604
 8.0141   650
 8.0241   692
 8.0341   752
 8.0441   838
 8.0541   894
 8.0641   945
 8.0741   993
 8.0841  1053
 8.0941  1098
 8.1041  1200
 8.1141  1256
 8.1241  1305
 8.1341  1321
 8.1441  1371
 8.1541  1387
 8.1641  1450
 8.1741  1432
 8.1841  1398
 8.1941  1458
 8.2041  1537
 8.2141  1529
 8.2241  1590
 8.2341  1643
 8.2441  1627
 8.2541  1754
 8.2641  1759
 8.2741  1823
 8.2841  1994
 8.2941  2102
 8.3041  2335
 8.3141  2448
 8.3241  2658
 8.3341  2732
 8.3441  3060
 8.3541  3206
 8.3641  3236
 8.3741  3376
 8.3841  3389
 8.3941  3322
 8.4041  3261
 8.4141  3275
 8.4241  3043
 8.4341  2921
 8.4441  2677
 8.4541  2326
 8.4641  2019
 8.4741  1781
 8.4841  1564
 8.4941  1343
 8.5041  1104
 8.5141   936
 8.5241   831
 8.5341   703
 8.5441   609
 8.5541   625
 8.5641   542
 8.5741   533
 8.5841   485
 8.5941   465
 8.6041   475
 8.6141   450
 8.6241   443
 8.6341   465
 8.6441   502
 8.6541   430
 8.6641   442
 8.6741   431
 8.6841   444
 8.6941   408
 8.7041   426
 8.7141   370
 8.7241   398
 8.7341   401
 8.7441   366
 8.7541   373
 8.7641   319
 8.7741   325
 8.7841   322
 8.7941   315
 8.8041   332
 8.8141   346
 8.8241   310
 8.8341   325
 8.8441   305
 8.8541   347
 8.8641   327
 8.8741   326
 8.8841   335
 8.8941   357
 8.9041   356
 8.9141   325
 8.9241   376
 8.9341   359
 8.9441   387
 8.9541   356
 8.9641   399
 8.9741   420
 8.9841   376
 8.9941   413
 9.0041   405
 9.0141   419
 9.0241   418
 9.0341   414
 9.0441   446
 9.0541   467
 9.0641   456
 9.0741   451
 9.0841   472
 9.0941   511
 9.1041   529
 9.1141   526
 9.1241   558
 9.1341   594
 9.1441   607
 9.1541   639
 9.1641   680
 9.1741   709
 9.1841   723
 9.1941   802
 9.2041   784
 9.2141   811
 9.2241   818
 9.2341   870
 9.2441   907
 9.2541   975
 9.2641  1049
 9.2741  1038
 9.2841  1117
 9.2941  1163
 9.3041  1180
 9.3141  1260
 9.3241  1237
 9.3341  1260
 9.3441  1304
 9.3541  1308
 9.3641  1375
 9.3741  1434
 9.3841  1468
 9.3941  1491
 9.4041  1501
 9.4141  1484
 9.4241  1551
 9.4341  1584
 9.4441  1542
 9.4541  1556
 9.4641  1560
 9.4741  1657
 9.4841  1663
 9.4941  1709
 9.5041  1760
 9.5141  1788
 9.5241  1836
 9.5341  1879
 9.5441  1965
 9.5541  2097
 9.5641  2279
 9.5741  2328
 9.5841  2451
 9.5941  2623
 9.6041  2769
 9.6141  2914
 9.6241  3148
 9.6341  3301
 9.6441  3344
 9.6541  3429
 9.6641  3432
 9.6741  3412
 9.6841  3454
 9.6941  3412
 9.7041  3234
 9.7141  3016
 9.7241  2851
 9.7341  2658
 9.7441  2403
 9.7541  2247
 9.7641  2134
 9.7741  1992
 9.7841  1788
 9.7941  1713
 9.8041  1608
 9.8141  1505
 9.8241  1448
 9.8341  1342
 9.8441  1379
 9.8541  1335
 9.8641  1324
 9.8741  1324
 9.8841  1374
 9.8941  1397
 9.9041  1417
 9.9141  1422
 9.9241  1459
 9.9341  1514
 9.9441  1439
 9.9541  1457
 9.9641  1473
 9.9741  1380
 9.9841  1368
 9.9941  1307
10.0041  1243
10.0141  1131
10.0241  1067
10.0341   985
10.0441   903
10.0541   794
10.0641   711
10.0741   643
10.0841   561
10.0941   460
10.1041   444
10.1141   439
10.1241   384
10.1341   353
10.1441   324
10.1541   344
10.1641   301
10.1741   259
10.1841   252
10.1941   268
10.2041   253
10.2141   252
10.2241   244
10.2341   217
10.2441   234
10.2541   259
10.2641   217
10.2741   202
10.2841   192
10.2941   217
10.3041   209
10.3141   193
10.3241   186
10.3341   197
10.3441   177
10.3541   171
10.3641   188
10.3741   200
10.3841   215
10.3941   214
10.4041   187
10.4141   173
10.4241   188
10.4341   193
10.4441   199
10.4541   196
10.4641   192
10.4741   218
10.4841   202
10.4941   204
10.5041   213
10.5141   212
10.5241   230
10.5341   225
10.5441   213
10.5541   220
10.5641   202
10.5741   221
10.5841   247
10.5941   230
10.6041   221
10.6141   209
10.6241   215
10.6341   231
10.6441   208
10.6541   206
10.6641   229
10.6741   231
10.6841   249
10.6941   222
10.7041   234
10.7141   268
10.7241   248
10.7341   244
10.7441   252
10.7541   261
10.7641   251
10.7741   260
10.7841   276
10.7941   274
10.8041   314
10.8141   296
10.8241   271
10.8341   287
10.8441   297
10.8541   302
10.8641   308
10.8741   327
10.8841   328
10.8941   279
10.9041   312
10.9141   309
10.9241   316
10.9341   361
10.9441   352
10.9541   293
10.9641   321
10.9741   327
10.9841   333
10.9941   338
11.0041   322
11.0141   327
11.0241   312
11.0341   303
11.0441   307
11.0541   303
11.0641   308
11.0741   306
11.0841   314
11.0941   291
11.1041   273
11.1141   306
11.1241   299
11.1341   300
11.1441   323
11.1541   319
11.1641   308
11.1741   326
11.1841   330
11.1941   375
11.2041   392
11.2141   408
11.2241   441
11.2341   457
11.2441   449
11.2541   480
11.2641   499
11.2741   498
11.2841   493
11.2941   469
11.3041   480
11.3141   472
11.3241   448
11.3341   407
11.3441   397
11.3541   369
11.3641   384
11.3741   339
11.3841   327
11.3941   317
11.4041   293
11.4141   274
11.4241   273
11.4341   277
11.4441   226
11.4541   230
11.4641   244
11.4741   231
11.4841   239
11.4941   233
11.5041   230
11.5141   242
11.5241   248
11.5341   245
11.5441   234
11.5541   244
11.5641   270
11.5741   250
11.5841   239
11.5941   255
11.6041   251
11.6141   247
11.6241   251
11.6341   260
11.6441   262
11.6541   252
11.6641   240
11.6741   250
11.6841   223
11.6941   205
11.7041   218
11.7141   216
11.7241   216
11.7341   226
11.7441   219
11.7541   199
11.7641   199
11.7741   206
11.7841   169
11.7941   180
11.8041   188
11.8141   173
11.8241   185
11.8341   187
11.8441   179
11.8541   164
11.8641   175
11.8741   187
11.8841   182
11.8941   180
11.9041   193
11.9141   172
11.9241   154
11.9341   159
11.9441   166
11.9541   176
11.9641   173
11.9741   175
11.9841   172
11.9941   171
12.0041   175
12.0141   183
12.0241   159
12.0341   165
12.0441   171
12.0541   176
12.0641   169
12.0741   177
12.0841   180
12.0941   171
12.1041   181
12.1141   183
12.1241   177
12.1341   173
12.1441   177
12.1541   172
12.1641   174
12.1741   163
12.1841   163
12.1941   169
12.2041   170
12.2141   169
12.2241   171
12.2341   164
12.2441   143
12.2541   145
12.2641   152
12.2741   165
12.2841   157
12.2941   166
12.3041   171
12.3141   172
12.3241   180
12.3341   173
12.3441   162
12.3541   183
12.3641   182
12.3741   168
12.3841   178
12.3941   167
12.4041   168
12.4141   180
12.4241   171
12.4341   171
12.4441   166
12.4541   152
12.4641   164
12.4741   170
12.4841   169
12.4941   174
12.5041   163
12.5141   175
12.5241   184
12.5341   187
12.5441   198
12.5541   202
12.5641   187
12.5741   176
12.5841   180
12.5941   187
12.6041   193
12.6141   195
12.6241   185
12.6341   181
12.6441   188
12.6541   194
12.6641   213
12.6741   207
12.6841   188
12.6941   185
12.7041   186
12.7141   208
12.7241   213
12.7341   208
12.7441   193
12.7541   173
12.7641   167
12.7741   176
12.7841   182
12.7941   180
12.8041   178
12.8141   184
12.8241   192
12.8341   194
12.8441   196
12.8541   202
12.8641   201
12.8741   192
12.8841   185
12.8941   183
12.9041   184
12.9141   188
12.9241   197
12.9341   186
12.9441   174
12.9541   178
12.9641   180
12.9741   180
12.9841   179
12.9941   182
13.0041   193
13.0141   201
13.0241   199
13.0341   197
13.0441   197
13.0541   198
13.0641   198
13.0741   199
13.0841   204
13.0941   207
13.1041   211
13.1141   215
13.1241   220
13.1341   219
13.1441   210
13.1541   206
13.1641   215
13.1741   234
13.1841   232
13.1941   219
13.2041   239
13.2141   247
13.2241   257
13.2341   263
13.2441   262
13.2541   280
13.2641   291
13.2741   311
13.2841   328
13.2941   333
13.3041   355
13.3141   382
13.3241   403
13.3341   416
13.3441   416
13.3541   399
13.3641   409
13.3741   412
13.3841   405
13.3941   395
13.4041   390
13.4141   398
13.4241   410
13.4341   398
13.4441   359
13.4541   356
13.4641   343
13.4741   330
13.4841   343
13.4941   319
13.5041   288
13.5141   283
13.5241   270
13.5341   247
13.5441   249
13.5541   246
13.5641   229
13.5741   212
13.5841   223
13.5941   231
13.6041   223
13.6141   229
13.6241   223
13.6341   216
13.6441   211
13.6541   208
13.6641   214
13.6741   240
13.6841   247
13.6941   239
13.7041   241
13.7141   236
13.7241   224
13.7341   218
13.7441   235
13.7541   232
13.7641   222
13.7741   239
13.7841   244
13.7941   234
13.8041   240
13.8141   243
13.8241   250
13.8341   251
13.8441   231
13.8541   228
13.8641   253
13.8741   265
13.8841   270
13.8941   266
13.9041   281
13.9141   301
13.9241   292
13.9341   294
13.9441   323
13.9541   331
13.9641   333
13.9741   366
13.9841   412
13.9941   441
14.0041   481
14.0141   522
14.0241   520
14.0341   550
14.0441   627
14.0541   696
14.0641   753
14.0741   804
14.0841   821
14.0941   857
14.1041   909
14.1141   922
14.1241   956
14.1341   984
14.1441  1004
14.1541   994
14.1641   993
14.1741   967
14.1841   902
14.1941   892
14.2041   854
14.2141   793
14.2241   737
14.2341   692
14.2441   679
14.2541   627
14.2641   548
14.2741   536
14.2841   516
14.2941   463
14.3041   422
14.3141   403
14.3241   366
14.3341   336
14.3441   303
14.3541   297
14.3641   299
14.3741   286
14.3841   289
14.3941   284
14.4041   269
14.4141   278
14.4241   281
14.4341   253
14.4441   253
14.4541   280
14.4641   281
14.4741   259
14.4841   244
14.4941   254
14.5041   265
14.5141   278
14.5241   274
14.5341   259
14.5441   268
14.5541   265
14.5641   248
14.5741   241
14.5841   236
14.5941   251
14.6041   278
14.6141   281
14.6241   259
14.6341   246
14.6441   251
14.6541   252
14.6641   260
14.6741   274
14.6841   293
14.6941   291
14.7041   278
14.7141   282
14.7241   279
14.7341   274
14.7441   274
14.7541   274
14.7641   275
14.7741   287
14.7841   325
14.7941   320
14.8041   293
14.8141   282
14.8241   293
14.8341   306
14.8441   325
14.8541   332
14.8641   333
14.8741   318
14.8841   317
14.8941   325
14.9041   329
14.9141   343
14.9241   334
14.9341   324
14.9441   330
14.9541   337
14.9641   361
14.9741   359
14.9841   327
14.9941   321
15.0041   334
15.0141   345
15.0241   350
15.0341   324
15.0441   321
15.0541   352
15.0641   340
15.0741   319
15.0841   317
15.0941   300
15.1041   291
15.1141   306
15.1241   313
15.1341   318
15.1441   311
15.1541   299
15.1641   291
15.1741   296
15.1841   289
15.1941   312
15.2041   312
15.2141   297
15.2241   300
15.2341   297
15.2441   286
15.2541   285
15.2641   284
15.2741   300
15.2841   313
15.2941   310
15.3041   298
15.3141   292
15.3241   311
15.3341   307
15.3441   298
15.3541   297
15.3641   304
15.3741   299
15.3841   315
15.3941   320
15.4041   311
15.4141   320
15.4241   327
15.4341   314
15.4441   286
15.4541   305
15.4641   330
15.4741   319
15.4841   330
15.4941   360
15.5041   351
15.5141   335
15.5241   339
15.5341   348
15.5441   359
15.5541   357
15.5641   404
15.5741   416
15.5841   406
15.5941   448
15.6041   482
15.6141   499
15.6241   525
15.6341   549
15.6441   590
15.6541   625
15.6641   672
15.6741   708
15.6841   714
15.6941   757
15.7041   779
15.7141   807
15.7241   876
15.7341   909
15.7441   914
15.7541   898
15.7641   853
15.7741   828
15.7841   871
15.7941   884
15.8041   848
15.8141   845
15.8241   817
15.8341   797
15.8441   779
15.8541   733
15.8641   698
15.8741   641
15.8841   582
15.8941   552
15.9041   531
15.9141   522
15.9241   530
15.9341   489
15.9441   484
15.9541   443
15.9641   440
15.9741   406
15.9841   402
15.9941   388
16.0041   360
16.0141   369
16.0241   404
16.0341   383
16.0441   356
16.0541   355
16.0641   348
16.0741   335
16.0841   362
16.0941   377
16.1041   379
16.1141   368
16.1241   345
16.1341   351
16.1441   373
16.1541   372
16.1641   368
16.1741   381
16.1841   386
16.1941   355
16.2041   367
16.2141   385
16.2241   366
16.2341   355
16.2441   371
16.2541   372
16.2641   365
16.2741   355
16.2841   365
16.2941   361
16.3041   354
16.3141   374
16.3241   377
16.3341   358
16.3441   372
16.3541   379
16.3641   369
16.3741   364
16.3841   369
16.3941   352
16.4041   357
16.4141   349
16.4241   379
16.4341   406
16.4441   399
16.4541   393
16.4641   358
16.4741   376
16.4841   386
16.4941   383
16.5041   385
16.5141   389
16.5241   388
16.5341   370
16.5441   372
16.5541   374
16.5641   400
16.5741   403
16.5841   394
16.5941   391
16.6041   361
16.6141   354
16.6241   367
16.6341   378
16.6441   388
16.6541   396
16.6641   400
16.6741   401
16.6841   386
16.6941   401
16.7041   417
16.7141   392
16.7241   393
16.7341   413
16.7441   413
16.7541   427
16.7641   407
16.7741   393
16.7841   412
16.7941   413
16.8041   365
16.8141   364
16.8241   391
16.8341   370
16.8441   381
16.8541   383
16.8641   381
16.8741   391
16.8841   398
16.8941   381
16.9041   388
16.9141   393
16.9241   424
16.9341   402
16.9441   399
16.9541   409
16.9641   402
16.9741   388
16.9841   411
16.9941   413
17.0041   397
17.0141   400
17.0241   386
17.0341   379
17.0441   422
17.0541   406
17.0641   407
17.0741   401
17.0841   384
17.0941   385
17.1041   409
17.1141   405
17.1241   409
17.1341   424
17.1441   426
17.1541   419
17.1641   404
17.1741   422
17.1841   408
17.1941   404
17.2041   401
17.2141   431
17.2241   416
17.2341   414
17.2441   405
17.2541   400
17.2641   418
17.2741   420
17.2841   434
17.2941   415
17.3041   404
17.3141   400
17.3241   385
17.3341   408
17.3441   419
17.3541   439
17.3641   422
17.3741   411
17.3841   424
17.3941   447
17.4041   430
17.4141   415
17.4241   412
17.4341   443
17.4441   451
17.4541   446
17.4641   436
17.4741   423
17.4841   434
17.4941   437
17.5041   422
17.5141   445
17.5241   467
17.5341   483
17.5441   481
17.5541   478
17.5641   495
17.5741   474
17.5841   469
17.5941   487
17.6041   494
17.6141   481
17.6241   511
17.6341   497
17.6441   528
17.6541   517
17.6641   510
17.6741   509
17.6841   510
17.6941   491
17.7041   488
17.7141   482
17.7241   519
17.7341   495
17.7441   485
17.7541   494
17.7641   507
17.7741   446
17.7841   470
17.7941   466
17.8041   457
17.8141   444
17.8241   472
17.8341   479
17.8441   459
17.8541   479
17.8641   473
17.8741   456
17.8841   465
17.8941   445
17.9041   468
17.9141   448
17.9241   481
17.9341   470
17.9441   432
17.9541   474
17.9641   445
17.9741   458
17.9841   474
17.9941   450
18.0041   458
18.0141   496
18.0241   465
18.0341   474
18.0441   472
18.0541   466
18.0641   459
18.0741   448
18.0841   464
18.0941   455
18.1041   434
18.1141   478
18.1241   480
18.1341   502
18.1441   458
18.1541   474
18.1641   446
18.1741   479
18.1841   482
18.1941   478
18.2041   477
18.2141   447
18.2241   449
18.2341   467
18.2441   455
18.2541   477
18.2641   465
18.2741   472
18.2841   484
18.2941   492
18.3041   476
18.3141   460
18.3241   472
18.3341   453
18.3441   463
18.3541   477
18.3641   457
18.3741   469
18.3841   458
18.3941   445
18.4041   469
18.4141   479
18.4241   440
18.4341   491
18.4441   489
18.4541   464
18.4641   456
18.4741   473
18.4841   458
18.4941   440
18.5041   450
18.5141   467
18.5241   522
18.5341   478
18.5441   496
18.5541   508
18.5641   501
18.5741   473
18.5841   497
18.5941   516
18.6041   459
18.6141   492
18.6241   500
18.6341   495
18.6441   532
18.6541   505
18.6641   485
18.6741   473
18.6841   478
18.6941   454
18.7041   504
18.7141   494
18.7241   475
18.7341   476
18.7441   461
18.7541   480
18.7641   476
18.7741   528
18.7841   507
18.7941   469
18.8041   516
18.8141   499
18.8241   497
18.8341   484
18.8441   490
18.8541   508
18.8641   539
18.8741   505
18.8841   495
18.8941   494
18.9041   533
18.9141   525
18.9241   504
18.9341   511
18.9441   506
18.9541   497
18.9641   485
18.9741   523
18.9841   523
18.9941   512
19.0041   518
19.0141   503
19.0241   524
19.0341   516
19.0441   517
19.0541   524
19.0641   475
19.0741   513
19.0841   546
19.0941   543
19.1041   503
19.1141   513
19.1241   541
19.1341   499
19.1441   496
19.1541   497
19.1641   518
19.1741   526
19.1841   515
19.1941   522
19.2041   524
19.2141   527
19.2241   542
19.2341   523
19.2441   535
19.2541   532
19.2641   541
19.2741   506
19.2841   503
19.2941   507
19.3041   536
19.3141   504
19.3241   507
19.3341   538
19.3441   526
19.3541   513
19.3641   533
19.3741   548
19.3841   520
19.3941   514
19.4041   540
19.4141   527
19.4241   534
19.4341   545
19.4441   522
19.4541   494
19.4641   489
19.4741   516
19.4841   516
19.4941   524
19.5041   489
19.5141   514
19.5241   518
19.5341   503
19.5441   527
19.5541   496
19.5641   526
19.5741   520
19.5841   500
19.5941   525
19.6041   573
19.6141   527
19.6241   514
19.6341   497
19.6441   525
19.6541   522
19.6641   536
19.6741   509
19.6841   553
19.6941   530
19.7041   532
19.7141   551
19.7241   546
19.7341   528
19.7441   525
19.7541   560
19.7641   540
19.7741   563
19.7841   533
19.7941   528
19.8041   545
19.8141   537
19.8241   511
19.8341   561
19.8441   549
19.8541   578
19.8641   542
19.8741   544
19.8841   554
19.8941   538
19.9041   544
19.9141   527
19.9241   551
19.9341   507
19.9441   500
19.9541   519
19.9641   515
19.9741   555
19.9841   551
19.9941   553
20.0041   530
20.0141   511
20.0241   578
20.0341   551
20.0441   557
20.0541   548
20.0641   533
20.0741   556
20.0841   562
20.0941   549
20.1041   552
20.1141   556
20.1241   571
20.1341   501
20.1441   503
20.1541   530
20.1641   569
20.1741   541
20.1841   551
20.1941   539
20.2041   531
20.2141   545
20.2241   544
20.2341   516
20.2441   522
20.2541   503
20.2641   559
20.2741   553
20.2841   572
20.2941   496
20.3041   569
20.3141   577
20.3241   561
20.3341   563
20.3441   534
20.3541   558
20.3641   550
20.3741   583
20.3841   566
20.3941   570
20.4041   592
20.4141   627
20.4241   546
20.4341   512
20.4441   555
20.4541   534
20.4641   549
20.4741   555
20.4841   559
20.4941   540
20.5041   541
20.5141   540
20.5241   533
20.5341   563
20.5441   571
20.5541   548
20.5641   552
20.5741   566
20.5841   541
20.5941   518
20.6041   518
20.6141   518
20.6241   524
20.6341   551
20.6441   582
20.6541   536
20.6641   597
20.6741   522
20.6841   543
20.6941   543
20.7041   559
20.7141   537
20.7241   526
20.7341   569
20.7441   581
20.7541   556
20.7641   574
20.7741   555
20.7841   575
20.7941   584
20.8041   604
20.8141   576
20.8241   577
20.8341   594
20.8441   598
20.8541   568
20.8641   609
20.8741   617
20.8841   635
20.8941   648
20.9041   638
20.9141   684
20.9241   668
20.9341   679
20.9441   678
20.9541   712
20.9641   689
20.9741   675
20.9841   726
20.9941   711
21.0041   732
21.0141   777
21.0241   738
21.0341   804
21.0441   820
21.0541   794
21.0641   849
21.0741   807
21.0841   859
21.0941   787
21.1041   849
21.1141   850
21.1241   824
21.1341   818
21.1441   869
21.1541   834
21.1641   860
21.1741   852
21.1841   881
21.1941   824
21.2041   796
21.2141   794
21.2241   807
21.2341   778
21.2441   759
21.2541   775
21.2641   740
21.2741   683
21.2841   668
21.2941   668
21.3041   714
21.3141   690
21.3241   637
21.3341   635
21.3441   638
21.3541   631
21.3641   636
21.3741   578
21.3841   573
21.3941   597
21.4041   587
21.4141   568
21.4241   589
21.4341   595
21.4441   597
21.4541   530
21.4641   592
21.4741   600
21.4841   512
21.4941   596
21.5041   579
21.5141   550
21.5241   567
21.5341   555
21.5441   619
21.5541   553
21.5641   573
21.5741   575
21.5841   575
21.5941   555
21.6041   558
21.6141   527
21.6241   560
21.6341   582
21.6441   575
21.6541   535
21.6641   544
21.6741   545
21.6841   556
21.6941   585
21.7041   523
21.7141   577
21.7241   561
21.7341   509
21.7441   573
21.7541   589
21.7641   571
21.7741   572
21.7841   553
21.7941   568
21.8041   566
21.8141   575
21.8241   585
21.8341   571
21.8441   592
21.8541   567
21.8641   581
21.8741   545
21.8841   590
21.8941   576
21.9041   588
21.9141   584
21.9241   537
21.9341   573
21.9441   564
21.9541   592
21.9641   578
21.9741   539
21.9841   538
21.9941   565
22.0041   594
22.0141   585
22.0241   563
22.0341   567
22.0441   582
22.0541   561
22.0641   552
22.0741   579
22.0841   586
22.0941   604
22.1041   561
22.1141   594
22.1241   574
22.1341   563
22.1441   537
22.1541   579
22.1641   573
22.1741   565
22.1841   530
22.1941   563
22.2041   584
22.2141   595
22.2241   552
22.2341   575
22.2441   582
22.2541   566
22.2641   567
22.2741   557
22.2841   581
22.2941   583
22.3041   561
22.3141   567
22.3241   564
22.3341   591
22.3441   520
22.3541   553
22.3641   533
22.3741   580
22.3841   567
22.3941   557
22.4041   572
22.4141   575
22.4241   597
22.4341   597
22.4441   527
22.4541   548
22.4641   582
22.4741   541
22.4841   548
22.4941   577
22.5041   585
22.5141   570
22.5241   603
22.5341   572
22.5441   549
22.5541   531
22.5641   552
22.5741   566
22.5841   556
22.5941   533
22.6041   534
22.6141   547
22.6241   567
22.6341   594
22.6441   571
22.6541   559
22.6641   569
22.6741   571
22.6841   581
22.6941   540
22.7041   539
22.7141   600
22.7241   606
22.7341   542
22.7441   529
22.7541   534
22.7641   576
22.7741   573
22.7841   565
22.7941   537
22.8041   543
22.8141   550
22.8241   597
22.8341   556
22.8441   594
22.8541   555
22.8641   565
22.8741   560
22.8841   560
22.8941   536
22.9041   557
22.9141   543
22.9241   560
22.9341   543
22.9441   575
22.9541   530
22.9641   549
22.9741   520
22.9841   540
22.9941   592
23.0041   544
23.0141   593
23.0241   544
23.0341   546
23.0441   536
23.0541   552
23.0641   552
23.0741   560
23.0841   562
23.0941   512
23.1041   563
23.1141   568
23.1241   564
23.1341   574
23.1441   537
23.1541   538
23.1641   532
23.1741   524
23.1841   541
23.1941   508
23.2041   592
23.2141   559
23.2241   589
23.2341   572
23.2441   585
23.2541   571
23.2641   578
23.2741   531
23.2841   553
23.2941   586
23.3041   528
23.3141   511
23.3241   527
23.3341   516
23.3441   539
23.3541   536
23.3641   571
23.3741   550
23.3841   511
23.3941   566
23.4041   565
23.4141   558
23.4241   578
23.4341   577
23.4441   549
23.4541   585
23.4641   518
23.4741   582
23.4841   496
23.4941   538
23.5041   562
23.5141   545
23.5241   557
23.5341   539
23.5441   552
23.5541   540
23.5641   536
23.5741   561
23.5841   558
23.5941   519
23.6041   577
23.6141   582
23.6241   551
23.6341   563
23.6441   584
23.6541   523
23.6641   509
23.6741   552
23.6841   574
23.6941   586
23.7041   571
23.7141   563
23.7241   605
23.7341   563
23.7441   572
23.7541   542
23.7641   569
23.7741   599
23.7841   595
23.7941   575
23.8041   593
23.8141   631
23.8241   572
23.8341   625
23.8441   591
23.8541   573
23.8641   589
23.8741   569
23.8841   589
23.8941   553
23.9041   603
23.9141   547
23.9241   550
23.9341   568
23.9441   566
23.9541   555
23.9641   554
23.9741   595
23.9841   534
23.9941   553
24.0041   556
24.0141   525
24.0241   528
24.0341   532
24.0441   518
24.0541   498
24.0641   527
24.0741   501
24.0841   520
24.0941   506
24.1041   553
24.1141   514
24.1241   554
24.1341   577
24.1441   542
24.1541   539
24.1641   528
24.1741   547
24.1841   528
24.1941   533
24.2041   515
24.2141   555
24.2241   547
24.2341   550
24.2441   523
24.2541   485
24.2641   563
24.2741   551
24.2841   503
24.2941   510
24.3041   544
24.3141   553
24.3241   549
24.3341   537
24.3441   547
24.3541   522
24.3641   510
24.3741   518
24.3841   528
24.3941   513
24.4041   518
24.4141   519
24.4241   523
24.4341   518
24.4441   514
24.4541   545
24.4641   459
24.4741   511
24.4841   524
24.4941   496
24.5041   482
24.5141   536
24.5241   525
24.5341   517
24.5441   485
24.5541   492
24.5641   547
24.5741   476
24.5841   499
24.5941   478
24.6041   512
24.6141   543
24.6241   494
24.6341   499
24.6441   505
24.6541   513
24.6641   538
24.6741   525
24.6841   521
24.6941   510
24.7041   496
24.7141   530
24.7241   514
24.7341   492
24.7441   505
24.7541   495
24.7641   498
24.7741   520
24.7841   556
24.7941   502
24.8041   505
24.8141   541
24.8241   525
24.8341   495
24.8441   547
24.8541   517
24.8641   490
24.8741   495
24.8841   513
24.8941   524
24.9041   511
24.9141   494
24.9241   507
24.9341   481
24.9441   505
24.9541   509
24.9641   479
24.9741   485
24.9841   521
24.9941   528
25.0041   555
25.0141   496
25.0241   534
25.0341   523
25.0441   529
25.0541   552
25.0641   487
25.0741   506
25.0841   524
25.0941   501
25.1041   490
25.1141   532
25.1241   516
25.1341   497
25.1441   492
25.1541   503
25.1641   521
25.1741   533
25.1841   533
25.1941   531
25.2041   493
25.2141   497
25.2241   488
25.2341   508
25.2441   536
25.2541   533
25.2641   522
25.2741   530
25.2841   517
25.2941   508
25.3041   534
25.3141   514
25.3241   519
25.3341   509
25.3441   489
25.3541   545
25.3641   519
25.3741   467
25.3841   532
25.3941   495
25.4041   535
25.4141   486
25.4241   484
25.4341   492
25.4441   488
25.4541   476
25.4641   499
25.4741   501
25.4841   505
25.4941   493
25.5041   453
25.5141   491
25.5241   470
25.5341   494
25.5441   462
25.5541   480
25.5641   460
25.5741   499
25.5841   449
25.5941   473
25.6041   482
25.6141   450
25.6241   468
25.6341   479
25.6441   463
25.6541   451
25.6641   465
25.6741   481
25.6841   459
25.6941   469
25.7041   480
25.7141   458
25.7241   468
25.7341   496
25.7441   458
25.7541   494
25.7641   464
25.7741   479
25.7841   480
25.7941   489
25.8041   449
25.8141   463
25.8241   448
25.8341   427
25.8441   471
25.8541   447
25.8641   473
25.8741   469
25.8841   411
25.8941   478
25.9041   507
25.9141   455
25.9241   489
25.9341   429
25.9441   447
25.9541   506
25.9641   489
25.9741   487
25.9841   439
25.9941   433
26.0041   464
26.0141   461
26.0241   487
26.0341   470
26.0441   450
26.0541   462
26.0641   447
26.0741   445
26.0841   458
26.0941   439
26.1041   461
26.1141   462
26.1241   459
26.1341   468
26.1441   436
26.1541   459
26.1641   450
26.1741   448
26.1841   462
26.1941   464
26.2041   469
26.2141   462
26.2241   502
26.2341   452
26.2441   479
26.2541   480
26.2641   452
26.2741   503
26.2841   444
26.2941   442
26.3041   429
26.3141   429
26.3241   488
26.3341   451
26.3441   444
26.3541   500
26.3641   450
26.3741   448
26.3841   447
26.3941   456
26.4041   433
26.4141   476
26.4241   461
26.4341   409
26.4441   446
26.4541   466
26.4641   464
26.4741   472
26.4841   451
26.4941   478
26.5041   406
26.5141   452
26.5241   456
26.5341   424
26.5441   437
26.5541   443
26.5641   435
26.5741   449
26.5841   419
26.5941   440
26.6041   449
26.6141   409
26.6241   434
26.6341   454
26.6441   463
26.6541   437
26.6641   432
26.6741   438
26.6841   425
26.6941   417
26.7041   394
26.7141   404
26.7241   400
26.7341   429
26.7441   405
26.7541   438
26.7641   441
26.7741   417
26.7841   431
26.7941   433
26.8041   456
26.8141   454
26.8241   442
26.8341   445
26.8441   430
26.8541   419
26.8641   376
26.8741   420
26.8841   378
26.8941   423
26.9041   420
26.9141   430
26.9241   426
26.9341   416
26.9441   423
26.9541   407
26.9641   418
26.9741   405
26.9841   390
26.9941   404
27.0041   421
27.0141   420
27.0241   405
27.0341   408
27.0441   433
27.0541   412
27.0641   395
27.0741   414
27.0841   391
27.0941   388
27.1041   430
27.1141   413
27.1241   407
27.1341   420
27.1441   445
27.1541   437
27.1641   427
27.1741   416
27.1841   363
27.1941   403
27.2041   404
27.2141   396
27.2241   413
27.2341   416
27.2441   412
27.2541   428
27.2641   384
27.2741   428
27.2841   431
27.2941   396
27.3041   388
27.3141   399
27.3241   393
27.3341   425
27.3441   402
27.3541   416
27.3641   402
27.3741   405
27.3841   397
27.3941   448
27.4041   410
27.4141   390
27.4241   408
27.4341   423
27.4441   389
27.4541   408
27.4641   393
27.4741   436
27.4841   405
27.4941   414
27.5041   386
27.5141   389
27.5241   402
27.5341   384
27.5441   414
27.5541   382
27.5641   401
27.5741   417
27.5841   402
27.5941   422
27.6041   406
27.6141   379
27.6241   360
27.6341   395
27.6441   380
27.6541   366
27.6641   388
27.6741   411
27.6841   380
27.6941   357
27.7041   403
27.7141   388
27.7241   378
27.7341   400
27.7441   388
27.7541   382
27.7641   354
27.7741   373
27.7841   396
27.7941   378
27.8041   411
27.8141   376
27.8241   372
27.8341   376
27.8441   369
27.8541   368
27.8641   381
27.8741   362
27.8841   395
27.8941   338
27.9041   395
27.9141   384
27.9241   372
27.9341   391
27.9441   399
27.9541   380
27.9641   386
27.9741   372
27.9841   388
27.9941   357
28.0041   342
28.0141   361
28.0241   363
28.0341   359
28.0441   374
28.0541   380
28.0641   388
28.0741   388
28.0841   332
28.0941   360
28.1041   374
28.1141   354
28.1241   358
28.1341   403
28.1441   385
28.1541   371
28.1641   370
28.1741   357
28.1841   336
28.1941   373
28.2041   416
28.2141   407
28.2241   410
28.2341   359
28.2441   379
28.2541   358
28.2641   373
28.2741   336
28.2841   353
28.2941   354
28.3041   361
28.3141   336
28.3241   345
28.3341   360
28.3441   375
28.3541   373
28.3641   367
28.3741   367
28.3841   367
28.3941   363
28.4041   383
28.4141   358
28.4241   354
28.4341   344
28.4441   372
28.4541   358
28.4641   358
28.4741   377
28.4841   366
28.4941   351
28.5041   337
28.5141   349
28.5241   381
28.5341   366
28.5441   350
28.5541   343
28.5641   353
28.5741   382
28.5841   411
28.5941   357
28.6041   368
28.6141   345
28.6241   352
28.6341   333
28.6441   339
28.6541   354
28.6641   332
28.6741   332
28.6841   330
28.6941   337
28.7041   372
28.7141   400
28.7241   356
28.7341   331
28.7441   349
28.7541   358
28.7641   344
28.7741   351
28.7841   363
28.7941   367
28.8041   340
28.8141   336
28.8241   356
28.8341   337
28.8441   339
28.8541   319
28.8641   337
28.8741   372
28.8841   326
28.8941   354
28.9041   309
28.9141   305
28.9241   333
28.9341   324
28.9441   346
28.9541   315
28.9641   316
28.9741   295
28.9841   334
28.9941   365
29.0041   317
29.0141   328
29.0241   343
29.0341   346
29.0441   360
29.0541   319
29.0641   328
29.0741   317
29.0841   318
29.0941   334
29.1041   347
29.1141   363
29.1241   333
29.1341   314
29.1441   322
29.1541   339
29.1641   327
29.1741   344
29.1841   351
29.1941   322
29.2041   327
29.2141   332
29.2241   316
29.2341   309
29.2441   328
29.2541   323
29.2641   303
29.2741   308
29.2841   366
29.2941   318
29.3041   325
29.3141   314
29.3241   310
29.3341   323
29.3441   299
29.3541   304
29.3641   309
29.3741   314
29.3841   302
29.3941   343
29.4041   331
29.4141   327
29.4241   348
29.4341   325
29.4441   316
29.4541   313
29.4641   295
29.4741   295
29.4841   291
29.4941   311
29.5041   299
29.5141   275
29.5241   311
29.5341   286
29.5441   291
29.5541   281
29.5641   308
29.5741   301
29.5841   324
29.5941   311
29.6041   325
29.6141   325
29.6241   295
29.6341   321
29.6441   305
29.6541   296
29.6641   334
29.6741   289
29.6841   288
29.6941   283
29.7041   272
29.7141   299
29.7241   292
29.7341   284
29.7441   277
29.7541   306
29.7641   309
29.7741   290
29.7841   272
29.7941   321
29.8041   319
29.8141   284
29.8241   307
29.8341   285
29.8441   287
29.8541   341
29.8641   318
29.8741   300
29.8841   301
29.8941   266
29.9041   328
29.9141   309
29.9241   298
29.9341   263
29.9441   292
29.9541   294
29.9641   310
29.9741   271
29.9841   299
29.9941   291
30.0041   295
30.0141   314
30.0241   287
30.0341   324
30.0441   262
30.0541   286
30.0641   279
30.0741   304
30.0841   310
30.0941   295
30.1041   289
30.1141   259
30.1241   292
30.1341   288
30.1441   285
30.1541   288
30.1641   277
30.1741   279
30.1841   327
30.1941   279
30.2041   288
30.2141   289
30.2241   261
30.2341   312
30.2441   275
30.2541   285
30.2641   265
30.2741   252
30.2841   284
30.2941   271
30.3041   264
30.3141   300
30.3241   294
30.3341   279
30.3441   283
30.3541   268
30.3641   273
30.3741   259
30.3841   250
30.3941   271
30.4041   302
30.4141   285
30.4241   287
30.4341   262
30.4441   257
30.4541   255
30.4641   255
30.4741   281
30.4841   272
30.4941   263
30.5041   262
30.5141   254
30.5241   254
30.5341   262
30.5441   265
30.5541   239
30.5641   253
30.5741   285
30.5841   275
30.5941   266
30.6041   275
30.6141   263
30.6241   270
30.6341   263
30.6441   263
30.6541   264
30.6641   244
30.6741   265
30.6841   241
30.6941   272
30.7041   260
30.7141   266
30.7241   251
30.7341   256
30.7441   257
30.7541   252
30.7641   226
30.7741   262
30.7841   266
30.7941   267
30.8041   248
30.8141   263
30.8241   256
30.8341   242
30.8441   222
30.8541   249
30.8641   257
30.8741   264
30.8841   257
30.8941   241
30.9041   236
30.9141   240
30.9241   259
30.9341   244
30.9441   249
30.9541   248
30.9641   275
30.9741   253
30.9841   271
30.9941   259
31.0041   258
31.0141   280
31.0241   241
31.0341   240
31.0441   256
31.0541   246
31.0641   247
31.0741   240
31.0841   240
31.0941   273
31.1041   258
31.1141   262
31.1241   242
31.1341   257
31.1441   259
31.1541   253
31.1641   246
31.1741   262
31.1841   235
31.1941   217
31.2041   226
31.2141   240
31.2241   241
31.2341   240
31.2441   228
31.2541   232
31.2641   227
31.2741   201
31.2841   210
31.2941   221
31.3041   233
31.3141   229
31.3241   227
31.3341   238
31.3441   235
31.3541   218
31.3641   222
31.3741   223
31.3841   236
31.3941   230
31.4041   249
31.4141   230
31.4241   247
31.4341   234
31.4441   224
31.4541   239
31.4641   222
31.4741   247
31.4841   250
31.4941   230
31.5041   231
31.5141   234
31.5241   249
31.5341   234
31.5441   232
31.5541   222
31.5641   220
31.5741   242
31.5841   239
31.5941   217
31.6041   244
31.6141   241
31.6241   216
31.6341   226
31.6441   253
31.6541   198
31.6641   244
31.6741   218
31.6841   237
31.6941   248
31.7041   234
31.7141   239
31.7241   228
31.7341   233
31.7441   226
31.7541   231
31.7641   251
31.7741   246
31.7841   244
31.7941   255
31.8041   224
31.8141   230
31.8241   240
31.8341   252
31.8441   231
31.8541   246
31.8641   242
31.8741   241
31.8841   241
31.8941   269
31.9041   231
31.9141   220
31.9241   228
31.9341   252
31.9441   238
31.9541   242
31.9641   236
31.9741   235
31.9841   229
31.9941   241
32.0041   236
32.0141   211
32.0241   229
32.0341   211
32.0441   226
32.0541   214
32.0641   251
32.0741   215
32.0841   211
32.0941   212
32.1041   222
32.1141   256
32.1241   274
32.1341   222
32.1441   247
32.1541   233
32.1641   230
32.1741   246
32.1841   228
32.1941   227
32.2041   228
32.2141   213
32.2241   215
32.2341   235
32.2441   238
32.2541   251
32.2641   244
32.2741   224
32.2841   243
32.2941   223
32.3041   205
32.3141   217
32.3241   207
32.3341   218
32.3441   213
32.3541   221
32.3641   213
32.3741   214
32.3841   205
32.3941   221
32.4041   198
32.4141   205
32.4241   224
32.4341   205
32.4441   209
32.4541   199
32.4641   190
32.4741   196
32.4841   185
32.4941   185
32.5041   194
32.5141   184
32.5241   199
32.5341   207
32.5441   190
32.5541   180
32.5641   204
32.5741   212
32.5841   214
32.5941   183
32.6041   204
32.6141   210
32.6241   183
32.6341   183
32.6441   195
32.6541   172
32.6641   196
32.6741   182
32.6841   178
32.6941   221
32.7041   186
32.7141   176
32.7241   190
32.7341   194
32.7441   189
32.7541   196
32.7641   163
32.7741   184
32.7841   201
32.7941   196
32.8041   181
32.8141   175
32.8241   180
32.8341   165
32.8441   194
32.8541   179
32.8641   181
32.8741   201
32.8841   185
32.8941   181
32.9041   173
32.9141   179
32.9241   162
32.9341   194
32.9441   177
32.9541   179
32.9641   188
32.9741   182
32.9841   178
32.9941   178
33.0041   156
33.0141   180
33.0241   176
33.0341   129
33.0441   175
33.0541   188
33.0641   197
33.0741   180
33.0841   187
33.0941   148
33.1041   178
33.1141   174
33.1241   162
33.1341   178
33.1441   173
33.1541   186
33.1641   176
33.1741   184
33.1841   177
33.1941   179
33.2041   178
33.2141   196
33.2241   178
33.2341   183
33.2441   169
33.2541   172
33.2641   183
33.2741   165
33.2841   169
33.2941   169
33.3041   173
33.3141   165
33.3241   169
33.3341   174
33.3441   163
33.3541   153
33.3641   179
33.3741   171
33.3841   156
33.3941   191
33.4041   146
33.4141   165
33.4241   181
33.4341   148
33.4441   161
33.4541   178
33.4641   166
33.4741   174
33.4841   147
33.4941   160
33.5041   157
33.5141   128
33.5241   156
33.5341   162
33.5441   167
33.5541   162
33.5641   176
33.5741   168
33.5841   157
33.5941   159
33.6041   156
33.6141   186
33.6241   150
33.6341   186
33.6441   155
33.6541   165
33.6641   163
33.6741   172
33.6841   148
33.6941   172
33.7041   148
33.7141   163
33.7241   167
33.7341   160
33.7441   164
33.7541   160
33.7641   158
33.7741   161
33.7841   143
33.7941   148
33.8041   152
33.8141   139
33.8241   150
33.8341   156
33.8441   155
33.8541   130
33.8641   180
33.8741   144
33.8841   152
33.8941   153
33.9041   171
33.9141   162
33.9241   148
33.9341   159
33.9441   140
33.9541   148
33.9641   130
33.9741   155
33.9841   154
33.9941   138
34.0041   159
34.0141   175
34.0241   158
34.0341   135
34.0441   150
34.0541   158
34.0641   167
34.0741   154
34.0841   150
34.0941   164
34.1041   160
34.1141   173
34.1241   155
34.1341   149
34.1441   126
34.1541   144
34.1641   134
34.1741   138
34.1841   158
34.1941   126
34.2041   129
34.2141   141
34.2241   159
34.2341   148
34.2441   145
34.2541   144
34.2641   148
34.2741   135
34.2841   135
34.2941   119
34.3041   143
34.3141   139
34.3241   156
34.3341   129
34.3441   136
34.3541   145
34.3641   119
34.3741   144
34.3841   142
34.3941   130
34.4041   139
34.4141   145
34.4241   141
34.4341   137
34.4441   163
34.4541   155
34.4641   153
34.4741   149
34.4841   144
34.4941   129
34.5041   130
34.5141   139
34.5241   148
34.5341   141
34.5441   127
34.5541   127
34.5641   136
34.5741   135
34.5841   148
34.5941   155
34.6041   158
34.6141   128
34.6241   139
34.6341   134
34.6441   112
34.6541   146
34.6641   128
34.6741   134
34.6841   153
34.6941   130
34.7041   149
34.7141   132
34.7241   132
34.7341   127
34.7441   117
34.7541   126
34.7641   147
34.7741   147
34.7841   137
34.7941   147
34.8041   127
34.8141   135
34.8241   131
34.8341   140
34.8441   132
34.8541   141
34.8641   110
34.8741   150
34.8841   121
34.8941   120
34.9041   134
34.9141   127
34.9241   141
34.9341   117
34.9441   136
34.9541   124
34.9641   122
34.9741   121
34.9841   132
34.9941   139
35.0041   126
35.0141   117
35.0241   124
35.0341   118
35.0441   125
35.0541   122
35.0641   108
35.0741   131
35.0841   133
35.0941   153
35.1041   117
35.1141   132
35.1241   132
35.1341   134
35.1441   114
35.1541   125
35.1641   120
35.1741   115
35.1841   132
35.1941   124
35.2041   120
35.2141   132
35.2241   105
35.2341   130
35.2441   101
35.2541   123
35.2641   127
35.2741   105
35.2841   130
35.2941    98
35.3041   121
35.3141   105
35.3241   110
35.3341   126
35.3441   123
35.3541   138
35.3641   134
35.3741   121
35.3841   108
35.3941    93
35.4041   120
35.4141   118
35.4241   112
35.4341   131
35.4441    98
35.4541    96
35.4641    99
35.4741   110
35.4841   127
35.4941   136
35.5041   122
35.5141   120
35.5241   121
35.5341   115
35.5441   110
35.5541   118
35.5641    92
35.5741   119
35.5841   139
35.5941   105
35.6041   107
35.6141   104
35.6241   109
35.6341   122
35.6441   102
35.6541    97
35.6641   112
35.6741    95
35.6841    97
35.6941   106
35.7041   102
35.7141   123
35.7241   101
35.7341    98
35.7441   104
35.7541   118
35.7641   112
35.7741   109
35.7841   118
35.7941   114
35.8041    96
35.8141    99
35.8241   114
35.8341   111
35.8441   108
35.8541   125
35.8641   111
35.8741   100
35.8841    98
35.8941    96
35.9041   105
35.9141   102
35.9241   107
35.9341    99
35.9441    90
35.9541   119
35.9641   114
35.9741    99
35.9841   117
35.9941   101
36.0041   111
36.0141   106
36.0241    96
36.0341   110
36.0441    93
36.0541    98
36.0641   115
36.0741    89
36.0841   100
36.0941   114
36.1041    99
36.1141   101
36.1241   112
36.1341    94
36.1441    98
36.1541   113
36.1641   115
36.1741   100
36.1841    92
36.1941   106
36.2041   103
36.2141   100
36.2241   107
36.2341    98
36.2441    88
36.2541    90
36.2641   119
36.2741   101
36.2841    97
36.2941   102
36.3041   107
36.3141    98
36.3241    86
36.3341   100
36.3441   108
36.3541    84
36.3641    94
36.3741   117
36.3841   108
36.3941    84
36.4041    94
36.4141    94
36.4241    87
36.4341    93
36.4441    99
36.4541   103
36.4641   102
36.4741    96
36.4841    83
36.4941    86
36.5041    98
36.5141    93
36.5241   103
36.5341    98
36.5441   101
36.5541    93
36.5641    92
36.5741    83
36.5841    80
36.5941    80
36.6041    80
36.6141    80
36.6241    88
36.6341    88
36.6441    70
36.6541    98
36.6641    98
36.6741    92
36.6841   101
36.6941    79
36.7041   100
36.7141    76
36.7241   108
36.7341    88
36.7441    93
36.7541    77
36.7641    92
36.7741    98
36.7841    79
36.7941    80
36.8041    93
36.8141    92
36.8241    83
36.8341    81
36.8441    87
36.8541    78
36.8641    76
36.8741    78
36.8841    92
36.8941    87
36.9041    99
36.9141    72
36.9241    83
36.9341    88
36.9441    86
36.9541    77
36.9641    96
36.9741   102
36.9841   102
36.9941    81
37.0041    65
37.0141    64
37.0241    75
37.0341    85
37.0441    64
37.0541    69
37.0641    80
37.0741    74
37.0841    83
37.0941    80
37.1041    79
37.1141    75
37.1241    68
37.1341    86
37.1441    65
37.1541    80
37.1641    64
37.1741    76
37.1841    76
37.1941    87
37.2041    80
37.2141    87
37.2241    64
37.2341    86
37.2441    88
37.2541    80
37.2641    62
37.2741    77
37.2841    72
37.2941    70
37.3041    88
37.3141    74
37.3241    59
37.3341    66
37.3441    78
37.3541    58
37.3641    79
37.3741    77
37.3841    70
37.3941    81
37.4041    78
37.4141    67
37.4241    72
37.4341    71
37.4441    68
37.4541    75
37.4641    76
37.4741    74
37.4841    82
37.4941    79
37.5041    67
37.5141    72
37.5241    76
37.5341    73
37.5441    63
37.5541    63
37.5641    73
37.5741    61
37.5841    72
37.5941    70
37.6041    78
37.6141    70
37.6241    64
37.6341    67
37.6441    59
37.6541    59
37.6641    73
37.6741    67
37.6841    66
37.6941    78
37.7041    69
37.7141    77
37.7241    61
37.7341    62
37.7441    77
37.7541    77
37.7641    55
37.7741    54
37.7841    57
37.7941    53
37.8041    56
37.8141    77
37.8241    54
37.8341    55
37.8441    58
37.8541    67
37.8641    69
37.8741    74
37.8841    74
37.8941    62
37.9041    62
37.9141    61
37.9241    60
37.9341    84
37.9441    55
37.9541    58
37.9641    60
37.9741    61
37.9841    73
37.9941    56
38.0041    44
38.0141    71
38.0241    53
38.0341    67
38.0441    73
38.0541    65
38.0641    46
38.0741    61
38.0841    69
38.0941    37
38.1041    61
38.1141    49
38.1241    45
38.1341    57
38.1441    71
38.1541    59
38.1641    73
38.1741    69
38.1841    64
38.1941    52
38.2041    57
38.2141    65
38.2241    53
38.2341    67
38.2441    53
38.2541    49
38.2641    60
38.2741    64
38.2841    58
38.2941    59
38.3041    61
38.3141    51
38.3241    55
38.3341    54
38.3441    56
38.3541    61
38.3641    53
38.3741    73
38.3841    55
38.3941    54
38.4041    46
38.4141    52
38.4241    54
38.4341    61
38.4441    61
38.4541    46
38.4641    52
38.4741    49
38.4841    39
38.4941    49
38.5041    53
38.5141    55
38.5241    46
38.5341    41
38.5441    52
38.5541    55
38.5641    50
38.5741    51
38.5841    62
38.5941    55
38.6041    40
38.6141    58
38.6241    42
38.6341    60
38.6441    52
38.6541    61
38.6641    61
38.6741    58
38.6841    54
38.6941    52
38.7041    46
38.7141    60
38.7241    46
38.7341    50
38.7441    57
38.7541    51
38.7641    56
38.7741    55
38.7841    56
38.7941    41
38.8041    46
38.8141    57
38.8241    55
38.8341    54
38.8441    39
38.8541    56
38.8641    58
38.8741    53
38.8841    46
38.8941    37
38.9041    45
38.9141    55
38.9241    48
38.9341    50
38.9441    43
38.9541    52
38.9641    44
38.9741    39
38.9841    46
38.9941    45
39.0041    45
39.0141    45
39.0241    46
39.0341    47
39.0441    37
39.0541    47
39.0641    54
39.0741    41
39.0841    37
39.0941    42
39.1041    49
39.1141    46
39.1241    42
39.1341    51
39.1441    48
39.1541    47
39.1641    35
39.1741    61
39.1841    40
39.1941    44
39.2041    33
39.2141    49
39.2241    59
39.2341    35
39.2441    37
39.2541    50
39.2641    36
39.2741    41
39.2841    46
39.2941    44
39.3041    48
39.3141    43
39.3241    36
39.3341    46
39.3441    36
39.3541    50
39.3641    44
39.3741    39
39.3841    39
39.3941    42
39.4041    47
39.4141    53
39.4241    33
39.4341    33
39.4441    53
39.4541    38
39.4641    54
39.4741    30
39.4841    33
39.4941    38
39.5041    54
39.5141    43
39.5241    40
39.5341    42
39.5441    34
39.5541    36
39.5641    39
39.5741    43
39.5841    41
39.5941    37
39.6041    33
39.6141    32
39.6241    42
39.6341    40
39.6441    29
39.6541    38
39.6641    31
39.6741    39
39.6841    39
39.6941    36
39.7041    28
39.7141    25
39.7241    34
39.7341    43
39.7441    34
39.7541    42
39.7641    37
39.7741    42
39.7841    31
39.7941    37
39.8041    28
39.8141    33
39.8241    30
39.8341    37
39.8441    39
39.8541    33
39.8641    32
39.8741    28
39.8841    48
39.8941    33
39.9041    39
39.9141    26
39.9241    25
39.9341    30
39.9441    38
39.9541    35
39.9641    49
39.9741    32
39.9841    34
