Bruker Nano GmbH Berlin, Germany
Esprit 1.9

Date: 5/14/2021 1:27:35 PM
Real time: 18127
Life time: 16971
Pulse density: 93354


Detector type: XFlash 430
Window type: Custom type
Detector thickness: 0.45
Si dead layer:0.029

Calibration, lin.: 10
Calibration, abs.: -955.9
Mn FWHM: 137.05
Fano factor: 0.121
Channels: 4095

Energy Counts
-0.9559     0
-0.9459     0
-0.9359     0
-0.9259     0
-0.9159     0
-0.9059     0
-0.8959     0
-0.8859     0
-0.8759     0
-0.8659     0
-0.8559     0
-0.8459     0
-0.8359     0
-0.8259     0
-0.8159     0
-0.8059     0
-0.7959     0
-0.7859     0
-0.7759     0
-0.7659     0
-0.7559     0
-0.7459     0
-0.7359     0
-0.7259     0
-0.7159     0
-0.7059     0
-0.6959     0
-0.6859     0
-0.6759     0
-0.6659     0
-0.6559     0
-0.6459     0
-0.6359     0
-0.6259     0
-0.6159     0
-0.6059     0
-0.5959     0
-0.5859     0
-0.5759     0
-0.5659     0
-0.5559     0
-0.5459     0
-0.5359     0
-0.5259     0
-0.5159     0
-0.5059     0
-0.4959     0
-0.4859     0
-0.4759     0
-0.4659     0
-0.4559     0
-0.4459     0
-0.4359     0
-0.4259     0
-0.4159     0
-0.4059     0
-0.3959     0
-0.3859     0
-0.3759     0
-0.3659     0
-0.3559     0
-0.3459     0
-0.3359     0
-0.3259     0
-0.3159     0
-0.3059     0
-0.2959     0
-0.2859     0
-0.2759     0
-0.2659     0
-0.2559     0
-0.2459     0
-0.2359     0
-0.2259     0
-0.2159     0
-0.2059     0
-0.1959     0
-0.1859     0
-0.1759     0
-0.1659     0
-0.1559     0
-0.1459     0
-0.1359     0
-0.1259     1
-0.1159     1
-0.1059    12
-0.0959    54
-0.0859   197
-0.0759   686
-0.0659  2037
-0.0559  4893
-0.0459 10971
-0.0359 20252
-0.0259 32242
-0.0159 44318
-0.0059 52045
 0.0041 52163
 0.0141 44690
 0.0241 33223
 0.0341 21223
 0.0441 11497
 0.0541  5266
 0.0641  2122
 0.0741   728
 0.0841   234
 0.0941    67
 0.1041    30
 0.1141     9
 0.1241     5
 0.1341     5
 0.1441     7
 0.1541     5
 0.1641     0
 0.1741    22
 0.1841   153
 0.1941   313
 0.2041   291
 0.2141   282
 0.2241   301
 0.2341   274
 0.2441   323
 0.2541   292
 0.2641   272
 0.2741   306
 0.2841   289
 0.2941   249
 0.3041   264
 0.3141   254
 0.3241   242
 0.3341   266
 0.3441   269
 0.3541   253
 0.3641   264
 0.3741   281
 0.3841   277
 0.3941   282
 0.4041   257
 0.4141   266
 0.4241   253
 0.4341   234
 0.4441   259
 0.4541   281
 0.4641   275
 0.4741   269
 0.4841   253
 0.4941   242
 0.5041   262
 0.5141   244
 0.5241   260
 0.5341   246
 0.5441   222
 0.5541   235
 0.5641   231
 0.5741   220
 0.5841   210
 0.5941   203
 0.6041   202
 0.6141   225
 0.6241   242
 0.6341   242
 0.6441   240
 0.6541   223
 0.6641   213
 0.6741   202
 0.6841   196
 0.6941   207
 0.7041   204
 0.7141   199
 0.7241   207
 0.7341   209
 0.7441   202
 0.7541   195
 0.7641   194
 0.7741   208
 0.7841   211
 0.7941   202
 0.8041   211
 0.8141   208
 0.8241   198
 0.8341   197
 0.8441   213
 0.8541   210
 0.8641   173
 0.8741   180
 0.8841   194
 0.8941   194
 0.9041   180
 0.9141   189
 0.9241   204
 0.9341   186
 0.9441   181
 0.9541   192
 0.9641   196
 0.9741   205
 0.9841   189
 0.9941   195
 1.0041   192
 1.0141   190
 1.0241   186
 1.0341   179
 1.0441   169
 1.0541   165
 1.0641   197
 1.0741   177
 1.0841   174
 1.0941   158
 1.1041   190
 1.1141   195
 1.1241   183
 1.1341   182
 1.1441   176
 1.1541   180
 1.1641   159
 1.1741   173
 1.1841   194
 1.1941   168
 1.2041   183
 1.2141   161
 1.2241   190
 1.2341   165
 1.2441   191
 1.2541   189
 1.2641   178
 1.2741   156
 1.2841   168
 1.2941   149
 1.3041   174
 1.3141   184
 1.3241   166
 1.3341   181
 1.3441   180
 1.3541   162
 1.3641   165
 1.3741   177
 1.3841   158
 1.3941   174
 1.4041   184
 1.4141   179
 1.4241   166
 1.4341   167
 1.4441   172
 1.4541   185
 1.4641   172
 1.4741   174
 1.4841   167
 1.4941   183
 1.5041   177
 1.5141   152
 1.5241   162
 1.5341   163
 1.5441   174
 1.5541   161
 1.5641   157
 1.5741   145
 1.5841   154
 1.5941   147
 1.6041   158
 1.6141   147
 1.6241   156
 1.6341   172
 1.6441   168
 1.6541   204
 1.6641   213
 1.6741   285
 1.6841   344
 1.6941   413
 1.7041   467
 1.7141   587
 1.7241   679
 1.7341   700
 1.7441   722
 1.7541   661
 1.7641   586
 1.7741   477
 1.7841   403
 1.7941   337
 1.8041   295
 1.8141   275
 1.8241   235
 1.8341   204
 1.8441   195
 1.8541   213
 1.8641   178
 1.8741   182
 1.8841   159
 1.8941   163
 1.9041   144
 1.9141   164
 1.9241   173
 1.9341   180
 1.9441   170
 1.9541   170
 1.9641   191
 1.9741   197
 1.9841   188
 1.9941   219
 2.0041   169
 2.0141   207
 2.0241   189
 2.0341   199
 2.0441   179
 2.0541   157
 2.0641   160
 2.0741   145
 2.0841   167
 2.0941   156
 2.1041   151
 2.1141   166
 2.1241   163
 2.1341   164
 2.1441   135
 2.1541   163
 2.1641   171
 2.1741   148
 2.1841   151
 2.1941   142
 2.2041   131
 2.2141   150
 2.2241   144
 2.2341   140
 2.2441   155
 2.2541   133
 2.2641   144
 2.2741   151
 2.2841   140
 2.2941   156
 2.3041   129
 2.3141   131
 2.3241   136
 2.3341   146
 2.3441   123
 2.3541   145
 2.3641   136
 2.3741   144
 2.3841   142
 2.3941   134
 2.4041   144
 2.4141   140
 2.4241   122
 2.4341   118
 2.4441   131
 2.4541   123
 2.4641   133
 2.4741   131
 2.4841   137
 2.4941   131
 2.5041   124
 2.5141   130
 2.5241   123
 2.5341    98
 2.5441   139
 2.5541   128
 2.5641   126
 2.5741   130
 2.5841   120
 2.5941   125
 2.6041   141
 2.6141   129
 2.6241   152
 2.6341   111
 2.6441   126
 2.6541   128
 2.6641   116
 2.6741   126
 2.6841   142
 2.6941   135
 2.7041   142
 2.7141   120
 2.7241   119
 2.7341   130
 2.7441   125
 2.7541   129
 2.7641   128
 2.7741   111
 2.7841   124
 2.7941   107
 2.8041   129
 2.8141   116
 2.8241   136
 2.8341   135
 2.8441   133
 2.8541   128
 2.8641   105
 2.8741   130
 2.8841   113
 2.8941   113
 2.9041   107
 2.9141   133
 2.9241   124
 2.9341   102
 2.9441   138
 2.9541   130
 2.9641   113
 2.9741   118
 2.9841   120
 2.9941   108
 3.0041   128
 3.0141   123
 3.0241   108
 3.0341   106
 3.0441   121
 3.0541    97
 3.0641   123
 3.0741   113
 3.0841   107
 3.0941   115
 3.1041   111
 3.1141    99
 3.1241   116
 3.1341   108
 3.1441   104
 3.1541   100
 3.1641   107
 3.1741   121
 3.1841   115
 3.1941   102
 3.2041   113
 3.2141   126
 3.2241   160
 3.2341   179
 3.2441   194
 3.2541   234
 3.2641   278
 3.2741   330
 3.2841   367
 3.2941   361
 3.3041   382
 3.3141   416
 3.3241   384
 3.3341   374
 3.3441   330
 3.3541   322
 3.3641   259
 3.3741   251
 3.3841   201
 3.3941   170
 3.4041   146
 3.4141   122
 3.4241    92
 3.4341   101
 3.4441   115
 3.4541    96
 3.4641    94
 3.4741    97
 3.4841    98
 3.4941   103
 3.5041   105
 3.5141   116
 3.5241   136
 3.5341   142
 3.5441   131
 3.5541   175
 3.5641   208
 3.5741   233
 3.5841   275
 3.5941   297
 3.6041   391
 3.6141   461
 3.6241   569
 3.6341   727
 3.6441   842
 3.6541   952
 3.6641  1037
 3.6741  1064
 3.6841  1141
 3.6941  1166
 3.7041  1139
 3.7141  1071
 3.7241   923
 3.7341   793
 3.7441   652
 3.7541   514
 3.7641   408
 3.7741   343
 3.7841   242
 3.7941   212
 3.8041   165
 3.8141    98
 3.8241   111
 3.8341    95
 3.8441    79
 3.8541    88
 3.8641   106
 3.8741    99
 3.8841    93
 3.8941    92
 3.9041    99
 3.9141   124
 3.9241   105
 3.9341   114
 3.9441   130
 3.9541   163
 3.9641   176
 3.9741   175
 3.9841   217
 3.9941   218
 4.0041   239
 4.0141   244
 4.0241   218
 4.0341   222
 4.0441   213
 4.0541   183
 4.0641   186
 4.0741   131
 4.0841   123
 4.0941   113
 4.1041   105
 4.1141   102
 4.1241    78
 4.1341    85
 4.1441    79
 4.1541    89
 4.1641    78
 4.1741    86
 4.1841    84
 4.1941    68
 4.2041    74
 4.2141    76
 4.2241    72
 4.2341    64
 4.2441    68
 4.2541    68
 4.2641    84
 4.2741    84
 4.2841    80
 4.2941    68
 4.3041    73
 4.3141    57
 4.3241    64
 4.3341    70
 4.3441    73
 4.3541    88
 4.3641    83
 4.3741    92
 4.3841    94
 4.3941   109
 4.4041   116
 4.4141   122
 4.4241   154
 4.4341   193
 4.4441   191
 4.4541   223
 4.4641   253
 4.4741   286
 4.4841   283
 4.4941   309
 4.5041   322
 4.5141   304
 4.5241   276
 4.5341   273
 4.5441   261
 4.5541   229
 4.5641   194
 4.5741   181
 4.5841   166
 4.5941   146
 4.6041   121
 4.6141   106
 4.6241   113
 4.6341   114
 4.6441    82
 4.6541   122
 4.6641    59
 4.6741    73
 4.6841    78
 4.6941   109
 4.7041    92
 4.7141    79
 4.7241    73
 4.7341    92
 4.7441    78
 4.7541    87
 4.7641    85
 4.7741    73
 4.7841    85
 4.7941   105
 4.8041    91
 4.8141   122
 4.8241   101
 4.8341    99
 4.8441   122
 4.8541   108
 4.8641   124
 4.8741   104
 4.8841   125
 4.8941   129
 4.9041   147
 4.9141   128
 4.9241   140
 4.9341   131
 4.9441   124
 4.9541   129
 4.9641   126
 4.9741   115
 4.9841   117
 4.9941    96
 5.0041   113
 5.0141   110
 5.0241    93
 5.0341    90
 5.0441   103
 5.0541    93
 5.0641    71
 5.0741    94
 5.0841    85
 5.0941    83
 5.1041    84
 5.1141    83
 5.1241    81
 5.1341    96
 5.1441    99
 5.1541    70
 5.1641    94
 5.1741    90
 5.1841    88
 5.1941    99
 5.2041    85
 5.2141    86
 5.2241    80
 5.2341    98
 5.2441    78
 5.2541    93
 5.2641    99
 5.2741   111
 5.2841   102
 5.2941   117
 5.3041   134
 5.3141   149
 5.3241   177
 5.3341   186
 5.3441   229
 5.3541   263
 5.3641   294
 5.3741   304
 5.3841   333
 5.3941   387
 5.4041   393
 5.4141   344
 5.4241   363
 5.4341   319
 5.4441   336
 5.4541   313
 5.4641   270
 5.4741   232
 5.4841   200
 5.4941   210
 5.5041   197
 5.5141   133
 5.5241   123
 5.5341   107
 5.5441   123
 5.5541    99
 5.5641   104
 5.5741    81
 5.5841    88
 5.5941    92
 5.6041    84
 5.6141   105
 5.6241    99
 5.6341    93
 5.6441   109
 5.6541   101
 5.6641   114
 5.6741   101
 5.6841    91
 5.6941   106
 5.7041    86
 5.7141    79
 5.7241    81
 5.7341    94
 5.7441   107
 5.7541   119
 5.7641   127
 5.7741   141
 5.7841   142
 5.7941   168
 5.8041   198
 5.8141   204
 5.8241   252
 5.8341   304
 5.8441   314
 5.8541   354
 5.8641   325
 5.8741   376
 5.8841   394
 5.8941   392
 5.9041   426
 5.9141   437
 5.9241   370
 5.9341   359
 5.9441   330
 5.9541   297
 5.9641   255
 5.9741   266
 5.9841   221
 5.9941   207
 6.0041   168
 6.0141   176
 6.0241   143
 6.0341   139
 6.0441   129
 6.0541   131
 6.0641   116
 6.0741   118
 6.0841   125
 6.0941   111
 6.1041   132
 6.1141   104
 6.1241   121
 6.1341   145
 6.1441   147
 6.1541   149
 6.1641   166
 6.1741   179
 6.1841   202
 6.1941   224
 6.2041   273
 6.2141   335
 6.2241   431
 6.2341   588
 6.2441   826
 6.2541  1156
 6.2641  1618
 6.2741  2178
 6.2841  2919
 6.2941  3870
 6.3041  5040
 6.3141  6282
 6.3241  7816
 6.3341  9409
 6.3441 10951
 6.3541 12635
 6.3641 14024
 6.3741 15091
 6.3841 15811
 6.3941 16316
 6.4041 16141
 6.4141 15832
 6.4241 15155
 6.4341 13773
 6.4441 11984
 6.4541 10771
 6.4641  8968
 6.4741  7558
 6.4841  5882
 6.4941  4660
 6.5041  3546
 6.5141  2698
 6.5241  1866
 6.5341  1346
 6.5441  1024
 6.5541   758
 6.5641   532
 6.5741   373
 6.5841   294
 6.5941   269
 6.6041   202
 6.6141   153
 6.6241   147
 6.6341   165
 6.6441   156
 6.6541   173
 6.6641   141
 6.6741   135
 6.6841   134
 6.6941   149
 6.7041   134
 6.7141   161
 6.7241   143
 6.7341   161
 6.7441   137
 6.7541   146
 6.7641   172
 6.7741   164
 6.7841   172
 6.7941   165
 6.8041   163
 6.8141   196
 6.8241   186
 6.8341   186
 6.8441   195
 6.8541   235
 6.8641   246
 6.8741   275
 6.8841   258
 6.8941   309
 6.9041   422
 6.9141   488
 6.9241   520
 6.9341   671
 6.9441   771
 6.9541   926
 6.9641  1169
 6.9741  1387
 6.9841  1560
 6.9941  1876
 7.0041  2114
 7.0141  2203
 7.0241  2495
 7.0341  2577
 7.0441  2648
 7.0541  2696
 7.0641  2636
 7.0741  2521
 7.0841  2414
 7.0941  2260
 7.1041  1962
 7.1141  1772
 7.1241  1632
 7.1341  1296
 7.1441  1116
 7.1541   951
 7.1641   740
 7.1741   620
 7.1841   509
 7.1941   398
 7.2041   361
 7.2141   290
 7.2241   252
 7.2341   217
 7.2441   242
 7.2541   198
 7.2641   190
 7.2741   202
 7.2841   236
 7.2941   213
 7.3041   218
 7.3141   224
 7.3241   241
 7.3341   287
 7.3441   324
 7.3541   344
 7.3641   371
 7.3741   456
 7.3841   498
 7.3941   531
 7.4041   533
 7.4141   624
 7.4241   622
 7.4341   708
 7.4441   721
 7.4541   709
 7.4641   753
 7.4741   747
 7.4841   682
 7.4941   707
 7.5041   621
 7.5141   569
 7.5241   559
 7.5341   562
 7.5441   484
 7.5541   406
 7.5641   390
 7.5741   319
 7.5841   283
 7.5941   273
 7.6041   213
 7.6141   230
 7.6241   209
 7.6341   202
 7.6441   185
 7.6541   185
 7.6641   178
 7.6741   193
 7.6841   186
 7.6941   184
 7.7041   215
 7.7141   219
 7.7241   200
 7.7341   199
 7.7441   218
 7.7541   228
 7.7641   229
 7.7741   223
 7.7841   258
 7.7941   242
 7.8041   222
 7.8141   238
 7.8241   262
 7.8341   251
 7.8441   262
 7.8541   296
 7.8641   253
 7.8741   301
 7.8841   294
 7.8941   295
 7.9041   299
 7.9141   343
 7.9241   333
 7.9341   384
 7.9441   404
 7.9541   410
 7.9641   465
 7.9741   479
 7.9841   542
 7.9941   532
 8.0041   566
 8.0141   622
 8.0241   662
 8.0341   696
 8.0441   721
 8.0541   838
 8.0641   871
 8.0741   981
 8.0841   949
 8.0941  1009
 8.1041  1032
 8.1141  1106
 8.1241  1176
 8.1341  1249
 8.1441  1245
 8.1541  1263
 8.1641  1319
 8.1741  1330
 8.1841  1328
 8.1941  1416
 8.2041  1444
 8.2141  1381
 8.2241  1448
 8.2341  1432
 8.2441  1485
 8.2541  1576
 8.2641  1568
 8.2741  1736
 8.2841  1844
 8.2941  1976
 8.3041  2095
 8.3141  2206
 8.3241  2374
 8.3341  2482
 8.3441  2695
 8.3541  2858
 8.3641  2961
 8.3741  2953
 8.3841  3032
 8.3941  3163
 8.4041  2936
 8.4141  2853
 8.4241  2703
 8.4341  2516
 8.4441  2299
 8.4541  2033
 8.4641  1801
 8.4741  1624
 8.4841  1368
 8.4941  1149
 8.5041   989
 8.5141   837
 8.5241   684
 8.5341   611
 8.5441   516
 8.5541   470
 8.5641   418
 8.5741   356
 8.5841   372
 8.5941   344
 8.6041   376
 8.6141   346
 8.6241   343
 8.6341   335
 8.6441   347
 8.6541   377
 8.6641   318
 8.6741   318
 8.6841   311
 8.6941   329
 8.7041   314
 8.7141   313
 8.7241   277
 8.7341   302
 8.7441   298
 8.7541   305
 8.7641   293
 8.7741   268
 8.7841   298
 8.7941   305
 8.8041   307
 8.8141   302
 8.8241   304
 8.8341   279
 8.8441   266
 8.8541   273
 8.8641   282
 8.8741   273
 8.8841   305
 8.8941   283
 8.9041   275
 8.9141   291
 8.9241   306
 8.9341   305
 8.9441   319
 8.9541   329
 8.9641   314
 8.9741   346
 8.9841   321
 8.9941   340
 9.0041   346
 9.0141   342
 9.0241   369
 9.0341   357
 9.0441   393
 9.0541   414
 9.0641   407
 9.0741   418
 9.0841   389
 9.0941   441
 9.1041   456
 9.1141   498
 9.1241   475
 9.1341   522
 9.1441   546
 9.1541   583
 9.1641   583
 9.1741   628
 9.1841   653
 9.1941   693
 9.2041   729
 9.2141   729
 9.2241   799
 9.2341   795
 9.2441   869
 9.2541   919
 9.2641   948
 9.2741  1004
 9.2841  1069
 9.2941  1078
 9.3041  1086
 9.3141  1086
 9.3241  1163
 9.3341  1211
 9.3441  1161
 9.3541  1206
 9.3641  1235
 9.3741  1283
 9.3841  1226
 9.3941  1277
 9.4041  1364
 9.4141  1343
 9.4241  1339
 9.4341  1313
 9.4441  1390
 9.4541  1422
 9.4641  1493
 9.4741  1420
 9.4841  1465
 9.4941  1474
 9.5041  1495
 9.5141  1515
 9.5241  1593
 9.5341  1628
 9.5441  1706
 9.5541  1796
 9.5641  1857
 9.5741  1983
 9.5841  2111
 9.5941  2179
 9.6041  2295
 9.6141  2398
 9.6241  2541
 9.6341  2606
 9.6441  2650
 9.6541  2693
 9.6641  2731
 9.6741  2759
 9.6841  2745
 9.6941  2660
 9.7041  2526
 9.7141  2418
 9.7241  2295
 9.7341  2093
 9.7441  2010
 9.7541  1841
 9.7641  1730
 9.7741  1605
 9.7841  1478
 9.7941  1394
 9.8041  1266
 9.8141  1180
 9.8241  1184
 9.8341  1174
 9.8441  1126
 9.8541  1044
 9.8641  1056
 9.8741  1101
 9.8841  1128
 9.8941  1157
 9.9041  1181
 9.9141  1192
 9.9241  1226
 9.9341  1236
 9.9441  1209
 9.9541  1181
 9.9641  1139
 9.9741  1139
 9.9841  1057
 9.9941  1008
10.0041   935
10.0141   895
10.0241   846
10.0341   760
10.0441   747
10.0541   658
10.0641   573
10.0741   501
10.0841   461
10.0941   407
10.1041   384
10.1141   351
10.1241   328
10.1341   327
10.1441   287
10.1541   287
10.1641   245
10.1741   233
10.1841   222
10.1941   212
10.2041   210
10.2141   212
10.2241   195
10.2341   190
10.2441   196
10.2541   201
10.2641   193
10.2741   174
10.2841   169
10.2941   191
10.3041   181
10.3141   161
10.3241   164
10.3341   170
10.3441   172
10.3541   140
10.3641   168
10.3741   185
10.3841   171
10.3941   179
10.4041   166
10.4141   164
10.4241   151
10.4341   169
10.4441   170
10.4541   169
10.4641   180
10.4741   189
10.4841   179
10.4941   179
10.5041   193
10.5141   177
10.5241   163
10.5341   180
10.5441   179
10.5541   190
10.5641   189
10.5741   199
10.5841   193
10.5941   185
10.6041   192
10.6141   192
10.6241   177
10.6341   185
10.6441   195
10.6541   196
10.6641   193
10.6741   195
10.6841   206
10.6941   215
10.7041   217
10.7141   210
10.7241   213
10.7341   223
10.7441   233
10.7541   236
10.7641   253
10.7741   237
10.7841   245
10.7941   238
10.8041   246
10.8141   279
10.8241   260
10.8341   258
10.8441   243
10.8541   254
10.8641   280
10.8741   275
10.8841   287
10.8941   263
10.9041   280
10.9141   286
10.9241   288
10.9341   293
10.9441   274
10.9541   283
10.9641   301
10.9741   289
10.9841   288
10.9941   283
11.0041   263
11.0141   262
11.0241   267
11.0341   262
11.0441   265
11.0541   264
11.0641   247
11.0741   237
11.0841   246
11.0941   233
11.1041   230
11.1141   238
11.1241   265
11.1341   261
11.1441   261
11.1541   278
11.1641   293
11.1741   300
11.1841   288
11.1941   320
11.2041   318
11.2141   331
11.2241   333
11.2341   340
11.2441   377
11.2541   406
11.2641   400
11.2741   358
11.2841   355
11.2941   389
11.3041   381
11.3141   370
11.3241   379
11.3341   368
11.3441   343
11.3541   328
11.3641   293
11.3741   313
11.3841   294
11.3941   264
11.4041   261
11.4141   256
11.4241   223
11.4341   216
11.4441   217
11.4541   206
11.4641   212
11.4741   198
11.4841   183
11.4941   194
11.5041   218
11.5141   204
11.5241   197
11.5341   200
11.5441   199
11.5541   205
11.5641   216
11.5741   229
11.5841   215
11.5941   205
11.6041   223
11.6141   198
11.6241   203
11.6341   210
11.6441   236
11.6541   223
11.6641   199
11.6741   192
11.6841   180
11.6941   172
11.7041   181
11.7141   178
11.7241   178
11.7341   195
11.7441   187
11.7541   176
11.7641   167
11.7741   165
11.7841   158
11.7941   165
11.8041   167
11.8141   158
11.8241   154
11.8341   140
11.8441   140
11.8541   156
11.8641   143
11.8741   132
11.8841   131
11.8941   139
11.9041   151
11.9141   136
11.9241   149
11.9341   157
11.9441   145
11.9541   143
11.9641   139
11.9741   149
11.9841   153
11.9941   158
12.0041   160
12.0141   156
12.0241   152
12.0341   153
12.0441   154
12.0541   162
12.0641   153
12.0741   142
12.0841   157
12.0941   176
12.1041   171
12.1141   158
12.1241   150
12.1341   156
12.1441   145
12.1541   146
12.1641   142
12.1741   153
12.1841   159
12.1941   145
12.2041   145
12.2141   148
12.2241   157
12.2341   137
12.2441   138
12.2541   136
12.2641   128
12.2741   132
12.2841   130
12.2941   149
12.3041   167
12.3141   163
12.3241   156
12.3341   149
12.3441   142
12.3541   146
12.3641   153
12.3741   145
12.3841   141
12.3941   146
12.4041   159
12.4141   153
12.4241   161
12.4341   162
12.4441   146
12.4541   160
12.4641   167
12.4741   169
12.4841   173
12.4941   170
12.5041   158
12.5141   160
12.5241   158
12.5341   146
12.5441   149
12.5541   159
12.5641   166
12.5741   174
12.5841   161
12.5941   146
12.6041   160
12.6141   177
12.6241   189
12.6341   177
12.6441   159
12.6541   162
12.6641   174
12.6741   174
12.6841   170
12.6941   174
12.7041   161
12.7141   154
12.7241   157
12.7341   158
12.7441   170
12.7541   173
12.7641   168
12.7741   171
12.7841   177
12.7941   184
12.8041   184
12.8141   185
12.8241   188
12.8341   186
12.8441   183
12.8541   179
12.8641   177
12.8741   180
12.8841   179
12.8941   176
12.9041   183
12.9141   189
12.9241   191
12.9341   202
12.9441   215
12.9541   212
12.9641   203
12.9741   199
12.9841   198
12.9941   198
13.0041   197
13.0141   196
13.0241   204
13.0341   211
13.0441   204
13.0541   195
13.0641   191
13.0741   192
13.0841   195
13.0941   194
13.1041   190
13.1141   195
13.1241   200
13.1341   195
13.1441   190
13.1541   192
13.1641   194
13.1741   195
13.1841   205
13.1941   210
13.2041   217
13.2141   206
13.2241   203
13.2341   228
13.2441   234
13.2541   234
13.2641   257
13.2741   268
13.2841   256
13.2941   258
13.3041   282
13.3141   289
13.3241   284
13.3341   304
13.3441   294
13.3541   306
13.3641   336
13.3741   334
13.3841   319
13.3941   315
13.4041   304
13.4141   307
13.4241   313
13.4341   307
13.4441   304
13.4541   288
13.4641   279
13.4741   276
13.4841   263
13.4941   259
13.5041   243
13.5141   223
13.5241   238
13.5341   238
13.5441   240
13.5541   232
13.5641   212
13.5741   204
13.5841   212
13.5941   225
13.6041   228
13.6141   210
13.6241   199
13.6341   207
13.6441   204
13.6541   214
13.6641   203
13.6741   200
13.6841   219
13.6941   217
13.7041   218
13.7141   212
13.7241   196
13.7341   211
13.7441   226
13.7541   206
13.7641   209
13.7741   202
13.7841   199
13.7941   203
13.8041   194
13.8141   200
13.8241   201
13.8341   213
13.8441   220
13.8541   219
13.8641   210
13.8741   212
13.8841   230
13.8941   237
13.9041   233
13.9141   239
13.9241   253
13.9341   254
13.9441   260
13.9541   259
13.9641   251
13.9741   266
13.9841   294
13.9941   307
14.0041   343
14.0141   388
14.0241   416
14.0341   438
14.0441   430
14.0541   428
14.0641   452
14.0741   476
14.0841   485
14.0941   509
14.1041   547
14.1141   567
14.1241   583
14.1341   561
14.1441   538
14.1541   562
14.1641   559
14.1741   543
14.1841   526
14.1941   517
14.2041   510
14.2141   487
14.2241   476
14.2341   453
14.2441   416
14.2541   376
14.2641   358
14.2741   340
14.2841   314
14.2941   309
14.3041   311
14.3141   301
14.3241   279
14.3341   260
14.3441   246
14.3541   249
14.3641   246
14.3741   241
14.3841   260
14.3941   266
14.4041   252
14.4141   248
14.4241   243
14.4341   248
14.4441   231
14.4541   205
14.4641   201
14.4741   208
14.4841   241
14.4941   246
14.5041   225
14.5141   228
14.5241   229
14.5341   229
14.5441   223
14.5541   229
14.5641   245
14.5741   249
14.5841   240
14.5941   245
14.6041   246
14.6141   224
14.6241   225
14.6341   247
14.6441   258
14.6541   259
14.6641   259
14.6741   255
14.6841   251
14.6941   239
14.7041   242
14.7141   263
14.7241   264
14.7341   256
14.7441   251
14.7541   256
14.7641   278
14.7741   283
14.7841   274
14.7941   267
14.8041   287
14.8141   291
14.8241   274
14.8341   309
14.8441   299
14.8541   291
14.8641   309
14.8741   298
14.8841   285
14.8941   283
14.9041   310
14.9141   323
14.9241   334
14.9341   318
14.9441   309
14.9541   309
14.9641   293
14.9741   313
14.9841   323
14.9941   305
15.0041   309
15.0141   309
15.0241   298
15.0341   317
15.0441   316
15.0541   292
15.0641   281
15.0741   290
15.0841   294
15.0941   300
15.1041   308
15.1141   292
15.1241   269
15.1341   263
15.1441   248
15.1541   268
15.1641   254
15.1741   259
15.1841   274
15.1941   260
15.2041   255
15.2141   277
15.2241   290
15.2341   274
15.2441   267
15.2541   269
15.2641   259
15.2741   273
15.2841   285
15.2941   282
15.3041   273
15.3141   262
15.3241   273
15.3341   281
15.3441   284
15.3541   267
15.3641   254
15.3741   268
15.3841   267
15.3941   272
15.4041   281
15.4141   273
15.4241   272
15.4341   301
15.4441   308
15.4541   276
15.4641   270
15.4741   286
15.4841   301
15.4941   275
15.5041   296
15.5141   319
15.5241   297
15.5341   280
15.5441   302
15.5541   300
15.5641   306
15.5741   318
15.5841   309
15.5941   336
15.6041   341
15.6141   319
15.6241   357
15.6341   381
15.6441   375
15.6541   389
15.6641   389
15.6741   360
15.6841   393
15.6941   411
15.7041   407
15.7141   423
15.7241   429
15.7341   455
15.7441   462
15.7541   448
15.7641   437
15.7741   460
15.7841   474
15.7941   460
15.8041   426
15.8141   440
15.8241   443
15.8341   427
15.8441   435
15.8541   435
15.8641   402
15.8741   396
15.8841   390
15.8941   395
15.9041   368
15.9141   387
15.9241   396
15.9341   355
15.9441   347
15.9541   353
15.9641   315
15.9741   327
15.9841   335
15.9941   321
16.0041   320
16.0141   326
16.0241   343
16.0341   333
16.0441   336
16.0541   329
16.0641   327
16.0741   340
16.0841   342
16.0941   319
16.1041   302
16.1141   317
16.1241   326
16.1341   325
16.1441   321
16.1541   329
16.1641   323
16.1741   344
16.1841   325
16.1941   319
16.2041   321
16.2141   360
16.2241   342
16.2341   325
16.2441   334
16.2541   325
16.2641   343
16.2741   331
16.2841   345
16.2941   341
16.3041   322
16.3141   328
16.3241   330
16.3341   309
16.3441   296
16.3541   299
16.3641   307
16.3741   321
16.3841   321
16.3941   318
16.4041   326
16.4141   322
16.4241   357
16.4341   356
16.4441   334
16.4541   321
16.4641   347
16.4741   358
16.4841   351
16.4941   350
16.5041   331
16.5141   335
16.5241   338
16.5341   324
16.5441   328
16.5541   351
16.5641   349
16.5741   345
16.5841   354
16.5941   338
16.6041   346
16.6141   379
16.6241   375
16.6341   345
16.6441   359
16.6541   365
16.6641   380
16.6741   354
16.6841   349
16.6941   335
16.7041   349
16.7141   367
16.7241   365
16.7341   369
16.7441   359
16.7541   372
16.7641   362
16.7741   365
16.7841   349
16.7941   355
16.8041   351
16.8141   350
16.8241   363
16.8341   360
16.8441   364
16.8541   370
16.8641   370
16.8741   360
16.8841   346
16.8941   345
16.9041   349
16.9141   343
16.9241   335
16.9341   348
16.9441   351
16.9541   375
16.9641   335
16.9741   348
16.9841   345
16.9941   342
17.0041   339
17.0141   343
17.0241   370
17.0341   362
17.0441   360
17.0541   388
17.0641   385
17.0741   365
17.0841   343
17.0941   345
17.1041   360
17.1141   360
17.1241   347
17.1341   342
17.1441   376
17.1541   379
17.1641   389
17.1741   385
17.1841   373
17.1941   354
17.2041   358
17.2141   365
17.2241   388
17.2341   402
17.2441   387
17.2541   383
17.2641   376
17.2741   385
17.2841   386
17.2941   369
17.3041   379
17.3141   400
17.3241   383
17.3341   390
17.3441   387
17.3541   410
17.3641   410
17.3741   385
17.3841   358
17.3941   393
17.4041   411
17.4141   389
17.4241   392
17.4341   397
17.4441   409
17.4541   390
17.4641   366
17.4741   368
17.4841   408
17.4941   417
17.5041   416
17.5141   398
17.5241   390
17.5341   385
17.5441   410
17.5541   427
17.5641   441
17.5741   420
17.5841   429
17.5941   428
17.6041   410
17.6141   404
17.6241   416
17.6341   416
17.6441   403
17.6541   403
17.6641   403
17.6741   384
17.6841   393
17.6941   408
17.7041   425
17.7141   424
17.7241   434
17.7341   407
17.7441   401
17.7541   414
17.7641   429
17.7741   397
17.7841   407
17.7941   423
17.8041   408
17.8141   391
17.8241   409
17.8341   407
17.8441   380
17.8541   423
17.8641   425
17.8741   403
17.8841   397
17.8941   416
17.9041   431
17.9141   419
17.9241   411
17.9341   435
17.9441   439
17.9541   390
17.9641   384
17.9741   379
17.9841   395
17.9941   419
18.0041   447
18.0141   434
18.0241   409
18.0341   384
18.0441   377
18.0541   421
18.0641   445
18.0741   425
18.0841   400
18.0941   402
18.1041   409
18.1141   410
18.1241   426
18.1341   436
18.1441   400
18.1541   392
18.1641   415
18.1741   430
18.1841   448
18.1941   398
18.2041   428
18.2141   451
18.2241   430
18.2341   434
18.2441   445
18.2541   414
18.2641   415
18.2741   428
18.2841   414
18.2941   435
18.3041   459
18.3141   441
18.3241   441
18.3341   443
18.3441   406
18.3541   409
18.3641   441
18.3741   424
18.3841   428
18.3941   425
18.4041   436
18.4141   418
18.4241   404
18.4341   448
18.4441   452
18.4541   435
18.4641   443
18.4741   415
18.4841   452
18.4941   460
18.5041   455
18.5141   466
18.5241   437
18.5341   439
18.5441   416
18.5541   460
18.5641   454
18.5741   426
18.5841   428
18.5941   423
18.6041   434
18.6141   436
18.6241   429
18.6341   447
18.6441   471
18.6541   456
18.6641   419
18.6741   438
18.6841   430
18.6941   453
18.7041   469
18.7141   459
18.7241   465
18.7341   439
18.7441   429
18.7541   447
18.7641   462
18.7741   430
18.7841   451
18.7941   453
18.8041   450
18.8141   422
18.8241   425
18.8341   423
18.8441   423
18.8541   426
18.8641   456
18.8741   447
18.8841   487
18.8941   471
18.9041   444
18.9141   462
18.9241   486
18.9341   472
18.9441   446
18.9541   455
18.9641   409
18.9741   429
18.9841   438
18.9941   468
19.0041   473
19.0141   439
19.0241   437
19.0341   446
19.0441   478
19.0541   466
19.0641   474
19.0741   496
19.0841   449
19.0941   450
19.1041   444
19.1141   442
19.1241   479
19.1341   449
19.1441   461
19.1541   473
19.1641   472
19.1741   469
19.1841   450
19.1941   457
19.2041   452
19.2141   434
19.2241   475
19.2341   487
19.2441   470
19.2541   453
19.2641   480
19.2741   488
19.2841   470
19.2941   439
19.3041   470
19.3141   439
19.3241   460
19.3341   493
19.3441   455
19.3541   466
19.3641   448
19.3741   472
19.3841   470
19.3941   472
19.4041   455
19.4141   454
19.4241   487
19.4341   467
19.4441   483
19.4541   477
19.4641   501
19.4741   478
19.4841   500
19.4941   486
19.5041   473
19.5141   462
19.5241   485
19.5341   467
19.5441   464
19.5541   473
19.5641   472
19.5741   497
19.5841   499
19.5941   474
19.6041   498
19.6141   507
19.6241   463
19.6341   504
19.6441   473
19.6541   488
19.6641   502
19.6741   487
19.6841   458
19.6941   471
19.7041   488
19.7141   527
19.7241   503
19.7341   460
19.7441   464
19.7541   498
19.7641   488
19.7741   499
19.7841   519
19.7941   476
19.8041   480
19.8141   482
19.8241   499
19.8341   475
19.8441   476
19.8541   481
19.8641   493
19.8741   487
19.8841   446
19.8941   487
19.9041   478
19.9141   462
19.9241   466
19.9341   464
19.9441   475
19.9541   457
19.9641   481
19.9741   499
19.9841   495
19.9941   514
20.0041   511
20.0141   495
20.0241   500
20.0341   494
20.0441   513
20.0541   492
20.0641   496
20.0741   480
20.0841   514
20.0941   525
20.1041   471
20.1141   459
20.1241   497
20.1341   502
20.1441   478
20.1541   479
20.1641   503
20.1741   551
20.1841   519
20.1941   511
20.2041   486
20.2141   486
20.2241   499
20.2341   505
20.2441   493
20.2541   501
20.2641   513
20.2741   513
20.2841   501
20.2941   496
20.3041   492
20.3141   519
20.3241   495
20.3341   497
20.3441   502
20.3541   489
20.3641   491
20.3741   478
20.3841   506
20.3941   498
20.4041   512
20.4141   492
20.4241   530
20.4341   514
20.4441   501
20.4541   470
20.4641   498
20.4741   496
20.4841   524
20.4941   499
20.5041   537
20.5141   484
20.5241   464
20.5341   489
20.5441   501
20.5541   498
20.5641   520
20.5741   482
20.5841   487
20.5941   525
20.6041   468
20.6141   492
20.6241   521
20.6341   546
20.6441   538
20.6541   519
20.6641   461
20.6741   483
20.6841   533
20.6941   530
20.7041   494
20.7141   496
20.7241   530
20.7341   526
20.7441   517
20.7541   502
20.7641   506
20.7741   513
20.7841   478
20.7941   516
20.8041   527
20.8141   489
20.8241   540
20.8341   534
20.8441   490
20.8541   554
20.8641   558
20.8741   551
20.8841   537
20.8941   552
20.9041   565
20.9141   619
20.9241   592
20.9341   646
20.9441   643
20.9541   628
20.9641   622
20.9741   664
20.9841   682
20.9941   675
21.0041   690
21.0141   664
21.0241   731
21.0341   726
21.0441   770
21.0541   739
21.0641   714
21.0741   743
21.0841   763
21.0941   778
21.1041   728
21.1141   788
21.1241   801
21.1341   834
21.1441   783
21.1541   818
21.1641   758
21.1741   800
21.1841   800
21.1941   782
21.2041   755
21.2141   710
21.2241   712
21.2341   719
21.2441   712
21.2541   664
21.2641   692
21.2741   677
21.2841   644
21.2941   615
21.3041   608
21.3141   646
21.3241   593
21.3341   626
21.3441   565
21.3541   517
21.3641   532
21.3741   540
21.3841   529
21.3941   532
21.4041   517
21.4141   527
21.4241   542
21.4341   538
21.4441   486
21.4541   509
21.4641   533
21.4741   495
21.4841   495
21.4941   578
21.5041   558
21.5141   534
21.5241   553
21.5341   531
21.5441   518
21.5541   516
21.5641   495
21.5741   473
21.5841   502
21.5941   539
21.6041   545
21.6141   518
21.6241   506
21.6341   516
21.6441   525
21.6541   496
21.6641   485
21.6741   514
21.6841   514
21.6941   520
21.7041   477
21.7141   516
21.7241   539
21.7341   513
21.7441   498
21.7541   508
21.7641   512
21.7741   492
21.7841   475
21.7941   503
21.8041   548
21.8141   500
21.8241   494
21.8341   509
21.8441   521
21.8541   500
21.8641   558
21.8741   535
21.8841   541
21.8941   509
21.9041   530
21.9141   504
21.9241   530
21.9341   510
21.9441   502
21.9541   489
21.9641   513
21.9741   524
21.9841   531
21.9941   529
22.0041   506
22.0141   492
22.0241   506
22.0341   490
22.0441   528
22.0541   500
22.0641   509
22.0741   569
22.0841   552
22.0941   526
22.1041   517
22.1141   551
22.1241   546
22.1341   514
22.1441   525
22.1541   490
22.1641   536
22.1741   494
22.1841   502
22.1941   515
22.2041   568
22.2141   542
22.2241   483
22.2341   556
22.2441   491
22.2541   481
22.2641   507
22.2741   520
22.2841   510
22.2941   521
22.3041   504
22.3141   514
22.3241   521
22.3341   547
22.3441   516
22.3541   479
22.3641   537
22.3741   502
22.3841   533
22.3941   510
22.4041   503
22.4141   502
22.4241   532
22.4341   524
22.4441   496
22.4541   539
22.4641   555
22.4741   521
22.4841   543
22.4941   512
22.5041   513
22.5141   480
22.5241   546
22.5341   531
22.5441   521
22.5541   449
22.5641   516
22.5741   518
22.5841   514
22.5941   513
22.6041   478
22.6141   484
22.6241   490
22.6341   528
22.6441   505
22.6541   484
22.6641   500
22.6741   521
22.6841   514
22.6941   527
22.7041   536
22.7141   559
22.7241   476
22.7341   506
22.7441   472
22.7541   533
22.7641   542
22.7741   490
22.7841   494
22.7941   531
22.8041   475
22.8141   520
22.8241   514
22.8341   521
22.8441   557
22.8541   518
22.8641   513
22.8741   539
22.8841   491
22.8941   545
22.9041   506
22.9141   493
22.9241   501
22.9341   520
22.9441   489
22.9541   515
22.9641   485
22.9741   490
22.9841   533
22.9941   544
23.0041   533
23.0141   503
23.0241   495
23.0341   482
23.0441   537
23.0541   527
23.0641   527
23.0741   527
23.0841   473
23.0941   490
23.1041   515
23.1141   517
23.1241   487
23.1341   495
23.1441   530
23.1541   506
23.1641   531
23.1741   493
23.1841   523
23.1941   480
23.2041   482
23.2141   486
23.2241   511
23.2341   496
23.2441   449
23.2541   526
23.2641   538
23.2741   486
23.2841   501
23.2941   483
23.3041   498
23.3141   514
23.3241   550
23.3341   501
23.3441   493
23.3541   491
23.3641   458
23.3741   479
23.3841   512
23.3941   526
23.4041   455
23.4141   483
23.4241   513
23.4341   553
23.4441   482
23.4541   538
23.4641   516
23.4741   500
23.4841   478
23.4941   518
23.5041   474
23.5141   535
23.5241   517
23.5341   513
23.5441   461
23.5541   468
23.5641   440
23.5741   515
23.5841   507
23.5941   512
23.6041   523
23.6141   501
23.6241   528
23.6341   500
23.6441   510
23.6541   542
23.6641   508
23.6741   521
23.6841   521
23.6941   528
23.7041   552
23.7141   539
23.7241   526
23.7341   554
23.7441   562
23.7541   542
23.7641   531
23.7741   582
23.7841   581
23.7941   550
23.8041   571
23.8141   589
23.8241   545
23.8341   517
23.8441   591
23.8541   528
23.8641   531
23.8741   497
23.8841   509
23.8941   551
23.9041   518
23.9141   497
23.9241   523
23.9341   510
23.9441   557
23.9541   482
23.9641   482
23.9741   465
23.9841   456
23.9941   479
24.0041   508
24.0141   498
24.0241   516
24.0341   509
24.0441   513
24.0541   479
24.0641   492
24.0741   462
24.0841   509
24.0941   481
24.1041   492
24.1141   473
24.1241   486
24.1341   497
24.1441   482
24.1541   431
24.1641   481
24.1741   472
24.1841   530
24.1941   536
24.2041   481
24.2141   495
24.2241   471
24.2341   484
24.2441   496
24.2541   493
24.2641   535
24.2741   512
24.2841   521
24.2941   465
24.3041   493
24.3141   488
24.3241   522
24.3341   519
24.3441   514
24.3541   514
24.3641   460
24.3741   507
24.3841   513
24.3941   484
24.4041   500
24.4141   482
24.4241   493
24.4341   511
24.4441   500
24.4541   481
24.4641   477
24.4741   459
24.4841   477
24.4941   489
24.5041   500
24.5141   484
24.5241   495
24.5341   468
24.5441   465
24.5541   473
24.5641   468
24.5741   471
24.5841   458
24.5941   463
24.6041   473
24.6141   493
24.6241   477
24.6341   448
24.6441   475
24.6541   478
24.6641   454
24.6741   473
24.6841   448
24.6941   473
24.7041   484
24.7141   482
24.7241   472
24.7341   467
24.7441   458
24.7541   487
24.7641   435
24.7741   473
24.7841   506
24.7941   465
24.8041   449
24.8141   496
24.8241   457
24.8341   484
24.8441   467
24.8541   468
24.8641   448
24.8741   463
24.8841   466
24.8941   477
24.9041   477
24.9141   487
24.9241   502
24.9341   443
24.9441   430
24.9541   443
24.9641   460
24.9741   450
24.9841   469
24.9941   441
25.0041   458
25.0141   469
25.0241   463
25.0341   477
25.0441   480
25.0541   487
25.0641   446
25.0741   480
25.0841   455
25.0941   430
25.1041   456
25.1141   461
25.1241   486
25.1341   492
25.1441   456
25.1541   460
25.1641   465
25.1741   482
25.1841   452
25.1941   480
25.2041   467
25.2141   509
25.2241   498
25.2341   483
25.2441   479
25.2541   499
25.2641   472
25.2741   456
25.2841   465
25.2941   474
25.3041   469
25.3141   474
25.3241   461
25.3341   460
25.3441   479
25.3541   465
25.3641   466
25.3741   438
25.3841   488
25.3941   475
25.4041   441
25.4141   443
25.4241   473
25.4341   432
25.4441   489
25.4541   455
25.4641   448
25.4741   429
25.4841   437
25.4941   465
25.5041   462
25.5141   468
25.5241   435
25.5341   428
25.5441   474
25.5541   469
25.5641   446
25.5741   444
25.5841   408
25.5941   450
25.6041   434
25.6141   409
25.6241   440
25.6341   471
25.6441   473
25.6541   451
25.6641   442
25.6741   469
25.6841   424
25.6941   437
25.7041   446
25.7141   451
25.7241   426
25.7341   436
25.7441   430
25.7541   429
25.7641   431
25.7741   440
25.7841   446
25.7941   444
25.8041   425
25.8141   405
25.8241   424
25.8341   433
25.8441   415
25.8541   412
25.8641   441
25.8741   456
25.8841   425
25.8941   483
25.9041   439
25.9141   428
25.9241   436
25.9341   428
25.9441   411
25.9541   438
25.9641   458
25.9741   415
25.9841   421
25.9941   443
26.0041   439
26.0141   438
26.0241   429
26.0341   440
26.0441   411
26.0541   449
26.0641   456
26.0741   405
26.0841   419
26.0941   418
26.1041   413
26.1141   434
26.1241   399
26.1341   422
26.1441   422
26.1541   399
26.1641   460
26.1741   415
26.1841   431
26.1941   434
26.2041   456
26.2141   432
26.2241   418
26.2341   436
26.2441   421
26.2541   419
26.2641   405
26.2741   440
26.2841   398
26.2941   416
26.3041   378
26.3141   411
26.3241   413
26.3341   410
26.3441   383
26.3541   454
26.3641   421
26.3741   416
26.3841   428
26.3941   424
26.4041   432
26.4141   420
26.4241   407
26.4341   425
26.4441   407
26.4541   411
26.4641   444
26.4741   380
26.4841   433
26.4941   384
26.5041   411
26.5141   411
26.5241   376
26.5341   408
26.5441   406
26.5541   404
26.5641   409
26.5741   404
26.5841   393
26.5941   386
26.6041   403
26.6141   405
26.6241   414
26.6341   436
26.6441   396
26.6541   396
26.6641   391
26.6741   382
26.6841   434
26.6941   423
26.7041   421
26.7141   440
26.7241   412
26.7341   390
26.7441   427
26.7541   398
26.7641   374
26.7741   387
26.7841   412
26.7941   413
26.8041   424
26.8141   415
26.8241   416
26.8341   372
26.8441   409
26.8541   409
26.8641   412
26.8741   363
26.8841   403
26.8941   403
26.9041   391
26.9141   396
26.9241   379
26.9341   394
26.9441   345
26.9541   385
26.9641   385
26.9741   411
26.9841   395
26.9941   393
27.0041   395
27.0141   408
27.0241   399
27.0341   394
27.0441   391
27.0541   369
27.0641   377
27.0741   374
27.0841   378
27.0941   364
27.1041   394
27.1141   379
27.1241   390
27.1341   377
27.1441   386
27.1541   377
27.1641   378
27.1741   387
27.1841   396
27.1941   416
27.2041   394
27.2141   389
27.2241   388
27.2341   380
27.2441   392
27.2541   380
27.2641   397
27.2741   380
27.2841   377
27.2941   378
27.3041   353
27.3141   390
27.3241   370
27.3341   395
27.3441   372
27.3541   388
27.3641   374
27.3741   394
27.3841   374
27.3941   389
27.4041   360
27.4141   393
27.4241   380
27.4341   363
27.4441   397
27.4541   407
27.4641   396
27.4741   388
27.4841   369
27.4941   383
27.5041   380
27.5141   396
27.5241   360
27.5341   362
27.5441   394
27.5541   373
27.5641   363
27.5741   383
27.5841   392
27.5941   399
27.6041   354
27.6141   381
27.6241   386
27.6341   386
27.6441   379
27.6541   392
27.6641   379
27.6741   354
27.6841   372
27.6941   358
27.7041   369
27.7141   375
27.7241   372
27.7341   371
27.7441   381
27.7541   356
27.7641   354
27.7741   352
27.7841   378
27.7941   328
27.8041   345
27.8141   384
27.8241   357
27.8341   388
27.8441   368
27.8541   337
27.8641   332
27.8741   352
27.8841   375
27.8941   376
27.9041   336
27.9141   324
27.9241   372
27.9341   343
27.9441   334
27.9541   387
27.9641   349
27.9741   353
27.9841   357
27.9941   337
28.0041   302
28.0141   331
28.0241   374
28.0341   350
28.0441   362
28.0541   366
28.0641   343
28.0741   331
28.0841   335
28.0941   345
28.1041   345
28.1141   326
28.1241   354
28.1341   322
28.1441   346
28.1541   335
28.1641   370
28.1741   357
28.1841   348
28.1941   366
28.2041   324
28.2141   343
28.2241   332
28.2341   339
28.2441   351
28.2541   329
28.2641   336
28.2741   341
28.2841   360
28.2941   308
28.3041   373
28.3141   369
28.3241   334
28.3341   338
28.3441   340
28.3541   362
28.3641   318
28.3741   361
28.3841   346
28.3941   354
28.4041   326
28.4141   334
28.4241   302
28.4341   328
28.4441   334
28.4541   338
28.4641   323
28.4741   345
28.4841   323
28.4941   321
28.5041   347
28.5141   339
28.5241   338
28.5341   328
28.5441   340
28.5541   336
28.5641   323
28.5741   320
28.5841   297
28.5941   340
28.6041   329
28.6141   333
28.6241   318
28.6341   330
28.6441   299
28.6541   319
28.6641   334
28.6741   334
28.6841   317
28.6941   351
28.7041   341
28.7141   327
28.7241   312
28.7341   314
28.7441   314
28.7541   338
28.7641   325
28.7741   344
28.7841   322
28.7941   310
28.8041   324
28.8141   310
28.8241   358
28.8341   347
28.8441   312
28.8541   295
28.8641   331
28.8741   304
28.8841   325
28.8941   313
28.9041   306
28.9141   327
28.9241   309
28.9341   314
28.9441   309
28.9541   266
28.9641   308
28.9741   313
28.9841   322
28.9941   322
29.0041   325
29.0141   313
29.0241   281
29.0341   318
29.0441   330
29.0541   302
29.0641   326
29.0741   315
29.0841   355
29.0941   293
29.1041   313
29.1141   337
29.1241   322
29.1341   314
29.1441   304
29.1541   300
29.1641   300
29.1741   293
29.1841   324
29.1941   273
29.2041   326
29.2141   294
29.2241   294
29.2341   304
29.2441   304
29.2541   305
29.2641   322
29.2741   299
29.2841   293
29.2941   297
29.3041   282
29.3141   296
29.3241   287
29.3341   312
29.3441   309
29.3541   297
29.3641   297
29.3741   301
29.3841   317
29.3941   270
29.4041   301
29.4141   306
29.4241   286
29.4341   281
29.4441   305
29.4541   292
29.4641   270
29.4741   289
29.4841   303
29.4941   330
29.5041   325
29.5141   264
29.5241   308
29.5341   298
29.5441   289
29.5541   289
29.5641   276
29.5741   288
29.5841   275
29.5941   267
29.6041   283
29.6141   291
29.6241   282
29.6341   267
29.6441   271
29.6541   290
29.6641   276
29.6741   291
29.6841   290
29.6941   270
29.7041   299
29.7141   291
29.7241   290
29.7341   311
29.7441   304
29.7541   287
29.7641   273
29.7741   292
29.7841   276
29.7941   296
29.8041   261
29.8141   308
29.8241   314
29.8341   276
29.8441   281
29.8541   295
29.8641   278
29.8741   285
29.8841   281
29.8941   272
29.9041   260
29.9141   255
29.9241   284
29.9341   272
29.9441   276
29.9541   283
29.9641   262
29.9741   298
29.9841   279
29.9941   287
30.0041   262
30.0141   280
30.0241   268
30.0341   287
30.0441   259
30.0541   289
30.0641   267
30.0741   274
30.0841   287
30.0941   291
30.1041   281
30.1141   266
30.1241   237
30.1341   265
30.1441   259
30.1541   276
30.1641   261
30.1741   254
30.1841   242
30.1941   259
30.2041   277
30.2141   272
30.2241   286
30.2341   270
30.2441   250
30.2541   257
30.2641   243
30.2741   278
30.2841   272
30.2941   255
30.3041   263
30.3141   272
30.3241   248
30.3341   304
30.3441   271
30.3541   250
30.3641   289
30.3741   249
30.3841   258
30.3941   274
30.4041   240
30.4141   248
30.4241   226
30.4341   232
30.4441   247
30.4541   262
30.4641   276
30.4741   257
30.4841   241
30.4941   241
30.5041   277
30.5141   296
30.5241   257
30.5341   263
30.5441   274
30.5541   259
30.5641   256
30.5741   268
30.5841   277
30.5941   279
30.6041   255
30.6141   266
30.6241   243
30.6341   256
30.6441   240
30.6541   245
30.6641   226
30.6741   240
30.6841   213
30.6941   241
30.7041   257
30.7141   234
30.7241   251
30.7341   238
30.7441   243
30.7541   241
30.7641   239
30.7741   224
30.7841   251
30.7941   227
30.8041   210
30.8141   225
30.8241   227
30.8341   245
30.8441   258
30.8541   240
30.8641   229
30.8741   249
30.8841   243
30.8941   263
30.9041   282
30.9141   240
30.9241   236
30.9341   232
30.9441   253
30.9541   209
30.9641   241
30.9741   241
30.9841   253
30.9941   219
31.0041   252
31.0141   226
31.0241   251
31.0341   245
31.0441   237
31.0541   215
31.0641   247
31.0741   250
31.0841   226
31.0941   229
31.1041   229
31.1141   218
31.1241   211
31.1341   240
31.1441   248
31.1541   243
31.1641   226
31.1741   228
31.1841   214
31.1941   238
31.2041   254
31.2141   249
31.2241   245
31.2341   208
31.2441   216
31.2541   227
31.2641   237
31.2741   226
31.2841   229
31.2941   238
31.3041   239
31.3141   254
31.3241   235
31.3341   205
31.3441   221
31.3541   220
31.3641   229
31.3741   232
31.3841   217
31.3941   222
31.4041   224
31.4141   234
31.4241   240
31.4341   230
31.4441   223
31.4541   226
31.4641   232
31.4741   240
31.4841   226
31.4941   205
31.5041   216
31.5141   218
31.5241   215
31.5341   203
31.5441   228
31.5541   215
31.5641   232
31.5741   233
31.5841   233
31.5941   217
31.6041   209
31.6141   213
31.6241   229
31.6341   210
31.6441   221
31.6541   214
31.6641   230
31.6741   213
31.6841   227
31.6941   233
31.7041   231
31.7141   201
31.7241   217
31.7341   210
31.7441   181
31.7541   219
31.7641   230
31.7741   248
31.7841   205
31.7941   221
31.8041   229
31.8141   200
31.8241   226
31.8341   212
31.8441   211
31.8541   221
31.8641   240
31.8741   214
31.8841   205
31.8941   214
31.9041   232
31.9141   209
31.9241   226
31.9341   214
31.9441   203
31.9541   223
31.9641   227
31.9741   208
31.9841   226
31.9941   225
32.0041   202
32.0141   190
32.0241   200
32.0341   211
32.0441   203
32.0541   217
32.0641   226
32.0741   199
32.0841   197
32.0941   190
32.1041   206
32.1141   234
32.1241   232
32.1341   208
32.1441   195
32.1541   206
32.1641   223
32.1741   207
32.1841   211
32.1941   231
32.2041   202
32.2141   244
32.2241   195
32.2341   232
32.2441   216
32.2541   223
32.2641   216
32.2741   230
32.2841   221
32.2941   212
32.3041   226
32.3141   213
32.3241   176
32.3341   196
32.3441   216
32.3541   209
32.3641   187
32.3741   180
32.3841   213
32.3941   190
32.4041   197
32.4141   197
32.4241   195
32.4341   192
32.4441   179
32.4541   197
32.4641   193
32.4741   196
32.4841   191
32.4941   190
32.5041   176
32.5141   180
32.5241   175
32.5341   188
32.5441   217
32.5541   188
32.5641   185
32.5741   185
32.5841   193
32.5941   216
32.6041   186
32.6141   192
32.6241   175
32.6341   199
32.6441   164
32.6541   155
32.6641   181
32.6741   171
32.6841   207
32.6941   194
32.7041   176
32.7141   188
32.7241   203
32.7341   179
32.7441   175
32.7541   188
32.7641   197
32.7741   195
32.7841   169
32.7941   171
32.8041   185
32.8141   187
32.8241   169
32.8341   172
32.8441   176
32.8541   163
32.8641   167
32.8741   185
32.8841   164
32.8941   187
32.9041   175
32.9141   188
32.9241   193
32.9341   171
32.9441   156
32.9541   179
32.9641   184
32.9741   180
32.9841   177
32.9941   182
33.0041   180
33.0141   172
33.0241   168
33.0341   194
33.0441   167
33.0541   165
33.0641   183
33.0741   185
33.0841   177
33.0941   159
33.1041   170
33.1141   167
33.1241   177
33.1341   157
33.1441   152
33.1541   185
33.1641   165
33.1741   168
33.1841   168
33.1941   148
33.2041   176
33.2141   150
33.2241   170
33.2341   164
33.2441   157
33.2541   166
33.2641   165
33.2741   169
33.2841   173
33.2941   153
33.3041   191
33.3141   164
33.3241   170
33.3341   149
33.3441   180
33.3541   182
33.3641   178
33.3741   154
33.3841   168
33.3941   157
33.4041   164
33.4141   163
33.4241   161
33.4341   186
33.4441   186
33.4541   167
33.4641   155
33.4741   166
33.4841   155
33.4941   157
33.5041   171
33.5141   167
33.5241   170
33.5341   170
33.5441   146
33.5541   127
33.5641   162
33.5741   167
33.5841   153
33.5941   186
33.6041   163
33.6141   161
33.6241   144
33.6341   159
33.6441   144
33.6541   150
33.6641   161
33.6741   156
33.6841   147
33.6941   149
33.7041   147
33.7141   173
33.7241   146
33.7341   161
33.7441   137
33.7541   166
33.7641   146
33.7741   144
33.7841   157
33.7941   151
33.8041   145
33.8141   144
33.8241   141
33.8341   153
33.8441   165
33.8541   137
33.8641   148
33.8741   138
33.8841   147
33.8941   140
33.9041   147
33.9141   148
33.9241   155
33.9341   147
33.9441   130
33.9541   127
33.9641   147
33.9741   143
33.9841   159
33.9941   148
34.0041   161
34.0141   141
34.0241   128
34.0341   148
34.0441   133
34.0541   133
34.0641   140
34.0741   140
34.0841   156
34.0941   148
34.1041   148
34.1141   147
34.1241   133
34.1341   146
34.1441   131
34.1541   143
34.1641   153
34.1741   136
34.1841   137
34.1941   145
34.2041   138
34.2141   118
34.2241   131
34.2341   143
34.2441   132
34.2541   135
34.2641   139
34.2741   127
34.2841   134
34.2941   139
34.3041   130
34.3141   119
34.3241   136
34.3341   142
34.3441   131
34.3541   136
34.3641   124
34.3741   132
34.3841   161
34.3941   152
34.4041   116
34.4141   152
34.4241   140
34.4341   140
34.4441   119
34.4541   127
34.4641   127
34.4741   118
34.4841   123
34.4941   122
34.5041   136
34.5141   130
34.5241   142
34.5341   126
34.5441   136
34.5541   121
34.5641   123
34.5741   119
34.5841   133
34.5941   133
34.6041   106
34.6141   134
34.6241   121
34.6341   149
34.6441   121
34.6541   132
34.6641   136
34.6741   135
34.6841   132
34.6941   154
34.7041   122
34.7141   134
34.7241   129
34.7341   138
34.7441   127
34.7541   141
34.7641   136
34.7741   132
34.7841    99
34.7941   140
34.8041   124
34.8141   143
34.8241   109
34.8341   117
34.8441   118
34.8541   127
34.8641   119
34.8741   132
34.8841   114
34.8941   129
34.9041   116
34.9141   130
34.9241   125
34.9341   119
34.9441   138
34.9541   135
34.9641   115
34.9741   146
34.9841   121
34.9941   137
35.0041   118
35.0141    96
35.0241   111
35.0341   129
35.0441   126
35.0541   116
35.0641   118
35.0741   122
35.0841   120
35.0941   119
35.1041   126
35.1141   115
35.1241   118
35.1341   115
35.1441   122
35.1541   106
35.1641   105
35.1741    89
35.1841   115
35.1941   114
35.2041   115
35.2141   118
35.2241   121
35.2341   118
35.2441   111
35.2541   112
35.2641   116
35.2741   108
35.2841   116
35.2941   120
35.3041    98
35.3141   115
35.3241    97
35.3341   110
35.3441   106
35.3541   114
35.3641   115
35.3741   107
35.3841   113
35.3941   112
35.4041   104
35.4141   121
35.4241   109
35.4341   118
35.4441    89
35.4541   109
35.4641   118
35.4741   113
35.4841   113
35.4941   103
35.5041    96
35.5141   108
35.5241   116
35.5341   115
35.5441    99
35.5541   108
35.5641   104
35.5741   110
35.5841   124
35.5941   102
35.6041    97
35.6141    90
35.6241   113
35.6341   114
35.6441   104
35.6541   109
35.6641    96
35.6741   111
35.6841   111
35.6941   122
35.7041   111
35.7141   100
35.7241   100
35.7341    98
35.7441   102
35.7541    89
35.7641    90
35.7741    86
35.7841   110
35.7941   120
35.8041    95
35.8141   110
35.8241   105
35.8341   102
35.8441   100
35.8541   112
35.8641    89
35.8741   106
35.8841   108
35.8941    95
35.9041    94
35.9141   102
35.9241    91
35.9341   102
35.9441    92
35.9541    90
35.9641   121
35.9741    99
35.9841    82
35.9941   102
36.0041    89
36.0141   112
36.0241   104
36.0341    91
36.0441   107
36.0541   100
36.0641    96
36.0741    96
36.0841    84
36.0941    84
36.1041    93
36.1141    78
36.1241   101
36.1341    79
36.1441    82
36.1541    91
36.1641    97
36.1741    91
36.1841   108
36.1941   112
36.2041    97
36.2141    93
36.2241    71
36.2341    98
36.2441   107
36.2541   104
36.2641    82
36.2741    87
36.2841   106
36.2941    91
36.3041   100
36.3141    81
36.3241    89
36.3341    92
36.3441    77
36.3541    74
36.3641    85
36.3741    80
36.3841    88
36.3941    82
36.4041    75
36.4141   101
36.4241    88
36.4341    86
36.4441    87
36.4541    94
36.4641    85
36.4741    86
36.4841    82
36.4941    99
36.5041    88
36.5141    86
36.5241    83
36.5341    87
36.5441    83
36.5541    95
36.5641    80
36.5741    73
36.5841    76
36.5941    82
36.6041    93
36.6141    96
36.6241    76
36.6341    80
36.6441    79
36.6541    68
36.6641    70
36.6741    78
36.6841    80
36.6941    90
36.7041   106
36.7141    68
36.7241    79
36.7341    89
36.7441    85
36.7541    96
36.7641    94
36.7741    67
36.7841    91
36.7941    68
36.8041    83
36.8141    73
36.8241    73
36.8341    84
36.8441    96
36.8541    86
36.8641    78
36.8741    86
36.8841    86
36.8941    76
36.9041   103
36.9141    95
36.9241    85
36.9341    83
36.9441    58
36.9541    72
36.9641    91
36.9741    85
36.9841    70
36.9941    67
37.0041    83
37.0141    51
37.0241    76
37.0341    87
37.0441    74
37.0541    65
37.0641    77
37.0741    87
37.0841    65
37.0941    84
37.1041    96
37.1141    78
37.1241    61
37.1341    66
37.1441    80
37.1541    80
37.1641    76
37.1741    72
37.1841    73
37.1941    75
37.2041    64
37.2141    78
37.2241    86
37.2341    67
37.2441    82
37.2541    75
37.2641    64
37.2741    53
37.2841    70
37.2941    72
37.3041    59
37.3141    66
37.3241    67
37.3341    72
37.3441    58
37.3541    59
37.3641    72
37.3741    73
37.3841    84
37.3941    74
37.4041    61
37.4141    73
37.4241    66
37.4341    69
37.4441    84
37.4541    78
37.4641    72
37.4741    73
37.4841    64
37.4941    66
37.5041    68
37.5141    72
37.5241    81
37.5341    66
37.5441    54
37.5541    76
37.5641    69
37.5741    60
37.5841    82
37.5941    74
37.6041    72
37.6141    84
37.6241    86
37.6341    76
37.6441    53
37.6541    53
37.6641    64
37.6741    62
37.6841    71
37.6941    51
37.7041    62
37.7141    61
37.7241    63
37.7341    64
37.7441    56
37.7541    59
37.7641    53
37.7741    55
37.7841    64
37.7941    70
37.8041    57
37.8141    70
37.8241    71
37.8341    54
37.8441    58
37.8541    71
37.8641    63
37.8741    65
37.8841    62
37.8941    65
37.9041    54
37.9141    55
37.9241    66
37.9341    56
37.9441    60
37.9541    75
37.9641    70
37.9741    68
37.9841    71
37.9941    58
38.0041    61
38.0141    55
38.0241    53
38.0341    67
38.0441    41
38.0541    68
38.0641    64
38.0741    68
38.0841    54
38.0941    57
38.1041    71
38.1141    45
38.1241    68
38.1341    49
38.1441    51
38.1541    61
38.1641    58
38.1741    52
38.1841    66
38.1941    56
38.2041    54
38.2141    62
38.2241    48
38.2341    48
38.2441    52
38.2541    46
38.2641    62
38.2741    63
38.2841    62
38.2941    60
38.3041    61
38.3141    52
38.3241    44
38.3341    57
38.3441    59
38.3541    62
38.3641    53
38.3741    55
38.3841    46
38.3941    45
38.4041    48
38.4141    56
38.4241    57
38.4341    53
38.4441    56
38.4541    57
38.4641    52
38.4741    51
38.4841    43
38.4941    48
38.5041    49
38.5141    48
38.5241    45
38.5341    50
38.5441    53
38.5541    68
38.5641    53
38.5741    44
38.5841    58
38.5941    51
38.6041    50
38.6141    42
38.6241    50
38.6341    58
38.6441    40
38.6541    52
38.6641    42
38.6741    49
38.6841    46
38.6941    57
38.7041    57
38.7141    43
38.7241    50
38.7341    39
38.7441    52
38.7541    45
38.7641    49
38.7741    51
38.7841    40
38.7941    48
38.8041    50
38.8141    49
38.8241    39
38.8341    45
38.8441    41
38.8541    42
38.8641    42
38.8741    38
38.8841    44
38.8941    47
38.9041    47
38.9141    56
38.9241    55
38.9341    45
38.9441    55
38.9541    57
38.9641    49
38.9741    36
38.9841    44
38.9941    37
39.0041    50
39.0141    53
39.0241    52
39.0341    39
39.0441    29
39.0541    35
39.0641    49
39.0741    45
39.0841    44
39.0941    52
39.1041    50
39.1141    38
39.1241    38
39.1341    44
39.1441    48
39.1541    41
39.1641    39
39.1741    28
39.1841    40
39.1941    40
39.2041    43
39.2141    43
39.2241    27
39.2341    55
39.2441    41
39.2541    45
39.2641    28
39.2741    40
39.2841    41
39.2941    33
39.3041    45
39.3141    32
39.3241    34
39.3341    48
39.3441    40
39.3541    41
39.3641    44
39.3741    49
39.3841    42
39.3941    29
39.4041    35
39.4141    39
39.4241    38
39.4341    30
39.4441    39
39.4541    36
39.4641    39
39.4741    40
39.4841    30
39.4941    43
39.5041    43
39.5141    42
39.5241    31
39.5341    40
39.5441    49
39.5541    38
39.5641    31
39.5741    38
39.5841    27
39.5941    35
39.6041    33
39.6141    35
39.6241    28
39.6341    40
39.6441    30
39.6541    33
39.6641    40
39.6741    47
39.6841    29
39.6941    35
39.7041    32
39.7141    31
39.7241    42
39.7341    35
39.7441    34
39.7541    30
39.7641    37
39.7741    39
39.7841    31
39.7941    32
39.8041    34
39.8141    34
39.8241    32
39.8341    22
39.8441    26
39.8541    33
39.8641    33
39.8741    41
39.8841    26
39.8941    34
39.9041    46
39.9141    33
39.9241    40
39.9341    35
39.9441    25
39.9541    29
39.9641    23
39.9741    37
39.9841    36
