Bruker Nano GmbH Berlin, Germany
Esprit 1.9

Date: 4/1/2021 4:10:44 PM
Real time: 23747
Life time: 22332
Pulse density: 88190


Detector type: XFlash 430
Window type: Custom type
Detector thickness: 0.45
Si dead layer:0.029

Calibration, lin.: 10
Calibration, abs.: -955.9
Mn FWHM: 137.05
Fano factor: 0.121
Channels: 4095

Energy Counts
-0.9559     0
-0.9459     0
-0.9359     0
-0.9259     0
-0.9159     0
-0.9059     0
-0.8959     0
-0.8859     0
-0.8759     0
-0.8659     0
-0.8559     0
-0.8459     0
-0.8359     0
-0.8259     0
-0.8159     0
-0.8059     0
-0.7959     0
-0.7859     0
-0.7759     0
-0.7659     0
-0.7559     0
-0.7459     0
-0.7359     0
-0.7259     0
-0.7159     0
-0.7059     0
-0.6959     0
-0.6859     0
-0.6759     0
-0.6659     0
-0.6559     0
-0.6459     0
-0.6359     0
-0.6259     0
-0.6159     0
-0.6059     0
-0.5959     0
-0.5859     0
-0.5759     0
-0.5659     0
-0.5559     0
-0.5459     0
-0.5359     0
-0.5259     0
-0.5159     0
-0.5059     0
-0.4959     0
-0.4859     0
-0.4759     0
-0.4659     0
-0.4559     0
-0.4459     0
-0.4359     0
-0.4259     0
-0.4159     0
-0.4059     0
-0.3959     0
-0.3859     0
-0.3759     0
-0.3659     0
-0.3559     0
-0.3459     0
-0.3359     0
-0.3259     0
-0.3159     0
-0.3059     0
-0.2959     0
-0.2859     0
-0.2759     0
-0.2659     0
-0.2559     0
-0.2459     0
-0.2359     0
-0.2259     0
-0.2159     0
-0.2059     0
-0.1959     0
-0.1859     0
-0.1759     0
-0.1659     0
-0.1559     0
-0.1459     0
-0.1359     0
-0.1259     0
-0.1159     6
-0.1059    12
-0.0959    79
-0.0859   240
-0.0759   864
-0.0659  2557
-0.0559  6555
-0.0459 14309
-0.0359 26540
-0.0259 42729
-0.0159 58237
-0.0059 68655
 0.0041 68724
 0.0141 59257
 0.0241 43616
 0.0341 27737
 0.0441 14759
 0.0541  6960
 0.0641  2881
 0.0741   928
 0.0841   288
 0.0941    91
 0.1041    31
 0.1141    18
 0.1241     9
 0.1341     3
 0.1441     3
 0.1541     3
 0.1641     0
 0.1741    25
 0.1841   201
 0.1941   367
 0.2041   323
 0.2141   345
 0.2241   339
 0.2341   325
 0.2441   331
 0.2541   334
 0.2641   355
 0.2741   334
 0.2841   344
 0.2941   335
 0.3041   328
 0.3141   308
 0.3241   328
 0.3341   323
 0.3441   297
 0.3541   342
 0.3641   320
 0.3741   305
 0.3841   321
 0.3941   316
 0.4041   315
 0.4141   301
 0.4241   306
 0.4341   322
 0.4441   319
 0.4541   325
 0.4641   311
 0.4741   298
 0.4841   270
 0.4941   287
 0.5041   298
 0.5141   293
 0.5241   310
 0.5341   292
 0.5441   281
 0.5541   290
 0.5641   273
 0.5741   271
 0.5841   263
 0.5941   256
 0.6041   256
 0.6141   260
 0.6241   249
 0.6341   236
 0.6441   262
 0.6541   257
 0.6641   247
 0.6741   259
 0.6841   258
 0.6941   265
 0.7041   257
 0.7141   244
 0.7241   242
 0.7341   249
 0.7441   234
 0.7541   241
 0.7641   258
 0.7741   245
 0.7841   234
 0.7941   238
 0.8041   241
 0.8141   239
 0.8241   247
 0.8341   231
 0.8441   232
 0.8541   231
 0.8641   234
 0.8741   243
 0.8841   223
 0.8941   247
 0.9041   241
 0.9141   242
 0.9241   235
 0.9341   221
 0.9441   220
 0.9541   225
 0.9641   244
 0.9741   226
 0.9841   226
 0.9941   226
 1.0041   217
 1.0141   217
 1.0241   221
 1.0341   217
 1.0441   211
 1.0541   221
 1.0641   220
 1.0741   198
 1.0841   197
 1.0941   216
 1.1041   232
 1.1141   221
 1.1241   234
 1.1341   198
 1.1441   202
 1.1541   205
 1.1641   190
 1.1741   214
 1.1841   219
 1.1941   199
 1.2041   186
 1.2141   201
 1.2241   217
 1.2341   221
 1.2441   211
 1.2541   191
 1.2641   192
 1.2741   214
 1.2841   204
 1.2941   231
 1.3041   204
 1.3141   194
 1.3241   220
 1.3341   219
 1.3441   207
 1.3541   207
 1.3641   189
 1.3741   189
 1.3841   201
 1.3941   199
 1.4041   209
 1.4141   186
 1.4241   181
 1.4341   184
 1.4441   193
 1.4541   190
 1.4641   205
 1.4741   195
 1.4841   193
 1.4941   188
 1.5041   204
 1.5141   210
 1.5241   221
 1.5341   211
 1.5441   187
 1.5541   167
 1.5641   199
 1.5741   194
 1.5841   208
 1.5941   171
 1.6041   182
 1.6141   184
 1.6241   202
 1.6341   224
 1.6441   232
 1.6541   251
 1.6641   291
 1.6741   360
 1.6841   443
 1.6941   586
 1.7041   635
 1.7141   738
 1.7241   796
 1.7341   838
 1.7441   874
 1.7541   849
 1.7641   756
 1.7741   614
 1.7841   528
 1.7941   437
 1.8041   378
 1.8141   335
 1.8241   282
 1.8341   261
 1.8441   244
 1.8541   229
 1.8641   214
 1.8741   201
 1.8841   202
 1.8941   213
 1.9041   221
 1.9141   186
 1.9241   216
 1.9341   239
 1.9441   212
 1.9541   217
 1.9641   200
 1.9741   220
 1.9841   250
 1.9941   254
 2.0041   253
 2.0141   266
 2.0241   232
 2.0341   247
 2.0441   214
 2.0541   220
 2.0641   199
 2.0741   184
 2.0841   175
 2.0941   177
 2.1041   192
 2.1141   193
 2.1241   206
 2.1341   179
 2.1441   179
 2.1541   153
 2.1641   177
 2.1741   163
 2.1841   165
 2.1941   168
 2.2041   176
 2.2141   171
 2.2241   156
 2.2341   166
 2.2441   193
 2.2541   171
 2.2641   154
 2.2741   181
 2.2841   156
 2.2941   183
 2.3041   170
 2.3141   172
 2.3241   169
 2.3341   150
 2.3441   151
 2.3541   153
 2.3641   174
 2.3741   171
 2.3841   162
 2.3941   152
 2.4041   176
 2.4141   165
 2.4241   151
 2.4341   146
 2.4441   144
 2.4541   176
 2.4641   152
 2.4741   140
 2.4841   147
 2.4941   146
 2.5041   155
 2.5141   155
 2.5241   148
 2.5341   162
 2.5441   160
 2.5541   168
 2.5641   157
 2.5741   124
 2.5841   139
 2.5941   166
 2.6041   149
 2.6141   158
 2.6241   138
 2.6341   140
 2.6441   139
 2.6541   143
 2.6641   155
 2.6741   163
 2.6841   150
 2.6941   134
 2.7041   135
 2.7141   156
 2.7241   141
 2.7341   161
 2.7441   135
 2.7541   159
 2.7641   182
 2.7741   139
 2.7841   150
 2.7941   151
 2.8041   160
 2.8141   163
 2.8241   155
 2.8341   156
 2.8441   136
 2.8541   132
 2.8641   157
 2.8741   139
 2.8841   141
 2.8941   158
 2.9041   151
 2.9141   140
 2.9241   146
 2.9341   131
 2.9441   161
 2.9541   123
 2.9641   128
 2.9741   120
 2.9841   132
 2.9941   151
 3.0041   139
 3.0141   141
 3.0241   128
 3.0341   138
 3.0441   139
 3.0541   136
 3.0641   159
 3.0741   128
 3.0841   109
 3.0941   121
 3.1041   121
 3.1141   112
 3.1241   119
 3.1341   140
 3.1441   121
 3.1541   127
 3.1641   117
 3.1741   127
 3.1841   134
 3.1941   125
 3.2041   131
 3.2141   131
 3.2241   138
 3.2341   155
 3.2441   158
 3.2541   170
 3.2641   211
 3.2741   212
 3.2841   213
 3.2941   237
 3.3041   247
 3.3141   303
 3.3241   265
 3.3341   234
 3.3441   252
 3.3541   227
 3.3641   184
 3.3741   178
 3.3841   163
 3.3941   132
 3.4041   148
 3.4141   134
 3.4241   117
 3.4341   119
 3.4441   108
 3.4541   100
 3.4641    94
 3.4741   127
 3.4841   114
 3.4941   124
 3.5041   123
 3.5141   131
 3.5241   125
 3.5341   139
 3.5441   149
 3.5541   174
 3.5641   205
 3.5741   231
 3.5841   292
 3.5941   359
 3.6041   454
 3.6141   581
 3.6241   743
 3.6341   951
 3.6441  1116
 3.6541  1324
 3.6641  1478
 3.6741  1582
 3.6841  1659
 3.6941  1584
 3.7041  1602
 3.7141  1426
 3.7241  1267
 3.7341  1068
 3.7441   885
 3.7541   683
 3.7641   578
 3.7741   396
 3.7841   308
 3.7941   220
 3.8041   168
 3.8141   152
 3.8241   121
 3.8341   117
 3.8441   109
 3.8541    95
 3.8641   100
 3.8741    85
 3.8841    92
 3.8941   104
 3.9041   142
 3.9141   151
 3.9241   132
 3.9341   171
 3.9441   180
 3.9541   206
 3.9641   253
 3.9741   273
 3.9841   273
 3.9941   297
 4.0041   350
 4.0141   353
 4.0241   353
 4.0341   306
 4.0441   308
 4.0541   266
 4.0641   224
 4.0741   208
 4.0841   177
 4.0941   155
 4.1041   153
 4.1141   126
 4.1241   113
 4.1341    88
 4.1441    91
 4.1541    98
 4.1641    90
 4.1741   103
 4.1841    91
 4.1941    99
 4.2041    98
 4.2141    91
 4.2241    72
 4.2341    79
 4.2441    88
 4.2541    90
 4.2641    92
 4.2741    80
 4.2841    77
 4.2941    84
 4.3041    90
 4.3141   113
 4.3241    94
 4.3341    85
 4.3441    80
 4.3541    93
 4.3641   114
 4.3741   133
 4.3841   148
 4.3941   165
 4.4041   210
 4.4141   218
 4.4241   288
 4.4341   344
 4.4441   383
 4.4541   532
 4.4641   577
 4.4741   593
 4.4841   645
 4.4941   714
 4.5041   750
 4.5141   741
 4.5241   684
 4.5341   615
 4.5441   614
 4.5541   547
 4.5641   458
 4.5741   363
 4.5841   305
 4.5941   260
 4.6041   220
 4.6141   179
 4.6241   165
 4.6341   129
 4.6441   126
 4.6541   110
 4.6641   124
 4.6741   120
 4.6841   106
 4.6941    96
 4.7041    99
 4.7141    99
 4.7241   106
 4.7341   121
 4.7441    95
 4.7541   108
 4.7641   116
 4.7741   127
 4.7841   126
 4.7941   117
 4.8041   146
 4.8141   129
 4.8241   153
 4.8341   144
 4.8441   173
 4.8541   173
 4.8641   190
 4.8741   211
 4.8841   178
 4.8941   203
 4.9041   228
 4.9141   234
 4.9241   250
 4.9341   243
 4.9441   246
 4.9541   229
 4.9641   204
 4.9741   225
 4.9841   221
 4.9941   171
 5.0041   166
 5.0141   155
 5.0241   135
 5.0341   134
 5.0441   119
 5.0541   115
 5.0641   101
 5.0741    93
 5.0841   121
 5.0941   123
 5.1041   109
 5.1141   108
 5.1241   108
 5.1341   101
 5.1441   109
 5.1541    98
 5.1641    87
 5.1741    88
 5.1841   100
 5.1941   115
 5.2041   121
 5.2141    96
 5.2241    92
 5.2341   103
 5.2441   101
 5.2541   112
 5.2641   102
 5.2741    98
 5.2841   109
 5.2941   119
 5.3041   116
 5.3141    97
 5.3241   109
 5.3341   116
 5.3441   122
 5.3541   129
 5.3641   116
 5.3741   106
 5.3841   138
 5.3941   137
 5.4041   124
 5.4141   150
 5.4241   129
 5.4341   135
 5.4441   150
 5.4541   115
 5.4641   139
 5.4741   112
 5.4841   138
 5.4941   103
 5.5041   123
 5.5141   132
 5.5241   121
 5.5341    99
 5.5441   112
 5.5541   120
 5.5641   132
 5.5741   118
 5.5841   126
 5.5941    89
 5.6041   126
 5.6141   112
 5.6241   118
 5.6341    95
 5.6441   114
 5.6541    97
 5.6641   112
 5.6741   107
 5.6841   100
 5.6941   115
 5.7041   110
 5.7141   130
 5.7241   122
 5.7341   110
 5.7441   145
 5.7541   166
 5.7641   139
 5.7741   142
 5.7841   139
 5.7941   175
 5.8041   188
 5.8141   208
 5.8241   234
 5.8341   243
 5.8441   281
 5.8541   303
 5.8641   279
 5.8741   351
 5.8841   364
 5.8941   314
 5.9041   318
 5.9141   335
 5.9241   309
 5.9341   337
 5.9441   297
 5.9541   235
 5.9641   251
 5.9741   203
 5.9841   209
 5.9941   156
 6.0041   158
 6.0141   185
 6.0241   122
 6.0341   137
 6.0441   146
 6.0541   147
 6.0641   127
 6.0741   132
 6.0841   162
 6.0941   163
 6.1041   157
 6.1141   141
 6.1241   140
 6.1341   160
 6.1441   176
 6.1541   189
 6.1641   187
 6.1741   205
 6.1841   269
 6.1941   304
 6.2041   356
 6.2141   458
 6.2241   616
 6.2341   810
 6.2441  1143
 6.2541  1526
 6.2641  2104
 6.2741  2838
 6.2841  4045
 6.2941  5051
 6.3041  6742
 6.3141  8284
 6.3241 10247
 6.3341 12337
 6.3441 14469
 6.3541 16450
 6.3641 18297
 6.3741 19783
 6.3841 20811
 6.3941 21350
 6.4041 21088
 6.4141 20373
 6.4241 19098
 6.4341 17966
 6.4441 16056
 6.4541 13729
 6.4641 11532
 6.4741  9761
 6.4841  7572
 6.4941  5951
 6.5041  4431
 6.5141  3510
 6.5241  2413
 6.5341  1801
 6.5441  1252
 6.5541   893
 6.5641   637
 6.5741   457
 6.5841   372
 6.5941   265
 6.6041   222
 6.6141   192
 6.6241   186
 6.6341   191
 6.6441   184
 6.6541   161
 6.6641   180
 6.6741   189
 6.6841   164
 6.6941   182
 6.7041   175
 6.7141   193
 6.7241   171
 6.7341   173
 6.7441   181
 6.7541   168
 6.7641   197
 6.7741   220
 6.7841   219
 6.7941   222
 6.8041   208
 6.8141   186
 6.8241   231
 6.8341   246
 6.8441   263
 6.8541   286
 6.8641   301
 6.8741   309
 6.8841   382
 6.8941   430
 6.9041   462
 6.9141   569
 6.9241   702
 6.9341   880
 6.9441  1117
 6.9541  1322
 6.9641  1481
 6.9741  1885
 6.9841  2164
 6.9941  2495
 7.0041  2758
 7.0141  3117
 7.0241  3315
 7.0341  3500
 7.0441  3563
 7.0541  3611
 7.0641  3568
 7.0741  3364
 7.0841  3240
 7.0941  2973
 7.1041  2782
 7.1141  2315
 7.1241  1948
 7.1341  1704
 7.1441  1399
 7.1541  1169
 7.1641   885
 7.1741   762
 7.1841   598
 7.1941   524
 7.2041   467
 7.2141   376
 7.2241   299
 7.2341   265
 7.2441   248
 7.2541   243
 7.2641   245
 7.2741   223
 7.2841   247
 7.2941   230
 7.3041   248
 7.3141   227
 7.3241   255
 7.3341   248
 7.3441   251
 7.3541   281
 7.3641   288
 7.3741   250
 7.3841   289
 7.3941   307
 7.4041   282
 7.4141   280
 7.4241   279
 7.4341   293
 7.4441   282
 7.4541   260
 7.4641   285
 7.4741   277
 7.4841   247
 7.4941   229
 7.5041   219
 7.5141   216
 7.5241   225
 7.5341   220
 7.5441   226
 7.5541   225
 7.5641   213
 7.5741   220
 7.5841   227
 7.5941   230
 7.6041   213
 7.6141   199
 7.6241   218
 7.6341   233
 7.6441   224
 7.6541   202
 7.6641   223
 7.6741   208
 7.6841   251
 7.6941   220
 7.7041   243
 7.7141   238
 7.7241   254
 7.7341   228
 7.7441   244
 7.7541   268
 7.7641   273
 7.7741   276
 7.7841   249
 7.7941   291
 7.8041   306
 7.8141   313
 7.8241   309
 7.8341   310
 7.8441   328
 7.8541   345
 7.8641   359
 7.8741   331
 7.8841   353
 7.8941   335
 7.9041   361
 7.9141   418
 7.9241   449
 7.9341   445
 7.9441   481
 7.9541   457
 7.9641   507
 7.9741   552
 7.9841   599
 7.9941   605
 8.0041   643
 8.0141   698
 8.0241   806
 8.0341   849
 8.0441   898
 8.0541   916
 8.0641  1067
 8.0741  1126
 8.0841  1146
 8.0941  1176
 8.1041  1217
 8.1141  1299
 8.1241  1409
 8.1341  1370
 8.1441  1421
 8.1541  1505
 8.1641  1489
 8.1741  1603
 8.1841  1538
 8.1941  1545
 8.2041  1583
 8.2141  1522
 8.2241  1618
 8.2341  1608
 8.2441  1663
 8.2541  1763
 8.2641  1869
 8.2741  1884
 8.2841  1995
 8.2941  2177
 8.3041  2358
 8.3141  2501
 8.3241  2673
 8.3341  2813
 8.3441  3063
 8.3541  3128
 8.3641  3316
 8.3741  3512
 8.3841  3432
 8.3941  3453
 8.4041  3455
 8.4141  3151
 8.4241  2989
 8.4341  2893
 8.4441  2643
 8.4541  2383
 8.4641  2081
 8.4741  1827
 8.4841  1546
 8.4941  1383
 8.5041  1141
 8.5141   990
 8.5241   813
 8.5341   738
 8.5441   645
 8.5541   603
 8.5641   602
 8.5741   517
 8.5841   477
 8.5941   476
 8.6041   499
 8.6141   468
 8.6241   455
 8.6341   471
 8.6441   460
 8.6541   441
 8.6641   459
 8.6741   430
 8.6841   418
 8.6941   416
 8.7041   425
 8.7141   388
 8.7241   403
 8.7341   425
 8.7441   367
 8.7541   410
 8.7641   392
 8.7741   349
 8.7841   322
 8.7941   346
 8.8041   352
 8.8141   335
 8.8241   360
 8.8341   346
 8.8441   327
 8.8541   339
 8.8641   359
 8.8741   348
 8.8841   353
 8.8941   352
 8.9041   365
 8.9141   369
 8.9241   389
 8.9341   357
 8.9441   354
 8.9541   370
 8.9641   369
 8.9741   391
 8.9841   405
 8.9941   436
 9.0041   418
 9.0141   415
 9.0241   461
 9.0341   476
 9.0441   467
 9.0541   505
 9.0641   493
 9.0741   486
 9.0841   495
 9.0941   516
 9.1041   554
 9.1141   561
 9.1241   635
 9.1341   627
 9.1441   668
 9.1541   702
 9.1641   681
 9.1741   719
 9.1841   772
 9.1941   773
 9.2041   829
 9.2141   840
 9.2241   910
 9.2341   979
 9.2441   971
 9.2541  1072
 9.2641  1087
 9.2741  1124
 9.2841  1165
 9.2941  1231
 9.3041  1270
 9.3141  1345
 9.3241  1342
 9.3341  1378
 9.3441  1407
 9.3541  1479
 9.3641  1513
 9.3741  1515
 9.3841  1553
 9.3941  1598
 9.4041  1680
 9.4141  1608
 9.4241  1660
 9.4341  1638
 9.4441  1653
 9.4541  1600
 9.4641  1725
 9.4741  1768
 9.4841  1729
 9.4941  1786
 9.5041  1900
 9.5141  1903
 9.5241  1997
 9.5341  2071
 9.5441  2118
 9.5541  2127
 9.5641  2329
 9.5741  2496
 9.5841  2599
 9.5941  2754
 9.6041  2948
 9.6141  3047
 9.6241  3207
 9.6341  3297
 9.6441  3462
 9.6541  3431
 9.6641  3488
 9.6741  3310
 9.6841  3373
 9.6941  3318
 9.7041  3141
 9.7141  2949
 9.7241  2851
 9.7341  2641
 9.7441  2454
 9.7541  2218
 9.7641  2103
 9.7741  1923
 9.7841  1798
 9.7941  1709
 9.8041  1538
 9.8141  1407
 9.8241  1391
 9.8341  1372
 9.8441  1346
 9.8541  1318
 9.8641  1384
 9.8741  1389
 9.8841  1392
 9.8941  1473
 9.9041  1469
 9.9141  1476
 9.9241  1519
 9.9341  1555
 9.9441  1486
 9.9541  1495
 9.9641  1444
 9.9741  1430
 9.9841  1363
 9.9941  1290
10.0041  1241
10.0141  1102
10.0241  1075
10.0341   992
10.0441   863
10.0541   801
10.0641   751
10.0741   663
10.0841   553
10.0941   533
10.1041   512
10.1141   454
10.1241   392
10.1341   389
10.1441   350
10.1541   348
10.1641   356
10.1741   311
10.1841   292
10.1941   292
10.2041   279
10.2141   278
10.2241   269
10.2341   269
10.2441   243
10.2541   251
10.2641   228
10.2741   239
10.2841   213
10.2941   215
10.3041   211
10.3141   218
10.3241   211
10.3341   206
10.3441   199
10.3541   211
10.3641   202
10.3741   209
10.3841   201
10.3941   190
10.4041   217
10.4141   202
10.4241   205
10.4341   193
10.4441   196
10.4541   183
10.4641   235
10.4741   227
10.4841   225
10.4941   221
10.5041   222
10.5141   207
10.5241   212
10.5341   218
10.5441   224
10.5541   236
10.5641   252
10.5741   228
10.5841   227
10.5941   231
10.6041   206
10.6141   218
10.6241   230
10.6341   239
10.6441   239
10.6541   243
10.6641   222
10.6741   234
10.6841   238
10.6941   240
10.7041   250
10.7141   264
10.7241   252
10.7341   265
10.7441   271
10.7541   286
10.7641   302
10.7741   288
10.7841   292
10.7941   314
10.8041   327
10.8141   334
10.8241   295
10.8341   340
10.8441   357
10.8541   327
10.8641   319
10.8741   331
10.8841   344
10.8941   346
10.9041   329
10.9141   322
10.9241   359
10.9341   346
10.9441   340
10.9541   352
10.9641   374
10.9741   360
10.9841   331
10.9941   318
11.0041   330
11.0141   342
11.0241   342
11.0341   342
11.0441   338
11.0541   314
11.0641   330
11.0741   339
11.0841   329
11.0941   309
11.1041   323
11.1141   334
11.1241   318
11.1341   301
11.1441   317
11.1541   352
11.1641   340
11.1741   366
11.1841   370
11.1941   383
11.2041   398
11.2141   408
11.2241   420
11.2341   453
11.2441   467
11.2541   491
11.2641   492
11.2741   476
11.2841   488
11.2941   494
11.3041   479
11.3141   473
11.3241   468
11.3341   446
11.3441   411
11.3541   422
11.3641   396
11.3741   374
11.3841   366
11.3941   343
11.4041   329
11.4141   309
11.4241   284
11.4341   268
11.4441   253
11.4541   265
11.4641   253
11.4741   249
11.4841   243
11.4941   254
11.5041   259
11.5141   266
11.5241   239
11.5341   254
11.5441   263
11.5541   253
11.5641   235
11.5741   264
11.5841   260
11.5941   255
11.6041   251
11.6141   282
11.6241   282
11.6341   251
11.6441   271
11.6541   264
11.6641   238
11.6741   240
11.6841   254
11.6941   234
11.7041   245
11.7141   253
11.7241   223
11.7341   217
11.7441   214
11.7541   212
11.7641   214
11.7741   197
11.7841   190
11.7941   195
11.8041   185
11.8141   190
11.8241   198
11.8341   191
11.8441   186
11.8541   179
11.8641   172
11.8741   185
11.8841   189
11.8941   186
11.9041   164
11.9141   179
11.9241   175
11.9341   182
11.9441   205
11.9541   186
11.9641   180
11.9741   187
11.9841   180
11.9941   188
12.0041   197
12.0141   204
12.0241   197
12.0341   189
12.0441   194
12.0541   211
12.0641   213
12.0741   198
12.0841   170
12.0941   178
12.1041   204
12.1141   208
12.1241   204
12.1341   181
12.1441   167
12.1541   161
12.1641   165
12.1741   185
12.1841   181
12.1941   160
12.2041   181
12.2141   179
12.2241   188
12.2341   179
12.2441   179
12.2541   167
12.2641   169
12.2741   193
12.2841   184
12.2941   184
12.3041   191
12.3141   179
12.3241   174
12.3341   180
12.3441   176
12.3541   168
12.3641   168
12.3741   192
12.3841   186
12.3941   192
12.4041   202
12.4141   179
12.4241   183
12.4341   186
12.4441   180
12.4541   185
12.4641   197
12.4741   189
12.4841   179
12.4941   178
12.5041   180
12.5141   202
12.5241   200
12.5341   179
12.5441   196
12.5541   209
12.5641   188
12.5741   173
12.5841   179
12.5941   186
12.6041   209
12.6141   199
12.6241   197
12.6341   208
12.6441   208
12.6541   207
12.6641   208
12.6741   203
12.6841   195
12.6941   203
12.7041   222
12.7141   200
12.7241   197
12.7341   207
12.7441   205
12.7541   199
12.7641   197
12.7741   200
12.7841   203
12.7941   206
12.8041   205
12.8141   200
12.8241   198
12.8341   203
12.8441   204
12.8541   198
12.8641   197
12.8741   202
12.8841   205
12.8941   203
12.9041   202
12.9141   205
12.9241   214
12.9341   220
12.9441   216
12.9541   207
12.9641   205
12.9741   212
12.9841   218
12.9941   217
13.0041   218
13.0141   219
13.0241   201
13.0341   212
13.0441   211
13.0541   216
13.0641   218
13.0741   211
13.0841   217
13.0941   224
13.1041   224
13.1141   219
13.1241   208
13.1341   227
13.1441   233
13.1541   210
13.1641   215
13.1741   237
13.1841   243
13.1941   238
13.2041   231
13.2141   226
13.2241   247
13.2341   247
13.2441   270
13.2541   269
13.2641   261
13.2741   277
13.2841   301
13.2941   319
13.3041   323
13.3141   326
13.3241   329
13.3341   321
13.3441   343
13.3541   360
13.3641   358
13.3741   360
13.3841   341
13.3941   351
13.4041   356
13.4141   337
13.4241   341
13.4341   342
13.4441   324
13.4541   316
13.4641   329
13.4741   308
13.4841   294
13.4941   311
13.5041   279
13.5141   257
13.5241   257
13.5341   264
13.5441   258
13.5541   269
13.5641   269
13.5741   263
13.5841   282
13.5941   262
13.6041   241
13.6141   241
13.6241   250
13.6341   245
13.6441   251
13.6541   264
13.6641   270
13.6741   263
13.6841   260
13.6941   253
13.7041   246
13.7141   274
13.7241   290
13.7341   271
13.7441   254
13.7541   259
13.7641   256
13.7741   261
13.7841   275
13.7941   270
13.8041   277
13.8141   281
13.8241   294
13.8341   295
13.8441   275
13.8541   274
13.8641   286
13.8741   299
13.8841   301
13.8941   309
13.9041   336
13.9141   342
13.9241   332
13.9341   352
13.9441   380
13.9541   403
13.9641   444
13.9741   497
13.9841   553
13.9941   604
14.0041   613
14.0141   676
14.0241   760
14.0341   797
14.0441   882
14.0541   984
14.0641  1037
14.0741  1106
14.0841  1219
14.0941  1274
14.1041  1296
14.1141  1312
14.1241  1318
14.1341  1370
14.1441  1379
14.1541  1358
14.1641  1355
14.1741  1312
14.1841  1242
14.1941  1189
14.2041  1143
14.2141  1065
14.2241  1003
14.2341   955
14.2441   908
14.2541   828
14.2641   729
14.2741   656
14.2841   592
14.2941   549
14.3041   503
14.3141   485
14.3241   456
14.3341   390
14.3441   391
14.3541   370
14.3641   348
14.3741   339
14.3841   319
14.3941   326
14.4041   313
14.4141   307
14.4241   315
14.4341   307
14.4441   315
14.4541   318
14.4641   307
14.4741   307
14.4841   312
14.4941   299
14.5041   283
14.5141   292
14.5241   318
14.5341   314
14.5441   292
14.5541   277
14.5641   290
14.5741   315
14.5841   315
14.5941   306
14.6041   306
14.6141   306
14.6241   304
14.6341   300
14.6441   294
14.6541   318
14.6641   319
14.6741   314
14.6841   332
14.6941   324
14.7041   323
14.7141   325
14.7241   340
14.7341   336
14.7441   310
14.7541   313
14.7641   333
14.7741   333
14.7841   313
14.7941   320
14.8041   336
14.8141   328
14.8241   328
14.8341   361
14.8441   355
14.8541   337
14.8641   360
14.8741   362
14.8841   360
14.8941   366
14.9041   363
14.9141   363
14.9241   360
14.9341   366
14.9441   372
14.9541   364
14.9641   370
14.9741   381
14.9841   381
14.9941   379
15.0041   365
15.0141   359
15.0241   375
15.0341   348
15.0441   341
15.0541   350
15.0641   346
15.0741   333
15.0841   338
15.0941   356
15.1041   369
15.1141   358
15.1241   336
15.1341   342
15.1441   335
15.1541   339
15.1641   329
15.1741   339
15.1841   358
15.1941   354
15.2041   350
15.2141   358
15.2241   348
15.2341   338
15.2441   346
15.2541   358
15.2641   346
15.2741   334
15.2841   364
15.2941   349
15.3041   332
15.3141   344
15.3241   344
15.3341   356
15.3441   376
15.3541   362
15.3641   352
15.3741   365
15.3841   351
15.3941   326
15.4041   330
15.4141   337
15.4241   345
15.4341   364
15.4441   361
15.4541   342
15.4641   346
15.4741   380
15.4841   385
15.4941   400
15.5041   384
15.5141   353
15.5241   375
15.5341   401
15.5441   396
15.5541   421
15.5641   420
15.5741   422
15.5841   427
15.5941   453
15.6041   473
15.6141   484
15.6241   491
15.6341   527
15.6441   543
15.6541   560
15.6641   585
15.6741   621
15.6841   647
15.6941   633
15.7041   654
15.7141   685
15.7241   697
15.7341   744
15.7441   737
15.7541   720
15.7641   764
15.7741   757
15.7841   730
15.7941   769
15.8041   794
15.8141   772
15.8241   779
15.8341   779
15.8441   715
15.8541   706
15.8641   706
15.8741   704
15.8841   650
15.8941   617
15.9041   621
15.9141   585
15.9241   529
15.9341   491
15.9441   509
15.9541   512
15.9641   501
15.9741   498
15.9841   474
15.9941   466
16.0041   447
16.0141   438
16.0241   442
16.0341   452
16.0441   441
16.0541   425
16.0641   436
16.0741   424
16.0841   429
16.0941   462
16.1041   445
16.1141   406
16.1241   410
16.1341   444
16.1441   435
16.1541   420
16.1641   410
16.1741   421
16.1841   440
16.1941   448
16.2041   422
16.2141   391
16.2241   415
16.2341   412
16.2441   415
16.2541   402
16.2641   417
16.2741   419
16.2841   434
16.2941   428
16.3041   412
16.3141   413
16.3241   413
16.3341   443
16.3441   438
16.3541   417
16.3641   422
16.3741   425
16.3841   411
16.3941   432
16.4041   433
16.4141   451
16.4241   427
16.4341   420
16.4441   435
16.4541   435
16.4641   444
16.4741   465
16.4841   448
16.4941   431
16.5041   460
16.5141   447
16.5241   453
16.5341   460
16.5441   467
16.5541   451
16.5641   448
16.5741   454
16.5841   452
16.5941   444
16.6041   454
16.6141   463
16.6241   433
16.6341   428
16.6441   451
16.6541   444
16.6641   469
16.6741   477
16.6841   464
16.6941   461
16.7041   453
16.7141   504
16.7241   488
16.7341   479
16.7441   476
16.7541   437
16.7641   450
16.7741   463
16.7841   476
16.7941   471
16.8041   446
16.8141   427
16.8241   450
16.8341   441
16.8441   450
16.8541   438
16.8641   433
16.8741   454
16.8841   473
16.8941   445
16.9041   441
16.9141   460
16.9241   475
16.9341   492
16.9441   490
16.9541   471
16.9641   488
16.9741   486
16.9841   452
16.9941   463
17.0041   486
17.0141   479
17.0241   474
17.0341   466
17.0441   452
17.0541   502
17.0641   484
17.0741   449
17.0841   470
17.0941   480
17.1041   450
17.1141   450
17.1241   483
17.1341   487
17.1441   479
17.1541   501
17.1641   477
17.1741   478
17.1841   486
17.1941   458
17.2041   496
17.2141   490
17.2241   493
17.2341   484
17.2441   495
17.2541   501
17.2641   493
17.2741   459
17.2841   472
17.2941   506
17.3041   494
17.3141   499
17.3241   512
17.3341   500
17.3441   483
17.3541   482
17.3641   494
17.3741   471
17.3841   451
17.3941   495
17.4041   516
17.4141   482
17.4241   513
17.4341   505
17.4441   484
17.4541   503
17.4641   525
17.4741   524
17.4841   538
17.4941   535
17.5041   496
17.5141   528
17.5241   513
17.5341   540
17.5441   521
17.5541   547
17.5641   533
17.5741   570
17.5841   547
17.5941   539
17.6041   547
17.6141   542
17.6241   564
17.6341   529
17.6441   563
17.6541   561
17.6641   581
17.6741   575
17.6841   568
17.6941   565
17.7041   562
17.7141   584
17.7241   568
17.7341   554
17.7441   537
17.7541   557
17.7641   538
17.7741   555
17.7841   555
17.7941   533
17.8041   548
17.8141   543
17.8241   521
17.8341   537
17.8441   544
17.8541   543
17.8641   532
17.8741   532
17.8841   550
17.8941   547
17.9041   526
17.9141   497
17.9241   525
17.9341   517
17.9441   500
17.9541   543
17.9641   526
17.9741   570
17.9841   537
17.9941   541
18.0041   552
18.0141   599
18.0241   593
18.0341   559
18.0441   548
18.0541   547
18.0641   572
18.0741   562
18.0841   529
18.0941   541
18.1041   544
18.1141   546
18.1241   549
18.1341   579
18.1441   565
18.1541   552
18.1641   560
18.1741   551
18.1841   549
18.1941   540
18.2041   568
18.2141   541
18.2241   567
18.2341   547
18.2441   555
18.2541   574
18.2641   559
18.2741   549
18.2841   554
18.2941   551
18.3041   571
18.3141   560
18.3241   581
18.3341   585
18.3441   572
18.3541   566
18.3641   583
18.3741   582
18.3841   572
18.3941   551
18.4041   559
18.4141   584
18.4241   585
18.4341   593
18.4441   580
18.4541   559
18.4641   580
18.4741   587
18.4841   574
18.4941   593
18.5041   570
18.5141   579
18.5241   577
18.5341   563
18.5441   545
18.5541   554
18.5641   522
18.5741   565
18.5841   586
18.5941   555
18.6041   571
18.6141   600
18.6241   539
18.6341   586
18.6441   593
18.6541   583
18.6641   561
18.6741   588
18.6841   575
18.6941   585
18.7041   580
18.7141   588
18.7241   533
18.7341   573
18.7441   570
18.7541   583
18.7641   583
18.7741   589
18.7841   594
18.7941   594
18.8041   613
18.8141   599
18.8241   589
18.8341   562
18.8441   578
18.8541   558
18.8641   612
18.8741   602
18.8841   577
18.8941   587
18.9041   636
18.9141   602
18.9241   582
18.9341   586
18.9441   564
18.9541   572
18.9641   620
18.9741   616
18.9841   558
18.9941   590
19.0041   604
19.0141   618
19.0241   561
19.0341   602
19.0441   599
19.0541   600
19.0641   623
19.0741   616
19.0841   634
19.0941   630
19.1041   597
19.1141   608
19.1241   594
19.1341   601
19.1441   606
19.1541   561
19.1641   597
19.1741   590
19.1841   615
19.1941   623
19.2041   597
19.2141   598
19.2241   599
19.2341   599
19.2441   641
19.2541   654
19.2641   633
19.2741   608
19.2841   601
19.2941   618
19.3041   605
19.3141   598
19.3241   616
19.3341   587
19.3441   581
19.3541   605
19.3641   585
19.3741   607
19.3841   608
19.3941   584
19.4041   607
19.4141   598
19.4241   603
19.4341   611
19.4441   619
19.4541   639
19.4641   632
19.4741   610
19.4841   625
19.4941   590
19.5041   606
19.5141   600
19.5241   632
19.5341   600
19.5441   595
19.5541   627
19.5641   601
19.5741   605
19.5841   624
19.5941   608
19.6041   585
19.6141   596
19.6241   634
19.6341   616
19.6441   609
19.6541   623
19.6641   617
19.6741   620
19.6841   625
19.6941   597
19.7041   597
19.7141   635
19.7241   636
19.7341   618
19.7441   658
19.7541   688
19.7641   675
19.7741   656
19.7841   655
19.7941   658
19.8041   642
19.8141   615
19.8241   623
19.8341   568
19.8441   603
19.8541   633
19.8641   650
19.8741   587
19.8841   593
19.8941   633
19.9041   629
19.9141   626
19.9241   609
19.9341   638
19.9441   656
19.9541   653
19.9641   641
19.9741   634
19.9841   626
19.9941   613
20.0041   621
20.0141   629
20.0241   618
20.0341   622
20.0441   645
20.0541   620
20.0641   658
20.0741   624
20.0841   644
20.0941   650
20.1041   637
20.1141   606
20.1241   632
20.1341   680
20.1441   612
20.1541   608
20.1641   611
20.1741   627
20.1841   629
20.1941   652
20.2041   679
20.2141   666
20.2241   647
20.2341   635
20.2441   650
20.2541   637
20.2641   642
20.2741   648
20.2841   613
20.2941   632
20.3041   664
20.3141   636
20.3241   656
20.3341   623
20.3441   639
20.3541   579
20.3641   649
20.3741   647
20.3841   656
20.3941   614
20.4041   633
20.4141   623
20.4241   664
20.4341   683
20.4441   652
20.4541   661
20.4641   669
20.4741   630
20.4841   655
20.4941   607
20.5041   634
20.5141   651
20.5241   693
20.5341   668
20.5441   653
20.5541   679
20.5641   635
20.5741   670
20.5841   683
20.5941   663
20.6041   635
20.6141   652
20.6241   633
20.6341   664
20.6441   665
20.6541   628
20.6641   690
20.6741   641
20.6841   668
20.6941   669
20.7041   652
20.7141   623
20.7241   654
20.7341   705
20.7441   629
20.7541   651
20.7641   682
20.7741   658
20.7841   690
20.7941   692
20.8041   700
20.8141   685
20.8241   716
20.8341   664
20.8441   716
20.8541   662
20.8641   662
20.8741   696
20.8841   710
20.8941   740
20.9041   745
20.9141   779
20.9241   750
20.9341   803
20.9441   800
20.9541   778
20.9641   844
20.9741   822
20.9841   863
20.9941   815
21.0041   914
21.0141   856
21.0241   875
21.0341   871
21.0441   892
21.0541   912
21.0641   873
21.0741   943
21.0841   950
21.0941   896
21.1041   943
21.1141  1003
21.1241   979
21.1341   973
21.1441   987
21.1541   979
21.1641   942
21.1741   987
21.1841   961
21.1941   897
21.2041   966
21.2141   927
21.2241   950
21.2341   876
21.2441   853
21.2541   825
21.2641   843
21.2741   826
21.2841   811
21.2941   813
21.3041   777
21.3141   755
21.3241   745
21.3341   738
21.3441   710
21.3541   663
21.3641   709
21.3741   679
21.3841   707
21.3941   677
21.4041   709
21.4141   642
21.4241   687
21.4341   685
21.4441   654
21.4541   674
21.4641   648
21.4741   687
21.4841   722
21.4941   645
21.5041   661
21.5141   656
21.5241   681
21.5341   650
21.5441   650
21.5541   649
21.5641   647
21.5741   641
21.5841   663
21.5941   638
21.6041   661
21.6141   704
21.6241   653
21.6341   606
21.6441   651
21.6541   683
21.6641   624
21.6741   649
21.6841   638
21.6941   650
21.7041   627
21.7141   654
21.7241   667
21.7341   654
21.7441   656
21.7541   677
21.7641   615
21.7741   626
21.7841   624
21.7941   608
21.8041   640
21.8141   629
21.8241   668
21.8341   631
21.8441   652
21.8541   692
21.8641   675
21.8741   651
21.8841   668
21.8941   667
21.9041   611
21.9141   634
21.9241   653
21.9341   683
21.9441   681
21.9541   590
21.9641   678
21.9741   658
21.9841   639
21.9941   675
22.0041   673
22.0141   623
22.0241   633
22.0341   659
22.0441   674
22.0541   684
22.0641   724
22.0741   635
22.0841   598
22.0941   660
22.1041   671
22.1141   681
22.1241   624
22.1341   647
22.1441   651
22.1541   654
22.1641   658
22.1741   648
22.1841   628
22.1941   641
22.2041   651
22.2141   647
22.2241   633
22.2341   600
22.2441   647
22.2541   610
22.2641   691
22.2741   631
22.2841   633
22.2941   671
22.3041   658
22.3141   680
22.3241   633
22.3341   648
22.3441   693
22.3541   696
22.3641   640
22.3741   662
22.3841   648
22.3941   644
22.4041   682
22.4141   679
22.4241   645
22.4341   624
22.4441   635
22.4541   672
22.4641   653
22.4741   637
22.4841   703
22.4941   649
22.5041   613
22.5141   610
22.5241   627
22.5341   665
22.5441   630
22.5541   655
22.5641   667
22.5741   618
22.5841   616
22.5941   641
22.6041   630
22.6141   623
22.6241   625
22.6341   618
22.6441   650
22.6541   669
22.6641   637
22.6741   636
22.6841   640
22.6941   669
22.7041   672
22.7141   641
22.7241   673
22.7341   624
22.7441   596
22.7541   648
22.7641   615
22.7741   674
22.7841   634
22.7941   638
22.8041   658
22.8141   659
22.8241   687
22.8341   614
22.8441   609
22.8541   624
22.8641   652
22.8741   612
22.8841   642
22.8941   662
22.9041   625
22.9141   603
22.9241   608
22.9341   646
22.9441   638
22.9541   680
22.9641   638
22.9741   613
22.9841   587
22.9941   643
23.0041   647
23.0141   609
23.0241   630
23.0341   651
23.0441   653
23.0541   656
23.0641   663
23.0741   629
23.0841   651
23.0941   587
23.1041   633
23.1141   610
23.1241   626
23.1341   592
23.1441   670
23.1541   613
23.1641   690
23.1741   643
23.1841   659
23.1941   606
23.2041   635
23.2141   631
23.2241   614
23.2341   680
23.2441   637
23.2541   685
23.2641   605
23.2741   634
23.2841   674
23.2941   621
23.3041   629
23.3141   610
23.3241   621
23.3341   649
23.3441   667
23.3541   638
23.3641   643
23.3741   663
23.3841   642
23.3941   658
23.4041   597
23.4141   655
23.4241   626
23.4341   629
23.4441   611
23.4541   585
23.4641   630
23.4741   680
23.4841   616
23.4941   631
23.5041   620
23.5141   639
23.5241   644
23.5341   609
23.5441   603
23.5541   685
23.5641   643
23.5741   599
23.5841   645
23.5941   644
23.6041   622
23.6141   670
23.6241   632
23.6341   658
23.6441   644
23.6541   691
23.6641   642
23.6741   614
23.6841   656
23.6941   641
23.7041   667
23.7141   661
23.7241   664
23.7341   628
23.7441   666
23.7541   690
23.7641   646
23.7741   678
23.7841   675
23.7941   669
23.8041   690
23.8141   655
23.8241   661
23.8341   661
23.8441   682
23.8541   665
23.8641   680
23.8741   629
23.8841   675
23.8941   676
23.9041   614
23.9141   655
23.9241   618
23.9341   619
23.9441   640
23.9541   612
23.9641   596
23.9741   639
23.9841   612
23.9941   613
24.0041   668
24.0141   639
24.0241   585
24.0341   596
24.0441   611
24.0541   575
24.0641   598
24.0741   585
24.0841   597
24.0941   652
24.1041   599
24.1141   568
24.1241   634
24.1341   577
24.1441   622
24.1541   604
24.1641   596
24.1741   595
24.1841   557
24.1941   611
24.2041   645
24.2141   629
24.2241   546
24.2341   620
24.2441   601
24.2541   610
24.2641   569
24.2741   616
24.2841   578
24.2941   609
24.3041   605
24.3141   590
24.3241   599
24.3341   585
24.3441   577
24.3541   617
24.3641   587
24.3741   629
24.3841   595
24.3941   593
24.4041   593
24.4141   622
24.4241   608
24.4341   625
24.4441   570
24.4541   609
24.4641   567
24.4741   610
24.4841   606
24.4941   590
24.5041   629
24.5141   618
24.5241   638
24.5341   586
24.5441   577
24.5541   588
24.5641   625
24.5741   607
24.5841   592
24.5941   593
24.6041   533
24.6141   577
24.6241   569
24.6341   589
24.6441   556
24.6541   604
24.6641   584
24.6741   583
24.6841   585
24.6941   634
24.7041   564
24.7141   556
24.7241   587
24.7341   570
24.7441   582
24.7541   588
24.7641   585
24.7741   589
24.7841   553
24.7941   588
24.8041   607
24.8141   560
24.8241   541
24.8341   591
24.8441   579
24.8541   560
24.8641   574
24.8741   537
24.8841   535
24.8941   566
24.9041   570
24.9141   611
24.9241   564
24.9341   594
24.9441   600
24.9541   552
24.9641   575
24.9741   566
24.9841   583
24.9941   583
25.0041   579
25.0141   558
25.0241   560
25.0341   617
25.0441   581
25.0541   542
25.0641   556
25.0741   588
25.0841   560
25.0941   592
25.1041   561
25.1141   553
25.1241   582
25.1341   544
25.1441   583
25.1541   596
25.1641   572
25.1741   549
25.1841   617
25.1941   563
25.2041   574
25.2141   592
25.2241   570
25.2341   606
25.2441   590
25.2541   596
25.2641   573
25.2741   574
25.2841   582
25.2941   581
25.3041   547
25.3141   555
25.3241   541
25.3341   533
25.3441   585
25.3541   587
25.3641   581
25.3741   564
25.3841   558
25.3941   535
25.4041   561
25.4141   565
25.4241   546
25.4341   533
25.4441   509
25.4541   533
25.4641   531
25.4741   517
25.4841   588
25.4941   554
25.5041   541
25.5141   553
25.5241   578
25.5341   565
25.5441   529
25.5541   563
25.5641   562
25.5741   544
25.5841   499
25.5941   555
25.6041   528
25.6141   542
25.6241   523
25.6341   527
25.6441   531
25.6541   548
25.6641   542
25.6741   492
25.6841   517
25.6941   549
25.7041   562
25.7141   560
25.7241   503
25.7341   538
25.7441   550
25.7541   527
25.7641   539
25.7741   512
25.7841   552
25.7941   541
25.8041   499
25.8141   516
25.8241   512
25.8341   527
25.8441   507
25.8541   511
25.8641   508
25.8741   543
25.8841   517
25.8941   502
25.9041   593
25.9141   502
25.9241   531
25.9341   514
25.9441   531
25.9541   498
25.9641   542
25.9741   546
25.9841   513
25.9941   530
26.0041   506
26.0141   523
26.0241   475
26.0341   525
26.0441   491
26.0541   506
26.0641   508
26.0741   514
26.0841   507
26.0941   484
26.1041   498
26.1141   543
26.1241   512
26.1341   478
26.1441   497
26.1541   533
26.1641   514
26.1741   507
26.1841   505
26.1941   513
26.2041   524
26.2141   526
26.2241   513
26.2341   513
26.2441   508
26.2541   497
26.2641   512
26.2741   502
26.2841   504
26.2941   500
26.3041   496
26.3141   521
26.3241   491
26.3341   499
26.3441   501
26.3541   497
26.3641   439
26.3741   468
26.3841   498
26.3941   494
26.4041   486
26.4141   491
26.4241   507
26.4341   512
26.4441   484
26.4541   525
26.4641   513
26.4741   452
26.4841   499
26.4941   466
26.5041   458
26.5141   469
26.5241   462
26.5341   465
26.5441   459
26.5541   497
26.5641   487
26.5741   521
26.5841   510
26.5941   530
26.6041   528
26.6141   475
26.6241   523
26.6341   492
26.6441   514
26.6541   508
26.6641   481
26.6741   498
26.6841   477
26.6941   445
26.7041   472
26.7141   482
26.7241   497
26.7341   465
26.7441   491
26.7541   467
26.7641   494
26.7741   451
26.7841   462
26.7941   509
26.8041   468
26.8141   474
26.8241   469
26.8341   481
26.8441   472
26.8541   429
26.8641   505
26.8741   444
26.8841   464
26.8941   475
26.9041   526
26.9141   488
26.9241   490
26.9341   477
26.9441   468
26.9541   471
26.9641   434
26.9741   439
26.9841   465
26.9941   450
27.0041   475
27.0141   474
27.0241   464
27.0341   464
27.0441   434
27.0541   443
27.0641   443
27.0741   470
27.0841   448
27.0941   460
27.1041   437
27.1141   475
27.1241   463
27.1341   426
27.1441   445
27.1541   477
27.1641   474
27.1741   458
27.1841   498
27.1941   495
27.2041   474
27.2141   450
27.2241   489
27.2341   489
27.2441   466
27.2541   462
27.2641   478
27.2741   467
27.2841   444
27.2941   467
27.3041   456
27.3141   458
27.3241   464
27.3341   450
27.3441   493
27.3541   460
27.3641   462
27.3741   435
27.3841   456
27.3941   416
27.4041   456
27.4141   481
27.4241   460
27.4341   417
27.4441   427
27.4541   452
27.4641   427
27.4741   418
27.4841   470
27.4941   452
27.5041   467
27.5141   451
27.5241   458
27.5341   465
27.5441   428
27.5541   451
27.5641   466
27.5741   404
27.5841   463
27.5941   439
27.6041   433
27.6141   422
27.6241   424
27.6341   441
27.6441   419
27.6541   458
27.6641   435
27.6741   456
27.6841   420
27.6941   433
27.7041   442
27.7141   434
27.7241   414
27.7341   397
27.7441   417
27.7541   395
27.7641   437
27.7741   413
27.7841   422
27.7941   389
27.8041   436
27.8141   412
27.8241   444
27.8341   440
27.8441   421
27.8541   416
27.8641   412
27.8741   381
27.8841   434
27.8941   426
27.9041   430
27.9141   441
27.9241   449
27.9341   397
27.9441   427
27.9541   424
27.9641   393
27.9741   427
27.9841   432
27.9941   418
28.0041   385
28.0141   377
28.0241   396
28.0341   426
28.0441   464
28.0541   395
28.0641   420
28.0741   419
28.0841   428
28.0941   421
28.1041   408
28.1141   381
28.1241   407
28.1341   431
28.1441   403
28.1541   407
28.1641   389
28.1741   373
28.1841   383
28.1941   390
28.2041   415
28.2141   393
28.2241   409
28.2341   405
28.2441   403
28.2541   407
28.2641   390
28.2741   416
28.2841   381
28.2941   370
28.3041   381
28.3141   415
28.3241   387
28.3341   411
28.3441   455
28.3541   389
28.3641   403
28.3741   396
28.3841   368
28.3941   368
28.4041   385
28.4141   432
28.4241   406
28.4341   398
28.4441   406
28.4541   423
28.4641   392
28.4741   392
28.4841   410
28.4941   437
28.5041   392
28.5141   419
28.5241   409
28.5341   351
28.5441   405
28.5541   415
28.5641   375
28.5741   379
28.5841   386
28.5941   377
28.6041   398
28.6141   396
28.6241   343
28.6341   373
28.6441   348
28.6541   379
28.6641   356
28.6741   405
28.6841   373
28.6941   366
28.7041   381
28.7141   364
28.7241   347
28.7341   364
28.7441   381
28.7541   375
28.7641   368
28.7741   374
28.7841   380
28.7941   411
28.8041   367
28.8141   373
28.8241   397
28.8341   404
28.8441   360
28.8541   366
28.8641   383
28.8741   355
28.8841   369
28.8941   416
28.9041   360
28.9141   397
28.9241   368
28.9341   383
28.9441   375
28.9541   384
28.9641   415
28.9741   362
28.9841   340
28.9941   384
29.0041   353
29.0141   376
29.0241   340
29.0341   383
29.0441   335
29.0541   327
29.0641   387
29.0741   364
29.0841   382
29.0941   378
29.1041   363
29.1141   364
29.1241   391
29.1341   366
29.1441   366
29.1541   364
29.1641   335
29.1741   386
29.1841   357
29.1941   375
29.2041   369
29.2141   340
29.2241   329
29.2341   386
29.2441   361
29.2541   339
29.2641   332
29.2741   350
29.2841   361
29.2941   348
29.3041   348
29.3141   360
29.3241   395
29.3341   377
29.3441   390
29.3541   322
29.3641   337
29.3741   333
29.3841   330
29.3941   349
29.4041   339
29.4141   334
29.4241   379
29.4341   328
29.4441   344
29.4541   353
29.4641   328
29.4741   358
29.4841   355
29.4941   360
29.5041   341
29.5141   331
29.5241   334
29.5341   341
29.5441   334
29.5541   362
29.5641   339
29.5741   357
29.5841   321
29.5941   320
29.6041   310
29.6141   332
29.6241   348
29.6341   322
29.6441   346
29.6541   345
29.6641   314
29.6741   347
29.6841   349
29.6941   320
29.7041   327
29.7141   338
29.7241   346
29.7341   343
29.7441   339
29.7541   334
29.7641   342
29.7741   334
29.7841   349
29.7941   314
29.8041   319
29.8141   300
29.8241   322
29.8341   330
29.8441   303
29.8541   335
29.8641   304
29.8741   352
29.8841   339
29.8941   350
29.9041   331
29.9141   344
29.9241   331
29.9341   338
29.9441   331
29.9541   306
29.9641   333
29.9741   344
29.9841   314
29.9941   335
30.0041   293
30.0141   341
30.0241   337
30.0341   312
30.0441   305
30.0541   312
30.0641   314
30.0741   334
30.0841   289
30.0941   302
30.1041   313
30.1141   327
30.1241   315
30.1341   325
30.1441   313
30.1541   293
30.1641   310
30.1741   304
30.1841   303
30.1941   290
30.2041   335
30.2141   295
30.2241   303
30.2341   320
30.2441   287
30.2541   300
30.2641   292
30.2741   303
30.2841   323
30.2941   274
30.3041   287
30.3141   298
30.3241   286
30.3341   316
30.3441   306
30.3541   307
30.3641   302
30.3741   315
30.3841   288
30.3941   308
30.4041   314
30.4141   276
30.4241   296
30.4341   326
30.4441   310
30.4541   304
30.4641   268
30.4741   286
30.4841   282
30.4941   301
30.5041   307
30.5141   299
30.5241   253
30.5341   295
30.5441   306
30.5541   319
30.5641   313
30.5741   277
30.5841   305
30.5941   287
30.6041   298
30.6141   308
30.6241   266
30.6341   278
30.6441   274
30.6541   303
30.6641   284
30.6741   304
30.6841   287
30.6941   314
30.7041   277
30.7141   278
30.7241   259
30.7341   281
30.7441   285
30.7541   261
30.7641   282
30.7741   275
30.7841   274
30.7941   275
30.8041   292
30.8141   292
30.8241   317
30.8341   257
30.8441   300
30.8541   306
30.8641   278
30.8741   292
30.8841   277
30.8941   273
30.9041   298
30.9141   289
30.9241   293
30.9341   286
30.9441   276
30.9541   286
30.9641   268
30.9741   285
30.9841   293
30.9941   265
31.0041   286
31.0141   271
31.0241   277
31.0341   265
31.0441   254
31.0541   271
31.0641   279
31.0741   295
31.0841   263
31.0941   299
31.1041   247
31.1141   259
31.1241   265
31.1341   270
31.1441   275
31.1541   280
31.1641   276
31.1741   272
31.1841   286
31.1941   269
31.2041   281
31.2141   256
31.2241   271
31.2341   254
31.2441   285
31.2541   275
31.2641   262
31.2741   262
31.2841   234
31.2941   281
31.3041   266
31.3141   237
31.3241   279
31.3341   233
31.3441   266
31.3541   252
31.3641   276
31.3741   257
31.3841   246
31.3941   238
31.4041   258
31.4141   235
31.4241   258
31.4341   244
31.4441   237
31.4541   244
31.4641   252
31.4741   241
31.4841   226
31.4941   246
31.5041   243
31.5141   259
31.5241   235
31.5341   224
31.5441   221
31.5541   232
31.5641   258
31.5741   263
31.5841   265
31.5941   258
31.6041   263
31.6141   260
31.6241   243
31.6341   239
31.6441   260
31.6541   243
31.6641   238
31.6741   289
31.6841   261
31.6941   240
31.7041   253
31.7141   293
31.7241   229
31.7341   293
31.7441   274
31.7541   269
31.7641   273
31.7741   256
31.7841   294
31.7941   269
31.8041   299
31.8141   273
31.8241   279
31.8341   242
31.8441   245
31.8541   255
31.8641   288
31.8741   254
31.8841   266
31.8941   225
31.9041   266
31.9141   249
31.9241   265
31.9341   222
31.9441   244
31.9541   226
31.9641   252
31.9741   269
31.9841   237
31.9941   262
32.0041   251
32.0141   233
32.0241   256
32.0341   242
32.0441   269
32.0541   261
32.0641   238
32.0741   236
32.0841   248
32.0941   284
32.1041   252
32.1141   242
32.1241   284
32.1341   262
32.1441   268
32.1541   235
32.1641   266
32.1741   246
32.1841   251
32.1941   277
32.2041   283
32.2141   258
32.2241   268
32.2341   270
32.2441   241
32.2541   259
32.2641   261
32.2741   242
32.2841   234
32.2941   275
32.3041   258
32.3141   250
32.3241   230
32.3341   252
32.3441   255
32.3541   242
32.3641   220
32.3741   240
32.3841   254
32.3941   219
32.4041   248
32.4141   241
32.4241   220
32.4341   204
32.4441   217
32.4541   230
32.4641   198
32.4741   245
32.4841   230
32.4941   212
32.5041   234
32.5141   215
32.5241   190
32.5341   228
32.5441   226
32.5541   214
32.5641   222
32.5741   216
32.5841   186
32.5941   196
32.6041   213
32.6141   206
32.6241   196
32.6341   225
32.6441   211
32.6541   207
32.6641   206
32.6741   195
32.6841   197
32.6941   187
32.7041   202
32.7141   195
32.7241   191
32.7341   226
32.7441   203
32.7541   222
32.7641   227
32.7741   201
32.7841   215
32.7941   208
32.8041   217
32.8141   218
32.8241   212
32.8341   208
32.8441   191
32.8541   184
32.8641   205
32.8741   196
32.8841   224
32.8941   182
32.9041   204
32.9141   203
32.9241   199
32.9341   213
32.9441   200
32.9541   206
32.9641   198
32.9741   210
32.9841   181
32.9941   214
33.0041   179
33.0141   195
33.0241   190
33.0341   205
33.0441   200
33.0541   185
33.0641   187
33.0741   195
33.0841   198
33.0941   206
33.1041   171
33.1141   194
33.1241   193
33.1341   187
33.1441   169
33.1541   214
33.1641   185
33.1741   190
33.1841   189
33.1941   190
33.2041   184
33.2141   182
33.2241   193
33.2341   184
33.2441   169
33.2541   182
33.2641   173
33.2741   196
33.2841   192
33.2941   185
33.3041   193
33.3141   189
33.3241   196
33.3341   183
33.3441   200
33.3541   188
33.3641   194
33.3741   177
33.3841   168
33.3941   186
33.4041   182
33.4141   201
33.4241   190
33.4341   162
33.4441   159
33.4541   165
33.4641   182
33.4741   206
33.4841   187
33.4941   193
33.5041   175
33.5141   179
33.5241   166
33.5341   179
33.5441   174
33.5541   177
33.5641   200
33.5741   197
33.5841   201
33.5941   184
33.6041   177
33.6141   166
33.6241   177
33.6341   183
33.6441   174
33.6541   194
33.6641   200
33.6741   192
33.6841   167
33.6941   159
33.7041   182
33.7141   163
33.7241   183
33.7341   197
33.7441   178
33.7541   205
33.7641   172
33.7741   181
33.7841   177
33.7941   142
33.8041   159
33.8141   148
33.8241   189
33.8341   173
33.8441   195
33.8541   177
33.8641   167
33.8741   165
33.8841   169
33.8941   164
33.9041   155
33.9141   172
33.9241   175
33.9341   156
33.9441   168
33.9541   164
33.9641   147
33.9741   174
33.9841   156
33.9941   179
34.0041   179
34.0141   170
34.0241   165
34.0341   166
34.0441   159
34.0541   177
34.0641   160
34.0741   157
34.0841   181
34.0941   162
34.1041   155
34.1141   159
34.1241   172
34.1341   163
34.1441   163
34.1541   127
34.1641   164
34.1741   179
34.1841   164
34.1941   181
34.2041   146
34.2141   164
34.2241   155
34.2341   163
34.2441   141
34.2541   138
34.2641   169
34.2741   181
34.2841   173
34.2941   151
34.3041   140
34.3141   155
34.3241   141
34.3341   171
34.3441   142
34.3541   155
34.3641   144
34.3741   181
34.3841   156
34.3941   145
34.4041   156
34.4141   173
34.4241   153
34.4341   146
34.4441   150
34.4541   157
34.4641   159
34.4741   152
34.4841   159
34.4941   140
34.5041   133
34.5141   147
34.5241   136
34.5341   163
34.5441   147
34.5541   149
34.5641   142
34.5741   148
34.5841   160
34.5941   146
34.6041   137
34.6141   140
34.6241   145
34.6341   140
34.6441   152
34.6541   165
34.6641   146
34.6741   130
34.6841   141
34.6941   136
34.7041   140
34.7141   135
34.7241   151
34.7341   136
34.7441   122
34.7541   159
34.7641   134
34.7741   153
34.7841   143
34.7941   169
34.8041   135
34.8141   130
34.8241   119
34.8341   143
34.8441   152
34.8541   149
34.8641   134
34.8741   149
34.8841   139
34.8941   146
34.9041   140
34.9141   149
34.9241   156
34.9341   143
34.9441   141
34.9541   147
34.9641   140
34.9741   133
34.9841   153
34.9941   150
35.0041   128
35.0141   112
35.0241   135
35.0341   141
35.0441   152
35.0541   140
35.0641   134
35.0741   129
35.0841   134
35.0941   137
35.1041   134
35.1141   146
35.1241   129
35.1341   137
35.1441   137
35.1541   146
35.1641   129
35.1741   139
35.1841   126
35.1941   121
35.2041   143
35.2141   122
35.2241   132
35.2341   134
35.2441   128
35.2541   125
35.2641   103
35.2741   125
35.2841   143
35.2941   130
35.3041   114
35.3141   121
35.3241   141
35.3341   120
35.3441   123
35.3541   124
35.3641   138
35.3741   126
35.3841   121
35.3941   116
35.4041   131
35.4141   110
35.4241   120
35.4341   115
35.4441   118
35.4541   105
35.4641   128
35.4741   104
35.4841   120
35.4941   115
35.5041   133
35.5141   112
35.5241   123
35.5341   110
35.5441   118
35.5541   104
35.5641   108
35.5741   118
35.5841   116
35.5941   108
35.6041   113
35.6141   125
35.6241   102
35.6341   109
35.6441   113
35.6541   120
35.6641   120
35.6741   104
35.6841   107
35.6941   116
35.7041   112
35.7141   123
35.7241   128
35.7341   108
35.7441   112
35.7541   104
35.7641    97
35.7741   120
35.7841   118
35.7941   117
35.8041   111
35.8141   133
35.8241   130
35.8341   131
35.8441   116
35.8541   122
35.8641   118
35.8741   133
35.8841   114
35.8941   115
35.9041   108
35.9141   103
35.9241   107
35.9341   122
35.9441   128
35.9541   115
35.9641   105
35.9741   139
35.9841   124
35.9941   113
36.0041   109
36.0141   109
36.0241   107
36.0341   121
36.0441   103
36.0541   104
36.0641   117
36.0741   128
36.0841   111
36.0941   117
36.1041   120
36.1141   103
36.1241   101
36.1341   104
36.1441   100
36.1541   112
36.1641   115
36.1741   111
36.1841   108
36.1941   102
36.2041   113
36.2141   114
36.2241   103
36.2341   104
36.2441    94
36.2541   122
36.2641   120
36.2741   101
36.2841    91
36.2941    99
36.3041   105
36.3141   115
36.3241   110
36.3341   103
36.3441   106
36.3541   113
36.3641   116
36.3741   116
36.3841    97
36.3941   106
36.4041    82
36.4141   129
36.4241   118
36.4341   107
36.4441    87
36.4541   135
36.4641    96
36.4741   100
36.4841    98
36.4941   109
36.5041   108
36.5141    93
36.5241   103
36.5341    77
36.5441   108
36.5541   101
36.5641    95
36.5741    96
36.5841    87
36.5941    84
36.6041    99
36.6141   107
36.6241   101
36.6341    94
36.6441    82
36.6541   100
36.6641    97
36.6741   111
36.6841   103
36.6941    91
36.7041    88
36.7141    97
36.7241    81
36.7341    94
36.7441    90
36.7541    83
36.7641   106
36.7741    99
36.7841    99
36.7941   101
36.8041    84
36.8141    75
36.8241    72
36.8341    63
36.8441    99
36.8541    76
36.8641    95
36.8741    93
36.8841    84
36.8941    98
36.9041    72
36.9141    94
36.9241    93
36.9341    79
36.9441    74
36.9541    78
36.9641    85
36.9741    88
36.9841   105
36.9941    97
37.0041    84
37.0141    84
37.0241    72
37.0341    93
37.0441    93
37.0541    88
37.0641    90
37.0741    83
37.0841   104
37.0941    73
37.1041    74
37.1141    80
37.1241    77
37.1341    84
37.1441    86
37.1541   100
37.1641    75
37.1741    75
37.1841    69
37.1941    85
37.2041    78
37.2141    68
37.2241    95
37.2341    82
37.2441    83
37.2541    79
37.2641    78
37.2741    85
37.2841    69
37.2941    82
37.3041    73
37.3141    81
37.3241    83
37.3341    82
37.3441    78
37.3541    66
37.3641    62
37.3741    77
37.3841    97
37.3941    74
37.4041    91
37.4141    89
37.4241    81
37.4341    88
37.4441    98
37.4541    71
37.4641    76
37.4741    82
37.4841    77
37.4941    77
37.5041    91
37.5141    74
37.5241    73
37.5341    83
37.5441    62
37.5541    83
37.5641    72
37.5741    76
37.5841    81
37.5941    81
37.6041    81
37.6141    82
37.6241    66
37.6341    77
37.6441    64
37.6541    79
37.6641    75
37.6741    68
37.6841    66
37.6941    81
37.7041    77
37.7141    59
37.7241    62
37.7341    68
37.7441    72
37.7541    76
37.7641    75
37.7741    71
37.7841    70
37.7941    75
37.8041    73
37.8141    64
37.8241    75
37.8341    67
37.8441    66
37.8541    75
37.8641    75
37.8741    70
37.8841    69
37.8941    72
37.9041    70
37.9141    74
37.9241    60
37.9341    69
37.9441    58
37.9541    50
37.9641    53
37.9741    74
37.9841    68
37.9941    67
38.0041    70
38.0141    62
38.0241    48
38.0341    61
38.0441    62
38.0541    62
38.0641    56
38.0741    64
38.0841    65
38.0941    55
38.1041    71
38.1141    60
38.1241    62
38.1341    52
38.1441    59
38.1541    70
38.1641    74
38.1741    68
38.1841    58
38.1941    54
38.2041    67
38.2141    72
38.2241    52
38.2341    66
38.2441    56
38.2541    60
38.2641    57
38.2741    59
38.2841    71
38.2941    76
38.3041    58
38.3141    63
38.3241    73
38.3341    59
38.3441    59
38.3541    49
38.3641    59
38.3741    75
38.3841    68
38.3941    63
38.4041    61
38.4141    61
38.4241    59
38.4341    71
38.4441    68
38.4541    54
38.4641    58
38.4741    68
38.4841    61
38.4941    57
38.5041    57
38.5141    58
38.5241    47
38.5341    69
38.5441    53
38.5541    63
38.5641    51
38.5741    48
38.5841    59
38.5941    50
38.6041    50
38.6141    49
38.6241    59
38.6341    59
38.6441    54
38.6541    54
38.6641    55
38.6741    66
38.6841    61
38.6941    58
38.7041    51
38.7141    50
38.7241    51
38.7341    67
38.7441    43
38.7541    50
38.7641    46
38.7741    59
38.7841    46
38.7941    55
38.8041    40
38.8141    47
38.8241    64
38.8341    53
38.8441    46
38.8541    48
38.8641    61
38.8741    65
38.8841    53
38.8941    38
38.9041    46
38.9141    40
38.9241    49
38.9341    52
38.9441    37
38.9541    52
38.9641    57
38.9741    50
38.9841    55
38.9941    48
39.0041    53
39.0141    52
39.0241    43
39.0341    44
39.0441    57
39.0541    60
39.0641    39
39.0741    52
39.0841    49
39.0941    58
39.1041    46
39.1141    44
39.1241    47
39.1341    49
39.1441    49
39.1541    35
39.1641    54
39.1741    54
39.1841    49
39.1941    51
39.2041    38
39.2141    49
39.2241    47
39.2341    48
39.2441    39
39.2541    48
39.2641    47
39.2741    46
39.2841    59
39.2941    44
39.3041    30
39.3141    47
39.3241    46
39.3341    46
39.3441    47
39.3541    38
39.3641    38
39.3741    51
39.3841    32
39.3941    42
39.4041    52
39.4141    50
39.4241    46
39.4341    42
39.4441    40
39.4541    38
39.4641    35
39.4741    33
39.4841    44
39.4941    43
39.5041    43
39.5141    45
39.5241    31
39.5341    37
39.5441    47
39.5541    37
39.5641    34
39.5741    27
39.5841    29
39.5941    38
39.6041    35
39.6141    40
39.6241    45
39.6341    40
39.6441    32
39.6541    43
39.6641    35
39.6741    42
39.6841    39
39.6941    42
39.7041    44
39.7141    31
39.7241    57
39.7341    38
39.7441    35
39.7541    31
39.7641    37
39.7741    37
39.7841    39
39.7941    50
39.8041    39
39.8141    43
39.8241    39
39.8341    35
39.8441    41
39.8541    43
39.8641    42
39.8741    29
39.8841    30
39.8941    27
39.9041    33
39.9141    30
39.9241    34
39.9341    37
39.9441    39
39.9541    39
39.9641    38
39.9741    34
39.9841    41
