Bruker Nano GmbH Berlin, Germany
Esprit 1.9

Date: 4/21/2021 1:33:03 PM
Real time: 24054
Life time: 22528
Pulse density: 91594


Detector type: XFlash 430
Window type: Custom type
Detector thickness: 0.45
Si dead layer:0.029

Calibration, lin.: 10
Calibration, abs.: -955.9
Mn FWHM: 137.05
Fano factor: 0.121
Channels: 4095

Energy Counts
-0.9559     0
-0.9459     0
-0.9359     0
-0.9259     0
-0.9159     0
-0.9059     0
-0.8959     0
-0.8859     0
-0.8759     0
-0.8659     0
-0.8559     0
-0.8459     0
-0.8359     0
-0.8259     0
-0.8159     0
-0.8059     0
-0.7959     0
-0.7859     0
-0.7759     0
-0.7659     0
-0.7559     0
-0.7459     0
-0.7359     0
-0.7259     0
-0.7159     0
-0.7059     0
-0.6959     0
-0.6859     0
-0.6759     0
-0.6659     0
-0.6559     0
-0.6459     0
-0.6359     0
-0.6259     0
-0.6159     0
-0.6059     0
-0.5959     0
-0.5859     0
-0.5759     0
-0.5659     0
-0.5559     0
-0.5459     0
-0.5359     0
-0.5259     0
-0.5159     0
-0.5059     0
-0.4959     0
-0.4859     0
-0.4759     0
-0.4659     0
-0.4559     0
-0.4459     0
-0.4359     0
-0.4259     0
-0.4159     0
-0.4059     0
-0.3959     0
-0.3859     0
-0.3759     0
-0.3659     0
-0.3559     0
-0.3459     0
-0.3359     0
-0.3259     0
-0.3159     0
-0.3059     0
-0.2959     0
-0.2859     0
-0.2759     0
-0.2659     0
-0.2559     0
-0.2459     0
-0.2359     0
-0.2259     0
-0.2159     0
-0.2059     0
-0.1959     0
-0.1859     0
-0.1759     0
-0.1659     0
-0.1559     0
-0.1459     0
-0.1359     0
-0.1259     0
-0.1159     5
-0.1059    11
-0.0959    74
-0.0859   284
-0.0759   911
-0.0659  2578
-0.0559  6462
-0.0459 14351
-0.0359 26876
-0.0259 43030
-0.0159 58531
-0.0059 69109
 0.0041 69842
 0.0141 59454
 0.0241 43842
 0.0341 28007
 0.0441 15119
 0.0541  7231
 0.0641  2850
 0.0741   944
 0.0841   293
 0.0941    83
 0.1041    35
 0.1141    12
 0.1241    11
 0.1341     9
 0.1441    11
 0.1541     4
 0.1641     1
 0.1741    37
 0.1841   240
 0.1941   426
 0.2041   384
 0.2141   367
 0.2241   383
 0.2341   380
 0.2441   373
 0.2541   355
 0.2641   386
 0.2741   360
 0.2841   389
 0.2941   388
 0.3041   395
 0.3141   357
 0.3241   391
 0.3341   361
 0.3441   358
 0.3541   373
 0.3641   337
 0.3741   324
 0.3841   357
 0.3941   339
 0.4041   334
 0.4141   338
 0.4241   327
 0.4341   333
 0.4441   336
 0.4541   333
 0.4641   316
 0.4741   331
 0.4841   318
 0.4941   335
 0.5041   336
 0.5141   324
 0.5241   318
 0.5341   323
 0.5441   317
 0.5541   314
 0.5641   319
 0.5741   323
 0.5841   333
 0.5941   323
 0.6041   296
 0.6141   307
 0.6241   332
 0.6341   295
 0.6441   290
 0.6541   308
 0.6641   304
 0.6741   294
 0.6841   302
 0.6941   296
 0.7041   301
 0.7141   294
 0.7241   276
 0.7341   268
 0.7441   263
 0.7541   278
 0.7641   275
 0.7741   263
 0.7841   262
 0.7941   257
 0.8041   268
 0.8141   289
 0.8241   281
 0.8341   257
 0.8441   261
 0.8541   293
 0.8641   294
 0.8741   278
 0.8841   288
 0.8941   263
 0.9041   265
 0.9141   252
 0.9241   263
 0.9341   257
 0.9441   259
 0.9541   285
 0.9641   260
 0.9741   245
 0.9841   271
 0.9941   254
 1.0041   251
 1.0141   262
 1.0241   259
 1.0341   252
 1.0441   259
 1.0541   269
 1.0641   251
 1.0741   235
 1.0841   243
 1.0941   265
 1.1041   241
 1.1141   229
 1.1241   215
 1.1341   248
 1.1441   224
 1.1541   233
 1.1641   271
 1.1741   269
 1.1841   244
 1.1941   222
 1.2041   240
 1.2141   230
 1.2241   226
 1.2341   235
 1.2441   217
 1.2541   217
 1.2641   218
 1.2741   244
 1.2841   235
 1.2941   222
 1.3041   209
 1.3141   215
 1.3241   215
 1.3341   231
 1.3441   233
 1.3541   240
 1.3641   250
 1.3741   224
 1.3841   202
 1.3941   234
 1.4041   228
 1.4141   240
 1.4241   211
 1.4341   235
 1.4441   239
 1.4541   220
 1.4641   222
 1.4741   217
 1.4841   233
 1.4941   218
 1.5041   229
 1.5141   229
 1.5241   218
 1.5341   221
 1.5441   213
 1.5541   184
 1.5641   218
 1.5741   211
 1.5841   201
 1.5941   209
 1.6041   215
 1.6141   226
 1.6241   201
 1.6341   229
 1.6441   221
 1.6541   268
 1.6641   319
 1.6741   397
 1.6841   443
 1.6941   545
 1.7041   656
 1.7141   794
 1.7241   875
 1.7341   905
 1.7441   865
 1.7541   865
 1.7641   751
 1.7741   643
 1.7841   573
 1.7941   503
 1.8041   398
 1.8141   340
 1.8241   296
 1.8341   285
 1.8441   265
 1.8541   264
 1.8641   258
 1.8741   260
 1.8841   224
 1.8941   220
 1.9041   193
 1.9141   218
 1.9241   232
 1.9341   235
 1.9441   218
 1.9541   212
 1.9641   249
 1.9741   246
 1.9841   264
 1.9941   264
 2.0041   266
 2.0141   240
 2.0241   249
 2.0341   240
 2.0441   253
 2.0541   231
 2.0641   219
 2.0741   231
 2.0841   223
 2.0941   230
 2.1041   207
 2.1141   209
 2.1241   237
 2.1341   188
 2.1441   219
 2.1541   214
 2.1641   202
 2.1741   193
 2.1841   220
 2.1941   196
 2.2041   199
 2.2141   205
 2.2241   194
 2.2341   201
 2.2441   191
 2.2541   207
 2.2641   191
 2.2741   194
 2.2841   193
 2.2941   186
 2.3041   188
 2.3141   186
 2.3241   186
 2.3341   205
 2.3441   168
 2.3541   181
 2.3641   172
 2.3741   179
 2.3841   189
 2.3941   202
 2.4041   182
 2.4141   187
 2.4241   190
 2.4341   188
 2.4441   180
 2.4541   194
 2.4641   189
 2.4741   167
 2.4841   173
 2.4941   168
 2.5041   175
 2.5141   184
 2.5241   186
 2.5341   164
 2.5441   174
 2.5541   194
 2.5641   171
 2.5741   173
 2.5841   176
 2.5941   189
 2.6041   160
 2.6141   146
 2.6241   147
 2.6341   153
 2.6441   166
 2.6541   163
 2.6641   146
 2.6741   180
 2.6841   160
 2.6941   167
 2.7041   175
 2.7141   176
 2.7241   151
 2.7341   171
 2.7441   175
 2.7541   165
 2.7641   179
 2.7741   184
 2.7841   174
 2.7941   139
 2.8041   152
 2.8141   170
 2.8241   170
 2.8341   168
 2.8441   163
 2.8541   177
 2.8641   176
 2.8741   153
 2.8841   126
 2.8941   165
 2.9041   176
 2.9141   138
 2.9241   151
 2.9341   169
 2.9441   164
 2.9541   157
 2.9641   173
 2.9741   159
 2.9841   133
 2.9941   169
 3.0041   155
 3.0141   160
 3.0241   153
 3.0341   154
 3.0441   145
 3.0541   151
 3.0641   137
 3.0741   152
 3.0841   143
 3.0941   162
 3.1041   158
 3.1141   136
 3.1241   144
 3.1341   104
 3.1441   151
 3.1541   140
 3.1641   131
 3.1741   139
 3.1841   137
 3.1941   137
 3.2041   157
 3.2141   150
 3.2241   173
 3.2341   211
 3.2441   201
 3.2541   240
 3.2641   240
 3.2741   272
 3.2841   295
 3.2941   342
 3.3041   366
 3.3141   378
 3.3241   348
 3.3341   332
 3.3441   330
 3.3541   307
 3.3641   265
 3.3741   196
 3.3841   207
 3.3941   180
 3.4041   136
 3.4141   163
 3.4241   161
 3.4341   133
 3.4441   125
 3.4541   120
 3.4641   135
 3.4741   123
 3.4841   132
 3.4941   117
 3.5041   133
 3.5141   154
 3.5241   179
 3.5341   160
 3.5441   167
 3.5541   191
 3.5641   242
 3.5741   266
 3.5841   283
 3.5941   361
 3.6041   478
 3.6141   641
 3.6241   743
 3.6341   917
 3.6441  1172
 3.6541  1314
 3.6641  1417
 3.6741  1575
 3.6841  1622
 3.6941  1621
 3.7041  1526
 3.7141  1444
 3.7241  1253
 3.7341  1064
 3.7441   912
 3.7541   719
 3.7641   571
 3.7741   473
 3.7841   319
 3.7941   269
 3.8041   214
 3.8141   143
 3.8241   141
 3.8341   138
 3.8441   140
 3.8541   115
 3.8641   112
 3.8741   121
 3.8841   131
 3.8941   141
 3.9041   131
 3.9141   162
 3.9241   152
 3.9341   182
 3.9441   187
 3.9541   225
 3.9641   250
 3.9741   301
 3.9841   294
 3.9941   314
 4.0041   348
 4.0141   337
 4.0241   308
 4.0341   328
 4.0441   312
 4.0541   273
 4.0641   233
 4.0741   200
 4.0841   186
 4.0941   156
 4.1041   143
 4.1141   131
 4.1241   121
 4.1341    93
 4.1441   103
 4.1541    95
 4.1641    98
 4.1741   114
 4.1841    89
 4.1941   100
 4.2041   113
 4.2141   102
 4.2241    98
 4.2341   113
 4.2441    90
 4.2541    90
 4.2641    89
 4.2741    87
 4.2841    98
 4.2941    87
 4.3041    96
 4.3141    76
 4.3241    95
 4.3341    83
 4.3441    92
 4.3541    99
 4.3641   100
 4.3741   108
 4.3841   111
 4.3941   111
 4.4041   141
 4.4141   170
 4.4241   190
 4.4341   211
 4.4441   227
 4.4541   250
 4.4641   313
 4.4741   322
 4.4841   335
 4.4941   360
 4.5041   347
 4.5141   337
 4.5241   337
 4.5341   336
 4.5441   287
 4.5541   251
 4.5641   234
 4.5741   233
 4.5841   182
 4.5941   152
 4.6041   151
 4.6141   121
 4.6241   110
 4.6341   129
 4.6441   110
 4.6541   112
 4.6641   106
 4.6741   119
 4.6841   110
 4.6941   110
 4.7041   117
 4.7141   111
 4.7241   109
 4.7341   109
 4.7441   110
 4.7541   107
 4.7641    97
 4.7741   112
 4.7841   143
 4.7941   117
 4.8041   137
 4.8141   132
 4.8241   139
 4.8341   123
 4.8441   121
 4.8541   145
 4.8641   137
 4.8741   151
 4.8841   159
 4.8941   173
 4.9041   179
 4.9141   162
 4.9241   150
 4.9341   163
 4.9441   147
 4.9541   170
 4.9641   142
 4.9741   178
 4.9841   149
 4.9941   163
 5.0041   113
 5.0141   140
 5.0241   113
 5.0341   116
 5.0441   116
 5.0541   112
 5.0641   116
 5.0741   131
 5.0841   114
 5.0941   124
 5.1041   108
 5.1141   130
 5.1241   126
 5.1341   112
 5.1441   122
 5.1541   111
 5.1641   127
 5.1741    93
 5.1841   119
 5.1941   122
 5.2041   118
 5.2141   127
 5.2241   109
 5.2341   102
 5.2441   120
 5.2541    88
 5.2641   103
 5.2741   105
 5.2841   120
 5.2941   119
 5.3041   113
 5.3141   112
 5.3241   133
 5.3341   111
 5.3441   144
 5.3541   130
 5.3641   155
 5.3741   151
 5.3841   147
 5.3941   144
 5.4041   147
 5.4141   180
 5.4241   129
 5.4341   148
 5.4441   133
 5.4541   164
 5.4641   121
 5.4741   147
 5.4841   133
 5.4941   146
 5.5041   131
 5.5141   109
 5.5241   115
 5.5341   128
 5.5441   128
 5.5541   117
 5.5641   109
 5.5741   113
 5.5841   113
 5.5941   109
 5.6041    88
 5.6141    93
 5.6241   106
 5.6341   126
 5.6441   109
 5.6541   118
 5.6641    99
 5.6741   116
 5.6841   115
 5.6941   109
 5.7041   127
 5.7141   105
 5.7241   116
 5.7341   142
 5.7441   161
 5.7541   171
 5.7641   212
 5.7741   216
 5.7841   249
 5.7941   281
 5.8041   356
 5.8141   386
 5.8241   474
 5.8341   534
 5.8441   577
 5.8541   678
 5.8641   728
 5.8741   799
 5.8841   772
 5.8941   809
 5.9041   832
 5.9141   826
 5.9241   778
 5.9341   662
 5.9441   612
 5.9541   534
 5.9641   467
 5.9741   411
 5.9841   321
 5.9941   283
 6.0041   269
 6.0141   209
 6.0241   202
 6.0341   181
 6.0441   160
 6.0541   161
 6.0641   159
 6.0741   138
 6.0841   148
 6.0941   153
 6.1041   167
 6.1141   147
 6.1241   195
 6.1341   166
 6.1441   163
 6.1541   198
 6.1641   193
 6.1741   215
 6.1841   238
 6.1941   260
 6.2041   341
 6.2141   455
 6.2241   593
 6.2341   733
 6.2441  1043
 6.2541  1411
 6.2641  2021
 6.2741  2623
 6.2841  3550
 6.2941  4719
 6.3041  6170
 6.3141  7645
 6.3241  9540
 6.3341 11390
 6.3441 13476
 6.3541 15311
 6.3641 16995
 6.3741 18471
 6.3841 19440
 6.3941 20074
 6.4041 19984
 6.4141 19438
 6.4241 18433
 6.4341 16720
 6.4441 15083
 6.4541 13060
 6.4641 11164
 6.4741  9353
 6.4841  7535
 6.4941  5744
 6.5041  4418
 6.5141  3385
 6.5241  2548
 6.5341  1808
 6.5441  1307
 6.5541   924
 6.5641   649
 6.5741   503
 6.5841   369
 6.5941   258
 6.6041   235
 6.6141   245
 6.6241   222
 6.6341   171
 6.6441   182
 6.6541   188
 6.6641   179
 6.6741   197
 6.6841   160
 6.6941   189
 6.7041   158
 6.7141   150
 6.7241   194
 6.7341   170
 6.7441   180
 6.7541   197
 6.7641   203
 6.7741   219
 6.7841   208
 6.7941   207
 6.8041   220
 6.8141   249
 6.8241   243
 6.8341   235
 6.8441   245
 6.8541   238
 6.8641   288
 6.8741   301
 6.8841   359
 6.8941   401
 6.9041   476
 6.9141   535
 6.9241   671
 6.9341   796
 6.9441   961
 6.9541  1244
 6.9641  1458
 6.9741  1667
 6.9841  2015
 6.9941  2210
 7.0041  2590
 7.0141  2736
 7.0241  3013
 7.0341  3232
 7.0441  3448
 7.0541  3348
 7.0641  3320
 7.0741  3269
 7.0841  2953
 7.0941  2845
 7.1041  2539
 7.1141  2216
 7.1241  1927
 7.1341  1629
 7.1441  1361
 7.1541  1070
 7.1641   938
 7.1741   737
 7.1841   626
 7.1941   514
 7.2041   403
 7.2141   349
 7.2241   299
 7.2341   278
 7.2441   248
 7.2541   278
 7.2641   248
 7.2741   252
 7.2841   264
 7.2941   282
 7.3041   266
 7.3141   272
 7.3241   276
 7.3341   288
 7.3441   300
 7.3541   339
 7.3641   326
 7.3741   306
 7.3841   351
 7.3941   338
 7.4041   386
 7.4141   341
 7.4241   371
 7.4341   347
 7.4441   320
 7.4541   313
 7.4641   317
 7.4741   303
 7.4841   303
 7.4941   291
 7.5041   275
 7.5141   263
 7.5241   238
 7.5341   255
 7.5441   269
 7.5541   220
 7.5641   239
 7.5741   249
 7.5841   253
 7.5941   220
 7.6041   217
 7.6141   236
 7.6241   248
 7.6341   231
 7.6441   247
 7.6541   278
 7.6641   255
 7.6741   280
 7.6841   249
 7.6941   260
 7.7041   260
 7.7141   264
 7.7241   266
 7.7341   282
 7.7441   266
 7.7541   263
 7.7641   286
 7.7741   268
 7.7841   296
 7.7941   307
 7.8041   287
 7.8141   324
 7.8241   348
 7.8341   342
 7.8441   349
 7.8541   308
 7.8641   363
 7.8741   379
 7.8841   347
 7.8941   362
 7.9041   379
 7.9141   436
 7.9241   435
 7.9341   484
 7.9441   500
 7.9541   510
 7.9641   552
 7.9741   602
 7.9841   638
 7.9941   670
 8.0041   693
 8.0141   752
 8.0241   887
 8.0341   859
 8.0441   968
 8.0541  1018
 8.0641  1055
 8.0741  1063
 8.0841  1144
 8.0941  1249
 8.1041  1389
 8.1141  1350
 8.1241  1411
 8.1341  1496
 8.1441  1514
 8.1541  1558
 8.1641  1599
 8.1741  1661
 8.1841  1670
 8.1941  1640
 8.2041  1627
 8.2141  1727
 8.2241  1792
 8.2341  1839
 8.2441  1803
 8.2541  1895
 8.2641  2024
 8.2741  2245
 8.2841  2295
 8.2941  2440
 8.3041  2643
 8.3141  2788
 8.3241  3014
 8.3341  3269
 8.3441  3520
 8.3541  3720
 8.3641  3840
 8.3741  3995
 8.3841  4016
 8.3941  4116
 8.4041  3954
 8.4141  3709
 8.4241  3531
 8.4341  3272
 8.4441  2987
 8.4541  2653
 8.4641  2383
 8.4741  1989
 8.4841  1772
 8.4941  1549
 8.5041  1246
 8.5141   993
 8.5241   893
 8.5341   764
 8.5441   639
 8.5541   527
 8.5641   502
 8.5741   477
 8.5841   434
 8.5941   434
 8.6041   428
 8.6141   437
 8.6241   431
 8.6341   422
 8.6441   435
 8.6541   437
 8.6641   444
 8.6741   404
 8.6841   412
 8.6941   377
 8.7041   433
 8.7141   406
 8.7241   384
 8.7341   401
 8.7441   375
 8.7541   372
 8.7641   365
 8.7741   389
 8.7841   375
 8.7941   385
 8.8041   332
 8.8141   366
 8.8241   372
 8.8341   416
 8.8441   398
 8.8541   386
 8.8641   392
 8.8741   407
 8.8841   396
 8.8941   374
 8.9041   390
 8.9141   412
 8.9241   376
 8.9341   367
 8.9441   400
 8.9541   429
 8.9641   383
 8.9741   401
 8.9841   415
 8.9941   438
 9.0041   457
 9.0141   431
 9.0241   436
 9.0341   454
 9.0441   451
 9.0541   508
 9.0641   512
 9.0741   478
 9.0841   546
 9.0941   588
 9.1041   534
 9.1141   618
 9.1241   646
 9.1341   684
 9.1441   693
 9.1541   724
 9.1641   737
 9.1741   781
 9.1841   764
 9.1941   756
 9.2041   868
 9.2141   924
 9.2241   992
 9.2341  1063
 9.2441  1047
 9.2541  1102
 9.2641  1113
 9.2741  1195
 9.2841  1180
 9.2941  1276
 9.3041  1363
 9.3141  1393
 9.3241  1364
 9.3341  1460
 9.3441  1432
 9.3541  1539
 9.3641  1521
 9.3741  1551
 9.3841  1597
 9.3941  1648
 9.4041  1609
 9.4141  1671
 9.4241  1666
 9.4341  1694
 9.4441  1751
 9.4541  1716
 9.4641  1705
 9.4741  1773
 9.4841  1779
 9.4941  1780
 9.5041  1792
 9.5141  1842
 9.5241  1921
 9.5341  2013
 9.5441  2049
 9.5541  2206
 9.5641  2249
 9.5741  2380
 9.5841  2489
 9.5941  2614
 9.6041  2725
 9.6141  2851
 9.6241  3031
 9.6341  3127
 9.6441  3313
 9.6541  3359
 9.6641  3406
 9.6741  3266
 9.6841  3283
 9.6941  3223
 9.7041  3058
 9.7141  2883
 9.7241  2860
 9.7341  2620
 9.7441  2404
 9.7541  2246
 9.7641  2135
 9.7741  1986
 9.7841  1820
 9.7941  1666
 9.8041  1638
 9.8141  1564
 9.8241  1455
 9.8341  1446
 9.8441  1421
 9.8541  1413
 9.8641  1434
 9.8741  1435
 9.8841  1466
 9.8941  1468
 9.9041  1502
 9.9141  1570
 9.9241  1563
 9.9341  1580
 9.9441  1535
 9.9541  1540
 9.9641  1554
 9.9741  1518
 9.9841  1523
 9.9941  1415
10.0041  1314
10.0141  1276
10.0241  1177
10.0341  1033
10.0441   974
10.0541   842
10.0641   776
10.0741   658
10.0841   599
10.0941   527
10.1041   494
10.1141   451
10.1241   430
10.1341   405
10.1441   358
10.1541   332
10.1641   331
10.1741   346
10.1841   304
10.1941   316
10.2041   267
10.2141   283
10.2241   273
10.2341   252
10.2441   233
10.2541   259
10.2641   258
10.2741   237
10.2841   224
10.2941   216
10.3041   217
10.3141   218
10.3241   236
10.3341   217
10.3441   209
10.3541   201
10.3641   206
10.3741   215
10.3841   197
10.3941   200
10.4041   205
10.4141   199
10.4241   217
10.4341   212
10.4441   216
10.4541   222
10.4641   243
10.4741   228
10.4841   240
10.4941   238
10.5041   240
10.5141   235
10.5241   233
10.5341   223
10.5441   232
10.5541   227
10.5641   238
10.5741   233
10.5841   226
10.5941   245
10.6041   245
10.6141   219
10.6241   240
10.6341   233
10.6441   243
10.6541   257
10.6641   274
10.6741   274
10.6841   258
10.6941   258
10.7041   261
10.7141   266
10.7241   276
10.7341   252
10.7441   280
10.7541   270
10.7641   286
10.7741   312
10.7841   334
10.7941   356
10.8041   326
10.8141   345
10.8241   333
10.8341   338
10.8441   330
10.8541   341
10.8641   330
10.8741   347
10.8841   395
10.8941   373
10.9041   360
10.9141   357
10.9241   351
10.9341   370
10.9441   354
10.9541   375
10.9641   371
10.9741   359
10.9841   339
10.9941   339
11.0041   323
11.0141   355
11.0241   363
11.0341   330
11.0441   341
11.0541   340
11.0641   335
11.0741   319
11.0841   300
11.0941   323
11.1041   340
11.1141   322
11.1241   309
11.1341   295
11.1441   318
11.1541   354
11.1641   368
11.1741   366
11.1841   368
11.1941   378
11.2041   414
11.2141   447
11.2241   454
11.2341   495
11.2441   485
11.2541   439
11.2641   473
11.2741   510
11.2841   512
11.2941   500
11.3041   501
11.3141   492
11.3241   457
11.3341   407
11.3441   401
11.3541   409
11.3641   391
11.3741   370
11.3841   349
11.3941   326
11.4041   321
11.4141   306
11.4241   283
11.4341   283
11.4441   276
11.4541   252
11.4641   262
11.4741   273
11.4841   262
11.4941   252
11.5041   266
11.5141   284
11.5241   256
11.5341   229
11.5441   255
11.5541   270
11.5641   288
11.5741   273
11.5841   263
11.5941   243
11.6041   255
11.6141   269
11.6241   281
11.6341   271
11.6441   268
11.6541   251
11.6641   259
11.6741   258
11.6841   264
11.6941   263
11.7041   239
11.7141   234
11.7241   240
11.7341   221
11.7441   211
11.7541   213
11.7641   210
11.7741   195
11.7841   208
11.7941   202
11.8041   188
11.8141   197
11.8241   197
11.8341   190
11.8441   193
11.8541   200
11.8641   186
11.8741   194
11.8841   211
11.8941   188
11.9041   179
11.9141   182
11.9241   193
11.9341   193
11.9441   175
11.9541   158
11.9641   184
11.9741   206
11.9841   194
11.9941   183
12.0041   181
12.0141   184
12.0241   199
12.0341   208
12.0441   217
12.0541   194
12.0641   181
12.0741   188
12.0841   173
12.0941   182
12.1041   201
12.1141   189
12.1241   187
12.1341   197
12.1441   191
12.1541   190
12.1641   179
12.1741   180
12.1841   198
12.1941   194
12.2041   180
12.2141   177
12.2241   188
12.2341   185
12.2441   189
12.2541   203
12.2641   199
12.2741   195
12.2841   183
12.2941   174
12.3041   193
12.3141   181
12.3241   186
12.3341   188
12.3441   197
12.3541   202
12.3641   185
12.3741   189
12.3841   208
12.3941   194
12.4041   177
12.4141   195
12.4241   207
12.4341   197
12.4441   182
12.4541   188
12.4641   200
12.4741   216
12.4841   215
12.4941   198
12.5041   190
12.5141   192
12.5241   206
12.5341   212
12.5441   207
12.5541   219
12.5641   209
12.5741   211
12.5841   205
12.5941   189
12.6041   191
12.6141   203
12.6241   198
12.6341   192
12.6441   196
12.6541   211
12.6641   217
12.6741   210
12.6841   208
12.6941   208
12.7041   207
12.7141   216
12.7241   213
12.7341   199
12.7441   221
12.7541   226
12.7641   213
12.7741   212
12.7841   215
12.7941   216
12.8041   216
12.8141   217
12.8241   215
12.8341   214
12.8441   223
12.8541   234
12.8641   237
12.8741   226
12.8841   211
12.8941   212
12.9041   228
12.9141   222
12.9241   221
12.9341   221
12.9441   207
12.9541   206
12.9641   233
12.9741   240
12.9841   233
12.9941   215
13.0041   215
13.0141   231
13.0241   214
13.0341   195
13.0441   224
13.0541   245
13.0641   231
13.0741   230
13.0841   238
13.0941   225
13.1041   211
13.1141   255
13.1241   258
13.1341   245
13.1441   236
13.1541   235
13.1641   243
13.1741   267
13.1841   270
13.1941   254
13.2041   257
13.2141   279
13.2241   289
13.2341   298
13.2441   299
13.2541   323
13.2641   327
13.2741   342
13.2841   371
13.2941   371
13.3041   380
13.3141   404
13.3241   420
13.3341   420
13.3441   435
13.3541   464
13.3641   496
13.3741   487
13.3841   473
13.3941   442
13.4041   432
13.4141   459
13.4241   455
13.4341   440
13.4441   430
13.4541   407
13.4641   386
13.4741   378
13.4841   366
13.4941   349
13.5041   325
13.5141   325
13.5241   317
13.5341   323
13.5441   319
13.5541   279
13.5641   265
13.5741   260
13.5841   241
13.5941   250
13.6041   273
13.6141   275
13.6241   255
13.6341   255
13.6441   269
13.6541   276
13.6641   269
13.6741   261
13.6841   255
13.6941   250
13.7041   256
13.7141   262
13.7241   273
13.7341   276
13.7441   268
13.7541   268
13.7641   267
13.7741   285
13.7841   288
13.7941   272
13.8041   270
13.8141   279
13.8241   291
13.8341   286
13.8441   286
13.8541   275
13.8641   268
13.8741   295
13.8841   299
13.8941   290
13.9041   299
13.9141   296
13.9241   302
13.9341   317
13.9441   337
13.9541   362
13.9641   361
13.9741   375
13.9841   413
13.9941   435
14.0041   479
14.0141   516
14.0241   536
14.0341   574
14.0441   607
14.0541   629
14.0641   671
14.0741   722
14.0841   754
14.0941   784
14.1041   830
14.1141   864
14.1241   863
14.1341   875
14.1441   902
14.1541   923
14.1641   916
14.1741   854
14.1841   794
14.1941   820
14.2041   815
14.2141   715
14.2241   668
14.2341   639
14.2441   604
14.2541   595
14.2641   547
14.2741   491
14.2841   468
14.2941   433
14.3041   403
14.3141   402
14.3241   392
14.3341   361
14.3441   347
14.3541   347
14.3641   331
14.3741   338
14.3841   351
14.3941   346
14.4041   313
14.4141   306
14.4241   312
14.4341   316
14.4441   332
14.4541   327
14.4641   312
14.4741   313
14.4841   311
14.4941   317
14.5041   299
14.5141   298
14.5241   326
14.5341   315
14.5441   303
14.5541   294
14.5641   292
14.5741   312
14.5841   323
14.5941   322
14.6041   323
14.6141   325
14.6241   324
14.6341   325
14.6441   323
14.6541   316
14.6641   326
14.6741   342
14.6841   327
14.6941   319
14.7041   341
14.7141   343
14.7241   326
14.7341   325
14.7441   325
14.7541   323
14.7641   326
14.7741   322
14.7841   320
14.7941   336
14.8041   338
14.8141   316
14.8241   338
14.8341   351
14.8441   351
14.8541   372
14.8641   370
14.8741   350
14.8841   361
14.8941   360
14.9041   364
14.9141   403
14.9241   387
14.9341   372
14.9441   387
14.9541   380
14.9641   374
14.9741   392
14.9841   382
14.9941   392
15.0041   387
15.0141   381
15.0241   361
15.0341   364
15.0441   365
15.0541   364
15.0641   362
15.0741   350
15.0841   348
15.0941   361
15.1041   365
15.1141   373
15.1241   358
15.1341   348
15.1441   345
15.1541   352
15.1641   353
15.1741   347
15.1841   339
15.1941   345
15.2041   353
15.2141   376
15.2241   368
15.2341   343
15.2441   363
15.2541   370
15.2641   350
15.2741   340
15.2841   353
15.2941   350
15.3041   362
15.3141   354
15.3241   341
15.3341   372
15.3441   372
15.3541   354
15.3641   359
15.3741   365
15.3841   368
15.3941   354
15.4041   352
15.4141   357
15.4241   353
15.4341   346
15.4441   342
15.4541   361
15.4641   388
15.4741   393
15.4841   402
15.4941   387
15.5041   381
15.5141   390
15.5241   396
15.5341   382
15.5441   399
15.5541   399
15.5641   408
15.5741   440
15.5841   448
15.5941   452
15.6041   457
15.6141   468
15.6241   512
15.6341   533
15.6441   523
15.6541   544
15.6641   591
15.6741   609
15.6841   615
15.6941   656
15.7041   668
15.7141   675
15.7241   681
15.7341   703
15.7441   693
15.7541   723
15.7641   713
15.7741   699
15.7841   731
15.7941   732
15.8041   718
15.8141   717
15.8241   711
15.8341   673
15.8441   667
15.8541   679
15.8641   614
15.8741   549
15.8841   582
15.8941   577
15.9041   559
15.9141   568
15.9241   531
15.9341   514
15.9441   488
15.9541   459
15.9641   473
15.9741   473
15.9841   471
15.9941   460
16.0041   440
16.0141   455
16.0241   458
16.0341   454
16.0441   421
16.0541   429
16.0641   425
16.0741   408
16.0841   411
16.0941   436
16.1041   434
16.1141   430
16.1241   424
16.1341   433
16.1441   431
16.1541   443
16.1641   423
16.1741   407
16.1841   398
16.1941   406
16.2041   423
16.2141   439
16.2241   417
16.2341   417
16.2441   420
16.2541   426
16.2641   432
16.2741   463
16.2841   451
16.2941   442
16.3041   442
16.3141   425
16.3241   455
16.3341   451
16.3441   431
16.3541   419
16.3641   415
16.3741   432
16.3841   440
16.3941   438
16.4041   434
16.4141   437
16.4241   441
16.4341   423
16.4441   428
16.4541   429
16.4641   441
16.4741   447
16.4841   439
16.4941   424
16.5041   436
16.5141   465
16.5241   449
16.5341   441
16.5441   461
16.5541   455
16.5641   449
16.5741   466
16.5841   452
16.5941   457
16.6041   435
16.6141   471
16.6241   487
16.6341   484
16.6441   489
16.6541   477
16.6641   475
16.6741   461
16.6841   480
16.6941   455
16.7041   481
16.7141   460
16.7241   430
16.7341   464
16.7441   479
16.7541   483
16.7641   514
16.7741   481
16.7841   476
16.7941   452
16.8041   472
16.8141   491
16.8241   484
16.8341   498
16.8441   503
16.8541   501
16.8641   479
16.8741   476
16.8841   496
16.8941   479
16.9041   472
16.9141   464
16.9241   481
16.9341   483
16.9441   453
16.9541   479
16.9641   487
16.9741   466
16.9841   449
16.9941   472
17.0041   490
17.0141   480
17.0241   487
17.0341   491
17.0441   509
17.0541   507
17.0641   490
17.0741   510
17.0841   522
17.0941   506
17.1041   505
17.1141   499
17.1241   459
17.1341   475
17.1441   477
17.1541   511
17.1641   505
17.1741   498
17.1841   531
17.1941   510
17.2041   516
17.2141   534
17.2241   521
17.2341   506
17.2441   493
17.2541   479
17.2641   488
17.2741   522
17.2841   503
17.2941   507
17.3041   537
17.3141   532
17.3241   512
17.3341   511
17.3441   489
17.3541   498
17.3641   517
17.3741   534
17.3841   544
17.3941   537
17.4041   518
17.4141   532
17.4241   532
17.4341   502
17.4441   502
17.4541   548
17.4641   547
17.4741   563
17.4841   528
17.4941   518
17.5041   522
17.5141   539
17.5241   558
17.5341   582
17.5441   535
17.5541   555
17.5641   550
17.5741   553
17.5841   545
17.5941   563
17.6041   574
17.6141   598
17.6241   582
17.6341   563
17.6441   548
17.6541   582
17.6641   615
17.6741   586
17.6841   609
17.6941   580
17.7041   577
17.7141   576
17.7241   589
17.7341   582
17.7441   585
17.7541   574
17.7641   577
17.7741   550
17.7841   551
17.7941   567
17.8041   520
17.8141   569
17.8241   592
17.8341   597
17.8441   558
17.8541   556
17.8641   546
17.8741   553
17.8841   569
17.8941   530
17.9041   554
17.9141   559
17.9241   594
17.9341   574
17.9441   616
17.9541   570
17.9641   540
17.9741   531
17.9841   551
17.9941   566
18.0041   570
18.0141   592
18.0241   570
18.0341   531
18.0441   558
18.0541   574
18.0641   584
18.0741   566
18.0841   602
18.0941   606
18.1041   596
18.1141   580
18.1241   562
18.1341   551
18.1441   600
18.1541   568
18.1641   575
18.1741   589
18.1841   569
18.1941   535
18.2041   558
18.2141   576
18.2241   540
18.2341   576
18.2441   547
18.2541   572
18.2641   614
18.2741   560
18.2841   568
18.2941   581
18.3041   562
18.3141   566
18.3241   570
18.3341   566
18.3441   568
18.3541   584
18.3641   555
18.3741   569
18.3841   597
18.3941   589
18.4041   579
18.4141   589
18.4241   600
18.4341   608
18.4441   617
18.4541   601
18.4641   631
18.4741   616
18.4841   608
18.4941   612
18.5041   592
18.5141   602
18.5241   602
18.5341   603
18.5441   635
18.5541   636
18.5641   680
18.5741   585
18.5841   584
18.5941   626
18.6041   638
18.6141   627
18.6241   627
18.6341   611
18.6441   624
18.6541   642
18.6641   656
18.6741   643
18.6841   643
18.6941   632
18.7041   617
18.7141   579
18.7241   605
18.7341   616
18.7441   603
18.7541   651
18.7641   611
18.7741   627
18.7841   606
18.7941   597
18.8041   617
18.8141   626
18.8241   599
18.8341   587
18.8441   635
18.8541   622
18.8641   623
18.8741   628
18.8841   619
18.8941   609
18.9041   636
18.9141   630
18.9241   625
18.9341   616
18.9441   619
18.9541   626
18.9641   632
18.9741   605
18.9841   608
18.9941   619
19.0041   625
19.0141   638
19.0241   592
19.0341   634
19.0441   638
19.0541   664
19.0641   615
19.0741   610
19.0841   636
19.0941   613
19.1041   623
19.1141   640
19.1241   632
19.1341   633
19.1441   622
19.1541   632
19.1641   624
19.1741   610
19.1841   652
19.1941   639
19.2041   626
19.2141   644
19.2241   646
19.2341   620
19.2441   624
19.2541   637
19.2641   629
19.2741   641
19.2841   658
19.2941   629
19.3041   610
19.3141   647
19.3241   638
19.3341   636
19.3441   642
19.3541   624
19.3641   612
19.3741   641
19.3841   652
19.3941   641
19.4041   636
19.4141   669
19.4241   660
19.4341   689
19.4441   645
19.4541   639
19.4641   664
19.4741   648
19.4841   654
19.4941   633
19.5041   653
19.5141   657
19.5241   646
19.5341   650
19.5441   652
19.5541   649
19.5641   664
19.5741   667
19.5841   644
19.5941   629
19.6041   633
19.6141   625
19.6241   655
19.6341   661
19.6441   667
19.6541   665
19.6641   635
19.6741   655
19.6841   696
19.6941   660
19.7041   691
19.7141   649
19.7241   671
19.7341   703
19.7441   664
19.7541   675
19.7641   699
19.7741   696
19.7841   690
19.7941   691
19.8041   697
19.8141   663
19.8241   656
19.8341   701
19.8441   668
19.8541   655
19.8641   674
19.8741   710
19.8841   685
19.8941   655
19.9041   665
19.9141   638
19.9241   677
19.9341   673
19.9441   628
19.9541   669
19.9641   669
19.9741   645
19.9841   676
19.9941   664
20.0041   645
20.0141   675
20.0241   691
20.0341   671
20.0441   694
20.0541   720
20.0641   692
20.0741   702
20.0841   636
20.0941   631
20.1041   667
20.1141   705
20.1241   672
20.1341   686
20.1441   717
20.1541   669
20.1641   675
20.1741   684
20.1841   655
20.1941   683
20.2041   653
20.2141   653
20.2241   659
20.2341   667
20.2441   662
20.2541   679
20.2641   661
20.2741   685
20.2841   682
20.2941   678
20.3041   664
20.3141   718
20.3241   673
20.3341   690
20.3441   661
20.3541   679
20.3641   726
20.3741   672
20.3841   693
20.3941   704
20.4041   654
20.4141   674
20.4241   706
20.4341   714
20.4441   658
20.4541   654
20.4641   701
20.4741   670
20.4841   672
20.4941   706
20.5041   683
20.5141   678
20.5241   638
20.5341   673
20.5441   691
20.5541   639
20.5641   689
20.5741   694
20.5841   705
20.5941   701
20.6041   676
20.6141   651
20.6241   683
20.6341   694
20.6441   690
20.6541   687
20.6641   680
20.6741   687
20.6841   688
20.6941   673
20.7041   704
20.7141   670
20.7241   669
20.7341   686
20.7441   702
20.7541   733
20.7641   710
20.7741   706
20.7841   666
20.7941   711
20.8041   705
20.8141   699
20.8241   719
20.8341   726
20.8441   739
20.8541   748
20.8641   767
20.8741   771
20.8841   747
20.8941   781
20.9041   781
20.9141   763
20.9241   784
20.9341   866
20.9441   825
20.9541   896
20.9641   903
20.9741   901
20.9841   943
20.9941   925
21.0041   916
21.0141   957
21.0241   970
21.0341   998
21.0441   963
21.0541  1015
21.0641   961
21.0741   972
21.0841  1035
21.0941  1004
21.1041  1091
21.1141  1138
21.1241  1097
21.1341  1076
21.1441  1086
21.1541  1040
21.1641  1002
21.1741  1050
21.1841  1087
21.1941  1043
21.2041  1022
21.2141   973
21.2241  1000
21.2341   936
21.2441   987
21.2541   924
21.2641   939
21.2741   852
21.2841   866
21.2941   872
21.3041   859
21.3141   815
21.3241   841
21.3341   810
21.3441   799
21.3541   781
21.3641   805
21.3741   759
21.3841   792
21.3941   714
21.4041   702
21.4141   745
21.4241   764
21.4341   747
21.4441   698
21.4541   693
21.4641   719
21.4741   749
21.4841   751
21.4941   692
21.5041   684
21.5141   719
21.5241   663
21.5341   716
21.5441   729
21.5541   674
21.5641   717
21.5741   714
21.5841   661
21.5941   707
21.6041   675
21.6141   688
21.6241   728
21.6341   705
21.6441   707
21.6541   686
21.6641   698
21.6741   738
21.6841   719
21.6941   707
21.7041   686
21.7141   687
21.7241   669
21.7341   769
21.7441   696
21.7541   675
21.7641   691
21.7741   753
21.7841   711
21.7941   663
21.8041   658
21.8141   699
21.8241   706
21.8341   701
21.8441   703
21.8541   682
21.8641   674
21.8741   753
21.8841   716
21.8941   723
21.9041   701
21.9141   732
21.9241   731
21.9341   725
21.9441   729
21.9541   707
21.9641   708
21.9741   649
21.9841   740
21.9941   723
22.0041   731
22.0141   694
22.0241   713
22.0341   715
22.0441   698
22.0541   690
22.0641   698
22.0741   651
22.0841   710
22.0941   729
22.1041   678
22.1141   709
22.1241   713
22.1341   664
22.1441   692
22.1541   702
22.1641   728
22.1741   709
22.1841   692
22.1941   688
22.2041   685
22.2141   761
22.2241   715
22.2341   709
22.2441   703
22.2541   717
22.2641   718
22.2741   736
22.2841   710
22.2941   702
22.3041   759
22.3141   682
22.3241   741
22.3341   705
22.3441   717
22.3541   691
22.3641   708
22.3741   711
22.3841   725
22.3941   709
22.4041   659
22.4141   707
22.4241   692
22.4341   737
22.4441   688
22.4541   719
22.4641   729
22.4741   640
22.4841   715
22.4941   723
22.5041   688
22.5141   690
22.5241   640
22.5341   700
22.5441   683
22.5541   685
22.5641   740
22.5741   727
22.5841   692
22.5941   714
22.6041   702
22.6141   680
22.6241   699
22.6341   730
22.6441   712
22.6541   694
22.6641   682
22.6741   677
22.6841   690
22.6941   683
22.7041   735
22.7141   690
22.7241   694
22.7341   682
22.7441   715
22.7541   683
22.7641   673
22.7741   665
22.7841   651
22.7941   687
22.8041   713
22.8141   732
22.8241   762
22.8341   716
22.8441   664
22.8541   686
22.8641   657
22.8741   704
22.8841   657
22.8941   671
22.9041   704
22.9141   652
22.9241   715
22.9341   721
22.9441   741
22.9541   675
22.9641   680
22.9741   680
22.9841   696
22.9941   664
23.0041   709
23.0141   684
23.0241   681
23.0341   700
23.0441   700
23.0541   676
23.0641   732
23.0741   657
23.0841   687
23.0941   672
23.1041   708
23.1141   692
23.1241   685
23.1341   686
23.1441   732
23.1541   676
23.1641   694
23.1741   681
23.1841   684
23.1941   669
23.2041   649
23.2141   702
23.2241   685
23.2341   684
23.2441   698
23.2541   634
23.2641   666
23.2741   673
23.2841   698
23.2941   641
23.3041   681
23.3141   653
23.3241   661
23.3341   685
23.3441   730
23.3541   695
23.3641   697
23.3741   706
23.3841   686
23.3941   684
23.4041   688
23.4141   660
23.4241   661
23.4341   682
23.4441   662
23.4541   703
23.4641   693
23.4741   697
23.4841   675
23.4941   707
23.5041   697
23.5141   662
23.5241   654
23.5341   693
23.5441   639
23.5541   669
23.5641   663
23.5741   682
23.5841   706
23.5941   686
23.6041   670
23.6141   685
23.6241   651
23.6341   678
23.6441   691
23.6541   659
23.6641   691
23.6741   708
23.6841   683
23.6941   749
23.7041   714
23.7141   748
23.7241   693
23.7341   757
23.7441   709
23.7541   717
23.7641   722
23.7741   778
23.7841   776
23.7941   746
23.8041   782
23.8141   670
23.8241   723
23.8341   735
23.8441   702
23.8541   725
23.8641   767
23.8741   733
23.8841   739
23.8941   674
23.9041   719
23.9141   698
23.9241   670
23.9341   723
23.9441   698
23.9541   747
23.9641   732
23.9741   677
23.9841   708
23.9941   678
24.0041   711
24.0141   680
24.0241   680
24.0341   672
24.0441   696
24.0541   665
24.0641   705
24.0741   677
24.0841   618
24.0941   639
24.1041   672
24.1141   656
24.1241   642
24.1341   631
24.1441   688
24.1541   701
24.1641   683
24.1741   712
24.1841   659
24.1941   669
24.2041   674
24.2141   673
24.2241   663
24.2341   640
24.2441   669
24.2541   685
24.2641   676
24.2741   643
24.2841   639
24.2941   685
24.3041   682
24.3141   639
24.3241   660
24.3341   698
24.3441   632
24.3541   675
24.3641   649
24.3741   646
24.3841   717
24.3941   710
24.4041   634
24.4141   660
24.4241   652
24.4341   653
24.4441   635
24.4541   683
24.4641   612
24.4741   705
24.4841   622
24.4941   645
24.5041   672
24.5141   633
24.5241   637
24.5341   633
24.5441   654
24.5541   643
24.5641   656
24.5741   669
24.5841   645
24.5941   605
24.6041   620
24.6141   654
24.6241   632
24.6341   634
24.6441   630
24.6541   629
24.6641   606
24.6741   660
24.6841   673
24.6941   655
24.7041   613
24.7141   643
24.7241   652
24.7341   672
24.7441   685
24.7541   619
24.7641   605
24.7741   634
24.7841   613
24.7941   679
24.8041   642
24.8141   662
24.8241   638
24.8341   645
24.8441   607
24.8541   635
24.8641   627
24.8741   642
24.8841   613
24.8941   639
24.9041   650
24.9141   636
24.9241   607
24.9341   578
24.9441   624
24.9541   690
24.9641   660
24.9741   661
24.9841   649
24.9941   630
25.0041   612
25.0141   661
25.0241   672
25.0341   648
25.0441   610
25.0541   681
25.0641   640
25.0741   629
25.0841   606
25.0941   647
25.1041   681
25.1141   671
25.1241   628
25.1341   636
25.1441   611
25.1541   630
25.1641   633
25.1741   641
25.1841   622
25.1941   632
25.2041   688
25.2141   648
25.2241   693
25.2341   631
25.2441   677
25.2541   663
25.2641   600
25.2741   648
25.2841   588
25.2941   606
25.3041   653
25.3141   604
25.3241   618
25.3341   606
25.3441   668
25.3541   682
25.3641   626
25.3741   651
25.3841   617
25.3941   593
25.4041   617
25.4141   647
25.4241   647
25.4341   617
25.4441   645
25.4541   590
25.4641   643
25.4741   629
25.4841   626
25.4941   607
25.5041   613
25.5141   627
25.5241   584
25.5341   603
25.5441   629
25.5541   619
25.5641   596
25.5741   589
25.5841   584
25.5941   577
25.6041   578
25.6141   559
25.6241   609
25.6341   644
25.6441   616
25.6541   585
25.6641   573
25.6741   579
25.6841   593
25.6941   582
25.7041   614
25.7141   581
25.7241   606
25.7341   587
25.7441   571
25.7541   600
25.7641   559
25.7741   593
25.7841   596
25.7941   620
25.8041   582
25.8141   614
25.8241   569
25.8341   611
25.8441   549
25.8541   589
25.8641   586
25.8741   587
25.8841   594
25.8941   565
25.9041   601
25.9141   548
25.9241   599
25.9341   534
25.9441   573
25.9541   583
25.9641   564
25.9741   553
25.9841   585
25.9941   603
26.0041   564
26.0141   580
26.0241   523
26.0341   570
26.0441   542
26.0541   590
26.0641   563
26.0741   573
26.0841   554
26.0941   580
26.1041   557
26.1141   581
26.1241   577
26.1341   590
26.1441   549
26.1541   573
26.1641   587
26.1741   587
26.1841   557
26.1941   564
26.2041   557
26.2141   571
26.2241   588
26.2341   582
26.2441   586
26.2541   583
26.2641   546
26.2741   577
26.2841   594
26.2941   577
26.3041   544
26.3141   580
26.3241   540
26.3341   568
26.3441   612
26.3541   561
26.3641   601
26.3741   607
26.3841   553
26.3941   593
26.4041   564
26.4141   555
26.4241   576
26.4341   600
26.4441   563
26.4541   569
26.4641   564
26.4741   569
26.4841   590
26.4941   533
26.5041   571
26.5141   552
26.5241   545
26.5341   559
26.5441   576
26.5541   581
26.5641   545
26.5741   540
26.5841   568
26.5941   516
26.6041   548
26.6141   560
26.6241   560
26.6341   519
26.6441   570
26.6541   549
26.6641   503
26.6741   565
26.6841   523
26.6941   527
26.7041   558
26.7141   539
26.7241   541
26.7341   555
26.7441   519
26.7541   551
26.7641   554
26.7741   549
26.7841   526
26.7941   543
26.8041   561
26.8141   538
26.8241   549
26.8341   538
26.8441   554
26.8541   559
26.8641   534
26.8741   546
26.8841   543
26.8941   514
26.9041   516
26.9141   561
26.9241   506
26.9341   546
26.9441   530
26.9541   531
26.9641   552
26.9741   492
26.9841   507
26.9941   523
27.0041   537
27.0141   524
27.0241   515
27.0341   497
27.0441   527
27.0541   544
27.0641   556
27.0741   522
27.0841   530
27.0941   553
27.1041   544
27.1141   490
27.1241   484
27.1341   504
27.1441   533
27.1541   564
27.1641   501
27.1741   533
27.1841   510
27.1941   554
27.2041   535
27.2141   552
27.2241   549
27.2341   512
27.2441   511
27.2541   534
27.2641   518
27.2741   521
27.2841   514
27.2941   530
27.3041   518
27.3141   531
27.3241   511
27.3341   513
27.3441   492
27.3541   502
27.3641   520
27.3741   511
27.3841   470
27.3941   493
27.4041   503
27.4141   524
27.4241   506
27.4341   495
27.4441   502
27.4541   501
27.4641   471
27.4741   530
27.4841   517
27.4941   484
27.5041   573
27.5141   476
27.5241   499
27.5341   528
27.5441   500
27.5541   499
27.5641   518
27.5741   517
27.5841   504
27.5941   484
27.6041   481
27.6141   511
27.6241   502
27.6341   503
27.6441   472
27.6541   483
27.6641   520
27.6741   463
27.6841   482
27.6941   481
27.7041   518
27.7141   472
27.7241   496
27.7341   482
27.7441   520
27.7541   474
27.7641   493
27.7741   504
27.7841   474
27.7941   483
27.8041   489
27.8141   493
27.8241   462
27.8341   470
27.8441   453
27.8541   486
27.8641   492
27.8741   469
27.8841   483
27.8941   469
27.9041   481
27.9141   471
27.9241   468
27.9341   482
27.9441   514
27.9541   497
27.9641   479
27.9741   461
27.9841   480
27.9941   465
28.0041   446
28.0141   468
28.0241   462
28.0341   469
28.0441   462
28.0541   446
28.0641   489
28.0741   470
28.0841   470
28.0941   498
28.1041   454
28.1141   449
28.1241   450
28.1341   471
28.1441   476
28.1541   473
28.1641   496
28.1741   460
28.1841   445
28.1941   487
28.2041   444
28.2141   470
28.2241   483
28.2341   469
28.2441   462
28.2541   475
28.2641   438
28.2741   479
28.2841   462
28.2941   458
28.3041   452
28.3141   479
28.3241   464
28.3341   458
28.3441   454
28.3541   469
28.3641   472
28.3741   478
28.3841   469
28.3941   475
28.4041   459
28.4141   487
28.4241   496
28.4341   451
28.4441   475
28.4541   436
28.4641   446
28.4741   473
28.4841   426
28.4941   464
28.5041   476
28.5141   444
28.5241   397
28.5341   470
28.5441   457
28.5541   412
28.5641   452
28.5741   473
28.5841   467
28.5941   472
28.6041   434
28.6141   461
28.6241   423
28.6341   458
28.6441   421
28.6541   428
28.6641   431
28.6741   454
28.6841   411
28.6941   447
28.7041   422
28.7141   457
28.7241   453
28.7341   431
28.7441   421
28.7541   452
28.7641   448
28.7741   417
28.7841   471
28.7941   448
28.8041   412
28.8141   412
28.8241   399
28.8341   434
28.8441   439
28.8541   460
28.8641   419
28.8741   439
28.8841   438
28.8941   422
28.9041   418
28.9141   468
28.9241   445
28.9341   429
28.9441   456
28.9541   446
28.9641   420
28.9741   377
28.9841   411
28.9941   429
29.0041   472
29.0141   429
29.0241   432
29.0341   400
29.0441   414
29.0541   439
29.0641   403
29.0741   409
29.0841   398
29.0941   473
29.1041   418
29.1141   428
29.1241   359
29.1341   390
29.1441   427
29.1541   420
29.1641   436
29.1741   426
29.1841   411
29.1941   417
29.2041   407
29.2141   391
29.2241   426
29.2341   405
29.2441   458
29.2541   430
29.2641   408
29.2741   412
29.2841   424
29.2941   436
29.3041   399
29.3141   403
29.3241   406
29.3341   408
29.3441   375
29.3541   425
29.3641   387
29.3741   419
29.3841   418
29.3941   376
29.4041   396
29.4141   428
29.4241   429
29.4341   434
29.4441   409
29.4541   406
29.4641   398
29.4741   382
29.4841   416
29.4941   386
29.5041   390
29.5141   387
29.5241   400
29.5341   407
29.5441   391
29.5541   377
29.5641   397
29.5741   367
29.5841   381
29.5941   407
29.6041   395
29.6141   394
29.6241   380
29.6341   389
29.6441   389
29.6541   384
29.6641   386
29.6741   400
29.6841   381
29.6941   402
29.7041   393
29.7141   392
29.7241   403
29.7341   386
29.7441   387
29.7541   390
29.7641   399
29.7741   370
29.7841   383
29.7941   390
29.8041   351
29.8141   395
29.8241   385
29.8341   376
29.8441   336
29.8541   369
29.8641   353
29.8741   377
29.8841   351
29.8941   365
29.9041   383
29.9141   383
29.9241   347
29.9341   370
29.9441   389
29.9541   366
29.9641   376
29.9741   383
29.9841   414
29.9941   366
30.0041   350
30.0141   362
30.0241   362
30.0341   345
30.0441   411
30.0541   363
30.0641   394
30.0741   332
30.0841   369
30.0941   374
30.1041   406
30.1141   354
30.1241   351
30.1341   372
30.1441   345
30.1541   371
30.1641   365
30.1741   357
30.1841   309
30.1941   372
30.2041   367
30.2141   372
30.2241   333
30.2341   328
30.2441   358
30.2541   366
30.2641   359
30.2741   344
30.2841   354
30.2941   328
30.3041   330
30.3141   356
30.3241   352
30.3341   362
30.3441   357
30.3541   310
30.3641   368
30.3741   353
30.3841   340
30.3941   365
30.4041   368
30.4141   287
30.4241   356
30.4341   346
30.4441   347
30.4541   348
30.4641   337
30.4741   336
30.4841   361
30.4941   346
30.5041   312
30.5141   318
30.5241   340
30.5341   332
30.5441   332
30.5541   367
30.5641   365
30.5741   366
30.5841   341
30.5941   374
30.6041   367
30.6141   356
30.6241   346
30.6341   350
30.6441   334
30.6541   367
30.6641   350
30.6741   337
30.6841   333
30.6941   342
30.7041   317
30.7141   341
30.7241   338
30.7341   360
30.7441   339
30.7541   327
30.7641   309
30.7741   309
30.7841   318
30.7941   327
30.8041   294
30.8141   316
30.8241   332
30.8341   326
30.8441   331
30.8541   361
30.8641   349
30.8741   336
30.8841   309
30.8941   337
30.9041   316
30.9141   338
30.9241   344
30.9341   337
30.9441   341
30.9541   333
30.9641   321
30.9741   350
30.9841   311
30.9941   321
31.0041   329
31.0141   332
31.0241   349
31.0341   296
31.0441   358
31.0541   314
31.0641   352
31.0741   300
31.0841   338
31.0941   320
31.1041   322
31.1141   325
31.1241   304
31.1341   345
31.1441   302
31.1541   325
31.1641   325
31.1741   311
31.1841   314
31.1941   285
31.2041   294
31.2141   311
31.2241   303
31.2341   301
31.2441   309
31.2541   302
31.2641   296
31.2741   333
31.2841   321
31.2941   313
31.3041   335
31.3141   328
31.3241   329
31.3341   322
31.3441   292
31.3541   294
31.3641   292
31.3741   284
31.3841   297
31.3941   321
31.4041   311
31.4141   288
31.4241   281
31.4341   284
31.4441   308
31.4541   279
31.4641   299
31.4741   291
31.4841   292
31.4941   298
31.5041   296
31.5141   273
31.5241   275
31.5341   297
31.5441   287
31.5541   326
31.5641   306
31.5741   298
31.5841   289
31.5941   308
31.6041   301
31.6141   294
31.6241   272
31.6341   304
31.6441   298
31.6541   291
31.6641   326
31.6741   269
31.6841   276
31.6941   303
31.7041   320
31.7141   306
31.7241   297
31.7341   305
31.7441   312
31.7541   289
31.7641   306
31.7741   301
31.7841   301
31.7941   286
31.8041   275
31.8141   298
31.8241   306
31.8341   287
31.8441   288
31.8541   278
31.8641   292
31.8741   297
31.8841   337
31.8941   310
31.9041   286
31.9141   289
31.9241   273
31.9341   313
31.9441   302
31.9541   279
31.9641   298
31.9741   280
31.9841   302
31.9941   296
32.0041   294
32.0141   259
32.0241   302
32.0341   303
32.0441   313
32.0541   294
32.0641   297
32.0741   291
32.0841   276
32.0941   286
32.1041   287
32.1141   280
32.1241   298
32.1341   312
32.1441   281
32.1541   270
32.1641   296
32.1741   306
32.1841   294
32.1941   298
32.2041   284
32.2141   310
32.2241   318
32.2341   313
32.2441   272
32.2541   313
32.2641   306
32.2741   268
32.2841   283
32.2941   271
32.3041   277
32.3141   286
32.3241   286
32.3341   280
32.3441   248
32.3541   270
32.3641   290
32.3741   276
32.3841   289
32.3941   274
32.4041   290
32.4141   256
32.4241   253
32.4341   252
32.4441   275
32.4541   266
32.4641   267
32.4741   256
32.4841   256
32.4941   299
32.5041   281
32.5141   256
32.5241   245
32.5341   237
32.5441   260
32.5541   264
32.5641   244
32.5741   263
32.5841   252
32.5941   255
32.6041   234
32.6141   275
32.6241   262
32.6341   250
32.6441   258
32.6541   250
32.6641   217
32.6741   243
32.6841   238
32.6941   254
32.7041   242
32.7141   247
32.7241   252
32.7341   232
32.7441   274
32.7541   240
32.7641   226
32.7741   257
32.7841   202
32.7941   258
32.8041   244
32.8141   221
32.8241   235
32.8341   238
32.8441   252
32.8541   226
32.8641   255
32.8741   223
32.8841   254
32.8941   234
32.9041   251
32.9141   219
32.9241   242
32.9341   217
32.9441   222
32.9541   228
32.9641   220
32.9741   218
32.9841   266
32.9941   221
33.0041   221
33.0141   225
33.0241   236
33.0341   225
33.0441   243
33.0541   224
33.0641   236
33.0741   244
33.0841   245
33.0941   246
33.1041   224
33.1141   202
33.1241   220
33.1341   226
33.1441   214
33.1541   241
33.1641   237
33.1741   229
33.1841   233
33.1941   252
33.2041   262
33.2141   227
33.2241   220
33.2341   227
33.2441   199
33.2541   210
33.2641   230
33.2741   227
33.2841   227
33.2941   241
33.3041   234
33.3141   244
33.3241   210
33.3341   210
33.3441   187
33.3541   254
33.3641   198
33.3741   219
33.3841   202
33.3941   200
33.4041   247
33.4141   226
33.4241   230
33.4341   217
33.4441   225
33.4541   188
33.4641   203
33.4741   235
33.4841   207
33.4941   211
33.5041   264
33.5141   237
33.5241   207
33.5341   218
33.5441   212
33.5541   223
33.5641   214
33.5741   212
33.5841   196
33.5941   222
33.6041   195
33.6141   203
33.6241   203
33.6341   199
33.6441   213
33.6541   210
33.6641   229
33.6741   212
33.6841   196
33.6941   204
33.7041   220
33.7141   220
33.7241   217
33.7341   207
33.7441   215
33.7541   202
33.7641   205
33.7741   210
33.7841   202
33.7941   200
33.8041   221
33.8141   196
33.8241   220
33.8341   193
33.8441   188
33.8541   203
33.8641   196
33.8741   199
33.8841   206
33.8941   201
33.9041   185
33.9141   175
33.9241   177
33.9341   207
33.9441   180
33.9541   213
33.9641   191
33.9741   166
33.9841   198
33.9941   192
34.0041   185
34.0141   187
34.0241   180
34.0341   206
34.0441   212
34.0541   190
34.0641   201
34.0741   191
34.0841   197
34.0941   221
34.1041   198
34.1141   188
34.1241   192
34.1341   176
34.1441   196
34.1541   201
34.1641   194
34.1741   189
34.1841   192
34.1941   192
34.2041   191
34.2141   196
34.2241   186
34.2341   174
34.2441   180
34.2541   180
34.2641   165
34.2741   181
34.2841   196
34.2941   184
34.3041   179
34.3141   173
34.3241   192
34.3341   172
34.3441   194
34.3541   189
34.3641   192
34.3741   157
34.3841   171
34.3941   188
34.4041   177
34.4141   174
34.4241   165
34.4341   169
34.4441   178
34.4541   172
34.4641   193
34.4741   176
34.4841   181
34.4941   195
34.5041   187
34.5141   179
34.5241   184
34.5341   172
34.5441   177
34.5541   186
34.5641   210
34.5741   175
34.5841   166
34.5941   174
34.6041   182
34.6141   190
34.6241   187
34.6341   165
34.6441   156
34.6541   186
34.6641   180
34.6741   198
34.6841   185
34.6941   177
34.7041   168
34.7141   199
34.7241   199
34.7341   177
34.7441   172
34.7541   150
34.7641   156
34.7741   164
34.7841   143
34.7941   176
34.8041   178
34.8141   156
34.8241   169
34.8341   141
34.8441   146
34.8541   144
34.8641   153
34.8741   160
34.8841   150
34.8941   168
34.9041   166
34.9141   164
34.9241   136
34.9341   183
34.9441   179
34.9541   158
34.9641   140
34.9741   173
34.9841   159
34.9941   166
35.0041   149
35.0141   172
35.0241   144
35.0341   139
35.0441   164
35.0541   164
35.0641   174
35.0741   159
35.0841   161
35.0941   162
35.1041   147
35.1141   139
35.1241   155
35.1341   153
35.1441   150
35.1541   157
35.1641   188
35.1741   168
35.1841   166
35.1941   171
35.2041   149
35.2141   149
35.2241   153
35.2341   164
35.2441   153
35.2541   149
35.2641   151
35.2741   130
35.2841   181
35.2941   168
35.3041   147
35.3141   140
35.3241   161
35.3341   153
35.3441   157
35.3541   166
35.3641   141
35.3741   144
35.3841   160
35.3941   158
35.4041   151
35.4141   140
35.4241   133
35.4341   148
35.4441   149
35.4541   139
35.4641   146
35.4741   137
35.4841   148
35.4941   151
35.5041   166
35.5141   154
35.5241   155
35.5341   144
35.5441   162
35.5541   130
35.5641   124
35.5741   148
35.5841   163
35.5941   158
35.6041   146
35.6141   161
35.6241   141
35.6341   154
35.6441   139
35.6541   135
35.6641   166
35.6741   160
35.6841   140
35.6941   143
35.7041   152
35.7141   140
35.7241   133
35.7341   115
35.7441   129
35.7541   141
35.7641   153
35.7741   152
35.7841   143
35.7941   132
35.8041   116
35.8141   130
35.8241   155
35.8341   139
35.8441   144
35.8541   141
35.8641   114
35.8741   138
35.8841   132
35.8941   149
35.9041   149
35.9141   152
35.9241   113
35.9341   110
35.9441   143
35.9541   126
35.9641   122
35.9741   129
35.9841   137
35.9941   128
36.0041   143
36.0141   121
36.0241   138
36.0341   134
36.0441   130
36.0541   120
36.0641   110
36.0741   125
36.0841   147
36.0941   118
36.1041   129
36.1141   120
36.1241   134
36.1341   111
36.1441   122
36.1541   131
36.1641   131
36.1741   139
36.1841   150
36.1941   145
36.2041   131
36.2141   141
36.2241   128
36.2341   122
36.2441   142
36.2541   111
36.2641   106
36.2741   140
36.2841   135
36.2941   114
36.3041   107
36.3141   133
36.3241   126
36.3341   125
36.3441   113
36.3541   116
36.3641    92
36.3741   121
36.3841   119
36.3941   123
36.4041   121
36.4141   124
36.4241   113
36.4341   118
36.4441   125
36.4541   111
36.4641   121
36.4741   117
36.4841   120
36.4941   117
36.5041   127
36.5141   105
36.5241   136
36.5341   126
36.5441   108
36.5541   110
36.5641   116
36.5741   120
36.5841   126
36.5941   124
36.6041   100
36.6141   115
36.6241   115
36.6341   113
36.6441   110
36.6541   102
36.6641   106
36.6741   118
36.6841   111
36.6941   121
36.7041   134
36.7141   111
36.7241    97
36.7341    85
36.7441   118
36.7541   105
36.7641   105
36.7741   111
36.7841   120
36.7941   116
36.8041   124
36.8141   105
36.8241   111
36.8341   105
36.8441   108
36.8541   103
36.8641   106
36.8741   109
36.8841   103
36.8941    93
36.9041   118
36.9141   123
36.9241   124
36.9341    97
36.9441   105
36.9541    98
36.9641   103
36.9741   108
36.9841   111
36.9941    96
37.0041    93
37.0141   121
37.0241   100
37.0341   106
37.0441   103
37.0541    98
37.0641    93
37.0741   108
37.0841   105
37.0941   104
37.1041    96
37.1141    89
37.1241   102
37.1341    91
37.1441    97
37.1541   109
37.1641    96
37.1741   110
37.1841    89
37.1941    90
37.2041   116
37.2141    99
37.2241    98
37.2341    89
37.2441   101
37.2541   102
37.2641   100
37.2741   100
37.2841    96
37.2941   129
37.3041    99
37.3141   106
37.3241    93
37.3341   102
37.3441   102
37.3541    95
37.3641    91
37.3741   113
37.3841   106
37.3941   105
37.4041    83
37.4141    81
37.4241   100
37.4341    90
37.4441    94
37.4541    90
37.4641    84
37.4741    74
37.4841    98
37.4941    94
37.5041   108
37.5141    85
37.5241    90
37.5341    77
37.5441    69
37.5541    86
37.5641    93
37.5741    85
37.5841    76
37.5941    90
37.6041    91
37.6141   104
37.6241    89
37.6341    89
37.6441    89
37.6541    79
37.6641    95
37.6741    82
37.6841    83
37.6941    71
37.7041    91
37.7141    92
37.7241    88
37.7341    85
37.7441    90
37.7541    83
37.7641    78
37.7741    91
37.7841    71
37.7941   102
37.8041    89
37.8141    84
37.8241    81
37.8341    80
37.8441    96
37.8541    90
37.8641    84
37.8741    85
37.8841    99
37.8941    89
37.9041    75
37.9141    74
37.9241    83
37.9341    74
37.9441    81
37.9541    77
37.9641    80
37.9741    88
37.9841    76
37.9941    74
38.0041    81
38.0141    69
38.0241    69
38.0341    78
38.0441    82
38.0541    70
38.0641    82
38.0741    88
38.0841    77
38.0941    69
38.1041    86
38.1141    61
38.1241    76
38.1341    66
38.1441    85
38.1541    96
38.1641    88
38.1741    81
38.1841    67
38.1941    74
38.2041    74
38.2141    67
38.2241    64
38.2341    72
38.2441    79
38.2541    76
38.2641    71
38.2741    59
38.2841    76
38.2941    65
38.3041    90
38.3141    68
38.3241    68
38.3341    83
38.3441    77
38.3541    84
38.3641    73
38.3741    65
38.3841    69
38.3941    72
38.4041    71
38.4141    71
38.4241    73
38.4341    71
38.4441    83
38.4541    77
38.4641    58
38.4741    70
38.4841    67
38.4941    62
38.5041    64
38.5141    60
38.5241    67
38.5341    85
38.5441    82
38.5541    66
38.5641    73
38.5741    61
38.5841    71
38.5941    69
38.6041    59
38.6141    66
38.6241    64
38.6341    79
38.6441    67
38.6541    54
38.6641    66
38.6741    64
38.6841    90
38.6941    64
38.7041    66
38.7141    56
38.7241    74
38.7341    57
38.7441    54
38.7541    64
38.7641    74
38.7741    66
38.7841    61
38.7941    64
38.8041    63
38.8141    60
38.8241    63
38.8341    62
38.8441    71
38.8541    58
38.8641    55
38.8741    67
38.8841    52
38.8941    64
38.9041    53
38.9141    60
38.9241    58
38.9341    47
38.9441    39
38.9541    64
38.9641    64
38.9741    63
38.9841    62
38.9941    63
39.0041    60
39.0141    69
39.0241    63
39.0341    59
39.0441    54
39.0541    66
39.0641    53
39.0741    51
39.0841    68
39.0941    52
39.1041    56
39.1141    43
39.1241    49
39.1341    57
39.1441    52
39.1541    61
39.1641    59
39.1741    47
39.1841    50
39.1941    50
39.2041    61
39.2141    58
39.2241    48
39.2341    59
39.2441    54
39.2541    58
39.2641    63
39.2741    56
39.2841    50
39.2941    52
39.3041    62
39.3141    51
39.3241    38
39.3341    60
39.3441    53
39.3541    55
39.3641    49
39.3741    60
39.3841    57
39.3941    50
39.4041    50
39.4141    44
39.4241    49
39.4341    56
39.4441    42
39.4541    35
39.4641    45
39.4741    42
39.4841    55
39.4941    46
39.5041    50
39.5141    53
39.5241    53
39.5341    53
39.5441    57
39.5541    44
39.5641    47
39.5741    48
39.5841    57
39.5941    50
39.6041    50
39.6141    50
39.6241    53
39.6341    51
39.6441    51
39.6541    47
39.6641    48
39.6741    48
39.6841    45
39.6941    46
39.7041    49
39.7141    47
39.7241    42
39.7341    41
39.7441    44
39.7541    50
39.7641    50
39.7741    45
39.7841    45
39.7941    46
39.8041    39
39.8141    45
39.8241    33
39.8341    46
39.8441    45
39.8541    44
39.8641    48
39.8741    32
39.8841    40
39.8941    37
39.9041    42
39.9141    42
39.9241    43
39.9341    44
39.9441    38
39.9541    45
39.9641    48
39.9741    39
39.9841    37
