Bruker Nano GmbH Berlin, Germany
Esprit 1.9

Date: 5/14/2021 1:42:18 PM
Real time: 17903
Life time: 16843
Pulse density: 87709


Detector type: XFlash 430
Window type: Custom type
Detector thickness: 0.45
Si dead layer:0.029

Calibration, lin.: 10
Calibration, abs.: -955.9
Mn FWHM: 137.05
Fano factor: 0.121
Channels: 4095

Energy Counts
-0.9559     0
-0.9459     0
-0.9359     0
-0.9259     0
-0.9159     0
-0.9059     0
-0.8959     0
-0.8859     0
-0.8759     0
-0.8659     0
-0.8559     0
-0.8459     0
-0.8359     0
-0.8259     0
-0.8159     0
-0.8059     0
-0.7959     0
-0.7859     0
-0.7759     0
-0.7659     0
-0.7559     0
-0.7459     0
-0.7359     0
-0.7259     0
-0.7159     0
-0.7059     0
-0.6959     0
-0.6859     0
-0.6759     0
-0.6659     0
-0.6559     0
-0.6459     0
-0.6359     0
-0.6259     0
-0.6159     0
-0.6059     0
-0.5959     0
-0.5859     0
-0.5759     0
-0.5659     0
-0.5559     0
-0.5459     0
-0.5359     0
-0.5259     0
-0.5159     0
-0.5059     0
-0.4959     0
-0.4859     0
-0.4759     0
-0.4659     0
-0.4559     0
-0.4459     0
-0.4359     0
-0.4259     0
-0.4159     0
-0.4059     0
-0.3959     0
-0.3859     0
-0.3759     0
-0.3659     0
-0.3559     0
-0.3459     0
-0.3359     0
-0.3259     0
-0.3159     0
-0.3059     0
-0.2959     0
-0.2859     0
-0.2759     0
-0.2659     0
-0.2559     0
-0.2459     0
-0.2359     0
-0.2259     0
-0.2159     0
-0.2059     0
-0.1959     0
-0.1859     0
-0.1759     0
-0.1659     0
-0.1559     0
-0.1459     0
-0.1359     0
-0.1259     0
-0.1159     3
-0.1059    20
-0.0959    37
-0.0859   174
-0.0759   625
-0.0659  1818
-0.0559  4905
-0.0459 10866
-0.0359 19912
-0.0259 32264
-0.0159 44045
-0.0059 51630
 0.0041 52053
 0.0141 44406
 0.0241 33034
 0.0341 20862
 0.0441 11349
 0.0541  5234
 0.0641  2095
 0.0741   776
 0.0841   220
 0.0941    62
 0.1041    20
 0.1141    10
 0.1241     7
 0.1341     4
 0.1441     5
 0.1541     7
 0.1641     9
 0.1741     1
 0.1841   129
 0.1941   244
 0.2041   226
 0.2141   248
 0.2241   233
 0.2341   226
 0.2441   258
 0.2541   265
 0.2641   245
 0.2741   233
 0.2841   221
 0.2941   259
 0.3041   230
 0.3141   221
 0.3241   225
 0.3341   228
 0.3441   215
 0.3541   225
 0.3641   224
 0.3741   215
 0.3841   203
 0.3941   186
 0.4041   232
 0.4141   230
 0.4241   206
 0.4341   191
 0.4441   192
 0.4541   198
 0.4641   190
 0.4741   182
 0.4841   208
 0.4941   203
 0.5041   223
 0.5141   218
 0.5241   202
 0.5341   206
 0.5441   212
 0.5541   198
 0.5641   170
 0.5741   177
 0.5841   189
 0.5941   179
 0.6041   168
 0.6141   164
 0.6241   172
 0.6341   168
 0.6441   179
 0.6541   177
 0.6641   181
 0.6741   182
 0.6841   176
 0.6941   191
 0.7041   188
 0.7141   160
 0.7241   157
 0.7341   157
 0.7441   161
 0.7541   172
 0.7641   158
 0.7741   151
 0.7841   173
 0.7941   180
 0.8041   163
 0.8141   163
 0.8241   172
 0.8341   158
 0.8441   156
 0.8541   166
 0.8641   178
 0.8741   146
 0.8841   163
 0.8941   179
 0.9041   162
 0.9141   149
 0.9241   153
 0.9341   145
 0.9441   156
 0.9541   173
 0.9641   168
 0.9741   182
 0.9841   158
 0.9941   143
 1.0041   154
 1.0141   148
 1.0241   169
 1.0341   134
 1.0441   162
 1.0541   156
 1.0641   160
 1.0741   160
 1.0841   158
 1.0941   148
 1.1041   150
 1.1141   145
 1.1241   136
 1.1341   152
 1.1441   181
 1.1541   156
 1.1641   159
 1.1741   146
 1.1841   153
 1.1941   144
 1.2041   119
 1.2141   147
 1.2241   132
 1.2341   146
 1.2441   142
 1.2541   129
 1.2641   141
 1.2741   158
 1.2841   150
 1.2941   141
 1.3041   147
 1.3141   142
 1.3241   126
 1.3341   140
 1.3441   147
 1.3541   118
 1.3641   119
 1.3741   137
 1.3841   131
 1.3941   149
 1.4041   135
 1.4141   123
 1.4241   131
 1.4341   135
 1.4441   138
 1.4541   143
 1.4641   152
 1.4741   140
 1.4841   140
 1.4941   146
 1.5041   145
 1.5141   153
 1.5241   154
 1.5341   135
 1.5441   144
 1.5541   124
 1.5641   140
 1.5741   145
 1.5841   154
 1.5941   129
 1.6041   124
 1.6141   120
 1.6241   146
 1.6341   182
 1.6441   151
 1.6541   171
 1.6641   205
 1.6741   267
 1.6841   320
 1.6941   435
 1.7041   487
 1.7141   606
 1.7241   619
 1.7341   642
 1.7441   648
 1.7541   669
 1.7641   569
 1.7741   456
 1.7841   373
 1.7941   336
 1.8041   280
 1.8141   247
 1.8241   216
 1.8341   196
 1.8441   170
 1.8541   152
 1.8641   152
 1.8741   154
 1.8841   152
 1.8941   164
 1.9041   151
 1.9141   133
 1.9241   127
 1.9341   151
 1.9441   148
 1.9541   156
 1.9641   158
 1.9741   154
 1.9841   179
 1.9941   179
 2.0041   170
 2.0141   185
 2.0241   171
 2.0341   161
 2.0441   176
 2.0541   152
 2.0641   136
 2.0741   152
 2.0841   140
 2.0941   152
 2.1041   127
 2.1141   133
 2.1241   126
 2.1341   106
 2.1441   122
 2.1541   103
 2.1641   121
 2.1741   114
 2.1841   121
 2.1941   135
 2.2041   121
 2.2141   109
 2.2241   112
 2.2341   123
 2.2441   120
 2.2541   134
 2.2641   124
 2.2741   111
 2.2841   120
 2.2941   116
 2.3041   124
 2.3141   105
 2.3241   126
 2.3341   120
 2.3441   107
 2.3541   126
 2.3641   119
 2.3741   106
 2.3841   125
 2.3941   128
 2.4041   123
 2.4141    97
 2.4241   112
 2.4341   118
 2.4441   130
 2.4541   119
 2.4641   126
 2.4741   109
 2.4841   116
 2.4941    92
 2.5041   100
 2.5141   113
 2.5241   110
 2.5341   102
 2.5441    93
 2.5541   115
 2.5641   112
 2.5741   104
 2.5841   105
 2.5941    90
 2.6041    97
 2.6141   114
 2.6241   116
 2.6341   111
 2.6441   100
 2.6541   105
 2.6641   104
 2.6741   103
 2.6841   118
 2.6941   107
 2.7041   104
 2.7141   101
 2.7241    81
 2.7341    94
 2.7441    99
 2.7541   104
 2.7641   101
 2.7741    96
 2.7841   118
 2.7941   119
 2.8041   111
 2.8141   129
 2.8241   117
 2.8341   110
 2.8441   121
 2.8541   100
 2.8641    98
 2.8741   112
 2.8841    86
 2.8941    99
 2.9041   100
 2.9141   106
 2.9241    93
 2.9341   116
 2.9441    87
 2.9541   104
 2.9641   119
 2.9741   120
 2.9841    98
 2.9941    97
 3.0041    96
 3.0141    93
 3.0241    96
 3.0341    87
 3.0441   103
 3.0541   119
 3.0641    89
 3.0741    88
 3.0841    82
 3.0941    66
 3.1041    90
 3.1141   106
 3.1241    79
 3.1341   100
 3.1441   102
 3.1541    88
 3.1641    89
 3.1741    93
 3.1841   111
 3.1941   103
 3.2041   105
 3.2141   113
 3.2241   103
 3.2341    98
 3.2441   137
 3.2541   147
 3.2641   184
 3.2741   169
 3.2841   206
 3.2941   228
 3.3041   194
 3.3141   223
 3.3241   227
 3.3341   223
 3.3441   176
 3.3541   168
 3.3641   166
 3.3741   155
 3.3841   136
 3.3941   125
 3.4041   104
 3.4141   102
 3.4241    81
 3.4341    85
 3.4441    81
 3.4541    82
 3.4641    85
 3.4741    97
 3.4841    81
 3.4941    81
 3.5041    95
 3.5141    88
 3.5241    99
 3.5341   118
 3.5441   127
 3.5541   155
 3.5641   194
 3.5741   207
 3.5841   272
 3.5941   386
 3.6041   497
 3.6141   595
 3.6241   806
 3.6341   966
 3.6441  1219
 3.6541  1418
 3.6641  1528
 3.6741  1699
 3.6841  1698
 3.6941  1722
 3.7041  1712
 3.7141  1531
 3.7241  1424
 3.7341  1161
 3.7441   986
 3.7541   795
 3.7641   588
 3.7741   429
 3.7841   307
 3.7941   225
 3.8041   155
 3.8141   131
 3.8241   115
 3.8341    86
 3.8441    83
 3.8541    84
 3.8641    75
 3.8741    67
 3.8841    87
 3.8941    93
 3.9041    97
 3.9141   117
 3.9241   146
 3.9341   160
 3.9441   185
 3.9541   221
 3.9641   240
 3.9741   250
 3.9841   293
 3.9941   329
 4.0041   316
 4.0141   333
 4.0241   347
 4.0341   326
 4.0441   294
 4.0541   269
 4.0641   230
 4.0741   215
 4.0841   165
 4.0941   135
 4.1041    95
 4.1141    90
 4.1241    97
 4.1341    82
 4.1441    71
 4.1541    76
 4.1641    80
 4.1741    63
 4.1841    61
 4.1941    69
 4.2041    61
 4.2141    66
 4.2241    58
 4.2341    68
 4.2441    59
 4.2541    53
 4.2641    63
 4.2741    56
 4.2841    54
 4.2941    64
 4.3041    70
 4.3141    69
 4.3241    63
 4.3341    67
 4.3441    80
 4.3541    88
 4.3641    81
 4.3741    72
 4.3841   103
 4.3941   102
 4.4041   116
 4.4141   159
 4.4241   184
 4.4341   221
 4.4441   262
 4.4541   296
 4.4641   339
 4.4741   340
 4.4841   399
 4.4941   423
 4.5041   415
 4.5141   413
 4.5241   373
 4.5341   367
 4.5441   324
 4.5541   311
 4.5641   245
 4.5741   196
 4.5841   194
 4.5941   175
 4.6041   146
 4.6141   115
 4.6241    96
 4.6341    90
 4.6441    92
 4.6541    86
 4.6641    93
 4.6741    65
 4.6841    73
 4.6941    61
 4.7041    86
 4.7141    74
 4.7241    78
 4.7341    72
 4.7441    73
 4.7541    63
 4.7641    91
 4.7741    97
 4.7841    94
 4.7941    97
 4.8041    73
 4.8141   100
 4.8241    98
 4.8341   109
 4.8441   111
 4.8541   126
 4.8641   126
 4.8741   128
 4.8841   131
 4.8941   125
 4.9041   143
 4.9141   156
 4.9241   161
 4.9341   165
 4.9441   172
 4.9541   152
 4.9641   162
 4.9741   141
 4.9841   121
 4.9941   124
 5.0041   102
 5.0141   115
 5.0241    95
 5.0341    75
 5.0441    79
 5.0541    80
 5.0641    72
 5.0741    83
 5.0841    86
 5.0941    88
 5.1041    83
 5.1141    82
 5.1241    70
 5.1341    73
 5.1441    84
 5.1541    62
 5.1641    80
 5.1741    79
 5.1841   100
 5.1941    82
 5.2041    72
 5.2141    74
 5.2241    86
 5.2341    73
 5.2441    76
 5.2541    74
 5.2641    88
 5.2741    70
 5.2841    64
 5.2941    77
 5.3041    71
 5.3141    75
 5.3241    84
 5.3341    95
 5.3441    96
 5.3541    98
 5.3641    80
 5.3741   102
 5.3841    88
 5.3941   105
 5.4041   103
 5.4141    99
 5.4241   124
 5.4341   107
 5.4441   119
 5.4541    89
 5.4641    95
 5.4741    94
 5.4841   103
 5.4941    93
 5.5041    83
 5.5141    79
 5.5241    89
 5.5341    87
 5.5441    91
 5.5541    91
 5.5641    79
 5.5741    89
 5.5841    78
 5.5941    83
 5.6041    96
 5.6141    79
 5.6241    90
 5.6341    78
 5.6441    93
 5.6541    74
 5.6641    75
 5.6741    77
 5.6841    79
 5.6941    76
 5.7041    64
 5.7141    83
 5.7241   103
 5.7341   104
 5.7441   111
 5.7541    97
 5.7641   113
 5.7741   122
 5.7841   143
 5.7941   169
 5.8041   175
 5.8141   238
 5.8241   252
 5.8341   267
 5.8441   349
 5.8541   358
 5.8641   380
 5.8741   403
 5.8841   410
 5.8941   391
 5.9041   394
 5.9141   392
 5.9241   375
 5.9341   370
 5.9441   333
 5.9541   258
 5.9641   243
 5.9741   219
 5.9841   207
 5.9941   182
 6.0041   164
 6.0141   137
 6.0241   128
 6.0341   131
 6.0441   121
 6.0541   121
 6.0641   122
 6.0741    97
 6.0841   121
 6.0941   120
 6.1041   113
 6.1141    97
 6.1241   148
 6.1341   149
 6.1441   134
 6.1541   154
 6.1641   177
 6.1741   198
 6.1841   228
 6.1941   283
 6.2041   339
 6.2141   429
 6.2241   563
 6.2341   817
 6.2441  1127
 6.2541  1455
 6.2641  2125
 6.2741  2809
 6.2841  3755
 6.2941  5013
 6.3041  6410
 6.3141  8215
 6.3241  9956
 6.3341 12130
 6.3441 14021
 6.3541 16221
 6.3641 18253
 6.3741 19442
 6.3841 20411
 6.3941 20804
 6.4041 20807
 6.4141 20315
 6.4241 19074
 6.4341 17623
 6.4441 15531
 6.4541 13532
 6.4641 11466
 6.4741  9403
 6.4841  7651
 6.4941  5928
 6.5041  4591
 6.5141  3386
 6.5241  2396
 6.5341  1751
 6.5441  1131
 6.5541   874
 6.5641   614
 6.5741   424
 6.5841   330
 6.5941   290
 6.6041   218
 6.6141   172
 6.6241   174
 6.6341   173
 6.6441   160
 6.6541   141
 6.6641   135
 6.6741   133
 6.6841   131
 6.6941   136
 6.7041   131
 6.7141   137
 6.7241   152
 6.7341   150
 6.7441   171
 6.7541   142
 6.7641   167
 6.7741   165
 6.7841   186
 6.7941   162
 6.8041   167
 6.8141   204
 6.8241   165
 6.8341   225
 6.8441   234
 6.8541   227
 6.8641   270
 6.8741   295
 6.8841   372
 6.8941   396
 6.9041   437
 6.9141   567
 6.9241   615
 6.9341   785
 6.9441  1074
 6.9541  1201
 6.9641  1477
 6.9741  1834
 6.9841  1991
 6.9941  2405
 7.0041  2753
 7.0141  3010
 7.0241  3268
 7.0341  3549
 7.0441  3414
 7.0541  3480
 7.0641  3423
 7.0741  3323
 7.0841  3080
 7.0941  2879
 7.1041  2652
 7.1141  2274
 7.1241  1917
 7.1341  1554
 7.1441  1359
 7.1541  1126
 7.1641   897
 7.1741   685
 7.1841   544
 7.1941   419
 7.2041   321
 7.2141   264
 7.2241   240
 7.2341   221
 7.2441   206
 7.2541   188
 7.2641   203
 7.2741   191
 7.2841   166
 7.2941   203
 7.3041   171
 7.3141   181
 7.3241   190
 7.3341   199
 7.3441   189
 7.3541   216
 7.3641   198
 7.3741   236
 7.3841   224
 7.3941   232
 7.4041   246
 7.4141   224
 7.4241   262
 7.4341   243
 7.4441   235
 7.4541   237
 7.4641   211
 7.4741   218
 7.4841   230
 7.4941   196
 7.5041   193
 7.5141   180
 7.5241   191
 7.5341   192
 7.5441   177
 7.5541   175
 7.5641   166
 7.5741   173
 7.5841   182
 7.5941   143
 7.6041   158
 7.6141   162
 7.6241   172
 7.6341   174
 7.6441   181
 7.6541   162
 7.6641   183
 7.6741   183
 7.6841   175
 7.6941   170
 7.7041   196
 7.7141   167
 7.7241   210
 7.7341   201
 7.7441   189
 7.7541   208
 7.7641   215
 7.7741   193
 7.7841   217
 7.7941   218
 7.8041   226
 7.8141   237
 7.8241   227
 7.8341   224
 7.8441   234
 7.8541   245
 7.8641   252
 7.8741   245
 7.8841   276
 7.8941   295
 7.9041   282
 7.9141   286
 7.9241   338
 7.9341   327
 7.9441   336
 7.9541   391
 7.9641   377
 7.9741   433
 7.9841   447
 7.9941   475
 8.0041   526
 8.0141   600
 8.0241   601
 8.0341   619
 8.0441   674
 8.0541   738
 8.0641   835
 8.0741   814
 8.0841   910
 8.0941   886
 8.1041   954
 8.1141   897
 8.1241  1003
 8.1341   988
 8.1441  1063
 8.1541  1106
 8.1641  1138
 8.1741  1156
 8.1841  1165
 8.1941  1152
 8.2041  1154
 8.2141  1158
 8.2241  1174
 8.2341  1175
 8.2441  1224
 8.2541  1238
 8.2641  1325
 8.2741  1419
 8.2841  1545
 8.2941  1520
 8.3041  1636
 8.3141  1852
 8.3241  1987
 8.3341  2109
 8.3441  2314
 8.3541  2396
 8.3641  2566
 8.3741  2604
 8.3841  2521
 8.3941  2573
 8.4041  2498
 8.4141  2416
 8.4241  2276
 8.4341  2173
 8.4441  1996
 8.4541  1805
 8.4641  1616
 8.4741  1357
 8.4841  1172
 8.4941   982
 8.5041   836
 8.5141   728
 8.5241   585
 8.5341   559
 8.5441   469
 8.5541   424
 8.5641   388
 8.5741   374
 8.5841   317
 8.5941   352
 8.6041   333
 8.6141   323
 8.6241   305
 8.6341   325
 8.6441   308
 8.6541   317
 8.6641   307
 8.6741   308
 8.6841   315
 8.6941   304
 8.7041   291
 8.7141   298
 8.7241   277
 8.7341   288
 8.7441   285
 8.7541   264
 8.7641   265
 8.7741   268
 8.7841   277
 8.7941   275
 8.8041   271
 8.8141   247
 8.8241   277
 8.8341   266
 8.8441   259
 8.8541   275
 8.8641   251
 8.8741   290
 8.8841   276
 8.8941   292
 8.9041   274
 8.9141   271
 8.9241   293
 8.9341   275
 8.9441   267
 8.9541   272
 8.9641   300
 8.9741   271
 8.9841   292
 8.9941   281
 9.0041   315
 9.0141   343
 9.0241   317
 9.0341   332
 9.0441   327
 9.0541   331
 9.0641   370
 9.0741   358
 9.0841   389
 9.0941   382
 9.1041   424
 9.1141   410
 9.1241   433
 9.1341   482
 9.1441   476
 9.1541   471
 9.1641   517
 9.1741   541
 9.1841   559
 9.1941   570
 9.2041   594
 9.2141   647
 9.2241   718
 9.2341   701
 9.2441   764
 9.2541   808
 9.2641   849
 9.2741   876
 9.2841   859
 9.2941   902
 9.3041   957
 9.3141   970
 9.3241   980
 9.3341  1021
 9.3441  1066
 9.3541  1081
 9.3641  1069
 9.3741  1162
 9.3841  1086
 9.3941  1163
 9.4041  1176
 9.4141  1175
 9.4241  1223
 9.4341  1199
 9.4441  1190
 9.4541  1256
 9.4641  1265
 9.4741  1203
 9.4841  1245
 9.4941  1285
 9.5041  1312
 9.5141  1336
 9.5241  1374
 9.5341  1504
 9.5441  1539
 9.5541  1618
 9.5641  1705
 9.5741  1760
 9.5841  1878
 9.5941  2067
 9.6041  2141
 9.6141  2304
 9.6241  2343
 9.6341  2429
 9.6441  2376
 9.6541  2500
 9.6641  2532
 9.6741  2431
 9.6841  2432
 9.6941  2430
 9.7041  2331
 9.7141  2151
 9.7241  2057
 9.7341  1967
 9.7441  1781
 9.7541  1638
 9.7641  1495
 9.7741  1386
 9.7841  1297
 9.7941  1181
 9.8041  1157
 9.8141  1118
 9.8241  1025
 9.8341  1011
 9.8441  1033
 9.8541  1007
 9.8641  1026
 9.8741   977
 9.8841   996
 9.8941  1016
 9.9041  1023
 9.9141  1106
 9.9241  1139
 9.9341  1110
 9.9441  1088
 9.9541  1109
 9.9641  1109
 9.9741  1057
 9.9841  1017
 9.9941  1000
10.0041   953
10.0141   863
10.0241   783
10.0341   676
10.0441   633
10.0541   570
10.0641   529
10.0741   453
10.0841   411
10.0941   374
10.1041   349
10.1141   324
10.1241   289
10.1341   265
10.1441   252
10.1541   236
10.1641   228
10.1741   218
10.1841   203
10.1941   210
10.2041   215
10.2141   172
10.2241   176
10.2341   188
10.2441   165
10.2541   179
10.2641   167
10.2741   148
10.2841   159
10.2941   169
10.3041   144
10.3141   143
10.3241   168
10.3341   158
10.3441   152
10.3541   141
10.3641   151
10.3741   136
10.3841   127
10.3941   125
10.4041   139
10.4141   133
10.4241   145
10.4341   141
10.4441   130
10.4541   138
10.4641   151
10.4741   160
10.4841   148
10.4941   138
10.5041   156
10.5141   159
10.5241   147
10.5341   151
10.5441   170
10.5541   176
10.5641   178
10.5741   160
10.5841   155
10.5941   160
10.6041   160
10.6141   176
10.6241   169
10.6341   176
10.6441   172
10.6541   174
10.6641   171
10.6741   176
10.6841   178
10.6941   189
10.7041   176
10.7141   174
10.7241   184
10.7341   177
10.7441   200
10.7541   194
10.7641   200
10.7741   229
10.7841   226
10.7941   209
10.8041   224
10.8141   227
10.8241   240
10.8341   248
10.8441   250
10.8541   249
10.8641   252
10.8741   266
10.8841   282
10.8941   277
10.9041   264
10.9141   249
10.9241   238
10.9341   249
10.9441   231
10.9541   231
10.9641   240
10.9741   245
10.9841   223
10.9941   216
11.0041   226
11.0141   234
11.0241   237
11.0341   223
11.0441   230
11.0541   226
11.0641   225
11.0741   223
11.0841   230
11.0941   227
11.1041   230
11.1141   233
11.1241   213
11.1341   236
11.1441   231
11.1541   257
11.1641   258
11.1741   264
11.1841   264
11.1941   287
11.2041   292
11.2141   310
11.2241   310
11.2341   319
11.2441   319
11.2541   347
11.2641   336
11.2741   346
11.2841   365
11.2941   354
11.3041   349
11.3141   322
11.3241   325
11.3341   312
11.3441   317
11.3541   303
11.3641   279
11.3741   259
11.3841   255
11.3941   237
11.4041   222
11.4141   210
11.4241   203
11.4341   206
11.4441   195
11.4541   173
11.4641   178
11.4741   196
11.4841   194
11.4941   183
11.5041   164
11.5141   159
11.5241   173
11.5341   173
11.5441   175
11.5541   192
11.5641   192
11.5741   178
11.5841   193
11.5941   185
11.6041   186
11.6141   186
11.6241   187
11.6341   178
11.6441   183
11.6541   184
11.6641   168
11.6741   180
11.6841   176
11.6941   167
11.7041   163
11.7141   171
11.7241   157
11.7341   152
11.7441   147
11.7541   144
11.7641   157
11.7741   152
11.7841   142
11.7941   140
11.8041   140
11.8141   130
11.8241   129
11.8341   131
11.8441   132
11.8541   135
11.8641   134
11.8741   124
11.8841   140
11.8941   129
11.9041   123
11.9141   124
11.9241   124
11.9341   130
11.9441   132
11.9541   119
11.9641   125
11.9741   137
11.9841   129
11.9941   130
12.0041   138
12.0141   137
12.0241   133
12.0341   128
12.0441   130
12.0541   146
12.0641   138
12.0741   124
12.0841   145
12.0941   142
12.1041   134
12.1141   134
12.1241   138
12.1341   133
12.1441   135
12.1541   146
12.1641   134
12.1741   125
12.1841   140
12.1941   143
12.2041   138
12.2141   130
12.2241   133
12.2341   126
12.2441   131
12.2541   126
12.2641   118
12.2741   130
12.2841   130
12.2941   139
12.3041   141
12.3141   124
12.3241   116
12.3341   124
12.3441   123
12.3541   138
12.3641   120
12.3741   114
12.3841   133
12.3941   138
12.4041   127
12.4141   129
12.4241   144
12.4341   144
12.4441   128
12.4541   120
12.4641   129
12.4741   125
12.4841   128
12.4941   141
12.5041   132
12.5141   138
12.5241   140
12.5341   136
12.5441   136
12.5541   143
12.5641   134
12.5741   136
12.5841   147
12.5941   157
12.6041   150
12.6141   154
12.6241   158
12.6341   143
12.6441   138
12.6541   152
12.6641   158
12.6741   161
12.6841   144
12.6941   139
12.7041   146
12.7141   142
12.7241   151
12.7341   153
12.7441   148
12.7541   142
12.7641   137
12.7741   141
12.7841   144
12.7941   144
12.8041   148
12.8141   151
12.8241   142
12.8341   134
12.8441   136
12.8541   139
12.8641   143
12.8741   145
12.8841   140
12.8941   136
12.9041   137
12.9141   141
12.9241   144
12.9341   151
12.9441   158
12.9541   159
12.9641   158
12.9741   158
12.9841   153
12.9941   146
13.0041   151
13.0141   157
13.0241   154
13.0341   150
13.0441   145
13.0541   143
13.0641   136
13.0741   150
13.0841   147
13.0941   153
13.1041   158
13.1141   150
13.1241   151
13.1341   148
13.1441   148
13.1541   158
13.1641   171
13.1741   171
13.1841   168
13.1941   165
13.2041   155
13.2141   155
13.2241   170
13.2341   183
13.2441   177
13.2541   177
13.2641   198
13.2741   202
13.2841   186
13.2941   214
13.3041   228
13.3141   195
13.3241   217
13.3341   235
13.3441   236
13.3541   235
13.3641   222
13.3741   236
13.3841   239
13.3941   223
13.4041   213
13.4141   209
13.4241   213
13.4341   224
13.4441   206
13.4541   196
13.4641   209
13.4741   217
13.4841   210
13.4941   194
13.5041   198
13.5141   200
13.5241   191
13.5341   183
13.5441   180
13.5541   180
13.5641   183
13.5741   187
13.5841   171
13.5941   169
13.6041   188
13.6141   199
13.6241   185
13.6341   182
13.6441   190
13.6541   185
13.6641   204
13.6741   205
13.6841   167
13.6941   157
13.7041   182
13.7141   183
13.7241   177
13.7341   181
13.7441   178
13.7541   176
13.7641   177
13.7741   183
13.7841   179
13.7941   179
13.8041   189
13.8141   189
13.8241   179
13.8341   175
13.8441   178
13.8541   191
13.8641   192
13.8741   194
13.8841   201
13.8941   207
13.9041   207
13.9141   212
13.9241   236
13.9341   241
13.9441   254
13.9541   284
13.9641   302
13.9741   317
13.9841   348
13.9941   380
14.0041   405
14.0141   438
14.0241   475
14.0341   509
14.0441   517
14.0541   547
14.0641   619
14.0741   678
14.0841   726
14.0941   762
14.1041   782
14.1141   784
14.1241   792
14.1341   819
14.1441   844
14.1541   823
14.1641   778
14.1741   767
14.1841   770
14.1941   749
14.2041   690
14.2141   656
14.2241   650
14.2341   574
14.2441   507
14.2541   485
14.2641   453
14.2741   413
14.2841   378
14.2941   347
14.3041   323
14.3141   312
14.3241   310
14.3341   283
14.3441   249
14.3541   244
14.3641   234
14.3741   226
14.3841   206
14.3941   195
14.4041   188
14.4141   202
14.4241   213
14.4341   201
14.4441   214
14.4541   215
14.4641   205
14.4741   205
14.4841   209
14.4941   213
14.5041   221
14.5141   211
14.5241   211
14.5341   217
14.5441   215
14.5541   216
14.5641   209
14.5741   203
14.5841   216
14.5941   215
14.6041   208
14.6141   219
14.6241   210
14.6341   203
14.6441   192
14.6541   189
14.6641   195
14.6741   198
14.6841   204
14.6941   192
14.7041   190
14.7141   217
14.7241   222
14.7341   217
14.7441   203
14.7541   193
14.7641   202
14.7741   212
14.7841   214
14.7941   207
14.8041   220
14.8141   209
14.8241   226
14.8341   240
14.8441   222
14.8541   226
14.8641   222
14.8741   223
14.8841   240
14.8941   241
14.9041   240
14.9141   256
14.9241   253
14.9341   245
14.9441   250
14.9541   261
14.9641   238
14.9741   233
14.9841   227
14.9941   227
15.0041   236
15.0141   227
15.0241   225
15.0341   227
15.0441   220
15.0541   225
15.0641   241
15.0741   242
15.0841   236
15.0941   254
15.1041   243
15.1141   226
15.1241   224
15.1341   242
15.1441   244
15.1541   215
15.1641   213
15.1741   236
15.1841   238
15.1941   233
15.2041   224
15.2141   217
15.2241   229
15.2341   237
15.2441   236
15.2541   230
15.2641   230
15.2741   211
15.2841   216
15.2941   237
15.3041   224
15.3141   235
15.3241   235
15.3341   228
15.3441   231
15.3541   234
15.3641   224
15.3741   230
15.3841   237
15.3941   236
15.4041   216
15.4141   217
15.4241   210
15.4341   224
15.4441   225
15.4541   241
15.4641   249
15.4741   234
15.4841   232
15.4941   232
15.5041   234
15.5141   219
15.5241   228
15.5341   262
15.5441   285
15.5541   267
15.5641   236
15.5741   253
15.5841   281
15.5941   320
15.6041   321
15.6141   313
15.6241   312
15.6341   341
15.6441   352
15.6541   359
15.6641   360
15.6741   372
15.6841   396
15.6941   418
15.7041   417
15.7141   425
15.7241   443
15.7341   478
15.7441   489
15.7541   473
15.7641   457
15.7741   477
15.7841   492
15.7941   464
15.8041   477
15.8141   478
15.8241   457
15.8341   445
15.8441   447
15.8541   439
15.8641   418
15.8741   408
15.8841   411
15.8941   379
15.9041   362
15.9141   352
15.9241   337
15.9341   320
15.9441   310
15.9541   312
15.9641   315
15.9741   306
15.9841   292
15.9941   292
16.0041   296
16.0141   294
16.0241   294
16.0341   300
16.0441   299
16.0541   272
16.0641   277
16.0741   276
16.0841   298
16.0941   290
16.1041   263
16.1141   258
16.1241   270
16.1341   252
16.1441   258
16.1541   272
16.1641   275
16.1741   276
16.1841   276
16.1941   272
16.2041   272
16.2141   277
16.2241   262
16.2341   281
16.2441   274
16.2541   264
16.2641   266
16.2741   256
16.2841   262
16.2941   272
16.3041   287
16.3141   276
16.3241   259
16.3341   269
16.3441   291
16.3541   271
16.3641   266
16.3741   263
16.3841   284
16.3941   291
16.4041   286
16.4141   305
16.4241   277
16.4341   288
16.4441   304
16.4541   297
16.4641   289
16.4741   282
16.4841   283
16.4941   290
16.5041   272
16.5141   287
16.5241   298
16.5341   291
16.5441   278
16.5541   272
16.5641   292
16.5741   291
16.5841   283
16.5941   285
16.6041   290
16.6141   298
16.6241   289
16.6341   269
16.6441   289
16.6541   296
16.6641   297
16.6741   283
16.6841   277
16.6941   303
16.7041   277
16.7141   291
16.7241   291
16.7341   298
16.7441   300
16.7541   285
16.7641   307
16.7741   320
16.7841   304
16.7941   313
16.8041   317
16.8141   308
16.8241   306
16.8341   296
16.8441   309
16.8541   305
16.8641   284
16.8741   278
16.8841   300
16.8941   312
16.9041   282
16.9141   292
16.9241   285
16.9341   280
16.9441   286
16.9541   300
16.9641   316
16.9741   301
16.9841   312
16.9941   311
17.0041   318
17.0141   320
17.0241   305
17.0341   321
17.0441   325
17.0541   314
17.0641   302
17.0741   308
17.0841   300
17.0941   306
17.1041   308
17.1141   306
17.1241   308
17.1341   313
17.1441   300
17.1541   297
17.1641   304
17.1741   326
17.1841   317
17.1941   305
17.2041   302
17.2141   319
17.2241   329
17.2341   345
17.2441   320
17.2541   322
17.2641   321
17.2741   320
17.2841   316
17.2941   326
17.3041   328
17.3141   306
17.3241   288
17.3341   311
17.3441   307
17.3541   317
17.3641   336
17.3741   344
17.3841   323
17.3941   327
17.4041   346
17.4141   344
17.4241   335
17.4341   348
17.4441   328
17.4541   314
17.4641   313
17.4741   318
17.4841   328
17.4941   337
17.5041   330
17.5141   336
17.5241   337
17.5341   341
17.5441   376
17.5541   358
17.5641   313
17.5741   341
17.5841   334
17.5941   334
17.6041   362
17.6141   366
17.6241   368
17.6341   366
17.6441   339
17.6541   316
17.6641   358
17.6741   373
17.6841   385
17.6941   356
17.7041   343
17.7141   337
17.7241   339
17.7341   337
17.7441   331
17.7541   345
17.7641   349
17.7741   344
17.7841   368
17.7941   366
17.8041   334
17.8141   339
17.8241   332
17.8341   347
17.8441   350
17.8541   336
17.8641   333
17.8741   339
17.8841   349
17.8941   352
17.9041   324
17.9141   323
17.9241   352
17.9341   318
17.9441   338
17.9541   351
17.9641   340
17.9741   328
17.9841   343
17.9941   377
18.0041   374
18.0141   343
18.0241   332
18.0341   359
18.0441   371
18.0541   368
18.0641   369
18.0741   349
18.0841   377
18.0941   341
18.1041   344
18.1141   343
18.1241   355
18.1341   380
18.1441   355
18.1541   348
18.1641   333
18.1741   352
18.1841   354
18.1941   363
18.2041   359
18.2141   321
18.2241   376
18.2341   361
18.2441   378
18.2541   389
18.2641   372
18.2741   373
18.2841   359
18.2941   369
18.3041   343
18.3141   352
18.3241   347
18.3341   337
18.3441   366
18.3541   362
18.3641   355
18.3741   347
18.3841   341
18.3941   350
18.4041   329
18.4141   361
18.4241   350
18.4341   381
18.4441   378
18.4541   346
18.4641   381
18.4741   356
18.4841   354
18.4941   371
18.5041   369
18.5141   391
18.5241   380
18.5341   369
18.5441   361
18.5541   353
18.5641   377
18.5741   403
18.5841   386
18.5941   357
18.6041   347
18.6141   391
18.6241   379
18.6341   355
18.6441   377
18.6541   377
18.6641   349
18.6741   378
18.6841   344
18.6941   374
18.7041   397
18.7141   365
18.7241   393
18.7341   400
18.7441   386
18.7541   361
18.7641   360
18.7741   380
18.7841   376
18.7941   394
18.8041   376
18.8141   376
18.8241   363
18.8341   367
18.8441   394
18.8541   381
18.8641   378
18.8741   367
18.8841   403
18.8941   380
18.9041   389
18.9141   370
18.9241   389
18.9341   417
18.9441   388
18.9541   384
18.9641   382
18.9741   383
18.9841   358
18.9941   377
19.0041   369
19.0141   371
19.0241   411
19.0341   392
19.0441   395
19.0541   403
19.0641   403
19.0741   373
19.0841   372
19.0941   378
19.1041   368
19.1141   353
19.1241   364
19.1341   362
19.1441   382
19.1541   381
19.1641   386
19.1741   392
19.1841   394
19.1941   407
19.2041   414
19.2141   389
19.2241   366
19.2341   395
19.2441   384
19.2541   389
19.2641   368
19.2741   403
19.2841   383
19.2941   392
19.3041   384
19.3141   412
19.3241   376
19.3341   396
19.3441   420
19.3541   398
19.3641   396
19.3741   377
19.3841   367
19.3941   384
19.4041   410
19.4141   382
19.4241   382
19.4341   414
19.4441   379
19.4541   402
19.4641   422
19.4741   391
19.4841   406
19.4941   395
19.5041   418
19.5141   411
19.5241   400
19.5341   389
19.5441   377
19.5541   392
19.5641   381
19.5741   416
19.5841   399
19.5941   402
19.6041   401
19.6141   395
19.6241   382
19.6341   384
19.6441   377
19.6541   412
19.6641   411
19.6741   409
19.6841   408
19.6941   393
19.7041   423
19.7141   381
19.7241   383
19.7341   381
19.7441   399
19.7541   397
19.7641   399
19.7741   418
19.7841   425
19.7941   424
19.8041   417
19.8141   384
19.8241   412
19.8341   419
19.8441   423
19.8541   393
19.8641   439
19.8741   393
19.8841   425
19.8941   404
19.9041   409
19.9141   396
19.9241   406
19.9341   372
19.9441   416
19.9541   397
19.9641   421
19.9741   417
19.9841   423
19.9941   382
20.0041   434
20.0141   418
20.0241   396
20.0341   376
20.0441   402
20.0541   383
20.0641   409
20.0741   408
20.0841   425
20.0941   403
20.1041   413
20.1141   415
20.1241   379
20.1341   362
20.1441   416
20.1541   415
20.1641   380
20.1741   417
20.1841   431
20.1941   414
20.2041   418
20.2141   381
20.2241   402
20.2341   402
20.2441   439
20.2541   398
20.2641   419
20.2741   402
20.2841   378
20.2941   425
20.3041   402
20.3141   421
20.3241   426
20.3341   404
20.3441   421
20.3541   424
20.3641   410
20.3741   397
20.3841   426
20.3941   413
20.4041   404
20.4141   427
20.4241   425
20.4341   444
20.4441   407
20.4541   421
20.4641   405
20.4741   400
20.4841   382
20.4941   414
20.5041   421
20.5141   443
20.5241   418
20.5341   426
20.5441   416
20.5541   416
20.5641   423
20.5741   388
20.5841   409
20.5941   424
20.6041   429
20.6141   433
20.6241   430
20.6341   418
20.6441   402
20.6541   410
20.6641   423
20.6741   417
20.6841   400
20.6941   442
20.7041   431
20.7141   426
20.7241   468
20.7341   421
20.7441   411
20.7541   424
20.7641   451
20.7741   407
20.7841   420
20.7941   465
20.8041   403
20.8141   444
20.8241   437
20.8341   466
20.8441   474
20.8541   451
20.8641   466
20.8741   453
20.8841   482
20.8941   490
20.9041   457
20.9141   490
20.9241   507
20.9341   476
20.9441   497
20.9541   529
20.9641   566
20.9741   544
20.9841   543
20.9941   590
21.0041   575
21.0141   601
21.0241   582
21.0341   601
21.0441   612
21.0541   597
21.0641   612
21.0741   615
21.0841   605
21.0941   610
21.1041   666
21.1141   665
21.1241   615
21.1341   632
21.1441   622
21.1541   668
21.1641   617
21.1741   636
21.1841   603
21.1941   613
21.2041   618
21.2141   567
21.2241   595
21.2341   570
21.2441   559
21.2541   573
21.2641   548
21.2741   530
21.2841   558
21.2941   528
21.3041   516
21.3141   515
21.3241   506
21.3341   451
21.3441   487
21.3541   509
21.3641   458
21.3741   442
21.3841   434
21.3941   467
21.4041   426
21.4141   426
21.4241   447
21.4341   422
21.4441   435
21.4541   394
21.4641   430
21.4741   459
21.4841   448
21.4941   423
21.5041   419
21.5141   450
21.5241   385
21.5341   414
21.5441   406
21.5541   438
21.5641   470
21.5741   459
21.5841   415
21.5941   431
21.6041   454
21.6141   437
21.6241   411
21.6341   379
21.6441   406
21.6541   450
21.6641   410
21.6741   445
21.6841   458
21.6941   392
21.7041   430
21.7141   435
21.7241   427
21.7341   440
21.7441   409
21.7541   411
21.7641   444
21.7741   448
21.7841   438
21.7941   439
21.8041   398
21.8141   436
21.8241   423
21.8341   394
21.8441   431
21.8541   440
21.8641   446
21.8741   425
21.8841   436
21.8941   444
21.9041   424
21.9141   407
21.9241   421
21.9341   405
21.9441   442
21.9541   432
21.9641   456
21.9741   450
21.9841   465
21.9941   450
22.0041   455
22.0141   470
22.0241   444
22.0341   429
22.0441   431
22.0541   421
22.0641   454
22.0741   462
22.0841   420
22.0941   420
22.1041   428
22.1141   439
22.1241   464
22.1341   446
22.1441   441
22.1541   447
22.1641   427
22.1741   459
22.1841   424
22.1941   417
22.2041   413
22.2141   442
22.2241   409
22.2341   415
22.2441   450
22.2541   432
22.2641   469
22.2741   420
22.2841   449
22.2941   414
22.3041   446
22.3141   429
22.3241   440
22.3341   429
22.3441   434
22.3541   439
22.3641   432
22.3741   443
22.3841   449
22.3941   438
22.4041   424
22.4141   426
22.4241   456
22.4341   411
22.4441   404
22.4541   426
22.4641   422
22.4741   430
22.4841   394
22.4941   419
22.5041   442
22.5141   425
22.5241   488
22.5341   418
22.5441   435
22.5541   426
22.5641   417
22.5741   459
22.5841   411
22.5941   438
22.6041   409
22.6141   434
22.6241   397
22.6341   407
22.6441   463
22.6541   420
22.6641   390
22.6741   439
22.6841   424
22.6941   416
22.7041   408
22.7141   432
22.7241   444
22.7341   436
22.7441   443
22.7541   407
22.7641   426
22.7741   438
22.7841   418
22.7941   417
22.8041   405
22.8141   474
22.8241   404
22.8341   431
22.8441   424
22.8541   414
22.8641   412
22.8741   448
22.8841   405
22.8941   412
22.9041   453
22.9141   424
22.9241   425
22.9341   454
22.9441   387
22.9541   420
22.9641   435
22.9741   444
22.9841   413
22.9941   426
23.0041   405
23.0141   397
23.0241   406
23.0341   405
23.0441   435
23.0541   410
23.0641   406
23.0741   441
23.0841   438
23.0941   374
23.1041   429
23.1141   472
23.1241   419
23.1341   385
23.1441   402
23.1541   430
23.1641   457
23.1741   417
23.1841   454
23.1941   401
23.2041   418
23.2141   418
23.2241   378
23.2341   388
23.2441   412
23.2541   425
23.2641   384
23.2741   416
23.2841   441
23.2941   389
23.3041   420
23.3141   415
23.3241   434
23.3341   424
23.3441   441
23.3541   405
23.3641   430
23.3741   383
23.3841   366
23.3941   432
23.4041   419
23.4141   389
23.4241   399
23.4341   422
23.4441   426
23.4541   431
23.4641   389
23.4741   387
23.4841   411
23.4941   380
23.5041   423
23.5141   389
23.5241   423
23.5341   424
23.5441   424
23.5541   458
23.5641   398
23.5741   421
23.5841   419
23.5941   425
23.6041   432
23.6141   410
23.6241   450
23.6341   442
23.6441   398
23.6541   443
23.6641   398
23.6741   427
23.6841   435
23.6941   470
23.7041   461
23.7141   408
23.7241   438
23.7341   458
23.7441   399
23.7541   456
23.7641   481
23.7741   428
23.7841   457
23.7941   425
23.8041   460
23.8141   479
23.8241   457
23.8341   438
23.8441   424
23.8541   441
23.8641   412
23.8741   461
23.8841   432
23.8941   416
23.9041   416
23.9141   434
23.9241   445
23.9341   444
23.9441   432
23.9541   426
23.9641   443
23.9741   427
23.9841   435
23.9941   418
24.0041   445
24.0141   398
24.0241   391
24.0341   410
24.0441   410
24.0541   431
24.0641   413
24.0741   463
24.0841   417
24.0941   388
24.1041   402
24.1141   404
24.1241   384
24.1341   424
24.1441   402
24.1541   422
24.1641   394
24.1741   380
24.1841   358
24.1941   395
24.2041   387
24.2141   424
24.2241   409
24.2341   418
24.2441   427
24.2541   425
24.2641   388
24.2741   392
24.2841   385
24.2941   381
24.3041   399
24.3141   401
24.3241   400
24.3341   401
24.3441   395
24.3541   370
24.3641   386
24.3741   418
24.3841   438
24.3941   413
24.4041   396
24.4141   376
24.4241   380
24.4341   399
24.4441   427
24.4541   421
24.4641   392
24.4741   411
24.4841   378
24.4941   391
24.5041   388
24.5141   366
24.5241   395
24.5341   391
24.5441   384
24.5541   425
24.5641   400
24.5741   362
24.5841   402
24.5941   398
24.6041   381
24.6141   356
24.6241   396
24.6341   390
24.6441   412
24.6541   387
24.6641   406
24.6741   399
24.6841   362
24.6941   373
24.7041   403
24.7141   390
24.7241   400
24.7341   368
24.7441   400
24.7541   381
24.7641   396
24.7741   376
24.7841   358
24.7941   382
24.8041   357
24.8141   378
24.8241   391
24.8341   388
24.8441   396
24.8541   378
24.8641   387
24.8741   411
24.8841   397
24.8941   425
24.9041   358
24.9141   367
24.9241   393
24.9341   401
24.9441   359
24.9541   367
24.9641   381
24.9741   365
24.9841   388
24.9941   399
25.0041   375
25.0141   378
25.0241   375
25.0341   381
25.0441   399
25.0541   386
25.0641   408
25.0741   411
25.0841   392
25.0941   391
25.1041   363
25.1141   400
25.1241   398
25.1341   373
25.1441   373
25.1541   383
25.1641   394
25.1741   369
25.1841   405
25.1941   381
25.2041   347
25.2141   406
25.2241   380
25.2341   407
25.2441   352
25.2541   384
25.2641   380
25.2741   381
25.2841   363
25.2941   389
25.3041   376
25.3141   379
25.3241   386
25.3341   388
25.3441   390
25.3541   376
25.3641   383
25.3741   385
25.3841   397
25.3941   394
25.4041   379
25.4141   354
25.4241   371
25.4341   362
25.4441   393
25.4541   390
25.4641   363
25.4741   374
25.4841   355
25.4941   333
25.5041   387
25.5141   373
25.5241   383
25.5341   373
25.5441   351
25.5541   359
25.5641   350
25.5741   323
25.5841   371
25.5941   352
25.6041   375
25.6141   356
25.6241   334
25.6341   351
25.6441   364
25.6541   362
25.6641   339
25.6741   354
25.6841   365
25.6941   370
25.7041   342
25.7141   361
25.7241   388
25.7341   376
25.7441   341
25.7541   357
25.7641   343
25.7741   349
25.7841   346
25.7941   338
25.8041   341
25.8141   356
25.8241   361
25.8341   335
25.8441   360
25.8541   376
25.8641   357
25.8741   360
25.8841   360
25.8941   370
25.9041   375
25.9141   352
25.9241   298
25.9341   343
25.9441   350
25.9541   363
25.9641   369
25.9741   361
25.9841   357
25.9941   325
26.0041   346
26.0141   332
26.0241   371
26.0341   357
26.0441   350
26.0541   339
26.0641   349
26.0741   361
26.0841   371
26.0941   347
26.1041   335
26.1141   360
26.1241   347
26.1341   357
26.1441   341
26.1541   372
26.1641   373
26.1741   365
26.1841   363
26.1941   362
26.2041   374
26.2141   346
26.2241   338
26.2341   339
26.2441   346
26.2541   350
26.2641   342
26.2741   354
26.2841   353
26.2941   335
26.3041   334
26.3141   333
26.3241   324
26.3341   331
26.3441   328
26.3541   331
26.3641   342
26.3741   348
26.3841   336
26.3941   341
26.4041   335
26.4141   306
26.4241   317
26.4341   316
26.4441   318
26.4541   343
26.4641   345
26.4741   353
26.4841   365
26.4941   311
26.5041   360
26.5141   343
26.5241   315
26.5341   304
26.5441   309
26.5541   339
26.5641   357
26.5741   310
26.5841   343
26.5941   340
26.6041   325
26.6141   323
26.6241   342
26.6341   299
26.6441   331
26.6541   334
26.6641   316
26.6741   335
26.6841   307
26.6941   325
26.7041   312
26.7141   335
26.7241   351
26.7341   322
26.7441   331
26.7541   342
26.7641   365
26.7741   323
26.7841   316
26.7941   357
26.8041   308
26.8141   335
26.8241   305
26.8341   318
26.8441   291
26.8541   337
26.8641   299
26.8741   290
26.8841   307
26.8941   318
26.9041   312
26.9141   292
26.9241   339
26.9341   352
26.9441   318
26.9541   351
26.9641   310
26.9741   315
26.9841   326
26.9941   346
27.0041   349
27.0141   302
27.0241   298
27.0341   329
27.0441   327
27.0541   330
27.0641   329
27.0741   331
27.0841   325
27.0941   335
27.1041   330
27.1141   350
27.1241   320
27.1341   314
27.1441   308
27.1541   306
27.1641   327
27.1741   296
27.1841   335
27.1941   300
27.2041   328
27.2141   312
27.2241   305
27.2341   304
27.2441   324
27.2541   349
27.2641   290
27.2741   322
27.2841   313
27.2941   303
27.3041   285
27.3141   302
27.3241   285
27.3341   325
27.3441   337
27.3541   324
27.3641   306
27.3741   298
27.3841   326
27.3941   309
27.4041   301
27.4141   314
27.4241   333
27.4341   331
27.4441   303
27.4541   299
27.4641   282
27.4741   311
27.4841   303
27.4941   307
27.5041   278
27.5141   288
27.5241   317
27.5341   318
27.5441   308
27.5541   302
27.5641   303
27.5741   328
27.5841   313
27.5941   340
27.6041   302
27.6141   344
27.6241   310
27.6341   315
27.6441   274
27.6541   276
27.6641   282
27.6741   300
27.6841   277
27.6941   296
27.7041   277
27.7141   284
27.7241   284
27.7341   293
27.7441   319
27.7541   318
27.7641   291
27.7741   309
27.7841   304
27.7941   270
27.8041   297
27.8141   289
27.8241   283
27.8341   289
27.8441   320
27.8541   298
27.8641   292
27.8741   281
27.8841   290
27.8941   303
27.9041   285
27.9141   276
27.9241   290
27.9341   287
27.9441   278
27.9541   285
27.9641   284
27.9741   271
27.9841   295
27.9941   278
28.0041   304
28.0141   264
28.0241   286
28.0341   290
28.0441   291
28.0541   248
28.0641   289
28.0741   274
28.0841   283
28.0941   272
28.1041   300
28.1141   293
28.1241   272
28.1341   286
28.1441   287
28.1541   265
28.1641   263
28.1741   269
28.1841   257
28.1941   284
28.2041   286
28.2141   277
28.2241   253
28.2341   260
28.2441   253
28.2541   242
28.2641   288
28.2741   268
28.2841   300
28.2941   272
28.3041   297
28.3141   270
28.3241   274
28.3341   262
28.3441   270
28.3541   272
28.3641   279
28.3741   250
28.3841   250
28.3941   287
28.4041   268
28.4141   259
28.4241   275
28.4341   255
28.4441   269
28.4541   274
28.4641   261
28.4741   264
28.4841   277
28.4941   266
28.5041   279
28.5141   275
28.5241   266
28.5341   223
28.5441   262
28.5541   288
28.5641   280
28.5741   268
28.5841   278
28.5941   272
28.6041   251
28.6141   270
28.6241   279
28.6341   272
28.6441   281
28.6541   272
28.6641   244
28.6741   273
28.6841   268
28.6941   256
28.7041   266
28.7141   273
28.7241   245
28.7341   261
28.7441   260
28.7541   243
28.7641   261
28.7741   288
28.7841   272
28.7941   270
28.8041   293
28.8141   238
28.8241   237
28.8341   259
28.8441   273
28.8541   244
28.8641   265
28.8741   235
28.8841   264
28.8941   281
28.9041   242
28.9141   244
28.9241   250
28.9341   240
28.9441   250
28.9541   251
28.9641   243
28.9741   260
28.9841   244
28.9941   273
29.0041   257
29.0141   271
29.0241   265
29.0341   248
29.0441   257
29.0541   264
29.0641   258
29.0741   237
29.0841   243
29.0941   259
29.1041   258
29.1141   250
29.1241   256
29.1341   250
29.1441   240
29.1541   243
29.1641   255
29.1741   238
29.1841   241
29.1941   261
29.2041   234
29.2141   253
29.2241   252
29.2341   219
29.2441   233
29.2541   229
29.2641   245
29.2741   235
29.2841   239
29.2941   225
29.3041   236
29.3141   230
29.3241   225
29.3341   237
29.3441   228
29.3541   246
29.3641   266
29.3741   222
29.3841   240
29.3941   250
29.4041   235
29.4141   225
29.4241   234
29.4341   261
29.4441   268
29.4541   261
29.4641   231
29.4741   227
29.4841   245
29.4941   252
29.5041   230
29.5141   244
29.5241   216
29.5341   221
29.5441   227
29.5541   224
29.5641   249
29.5741   226
29.5841   234
29.5941   248
29.6041   240
29.6141   248
29.6241   263
29.6341   236
29.6441   222
29.6541   230
29.6641   231
29.6741   224
29.6841   222
29.6941   228
29.7041   218
29.7141   201
29.7241   232
29.7341   237
29.7441   225
29.7541   221
29.7641   233
29.7741   225
29.7841   237
29.7941   233
29.8041   231
29.8141   234
29.8241   224
29.8341   234
29.8441   216
29.8541   222
29.8641   230
29.8741   224
29.8841   253
29.8941   236
29.9041   216
29.9141   222
29.9241   229
29.9341   231
29.9441   230
29.9541   231
29.9641   221
29.9741   229
29.9841   225
29.9941   244
30.0041   236
30.0141   230
30.0241   237
30.0341   241
30.0441   216
30.0541   210
30.0641   232
30.0741   227
30.0841   193
30.0941   222
30.1041   216
30.1141   200
30.1241   212
30.1341   195
30.1441   229
30.1541   197
30.1641   226
30.1741   209
30.1841   222
30.1941   233
30.2041   225
30.2141   223
30.2241   213
30.2341   232
30.2441   217
30.2541   191
30.2641   200
30.2741   217
30.2841   194
30.2941   191
30.3041   229
30.3141   226
30.3241   219
30.3341   213
30.3441   211
30.3541   225
30.3641   232
30.3741   191
30.3841   205
30.3941   195
30.4041   194
30.4141   228
30.4241   212
30.4341   210
30.4441   205
30.4541   217
30.4641   212
30.4741   210
30.4841   194
30.4941   212
30.5041   212
30.5141   198
30.5241   226
30.5341   195
30.5441   199
30.5541   206
30.5641   207
30.5741   189
30.5841   201
30.5941   240
30.6041   202
30.6141   202
30.6241   193
30.6341   215
30.6441   201
30.6541   193
30.6641   190
30.6741   192
30.6841   197
30.6941   211
30.7041   212
30.7141   206
30.7241   205
30.7341   171
30.7441   198
30.7541   178
30.7641   181
30.7741   185
30.7841   213
30.7941   203
30.8041   162
30.8141   180
30.8241   191
30.8341   189
30.8441   171
30.8541   191
30.8641   159
30.8741   178
30.8841   178
30.8941   200
30.9041   181
30.9141   206
30.9241   190
30.9341   211
30.9441   201
30.9541   199
30.9641   187
30.9741   196
30.9841   184
30.9941   190
31.0041   183
31.0141   179
31.0241   208
31.0341   195
31.0441   204
31.0541   178
31.0641   211
31.0741   212
31.0841   167
31.0941   204
31.1041   189
31.1141   185
31.1241   189
31.1341   197
31.1441   176
31.1541   182
31.1641   200
31.1741   189
31.1841   190
31.1941   190
31.2041   165
31.2141   181
31.2241   209
31.2341   198
31.2441   196
31.2541   198
31.2641   190
31.2741   186
31.2841   189
31.2941   186
31.3041   184
31.3141   186
31.3241   182
31.3341   195
31.3441   184
31.3541   188
31.3641   184
31.3741   179
31.3841   166
31.3941   178
31.4041   179
31.4141   190
31.4241   192
31.4341   205
31.4441   164
31.4541   166
31.4641   166
31.4741   173
31.4841   173
31.4941   191
31.5041   184
31.5141   186
31.5241   161
31.5341   157
31.5441   171
31.5541   208
31.5641   178
31.5741   173
31.5841   191
31.5941   177
31.6041   164
31.6141   182
31.6241   182
31.6341   169
31.6441   182
31.6541   199
31.6641   186
31.6741   166
31.6841   163
31.6941   191
31.7041   181
31.7141   160
31.7241   186
31.7341   201
31.7441   196
31.7541   173
31.7641   159
31.7741   171
31.7841   184
31.7941   197
31.8041   160
31.8141   163
31.8241   168
31.8341   175
31.8441   183
31.8541   175
31.8641   175
31.8741   184
31.8841   188
31.8941   176
31.9041   170
31.9141   174
31.9241   178
31.9341   167
31.9441   181
31.9541   172
31.9641   195
31.9741   179
31.9841   166
31.9941   179
32.0041   150
32.0141   171
32.0241   174
32.0341   184
32.0441   186
32.0541   199
32.0641   174
32.0741   164
32.0841   185
32.0941   200
32.1041   171
32.1141   154
32.1241   189
32.1341   179
32.1441   155
32.1541   182
32.1641   177
32.1741   203
32.1841   180
32.1941   191
32.2041   165
32.2141   194
32.2241   196
32.2341   204
32.2441   200
32.2541   185
32.2641   174
32.2741   162
32.2841   157
32.2941   179
32.3041   167
32.3141   156
32.3241   169
32.3341   161
32.3441   170
32.3541   180
32.3641   173
32.3741   155
32.3841   156
32.3941   147
32.4041   173
32.4141   170
32.4241   166
32.4341   164
32.4441   158
32.4541   156
32.4641   152
32.4741   156
32.4841   136
32.4941   140
32.5041   142
32.5141   156
32.5241   164
32.5341   151
32.5441   154
32.5541   139
32.5641   153
32.5741   145
32.5841   157
32.5941   127
32.6041   118
32.6141   148
32.6241   157
32.6341   133
32.6441   134
32.6541   159
32.6641   151
32.6741   128
32.6841   133
32.6941   158
32.7041   153
32.7141   164
32.7241   152
32.7341   144
32.7441   143
32.7541   123
32.7641   144
32.7741   136
32.7841   143
32.7941   157
32.8041   121
32.8141   145
32.8241   154
32.8341   137
32.8441   134
32.8541   151
32.8641   140
32.8741   139
32.8841   130
32.8941   142
32.9041   130
32.9141   140
32.9241   143
32.9341   133
32.9441   135
32.9541   132
32.9641   131
32.9741   138
32.9841   143
32.9941   153
33.0041   128
33.0141   131
33.0241   122
33.0341   131
33.0441   142
33.0541   120
33.0641   137
33.0741   134
33.0841   138
33.0941   146
33.1041   134
33.1141   114
33.1241   128
33.1341   144
33.1441   139
33.1541   136
33.1641   155
33.1741   137
33.1841   127
33.1941   150
33.2041   119
33.2141   137
33.2241   123
33.2341   142
33.2441   121
33.2541   126
33.2641   134
33.2741   130
33.2841   122
33.2941   151
33.3041   138
33.3141   140
33.3241   144
33.3341   133
33.3441   154
33.3541   144
33.3641   121
33.3741   109
33.3841   138
33.3941   126
33.4041   144
33.4141   122
33.4241   116
33.4341   140
33.4441   142
33.4541   137
33.4641   126
33.4741   110
33.4841   130
33.4941   142
33.5041   131
33.5141   123
33.5241   125
33.5341   131
33.5441   121
33.5541   124
33.5641   140
33.5741   118
33.5841   153
33.5941   126
33.6041   131
33.6141   128
33.6241   122
33.6341   130
33.6441   133
33.6541   133
33.6641   119
33.6741   134
33.6841   147
33.6941   122
33.7041   112
33.7141   133
33.7241   117
33.7341   107
33.7441   105
33.7541   121
33.7641   131
33.7741   120
33.7841   102
33.7941   120
33.8041   111
33.8141   121
33.8241   138
33.8341   101
33.8441   122
33.8541   130
33.8641   113
33.8741   115
33.8841   112
33.8941   122
33.9041   115
33.9141   101
33.9241   110
33.9341   124
33.9441   121
33.9541   111
33.9641   116
33.9741   114
33.9841   125
33.9941   126
34.0041   121
34.0141   115
34.0241   117
34.0341    92
34.0441   130
34.0541   132
34.0641   114
34.0741   119
34.0841   122
34.0941   122
34.1041   124
34.1141   104
34.1241   114
34.1341   116
34.1441   118
34.1541   118
34.1641   105
34.1741   101
34.1841   114
34.1941   121
34.2041   131
34.2141   139
34.2241   128
34.2341   100
34.2441   111
34.2541   120
34.2641   110
34.2741    99
34.2841    94
34.2941    98
34.3041   117
34.3141   113
34.3241   109
34.3341   109
34.3441   108
34.3541   104
34.3641   106
34.3741   111
34.3841    96
34.3941   113
34.4041   108
34.4141   118
34.4241    97
34.4341   101
34.4441    91
34.4541   106
34.4641   118
34.4741   114
34.4841   119
34.4941    98
34.5041   110
34.5141    98
34.5241   114
34.5341   105
34.5441   112
34.5541   104
34.5641   103
34.5741    96
34.5841   106
34.5941   102
34.6041    97
34.6141    99
34.6241   100
34.6341   107
34.6441   109
34.6541   111
34.6641    93
34.6741   106
34.6841   107
34.6941    95
34.7041   102
34.7141   105
34.7241   103
34.7341    93
34.7441    93
34.7541   103
34.7641   108
34.7741   129
34.7841   105
34.7941    98
34.8041    94
34.8141    99
34.8241    95
34.8341    94
34.8441    90
34.8541    96
34.8641    97
34.8741    82
34.8841    97
34.8941    84
34.9041    83
34.9141    86
34.9241    75
34.9341    95
34.9441    92
34.9541    92
34.9641    90
34.9741   105
34.9841    95
34.9941    83
35.0041   101
35.0141    86
35.0241    92
35.0341   102
35.0441   102
35.0541    91
35.0641    94
35.0741    92
35.0841    95
35.0941    91
35.1041   104
35.1141    84
35.1241    83
35.1341   107
35.1441    90
35.1541    82
35.1641    98
35.1741    97
35.1841    90
35.1941    81
35.2041    90
35.2141    95
35.2241    92
35.2341    96
35.2441    71
35.2541    73
35.2641    92
35.2741    89
35.2841    75
35.2941    94
35.3041    86
35.3141    90
35.3241    69
35.3341    89
35.3441    93
35.3541    95
35.3641    82
35.3741    91
35.3841    99
35.3941    84
35.4041    91
35.4141    84
35.4241    86
35.4341    96
35.4441    83
35.4541    85
35.4641    88
35.4741    92
35.4841    80
35.4941    87
35.5041    84
35.5141    90
35.5241    81
35.5341    92
35.5441    99
35.5541    85
35.5641    85
35.5741    62
35.5841    87
35.5941    77
35.6041    93
35.6141    94
35.6241    99
35.6341    83
35.6441    88
35.6541    84
35.6641    78
35.6741    78
35.6841    89
35.6941    86
35.7041    93
35.7141    82
35.7241    85
35.7341    80
35.7441    80
35.7541    73
35.7641    60
35.7741    80
35.7841    87
35.7941    70
35.8041    72
35.8141    81
35.8241    94
35.8341    75
35.8441    80
35.8541    88
35.8641    71
35.8741    67
35.8841    53
35.8941    69
35.9041    76
35.9141    79
35.9241    63
35.9341    71
35.9441    96
35.9541    78
35.9641    73
35.9741    79
35.9841    77
35.9941    77
36.0041    73
36.0141    68
36.0241    78
36.0341    64
36.0441    77
36.0541    80
36.0641    78
36.0741    76
36.0841    82
36.0941    88
36.1041    76
36.1141    76
36.1241    80
36.1341    67
36.1441    89
36.1541    89
36.1641    73
36.1741    75
36.1841    76
36.1941    75
36.2041    71
36.2141    66
36.2241    77
36.2341    93
36.2441    69
36.2541    81
36.2641    72
36.2741    88
36.2841    60
36.2941    66
36.3041    77
36.3141    79
36.3241    71
36.3341    94
36.3441    85
36.3541    87
36.3641    79
36.3741    72
36.3841    75
36.3941    63
36.4041    80
36.4141    64
36.4241    78
36.4341    76
36.4441    87
36.4541    66
36.4641    75
36.4741    89
36.4841    85
36.4941    74
36.5041    61
36.5141    95
36.5241    84
36.5341    77
36.5441    86
36.5541    78
36.5641    75
36.5741    77
36.5841    71
36.5941    73
36.6041    61
36.6141    56
36.6241    79
36.6341    68
36.6441    61
36.6541    67
36.6641    54
36.6741    59
36.6841    51
36.6941    70
36.7041    51
36.7141    71
36.7241    70
36.7341    63
36.7441    57
36.7541    56
36.7641    61
36.7741    58
36.7841    74
36.7941    57
36.8041    59
36.8141    71
36.8241    55
36.8341    60
36.8441    61
36.8541    75
36.8641    64
36.8741    62
36.8841    52
36.8941    61
36.9041    57
36.9141    54
36.9241    48
36.9341    73
36.9441    54
36.9541    46
36.9641    59
36.9741    53
36.9841    67
36.9941    68
37.0041    60
37.0141    58
37.0241    62
37.0341    73
37.0441    66
37.0541    54
37.0641    61
37.0741    53
37.0841    65
37.0941    72
37.1041    60
37.1141    70
37.1241    60
37.1341    51
37.1441    52
37.1541    48
37.1641    63
37.1741    48
37.1841    54
37.1941    64
37.2041    63
37.2141    52
37.2241    62
37.2341    71
37.2441    57
37.2541    70
37.2641    70
37.2741    69
37.2841    72
37.2941    51
37.3041    57
37.3141    51
37.3241    59
37.3341    47
37.3441    71
37.3541    71
37.3641    53
37.3741    60
37.3841    49
37.3941    51
37.4041    61
37.4141    56
37.4241    53
37.4341    52
37.4441    50
37.4541    55
37.4641    42
37.4741    48
37.4841    54
37.4941    39
37.5041    57
37.5141    47
37.5241    55
37.5341    50
37.5441    48
37.5541    61
37.5641    63
37.5741    44
37.5841    56
37.5941    43
37.6041    56
37.6141    57
37.6241    53
37.6341    49
37.6441    42
37.6541    36
37.6641    56
37.6741    52
37.6841    48
37.6941    57
37.7041    54
37.7141    50
37.7241    52
37.7341    49
37.7441    44
37.7541    46
37.7641    46
37.7741    46
37.7841    48
37.7941    59
37.8041    64
37.8141    53
37.8241    53
37.8341    47
37.8441    58
37.8541    52
37.8641    41
37.8741    51
37.8841    54
37.8941    39
37.9041    41
37.9141    44
37.9241    51
37.9341    49
37.9441    58
37.9541    40
37.9641    48
37.9741    52
37.9841    48
37.9941    49
38.0041    37
38.0141    49
38.0241    52
38.0341    47
38.0441    34
38.0541    53
38.0641    43
38.0741    42
38.0841    37
38.0941    49
38.1041    47
38.1141    44
38.1241    47
38.1341    46
38.1441    43
38.1541    41
38.1641    48
38.1741    49
38.1841    41
38.1941    44
38.2041    53
38.2141    52
38.2241    44
38.2341    49
38.2441    49
38.2541    44
38.2641    42
38.2741    50
38.2841    54
38.2941    47
38.3041    45
38.3141    35
38.3241    42
38.3341    31
38.3441    31
38.3541    41
38.3641    41
38.3741    35
38.3841    50
38.3941    49
38.4041    43
38.4141    53
38.4241    39
38.4341    44
38.4441    45
38.4541    31
38.4641    47
38.4741    42
38.4841    34
38.4941    47
38.5041    45
38.5141    40
38.5241    38
38.5341    36
38.5441    44
38.5541    48
38.5641    52
38.5741    39
38.5841    41
38.5941    34
38.6041    41
38.6141    49
38.6241    40
38.6341    43
38.6441    43
38.6541    46
38.6641    39
38.6741    47
38.6841    37
38.6941    27
38.7041    42
38.7141    32
38.7241    31
38.7341    37
38.7441    30
38.7541    41
38.7641    35
38.7741    52
38.7841    38
38.7941    42
38.8041    40
38.8141    40
38.8241    38
38.8341    39
38.8441    37
38.8541    43
38.8641    30
38.8741    27
38.8841    32
38.8941    37
38.9041    36
38.9141    30
38.9241    35
38.9341    43
38.9441    33
38.9541    36
38.9641    29
38.9741    29
38.9841    26
38.9941    34
39.0041    29
39.0141    43
39.0241    31
39.0341    32
39.0441    35
39.0541    42
39.0641    22
39.0741    33
39.0841    28
39.0941    26
39.1041    32
39.1141    32
39.1241    35
39.1341    38
39.1441    41
39.1541    33
39.1641    32
39.1741    33
39.1841    24
39.1941    33
39.2041    35
39.2141    25
39.2241    28
39.2341    41
39.2441    37
39.2541    28
39.2641    36
39.2741    22
39.2841    34
39.2941    33
39.3041    33
39.3141    33
39.3241    26
39.3341    34
39.3441    32
39.3541    33
39.3641    29
39.3741    37
39.3841    29
39.3941    29
39.4041    23
39.4141    23
39.4241    35
39.4341    29
39.4441    31
39.4541    31
39.4641    25
39.4741    29
39.4841    26
39.4941    30
39.5041    31
39.5141    23
39.5241    36
39.5341    32
39.5441    41
39.5541    31
39.5641    30
39.5741    20
39.5841    32
39.5941    29
39.6041    39
39.6141    26
39.6241    30
39.6341    41
39.6441    27
39.6541    32
39.6641    32
39.6741    27
39.6841    30
39.6941    20
39.7041    26
39.7141    22
39.7241    25
39.7341    21
39.7441    27
39.7541    30
39.7641    34
39.7741    27
39.7841    35
39.7941    28
39.8041    18
39.8141    24
39.8241    28
39.8341    29
39.8441    24
39.8541    19
39.8641    28
39.8741    23
39.8841    28
39.8941    25
39.9041    23
39.9141    31
39.9241    37
39.9341    22
39.9441    17
39.9541    27
39.9641    17
39.9741    23
39.9841    15
