Bruker Nano GmbH Berlin, Germany
Esprit 1.9

Date: 5/14/2021 3:54:31 PM
Real time: 21954
Life time: 20824
Pulse density: 75890


Detector type: XFlash 430
Window type: Custom type
Detector thickness: 0.45
Si dead layer:0.029

Calibration, lin.: 10
Calibration, abs.: -955.9
Mn FWHM: 137.05
Fano factor: 0.121
Channels: 4096

Energy Counts
-0.9559     0
-0.9459     0
-0.9359     0
-0.9259     0
-0.9159     0
-0.9059     0
-0.8959     0
-0.8859     0
-0.8759     0
-0.8659     0
-0.8559     0
-0.8459     0
-0.8359     0
-0.8259     0
-0.8159     0
-0.8059     0
-0.7959     0
-0.7859     0
-0.7759     0
-0.7659     0
-0.7559     0
-0.7459     0
-0.7359     0
-0.7259     0
-0.7159     0
-0.7059     0
-0.6959     0
-0.6859     0
-0.6759     0
-0.6659     0
-0.6559     0
-0.6459     0
-0.6359     0
-0.6259     0
-0.6159     0
-0.6059     0
-0.5959     0
-0.5859     0
-0.5759     0
-0.5659     0
-0.5559     0
-0.5459     0
-0.5359     0
-0.5259     0
-0.5159     0
-0.5059     0
-0.4959     0
-0.4859     0
-0.4759     0
-0.4659     0
-0.4559     0
-0.4459     0
-0.4359     0
-0.4259     0
-0.4159     0
-0.4059     0
-0.3959     0
-0.3859     0
-0.3759     0
-0.3659     0
-0.3559     0
-0.3459     0
-0.3359     0
-0.3259     0
-0.3159     0
-0.3059     0
-0.2959     0
-0.2859     0
-0.2759     0
-0.2659     0
-0.2559     0
-0.2459     0
-0.2359     0
-0.2259     0
-0.2159     0
-0.2059     0
-0.1959     0
-0.1859     0
-0.1759     0
-0.1659     0
-0.1559     0
-0.1459     0
-0.1359     0
-0.1259     0
-0.1159     1
-0.1059    20
-0.0959    55
-0.0859   225
-0.0759   779
-0.0659  2337
-0.0559  6112
-0.0459 13373
-0.0359 24790
-0.0259 39645
-0.0159 54696
-0.0059 63851
 0.0041 63823
 0.0141 55143
 0.0241 40845
 0.0341 25785
 0.0441 14058
 0.0541  6459
 0.0641  2611
 0.0741   910
 0.0841   290
 0.0941    78
 0.1041    18
 0.1141    16
 0.1241     5
 0.1341    11
 0.1441     6
 0.1541     4
 0.1641     4
 0.1741     3
 0.1841   176
 0.1941   304
 0.2041   260
 0.2141   284
 0.2241   272
 0.2341   252
 0.2441   252
 0.2541   280
 0.2641   290
 0.2741   259
 0.2841   295
 0.2941   267
 0.3041   286
 0.3141   259
 0.3241   255
 0.3341   276
 0.3441   273
 0.3541   259
 0.3641   271
 0.3741   248
 0.3841   240
 0.3941   249
 0.4041   271
 0.4141   233
 0.4241   254
 0.4341   253
 0.4441   244
 0.4541   237
 0.4641   246
 0.4741   252
 0.4841   244
 0.4941   251
 0.5041   248
 0.5141   268
 0.5241   253
 0.5341   253
 0.5441   237
 0.5541   238
 0.5641   234
 0.5741   232
 0.5841   219
 0.5941   221
 0.6041   224
 0.6141   213
 0.6241   223
 0.6341   231
 0.6441   221
 0.6541   216
 0.6641   230
 0.6741   240
 0.6841   228
 0.6941   213
 0.7041   213
 0.7141   215
 0.7241   209
 0.7341   202
 0.7441   202
 0.7541   204
 0.7641   202
 0.7741   200
 0.7841   194
 0.7941   204
 0.8041   227
 0.8141   228
 0.8241   214
 0.8341   203
 0.8441   210
 0.8541   205
 0.8641   209
 0.8741   196
 0.8841   200
 0.8941   205
 0.9041   208
 0.9141   209
 0.9241   185
 0.9341   215
 0.9441   211
 0.9541   202
 0.9641   194
 0.9741   202
 0.9841   189
 0.9941   184
 1.0041   188
 1.0141   189
 1.0241   180
 1.0341   192
 1.0441   188
 1.0541   171
 1.0641   174
 1.0741   171
 1.0841   167
 1.0941   174
 1.1041   191
 1.1141   199
 1.1241   172
 1.1341   193
 1.1441   197
 1.1541   180
 1.1641   162
 1.1741   178
 1.1841   175
 1.1941   171
 1.2041   174
 1.2141   169
 1.2241   181
 1.2341   189
 1.2441   185
 1.2541   164
 1.2641   181
 1.2741   197
 1.2841   188
 1.2941   162
 1.3041   166
 1.3141   183
 1.3241   173
 1.3341   174
 1.3441   169
 1.3541   158
 1.3641   170
 1.3741   157
 1.3841   170
 1.3941   177
 1.4041   176
 1.4141   176
 1.4241   177
 1.4341   181
 1.4441   156
 1.4541   159
 1.4641   166
 1.4741   146
 1.4841   167
 1.4941   196
 1.5041   171
 1.5141   158
 1.5241   172
 1.5341   180
 1.5441   160
 1.5541   172
 1.5641   157
 1.5741   150
 1.5841   152
 1.5941   165
 1.6041   152
 1.6141   165
 1.6241   173
 1.6341   169
 1.6441   174
 1.6541   198
 1.6641   212
 1.6741   287
 1.6841   369
 1.6941   468
 1.7041   574
 1.7141   671
 1.7241   764
 1.7341   799
 1.7441   755
 1.7541   677
 1.7641   651
 1.7741   566
 1.7841   481
 1.7941   389
 1.8041   309
 1.8141   283
 1.8241   242
 1.8341   244
 1.8441   223
 1.8541   230
 1.8641   204
 1.8741   182
 1.8841   194
 1.8941   205
 1.9041   192
 1.9141   172
 1.9241   183
 1.9341   164
 1.9441   146
 1.9541   181
 1.9641   189
 1.9741   202
 1.9841   213
 1.9941   184
 2.0041   214
 2.0141   221
 2.0241   214
 2.0341   198
 2.0441   200
 2.0541   182
 2.0641   184
 2.0741   184
 2.0841   161
 2.0941   152
 2.1041   168
 2.1141   148
 2.1241   159
 2.1341   157
 2.1441   144
 2.1541   157
 2.1641   144
 2.1741   131
 2.1841   148
 2.1941   160
 2.2041   157
 2.2141   160
 2.2241   151
 2.2341   141
 2.2441   162
 2.2541   147
 2.2641   142
 2.2741   146
 2.2841   126
 2.2941   127
 2.3041   131
 2.3141   138
 2.3241   119
 2.3341   131
 2.3441   144
 2.3541   134
 2.3641   156
 2.3741   134
 2.3841   129
 2.3941   153
 2.4041   146
 2.4141   132
 2.4241   126
 2.4341   144
 2.4441   139
 2.4541   125
 2.4641   131
 2.4741   140
 2.4841   141
 2.4941   115
 2.5041   120
 2.5141   132
 2.5241   139
 2.5341   143
 2.5441   140
 2.5541   133
 2.5641   140
 2.5741   139
 2.5841   131
 2.5941   141
 2.6041   121
 2.6141   139
 2.6241   145
 2.6341   130
 2.6441   149
 2.6541   133
 2.6641   139
 2.6741   141
 2.6841   119
 2.6941   126
 2.7041   124
 2.7141   133
 2.7241   134
 2.7341   130
 2.7441   118
 2.7541   143
 2.7641   142
 2.7741   118
 2.7841   149
 2.7941   124
 2.8041   150
 2.8141   143
 2.8241   155
 2.8341   123
 2.8441   124
 2.8541   108
 2.8641   113
 2.8741   110
 2.8841   142
 2.8941   133
 2.9041   109
 2.9141   127
 2.9241   141
 2.9341   121
 2.9441   131
 2.9541   131
 2.9641    98
 2.9741   136
 2.9841   117
 2.9941   108
 3.0041   105
 3.0141   113
 3.0241   100
 3.0341   119
 3.0441   116
 3.0541   119
 3.0641   106
 3.0741   123
 3.0841   124
 3.0941   115
 3.1041   123
 3.1141   104
 3.1241   109
 3.1341   101
 3.1441   126
 3.1541   129
 3.1641   113
 3.1741   119
 3.1841   117
 3.1941   115
 3.2041   111
 3.2141   126
 3.2241   122
 3.2341   148
 3.2441   145
 3.2541   192
 3.2641   213
 3.2741   205
 3.2841   211
 3.2941   239
 3.3041   219
 3.3141   246
 3.3241   217
 3.3341   253
 3.3441   198
 3.3541   220
 3.3641   187
 3.3741   147
 3.3841   134
 3.3941   151
 3.4041   111
 3.4141   108
 3.4241   112
 3.4341   111
 3.4441   109
 3.4541   113
 3.4641   131
 3.4741   114
 3.4841   156
 3.4941   157
 3.5041   192
 3.5141   189
 3.5241   185
 3.5341   256
 3.5441   302
 3.5541   423
 3.5641   581
 3.5741   858
 3.5841  1152
 3.5941  1591
 3.6041  2229
 3.6141  3077
 3.6241  4091
 3.6341  5272
 3.6441  6410
 3.6541  7789
 3.6641  8732
 3.6741  9608
 3.6841 10012
 3.6941 10113
 3.7041  9700
 3.7141  8953
 3.7241  7860
 3.7341  6790
 3.7441  5451
 3.7541  4181
 3.7641  3202
 3.7741  2343
 3.7841  1645
 3.7941  1091
 3.8041   761
 3.8141   529
 3.8241   354
 3.8341   255
 3.8441   194
 3.8541   171
 3.8641   198
 3.8741   218
 3.8841   252
 3.8941   315
 3.9041   371
 3.9141   432
 3.9241   616
 3.9341   756
 3.9441   937
 3.9541  1134
 3.9641  1404
 3.9741  1624
 3.9841  1834
 3.9941  1978
 4.0041  2049
 4.0141  2016
 4.0241  1949
 4.0341  1964
 4.0441  1776
 4.0541  1443
 4.0641  1292
 4.0741   993
 4.0841   806
 4.0941   638
 4.1041   467
 4.1141   329
 4.1241   252
 4.1341   188
 4.1441   140
 4.1541   122
 4.1641   107
 4.1741    81
 4.1841    84
 4.1941    74
 4.2041    74
 4.2141    72
 4.2241    83
 4.2341    86
 4.2441    65
 4.2541    86
 4.2641    84
 4.2741    70
 4.2841    75
 4.2941    96
 4.3041    76
 4.3141    85
 4.3241    73
 4.3341    86
 4.3441    71
 4.3541    83
 4.3641    72
 4.3741    91
 4.3841    83
 4.3941   108
 4.4041    98
 4.4141   100
 4.4241   124
 4.4341   132
 4.4441   147
 4.4541   168
 4.4641   219
 4.4741   223
 4.4841   216
 4.4941   245
 4.5041   242
 4.5141   228
 4.5241   252
 4.5341   245
 4.5441   208
 4.5541   173
 4.5641   161
 4.5741   151
 4.5841   148
 4.5941   113
 4.6041   139
 4.6141    94
 4.6241   103
 4.6341    91
 4.6441   106
 4.6541    82
 4.6641    76
 4.6741    99
 4.6841    95
 4.6941   106
 4.7041    93
 4.7141    80
 4.7241    91
 4.7341    86
 4.7441    81
 4.7541    80
 4.7641    73
 4.7741    95
 4.7841    99
 4.7941    94
 4.8041    97
 4.8141    96
 4.8241    93
 4.8341    88
 4.8441   105
 4.8541    96
 4.8641    95
 4.8741   113
 4.8841   110
 4.8941   122
 4.9041   115
 4.9141   133
 4.9241   110
 4.9341   115
 4.9441   141
 4.9541   120
 4.9641   125
 4.9741   105
 4.9841   116
 4.9941   104
 5.0041   102
 5.0141   107
 5.0241   104
 5.0341   105
 5.0441    92
 5.0541   100
 5.0641    91
 5.0741    81
 5.0841    73
 5.0941   103
 5.1041   108
 5.1141    75
 5.1241    94
 5.1341    89
 5.1441    79
 5.1541    93
 5.1641    93
 5.1741    80
 5.1841    93
 5.1941   108
 5.2041    90
 5.2141   101
 5.2241    85
 5.2341    80
 5.2441    87
 5.2541    97
 5.2641    97
 5.2741    96
 5.2841    89
 5.2941    88
 5.3041    85
 5.3141    84
 5.3241    97
 5.3341    93
 5.3441    92
 5.3541    97
 5.3641   103
 5.3741   113
 5.3841    98
 5.3941    98
 5.4041   107
 5.4141   118
 5.4241   109
 5.4341   117
 5.4441   104
 5.4541    94
 5.4641   109
 5.4741    95
 5.4841    99
 5.4941   103
 5.5041    84
 5.5141    92
 5.5241    85
 5.5341   101
 5.5441    95
 5.5541   103
 5.5641   101
 5.5741    98
 5.5841    96
 5.5941    92
 5.6041   105
 5.6141    90
 5.6241   110
 5.6341    92
 5.6441    96
 5.6541    86
 5.6641    85
 5.6741    98
 5.6841   113
 5.6941   110
 5.7041   104
 5.7141   100
 5.7241    99
 5.7341   105
 5.7441   105
 5.7541    89
 5.7641   115
 5.7741   119
 5.7841   151
 5.7941   145
 5.8041   185
 5.8141   200
 5.8241   208
 5.8341   235
 5.8441   264
 5.8541   281
 5.8641   300
 5.8741   317
 5.8841   330
 5.8941   278
 5.9041   315
 5.9141   319
 5.9241   315
 5.9341   270
 5.9441   231
 5.9541   232
 5.9641   200
 5.9741   173
 5.9841   175
 5.9941   175
 6.0041   141
 6.0141   137
 6.0241   129
 6.0341   114
 6.0441   113
 6.0541   130
 6.0641   124
 6.0741   108
 6.0841   121
 6.0941   118
 6.1041   115
 6.1141   131
 6.1241   112
 6.1341   126
 6.1441   129
 6.1541   140
 6.1641   124
 6.1741   144
 6.1841   170
 6.1941   199
 6.2041   210
 6.2141   248
 6.2241   295
 6.2341   411
 6.2441   496
 6.2541   690
 6.2641   892
 6.2741  1224
 6.2841  1641
 6.2941  2164
 6.3041  2755
 6.3141  3453
 6.3241  4380
 6.3341  5089
 6.3441  6047
 6.3541  6892
 6.3641  7622
 6.3741  8151
 6.3841  8636
 6.3941  9036
 6.4041  8956
 6.4141  8509
 6.4241  8045
 6.4341  7636
 6.4441  6671
 6.4541  5813
 6.4641  5022
 6.4741  4052
 6.4841  3269
 6.4941  2591
 6.5041  2010
 6.5141  1503
 6.5241  1125
 6.5341   815
 6.5441   602
 6.5541   413
 6.5641   359
 6.5741   244
 6.5841   222
 6.5941   167
 6.6041   135
 6.6141   174
 6.6241   156
 6.6341   119
 6.6441   148
 6.6541   154
 6.6641   141
 6.6741   131
 6.6841   164
 6.6941   135
 6.7041   160
 6.7141   123
 6.7241   142
 6.7341   152
 6.7441   114
 6.7541   149
 6.7641   156
 6.7741   167
 6.7841   183
 6.7941   157
 6.8041   175
 6.8141   155
 6.8241   155
 6.8341   180
 6.8441   152
 6.8541   178
 6.8641   194
 6.8741   208
 6.8841   249
 6.8941   249
 6.9041   291
 6.9141   284
 6.9241   315
 6.9341   450
 6.9441   528
 6.9541   633
 6.9641   710
 6.9741   889
 6.9841  1006
 6.9941  1128
 7.0041  1247
 7.0141  1381
 7.0241  1423
 7.0341  1462
 7.0441  1616
 7.0541  1581
 7.0641  1582
 7.0741  1560
 7.0841  1488
 7.0941  1337
 7.1041  1277
 7.1141  1143
 7.1241   909
 7.1341   837
 7.1441   726
 7.1541   578
 7.1641   518
 7.1741   442
 7.1841   346
 7.1941   318
 7.2041   285
 7.2141   304
 7.2241   240
 7.2341   245
 7.2441   245
 7.2541   239
 7.2641   214
 7.2741   233
 7.2841   219
 7.2941   222
 7.3041   234
 7.3141   258
 7.3241   236
 7.3341   237
 7.3441   247
 7.3541   276
 7.3641   310
 7.3741   280
 7.3841   247
 7.3941   298
 7.4041   305
 7.4141   311
 7.4241   306
 7.4341   283
 7.4441   258
 7.4541   297
 7.4641   261
 7.4741   259
 7.4841   258
 7.4941   254
 7.5041   251
 7.5141   205
 7.5241   219
 7.5341   208
 7.5441   209
 7.5541   226
 7.5641   207
 7.5741   215
 7.5841   195
 7.5941   217
 7.6041   199
 7.6141   222
 7.6241   194
 7.6341   200
 7.6441   197
 7.6541   181
 7.6641   193
 7.6741   191
 7.6841   223
 7.6941   194
 7.7041   230
 7.7141   225
 7.7241   228
 7.7341   255
 7.7441   236
 7.7541   222
 7.7641   238
 7.7741   221
 7.7841   250
 7.7941   273
 7.8041   255
 7.8141   264
 7.8241   272
 7.8341   284
 7.8441   279
 7.8541   319
 7.8641   338
 7.8741   315
 7.8841   318
 7.8941   312
 7.9041   368
 7.9141   349
 7.9241   352
 7.9341   364
 7.9441   408
 7.9541   419
 7.9641   499
 7.9741   520
 7.9841   510
 7.9941   533
 8.0041   642
 8.0141   653
 8.0241   668
 8.0341   722
 8.0441   810
 8.0541   838
 8.0641   946
 8.0741  1027
 8.0841  1058
 8.0941  1075
 8.1041  1189
 8.1141  1176
 8.1241  1229
 8.1341  1294
 8.1441  1384
 8.1541  1360
 8.1641  1402
 8.1741  1474
 8.1841  1403
 8.1941  1481
 8.2041  1494
 8.2141  1446
 8.2241  1478
 8.2341  1467
 8.2441  1558
 8.2541  1531
 8.2641  1639
 8.2741  1669
 8.2841  1756
 8.2941  1873
 8.3041  2093
 8.3141  2217
 8.3241  2518
 8.3341  2505
 8.3441  2731
 8.3541  2802
 8.3641  2886
 8.3741  3024
 8.3841  3129
 8.3941  3093
 8.4041  3000
 8.4141  2816
 8.4241  2755
 8.4341  2523
 8.4441  2340
 8.4541  2081
 8.4641  1825
 8.4741  1651
 8.4841  1427
 8.4941  1186
 8.5041  1000
 8.5141   839
 8.5241   769
 8.5341   615
 8.5441   556
 8.5541   496
 8.5641   439
 8.5741   396
 8.5841   373
 8.5941   387
 8.6041   403
 8.6141   381
 8.6241   356
 8.6341   373
 8.6441   379
 8.6541   369
 8.6641   386
 8.6741   362
 8.6841   368
 8.6941   345
 8.7041   350
 8.7141   347
 8.7241   336
 8.7341   342
 8.7441   359
 8.7541   327
 8.7641   311
 8.7741   324
 8.7841   320
 8.7941   320
 8.8041   319
 8.8141   335
 8.8241   289
 8.8341   302
 8.8441   317
 8.8541   306
 8.8641   312
 8.8741   319
 8.8841   311
 8.8941   343
 8.9041   303
 8.9141   336
 8.9241   340
 8.9341   330
 8.9441   320
 8.9541   353
 8.9641   362
 8.9741   353
 8.9841   343
 8.9941   397
 9.0041   359
 9.0141   380
 9.0241   381
 9.0341   384
 9.0441   427
 9.0541   433
 9.0641   431
 9.0741   436
 9.0841   442
 9.0941   490
 9.1041   480
 9.1141   492
 9.1241   499
 9.1341   516
 9.1441   528
 9.1541   552
 9.1641   559
 9.1741   612
 9.1841   645
 9.1941   663
 9.2041   734
 9.2141   721
 9.2241   792
 9.2341   851
 9.2441   815
 9.2541   864
 9.2641   932
 9.2741   943
 9.2841   997
 9.2941  1071
 9.3041  1068
 9.3141  1086
 9.3241  1214
 9.3341  1209
 9.3441  1196
 9.3541  1235
 9.3641  1319
 9.3741  1340
 9.3841  1291
 9.3941  1295
 9.4041  1329
 9.4141  1399
 9.4241  1419
 9.4341  1428
 9.4441  1454
 9.4541  1413
 9.4641  1435
 9.4741  1481
 9.4841  1520
 9.4941  1527
 9.5041  1575
 9.5141  1640
 9.5241  1694
 9.5341  1749
 9.5441  1724
 9.5541  1851
 9.5641  2016
 9.5741  2153
 9.5841  2183
 9.5941  2293
 9.6041  2436
 9.6141  2595
 9.6241  2704
 9.6341  2680
 9.6441  2952
 9.6541  2939
 9.6641  3030
 9.6741  2931
 9.6841  2944
 9.6941  2783
 9.7041  2727
 9.7141  2589
 9.7241  2379
 9.7341  2268
 9.7441  2091
 9.7541  1993
 9.7641  1811
 9.7741  1667
 9.7841  1512
 9.7941  1456
 9.8041  1367
 9.8141  1303
 9.8241  1272
 9.8341  1214
 9.8441  1188
 9.8541  1134
 9.8641  1183
 9.8741  1164
 9.8841  1185
 9.8941  1250
 9.9041  1264
 9.9141  1277
 9.9241  1299
 9.9341  1357
 9.9441  1273
 9.9541  1300
 9.9641  1319
 9.9741  1319
 9.9841  1246
 9.9941  1197
10.0041  1108
10.0141   997
10.0241   935
10.0341   896
10.0441   793
10.0541   719
10.0641   610
10.0741   587
10.0841   508
10.0941   431
10.1041   396
10.1141   378
10.1241   342
10.1341   335
10.1441   317
10.1541   308
10.1641   274
10.1741   253
10.1841   255
10.1941   254
10.2041   247
10.2141   243
10.2241   222
10.2341   199
10.2441   212
10.2541   204
10.2641   188
10.2741   196
10.2841   214
10.2941   191
10.3041   186
10.3141   171
10.3241   152
10.3341   175
10.3441   176
10.3541   175
10.3641   181
10.3741   184
10.3841   175
10.3941   170
10.4041   182
10.4141   175
10.4241   167
10.4341   182
10.4441   176
10.4541   180
10.4641   169
10.4741   171
10.4841   168
10.4941   180
10.5041   179
10.5141   181
10.5241   170
10.5341   170
10.5441   176
10.5541   165
10.5641   201
10.5741   185
10.5841   188
10.5941   173
10.6041   187
10.6141   182
10.6241   198
10.6341   203
10.6441   195
10.6541   194
10.6641   202
10.6741   215
10.6841   206
10.6941   215
10.7041   223
10.7141   216
10.7241   220
10.7341   214
10.7441   220
10.7541   251
10.7641   235
10.7741   235
10.7841   235
10.7941   276
10.8041   282
10.8141   252
10.8241   238
10.8341   246
10.8441   274
10.8541   291
10.8641   314
10.8741   303
10.8841   300
10.8941   272
10.9041   286
10.9141   281
10.9241   305
10.9341   294
10.9441   304
10.9541   281
10.9641   287
10.9741   276
10.9841   302
10.9941   293
11.0041   277
11.0141   281
11.0241   266
11.0341   251
11.0441   247
11.0541   275
11.0641   279
11.0741   247
11.0841   269
11.0941   258
11.1041   264
11.1141   275
11.1241   249
11.1341   245
11.1441   270
11.1541   297
11.1641   313
11.1741   343
11.1841   338
11.1941   364
11.2041   363
11.2141   372
11.2241   379
11.2341   385
11.2441   403
11.2541   416
11.2641   447
11.2741   459
11.2841   433
11.2941   434
11.3041   433
11.3141   448
11.3241   410
11.3341   399
11.3441   373
11.3541   341
11.3641   308
11.3741   309
11.3841   312
11.3941   310
11.4041   297
11.4141   257
11.4241   232
11.4341   235
11.4441   225
11.4541   215
11.4641   206
11.4741   216
11.4841   216
11.4941   210
11.5041   222
11.5141   211
11.5241   218
11.5341   220
11.5441   214
11.5541   213
11.5641   212
11.5741   234
11.5841   227
11.5941   226
11.6041   215
11.6141   209
11.6241   215
11.6341   222
11.6441   234
11.6541   240
11.6641   231
11.6741   233
11.6841   214
11.6941   203
11.7041   205
11.7141   200
11.7241   205
11.7341   201
11.7441   199
11.7541   198
11.7641   171
11.7741   180
11.7841   168
11.7941   170
11.8041   173
11.8141   180
11.8241   179
11.8341   169
11.8441   157
11.8541   172
11.8641   198
11.8741   193
11.8841   192
11.8941   182
11.9041   174
11.9141   187
11.9241   183
11.9341   191
11.9441   187
11.9541   195
11.9641   196
11.9741   206
11.9841   190
11.9941   177
12.0041   185
12.0141   174
12.0241   162
12.0341   186
12.0441   179
12.0541   158
12.0641   152
12.0741   159
12.0841   173
12.0941   173
12.1041   158
12.1141   159
12.1241   171
12.1341   173
12.1441   164
12.1541   164
12.1641   160
12.1741   157
12.1841   148
12.1941   149
12.2041   157
12.2141   150
12.2241   143
12.2341   152
12.2441   160
12.2541   146
12.2641   149
12.2741   148
12.2841   131
12.2941   139
12.3041   147
12.3141   142
12.3241   153
12.3341   156
12.3441   148
12.3541   156
12.3641   153
12.3741   148
12.3841   154
12.3941   151
12.4041   150
12.4141   155
12.4241   152
12.4341   147
12.4441   143
12.4541   142
12.4641   145
12.4741   149
12.4841   160
12.4941   173
12.5041   170
12.5141   161
12.5241   157
12.5341   143
12.5441   140
12.5541   149
12.5641   177
12.5741   181
12.5841   173
12.5941   164
12.6041   171
12.6141   168
12.6241   165
12.6341   156
12.6441   159
12.6541   157
12.6641   152
12.6741   169
12.6841   187
12.6941   174
12.7041   174
12.7141   156
12.7241   149
12.7341   158
12.7441   162
12.7541   162
12.7641   158
12.7741   157
12.7841   172
12.7941   182
12.8041   182
12.8141   166
12.8241   163
12.8341   164
12.8441   182
12.8541   186
12.8641   178
12.8741   179
12.8841   182
12.8941   171
12.9041   174
12.9141   173
12.9241   169
12.9341   176
12.9441   166
12.9541   168
12.9641   166
12.9741   169
12.9841   177
12.9941   158
13.0041   168
13.0141   179
13.0241   176
13.0341   175
13.0441   167
13.0541   162
13.0641   177
13.0741   171
13.0841   172
13.0941   187
13.1041   178
13.1141   171
13.1241   163
13.1341   170
13.1441   174
13.1541   176
13.1641   188
13.1741   183
13.1841   179
13.1941   169
13.2041   170
13.2141   197
13.2241   210
13.2341   212
13.2441   220
13.2541   204
13.2641   197
13.2741   212
13.2841   210
13.2941   214
13.3041   237
13.3141   246
13.3241   252
13.3341   258
13.3441   264
13.3541   257
13.3641   242
13.3741   239
13.3841   255
13.3941   245
13.4041   253
13.4141   252
13.4241   234
13.4341   231
13.4441   226
13.4541   216
13.4641   214
13.4741   223
13.4841   233
13.4941   217
13.5041   210
13.5141   206
13.5241   203
13.5341   198
13.5441   182
13.5541   190
13.5641   188
13.5741   196
13.5841   201
13.5941   188
13.6041   187
13.6141   196
13.6241   202
13.6341   206
13.6441   193
13.6541   183
13.6641   197
13.6741   198
13.6841   203
13.6941   198
13.7041   185
13.7141   188
13.7241   197
13.7341   208
13.7441   215
13.7541   202
13.7641   208
13.7741   215
13.7841   201
13.7941   184
13.8041   183
13.8141   202
13.8241   213
13.8341   212
13.8441   210
13.8541   223
13.8641   214
13.8741   206
13.8841   217
13.8941   218
13.9041   227
13.9141   228
13.9241   236
13.9341   248
13.9441   243
13.9541   253
13.9641   280
13.9741   304
13.9841   309
13.9941   315
14.0041   347
14.0141   389
14.0241   421
14.0341   420
14.0441   437
14.0541   492
14.0641   520
14.0741   570
14.0841   604
14.0941   580
14.1041   592
14.1141   617
14.1241   643
14.1341   672
14.1441   679
14.1541   681
14.1641   659
14.1741   645
14.1841   615
14.1941   568
14.2041   579
14.2141   576
14.2241   548
14.2341   502
14.2441   442
14.2541   420
14.2641   402
14.2741   398
14.2841   368
14.2941   324
14.3041   330
14.3141   299
14.3241   273
14.3341   262
14.3441   248
14.3541   250
14.3641   254
14.3741   247
14.3841   232
14.3941   235
14.4041   227
14.4141   206
14.4241   216
14.4341   236
14.4441   227
14.4541   218
14.4641   233
14.4741   230
14.4841   223
14.4941   227
14.5041   216
14.5141   224
14.5241   245
14.5341   247
14.5441   247
14.5541   237
14.5641   230
14.5741   215
14.5841   225
14.5941   233
14.6041   233
14.6141   233
14.6241   229
14.6341   222
14.6441   231
14.6541   246
14.6641   233
14.6741   240
14.6841   246
14.6941   245
14.7041   250
14.7141   248
14.7241   246
14.7341   246
14.7441   236
14.7541   260
14.7641   247
14.7741   227
14.7841   244
14.7941   255
14.8041   258
14.8141   257
14.8241   251
14.8341   255
14.8441   266
14.8541   259
14.8641   245
14.8741   259
14.8841   275
14.8941   264
14.9041   260
14.9141   283
14.9241   282
14.9341   275
14.9441   283
14.9541   252
14.9641   254
14.9741   261
14.9841   263
14.9941   260
15.0041   260
15.0141   269
15.0241   286
15.0341   287
15.0441   263
15.0541   256
15.0641   238
15.0741   253
15.0841   280
15.0941   265
15.1041   267
15.1141   281
15.1241   280
15.1341   266
15.1441   246
15.1541   252
15.1641   255
15.1741   250
15.1841   256
15.1941   252
15.2041   262
15.2141   272
15.2241   257
15.2341   262
15.2441   276
15.2541   281
15.2641   278
15.2741   273
15.2841   258
15.2941   259
15.3041   268
15.3141   267
15.3241   266
15.3341   268
15.3441   265
15.3541   274
15.3641   257
15.3741   249
15.3841   257
15.3941   264
15.4041   272
15.4141   261
15.4241   277
15.4341   278
15.4441   279
15.4541   265
15.4641   277
15.4741   272
15.4841   275
15.4941   276
15.5041   274
15.5141   272
15.5241   284
15.5341   299
15.5441   287
15.5541   319
15.5641   314
15.5741   300
15.5841   315
15.5941   346
15.6041   329
15.6141   347
15.6241   361
15.6341   374
15.6441   398
15.6541   400
15.6641   411
15.6741   415
15.6841   441
15.6941   460
15.7041   476
15.7141   481
15.7241   491
15.7341   514
15.7441   529
15.7541   514
15.7641   516
15.7741   529
15.7841   492
15.7941   492
15.8041   519
15.8141   512
15.8241   507
15.8341   498
15.8441   502
15.8541   481
15.8641   439
15.8741   419
15.8841   409
15.8941   399
15.9041   397
15.9141   423
15.9241   386
15.9341   390
15.9441   380
15.9541   359
15.9641   337
15.9741   337
15.9841   333
15.9941   331
16.0041   312
16.0141   317
16.0241   325
16.0341   335
16.0441   309
16.0541   313
16.0641   306
16.0741   303
16.0841   315
16.0941   327
16.1041   320
16.1141   331
16.1241   320
16.1341   315
16.1441   299
16.1541   299
16.1641   316
16.1741   316
16.1841   302
16.1941   294
16.2041   314
16.2141   315
16.2241   305
16.2341   331
16.2441   340
16.2541   331
16.2641   311
16.2741   312
16.2841   320
16.2941   322
16.3041   316
16.3141   313
16.3241   306
16.3341   324
16.3441   314
16.3541   325
16.3641   320
16.3741   315
16.3841   313
16.3941   336
16.4041   346
16.4141   332
16.4241   322
16.4341   340
16.4441   338
16.4541   319
16.4641   323
16.4741   324
16.4841   330
16.4941   336
16.5041   323
16.5141   343
16.5241   358
16.5341   321
16.5441   329
16.5541   352
16.5641   334
16.5741   329
16.5841   340
16.5941   343
16.6041   359
16.6141   341
16.6241   321
16.6341   355
16.6441   360
16.6541   363
16.6641   357
16.6741   350
16.6841   359
16.6941   345
16.7041   344
16.7141   324
16.7241   350
16.7341   347
16.7441   353
16.7541   349
16.7641   329
16.7741   349
16.7841   354
16.7941   355
16.8041   356
16.8141   356
16.8241   331
16.8341   329
16.8441   340
16.8541   329
16.8641   353
16.8741   341
16.8841   353
16.8941   357
16.9041   358
16.9141   345
16.9241   357
16.9341   345
16.9441   326
16.9541   361
16.9641   365
16.9741   345
16.9841   356
16.9941   366
17.0041   352
17.0141   344
17.0241   349
17.0341   359
17.0441   361
17.0541   347
17.0641   352
17.0741   344
17.0841   340
17.0941   367
17.1041   363
17.1141   356
17.1241   365
17.1341   369
17.1441   377
17.1541   372
17.1641   366
17.1741   361
17.1841   355
17.1941   356
17.2041   351
17.2141   372
17.2241   383
17.2341   340
17.2441   356
17.2541   370
17.2641   341
17.2741   368
17.2841   367
17.2941   372
17.3041   379
17.3141   382
17.3241   363
17.3341   398
17.3441   373
17.3541   394
17.3641   388
17.3741   397
17.3841   390
17.3941   377
17.4041   385
17.4141   390
17.4241   392
17.4341   386
17.4441   371
17.4541   394
17.4641   388
17.4741   375
17.4841   375
17.4941   370
17.5041   371
17.5141   393
17.5241   406
17.5341   388
17.5441   380
17.5541   414
17.5641   409
17.5741   396
17.5841   404
17.5941   421
17.6041   411
17.6141   411
17.6241   406
17.6341   447
17.6441   430
17.6541   438
17.6641   445
17.6741   437
17.6841   420
17.6941   414
17.7041   421
17.7141   430
17.7241   434
17.7341   428
17.7441   404
17.7541   374
17.7641   407
17.7741   408
17.7841   414
17.7941   424
17.8041   395
17.8141   415
17.8241   397
17.8341   400
17.8441   428
17.8541   408
17.8641   388
17.8741   386
17.8841   402
17.8941   409
17.9041   397
17.9141   390
17.9241   409
17.9341   406
17.9441   426
17.9541   421
17.9641   433
17.9741   398
17.9841   406
17.9941   398
18.0041   407
18.0141   434
18.0241   394
18.0341   402
18.0441   419
18.0541   397
18.0641   412
18.0741   415
18.0841   379
18.0941   439
18.1041   417
18.1141   439
18.1241   444
18.1341   439
18.1441   449
18.1541   430
18.1641   400
18.1741   414
18.1841   401
18.1941   394
18.2041   411
18.2141   428
18.2241   412
18.2341   388
18.2441   415
18.2541   432
18.2641   424
18.2741   423
18.2841   417
18.2941   405
18.3041   428
18.3141   445
18.3241   450
18.3341   449
18.3441   447
18.3541   439
18.3641   427
18.3741   406
18.3841   431
18.3941   416
18.4041   445
18.4141   421
18.4241   417
18.4341   408
18.4441   454
18.4541   469
18.4641   426
18.4741   428
18.4841   435
18.4941   413
18.5041   437
18.5141   421
18.5241   431
18.5341   449
18.5441   441
18.5541   458
18.5641   454
18.5741   482
18.5841   444
18.5941   439
18.6041   441
18.6141   456
18.6241   442
18.6341   469
18.6441   434
18.6541   431
18.6641   440
18.6741   451
18.6841   429
18.6941   426
18.7041   448
18.7141   456
18.7241   459
18.7341   440
18.7441   425
18.7541   413
18.7641   442
18.7741   448
18.7841   448
18.7941   443
18.8041   425
18.8141   461
18.8241   451
18.8341   472
18.8441   464
18.8541   455
18.8641   439
18.8741   457
18.8841   447
18.8941   474
18.9041   466
18.9141   482
18.9241   430
18.9341   418
18.9441   450
18.9541   441
18.9641   460
18.9741   446
18.9841   467
18.9941   470
19.0041   476
19.0141   466
19.0241   485
19.0341   470
19.0441   492
19.0541   464
19.0641   462
19.0741   460
19.0841   446
19.0941   467
19.1041   460
19.1141   469
19.1241   475
19.1341   462
19.1441   446
19.1541   468
19.1641   492
19.1741   470
19.1841   467
19.1941   459
19.2041   460
19.2141   487
19.2241   467
19.2341   506
19.2441   494
19.2541   471
19.2641   469
19.2741   478
19.2841   506
19.2941   466
19.3041   507
19.3141   473
19.3241   468
19.3341   463
19.3441   456
19.3541   493
19.3641   464
19.3741   481
19.3841   456
19.3941   480
19.4041   479
19.4141   455
19.4241   457
19.4341   454
19.4441   496
19.4541   505
19.4641   497
19.4741   449
19.4841   452
19.4941   494
19.5041   482
19.5141   485
19.5241   446
19.5341   472
19.5441   473
19.5541   497
19.5641   495
19.5741   469
19.5841   479
19.5941   507
19.6041   516
19.6141   524
19.6241   490
19.6341   484
19.6441   487
19.6541   504
19.6641   498
19.6741   499
19.6841   486
19.6941   500
19.7041   502
19.7141   457
19.7241   467
19.7341   436
19.7441   435
19.7541   463
19.7641   486
19.7741   478
19.7841   464
19.7941   486
19.8041   521
19.8141   504
19.8241   455
19.8341   506
19.8441   504
19.8541   486
19.8641   487
19.8741   524
19.8841   505
19.8941   499
19.9041   535
19.9141   486
19.9241   472
19.9341   466
19.9441   493
19.9541   462
19.9641   449
19.9741   508
19.9841   476
19.9941   486
20.0041   482
20.0141   503
20.0241   491
20.0341   478
20.0441   500
20.0541   529
20.0641   469
20.0741   492
20.0841   486
20.0941   506
20.1041   489
20.1141   468
20.1241   502
20.1341   512
20.1441   483
20.1541   483
20.1641   469
20.1741   493
20.1841   531
20.1941   487
20.2041   494
20.2141   514
20.2241   477
20.2341   476
20.2441   497
20.2541   520
20.2641   510
20.2741   496
20.2841   469
20.2941   491
20.3041   484
20.3141   507
20.3241   526
20.3341   511
20.3441   536
20.3541   522
20.3641   532
20.3741   526
20.3841   492
20.3941   500
20.4041   502
20.4141   504
20.4241   533
20.4341   514
20.4441   517
20.4541   508
20.4641   467
20.4741   502
20.4841   505
20.4941   536
20.5041   524
20.5141   501
20.5241   497
20.5341   488
20.5441   496
20.5541   516
20.5641   493
20.5741   502
20.5841   493
20.5941   508
20.6041   480
20.6141   508
20.6241   490
20.6341   474
20.6441   529
20.6541   512
20.6641   546
20.6741   544
20.6841   501
20.6941   522
20.7041   509
20.7141   524
20.7241   496
20.7341   517
20.7441   518
20.7541   502
20.7641   556
20.7741   534
20.7841   535
20.7941   508
20.8041   525
20.8141   573
20.8241   526
20.8341   518
20.8441   520
20.8541   552
20.8641   544
20.8741   560
20.8841   569
20.8941   605
20.9041   536
20.9141   576
20.9241   566
20.9341   600
20.9441   579
20.9541   650
20.9641   619
20.9741   695
20.9841   678
20.9941   672
21.0041   722
21.0141   702
21.0241   729
21.0341   699
21.0441   773
21.0541   785
21.0641   781
21.0741   765
21.0841   788
21.0941   758
21.1041   740
21.1141   765
21.1241   803
21.1341   771
21.1441   824
21.1541   751
21.1641   780
21.1741   776
21.1841   752
21.1941   768
21.2041   699
21.2141   654
21.2241   695
21.2341   702
21.2441   633
21.2541   685
21.2641   685
21.2741   678
21.2841   611
21.2941   634
21.3041   620
21.3141   629
21.3241   620
21.3341   606
21.3441   602
21.3541   572
21.3641   539
21.3741   534
21.3841   503
21.3941   529
21.4041   532
21.4141   542
21.4241   510
21.4341   516
21.4441   508
21.4541   508
21.4641   506
21.4741   512
21.4841   494
21.4941   539
21.5041   520
21.5141   538
21.5241   524
21.5341   507
21.5441   515
21.5541   456
21.5641   541
21.5741   537
21.5841   517
21.5941   514
21.6041   516
21.6141   555
21.6241   527
21.6341   535
21.6441   541
21.6541   545
21.6641   526
21.6741   490
21.6841   509
21.6941   507
21.7041   489
21.7141   543
21.7241   518
21.7341   558
21.7441   528
21.7541   496
21.7641   500
21.7741   495
21.7841   496
21.7941   518
21.8041   523
21.8141   530
21.8241   497
21.8341   534
21.8441   551
21.8541   520
21.8641   544
21.8741   526
21.8841   529
21.8941   551
21.9041   510
21.9141   540
21.9241   502
21.9341   545
21.9441   530
21.9541   533
21.9641   526
21.9741   521
21.9841   543
21.9941   515
22.0041   500
22.0141   488
22.0241   467
22.0341   526
22.0441   511
22.0541   516
22.0641   541
22.0741   548
22.0841   486
22.0941   522
22.1041   540
22.1141   566
22.1241   543
22.1341   493
22.1441   533
22.1541   522
22.1641   548
22.1741   483
22.1841   512
22.1941   497
22.2041   554
22.2141   511
22.2241   499
22.2341   507
22.2441   538
22.2541   494
22.2641   510
22.2741   522
22.2841   486
22.2941   502
22.3041   517
22.3141   493
22.3241   506
22.3341   560
22.3441   497
22.3541   530
22.3641   525
22.3741   494
22.3841   498
22.3941   497
22.4041   515
22.4141   471
22.4241   507
22.4341   556
22.4441   524
22.4541   526
22.4641   514
22.4741   541
22.4841   515
22.4941   508
22.5041   498
22.5141   523
22.5241   516
22.5341   517
22.5441   577
22.5541   526
22.5641   513
22.5741   506
22.5841   519
22.5941   536
22.6041   498
22.6141   528
22.6241   510
22.6341   546
22.6441   531
22.6541   521
22.6641   542
22.6741   472
22.6841   489
22.6941   514
22.7041   514
22.7141   517
22.7241   509
22.7341   490
22.7441   526
22.7541   497
22.7641   518
22.7741   481
22.7841   509
22.7941   498
22.8041   481
22.8141   541
22.8241   480
22.8341   525
22.8441   501
22.8541   556
22.8641   521
22.8741   521
22.8841   498
22.8941   522
22.9041   513
22.9141   501
22.9241   486
22.9341   476
22.9441   509
22.9541   519
22.9641   527
22.9741   509
22.9841   519
22.9941   489
23.0041   507
23.0141   497
23.0241   533
23.0341   527
23.0441   527
23.0541   485
23.0641   497
23.0741   517
23.0841   511
23.0941   531
23.1041   466
23.1141   490
23.1241   505
23.1341   522
23.1441   547
23.1541   506
23.1641   487
23.1741   576
23.1841   520
23.1941   518
23.2041   497
23.2141   534
23.2241   542
23.2341   482
23.2441   512
23.2541   509
23.2641   521
23.2741   508
23.2841   518
23.2941   524
23.3041   516
23.3141   501
23.3241   532
23.3341   484
23.3441   478
23.3541   476
23.3641   499
23.3741   502
23.3841   491
23.3941   526
23.4041   515
23.4141   522
23.4241   499
23.4341   496
23.4441   517
23.4541   544
23.4641   523
23.4741   534
23.4841   494
23.4941   502
23.5041   503
23.5141   480
23.5241   508
23.5341   506
23.5441   504
23.5541   532
23.5641   510
23.5741   511
23.5841   491
23.5941   495
23.6041   479
23.6141   508
23.6241   541
23.6341   539
23.6441   485
23.6541   485
23.6641   531
23.6741   518
23.6841   487
23.6941   514
23.7041   563
23.7141   546
23.7241   518
23.7341   540
23.7441   529
23.7541   508
23.7641   532
23.7741   537
23.7841   520
23.7941   530
23.8041   561
23.8141   546
23.8241   537
23.8341   586
23.8441   541
23.8541   513
23.8641   530
23.8741   537
23.8841   505
23.8941   559
23.9041   508
23.9141   519
23.9241   520
23.9341   479
23.9441   530
23.9541   531
23.9641   493
23.9741   481
23.9841   525
23.9941   509
24.0041   533
24.0141   501
24.0241   439
24.0341   479
24.0441   490
24.0541   476
24.0641   496
24.0741   482
24.0841   494
24.0941   455
24.1041   446
24.1141   460
24.1241   511
24.1341   477
24.1441   503
24.1541   495
24.1641   517
24.1741   498
24.1841   480
24.1941   493
24.2041   459
24.2141   529
24.2241   471
24.2341   531
24.2441   475
24.2541   498
24.2641   496
24.2741   461
24.2841   471
24.2941   479
24.3041   501
24.3141   490
24.3241   477
24.3341   501
24.3441   496
24.3541   479
24.3641   496
24.3741   499
24.3841   484
24.3941   481
24.4041   507
24.4141   479
24.4241   498
24.4341   489
24.4441   483
24.4541   512
24.4641   503
24.4741   503
24.4841   522
24.4941   504
24.5041   512
24.5141   483
24.5241   478
24.5341   476
24.5441   449
24.5541   496
24.5641   467
24.5741   508
24.5841   494
24.5941   454
24.6041   484
24.6141   438
24.6241   490
24.6341   457
24.6441   463
24.6541   472
24.6641   466
24.6741   471
24.6841   465
24.6941   472
24.7041   466
24.7141   494
24.7241   457
24.7341   464
24.7441   469
24.7541   502
24.7641   452
24.7741   482
24.7841   462
24.7941   475
24.8041   441
24.8141   454
24.8241   478
24.8341   444
24.8441   523
24.8541   445
24.8641   445
24.8741   451
24.8841   473
24.8941   493
24.9041   453
24.9141   423
24.9241   452
24.9341   454
24.9441   436
24.9541   468
24.9641   446
24.9741   447
24.9841   504
24.9941   477
25.0041   494
25.0141   468
25.0241   441
25.0341   446
25.0441   440
25.0541   453
25.0641   465
25.0741   446
25.0841   468
25.0941   475
25.1041   469
25.1141   472
25.1241   474
25.1341   439
25.1441   470
25.1541   476
25.1641   507
25.1741   474
25.1841   476
25.1941   492
25.2041   462
25.2141   466
25.2241   466
25.2341   491
25.2441   488
25.2541   511
25.2641   496
25.2741   477
25.2841   438
25.2941   522
25.3041   475
25.3141   450
25.3241   456
25.3341   464
25.3441   452
25.3541   454
25.3641   478
25.3741   469
25.3841   439
25.3941   440
25.4041   461
25.4141   469
25.4241   475
25.4341   443
25.4441   473
25.4541   429
25.4641   455
25.4741   481
25.4841   443
25.4941   502
25.5041   467
25.5141   421
25.5241   465
25.5341   463
25.5441   469
25.5541   455
25.5641   440
25.5741   437
25.5841   484
25.5941   446
25.6041   461
25.6141   454
25.6241   428
25.6341   441
25.6441   438
25.6541   451
25.6641   425
25.6741   454
25.6841   446
25.6941   428
25.7041   407
25.7141   418
25.7241   450
25.7341   425
25.7441   427
25.7541   434
25.7641   430
25.7741   418
25.7841   413
25.7941   435
25.8041   454
25.8141   434
25.8241   436
25.8341   414
25.8441   468
25.8541   449
25.8641   443
25.8741   396
25.8841   428
25.8941   429
25.9041   428
25.9141   425
25.9241   454
25.9341   452
25.9441   459
25.9541   397
25.9641   430
25.9741   459
25.9841   430
25.9941   455
26.0041   446
26.0141   435
26.0241   436
26.0341   431
26.0441   419
26.0541   411
26.0641   448
26.0741   446
26.0841   461
26.0941   458
26.1041   433
26.1141   459
26.1241   415
26.1341   426
26.1441   413
26.1541   408
26.1641   402
26.1741   400
26.1841   407
26.1941   423
26.2041   420
26.2141   453
26.2241   440
26.2341   425
26.2441   407
26.2541   425
26.2641   436
26.2741   410
26.2841   379
26.2941   457
26.3041   428
26.3141   456
26.3241   387
26.3341   404
26.3441   412
26.3541   427
26.3641   434
26.3741   421
26.3841   407
26.3941   424
26.4041   399
26.4141   408
26.4241   425
26.4341   411
26.4441   419
26.4541   405
26.4641   396
26.4741   375
26.4841   390
26.4941   418
26.5041   379
26.5141   402
26.5241   395
26.5341   393
26.5441   424
26.5541   376
26.5641   431
26.5741   421
26.5841   388
26.5941   418
26.6041   366
26.6141   412
26.6241   432
26.6341   392
26.6441   420
26.6541   415
26.6641   356
26.6741   435
26.6841   412
26.6941   438
26.7041   391
26.7141   383
26.7241   421
26.7341   391
26.7441   399
26.7541   395
26.7641   413
26.7741   414
26.7841   370
26.7941   397
26.8041   429
26.8141   369
26.8241   371
26.8341   405
26.8441   443
26.8541   416
26.8641   438
26.8741   426
26.8841   429
26.8941   407
26.9041   361
26.9141   399
26.9241   402
26.9341   405
26.9441   392
26.9541   396
26.9641   393
26.9741   405
26.9841   416
26.9941   394
27.0041   394
27.0141   430
27.0241   390
27.0341   397
27.0441   397
27.0541   385
27.0641   399
27.0741   406
27.0841   400
27.0941   346
27.1041   391
27.1141   410
27.1241   408
27.1341   368
27.1441   397
27.1541   391
27.1641   386
27.1741   392
27.1841   389
27.1941   376
27.2041   392
27.2141   399
27.2241   385
27.2341   410
27.2441   389
27.2541   387
27.2641   362
27.2741   352
27.2841   409
27.2941   372
27.3041   373
27.3141   383
27.3241   377
27.3341   427
27.3441   381
27.3541   358
27.3641   378
27.3741   367
27.3841   414
27.3941   392
27.4041   389
27.4141   365
27.4241   368
27.4341   375
27.4441   393
27.4541   377
27.4641   371
27.4741   381
27.4841   357
27.4941   419
27.5041   387
27.5141   374
27.5241   393
27.5341   390
27.5441   376
27.5541   361
27.5641   382
27.5741   346
27.5841   361
27.5941   346
27.6041   354
27.6141   362
27.6241   361
27.6341   341
27.6441   355
27.6541   341
27.6641   352
27.6741   369
27.6841   394
27.6941   346
27.7041   349
27.7141   353
27.7241   345
27.7341   360
27.7441   414
27.7541   369
27.7641   365
27.7741   357
27.7841   356
27.7941   374
27.8041   349
27.8141   351
27.8241   354
27.8341   324
27.8441   362
27.8541   352
27.8641   341
27.8741   359
27.8841   366
27.8941   343
27.9041   368
27.9141   378
27.9241   361
27.9341   370
27.9441   347
27.9541   361
27.9641   344
27.9741   336
27.9841   331
27.9941   341
28.0041   346
28.0141   363
28.0241   343
28.0341   355
28.0441   368
28.0541   370
28.0641   377
28.0741   348
28.0841   338
28.0941   323
28.1041   341
28.1141   340
28.1241   346
28.1341   323
28.1441   334
28.1541   346
28.1641   314
28.1741   360
28.1841   313
28.1941   351
28.2041   341
28.2141   323
28.2241   341
28.2341   323
28.2441   327
28.2541   342
28.2641   330
28.2741   337
28.2841   363
28.2941   330
28.3041   333
28.3141   345
28.3241   351
28.3341   330
28.3441   364
28.3541   353
28.3641   340
28.3741   334
28.3841   330
28.3941   338
28.4041   351
28.4141   347
28.4241   355
28.4341   332
28.4441   335
28.4541   341
28.4641   342
28.4741   317
28.4841   334
28.4941   322
28.5041   317
28.5141   317
28.5241   345
28.5341   313
28.5441   308
28.5541   318
28.5641   346
28.5741   312
28.5841   323
28.5941   331
28.6041   348
28.6141   342
28.6241   309
28.6341   319
28.6441   335
28.6541   347
28.6641   311
28.6741   303
28.6841   334
28.6941   330
28.7041   312
28.7141   330
28.7241   331
28.7341   316
28.7441   314
28.7541   310
28.7641   337
28.7741   340
28.7841   333
28.7941   334
28.8041   303
28.8141   302
28.8241   319
28.8341   297
28.8441   307
28.8541   348
28.8641   320
28.8741   304
28.8841   309
28.8941   318
28.9041   299
28.9141   338
28.9241   311
28.9341   324
28.9441   312
28.9541   305
28.9641   314
28.9741   330
28.9841   318
28.9941   326
29.0041   337
29.0141   302
29.0241   294
29.0341   300
29.0441   298
29.0541   318
29.0641   283
29.0741   328
29.0841   305
29.0941   317
29.1041   326
29.1141   312
29.1241   334
29.1341   315
29.1441   299
29.1541   328
29.1641   320
29.1741   305
29.1841   318
29.1941   292
29.2041   304
29.2141   315
29.2241   313
29.2341   299
29.2441   329
29.2541   304
29.2641   305
29.2741   290
29.2841   295
29.2941   291
29.3041   297
29.3141   302
29.3241   294
29.3341   312
29.3441   306
29.3541   288
29.3641   299
29.3741   293
29.3841   298
29.3941   327
29.4041   303
29.4141   315
29.4241   286
29.4341   309
29.4441   302
29.4541   281
29.4641   291
29.4741   308
29.4841   288
29.4941   276
29.5041   283
29.5141   286
29.5241   292
29.5341   279
29.5441   293
29.5541   266
29.5641   296
29.5741   275
29.5841   308
29.5941   292
29.6041   286
29.6141   282
29.6241   268
29.6341   285
29.6441   286
29.6541   281
29.6641   293
29.6741   304
29.6841   310
29.6941   306
29.7041   304
29.7141   287
29.7241   280
29.7341   283
29.7441   271
29.7541   274
29.7641   279
29.7741   283
29.7841   291
29.7941   281
29.8041   287
29.8141   283
29.8241   298
29.8341   281
29.8441   277
29.8541   300
29.8641   298
29.8741   283
29.8841   297
29.8941   244
29.9041   288
29.9141   295
29.9241   255
29.9341   259
29.9441   282
29.9541   292
29.9641   286
29.9741   273
29.9841   281
29.9941   277
30.0041   281
30.0141   292
30.0241   276
30.0341   272
30.0441   259
30.0541   271
30.0641   290
30.0741   271
30.0841   272
30.0941   256
30.1041   264
30.1141   289
30.1241   293
30.1341   267
30.1441   277
30.1541   273
30.1641   276
30.1741   250
30.1841   251
30.1941   280
30.2041   271
30.2141   303
30.2241   254
30.2341   272
30.2441   292
30.2541   260
30.2641   271
30.2741   266
30.2841   267
30.2941   262
30.3041   244
30.3141   264
30.3241   274
30.3341   257
30.3441   271
30.3541   267
30.3641   284
30.3741   288
30.3841   289
30.3941   264
30.4041   266
30.4141   271
30.4241   287
30.4341   271
30.4441   267
30.4541   268
30.4641   271
30.4741   266
30.4841   252
30.4941   263
30.5041   260
30.5141   230
30.5241   253
30.5341   266
30.5441   263
30.5541   253
30.5641   237
30.5741   230
30.5841   263
30.5941   283
30.6041   258
30.6141   268
30.6241   263
30.6341   251
30.6441   241
30.6541   238
30.6641   255
30.6741   208
30.6841   251
30.6941   252
30.7041   262
30.7141   248
30.7241   223
30.7341   237
30.7441   250
30.7541   227
30.7641   226
30.7741   224
30.7841   213
30.7941   238
30.8041   220
30.8141   211
30.8241   252
30.8341   242
30.8441   207
30.8541   242
30.8641   216
30.8741   233
30.8841   251
30.8941   264
30.9041   237
30.9141   240
30.9241   232
30.9341   273
30.9441   272
30.9541   259
30.9641   233
30.9741   244
30.9841   233
30.9941   221
31.0041   236
31.0141   227
31.0241   237
31.0341   230
31.0441   238
31.0541   234
31.0641   250
31.0741   230
31.0841   215
31.0941   223
31.1041   264
31.1141   213
31.1241   226
31.1341   233
31.1441   234
31.1541   243
31.1641   251
31.1741   202
31.1841   208
31.1941   220
31.2041   216
31.2141   236
31.2241   229
31.2341   222
31.2441   195
31.2541   231
31.2641   271
31.2741   220
31.2841   212
31.2941   235
31.3041   219
31.3141   200
31.3241   243
31.3341   229
31.3441   208
31.3541   204
31.3641   212
31.3741   224
31.3841   232
31.3941   243
31.4041   215
31.4141   233
31.4241   223
31.4341   204
31.4441   217
31.4541   223
31.4641   216
31.4741   204
31.4841   207
31.4941   265
31.5041   224
31.5141   215
31.5241   196
31.5341   212
31.5441   220
31.5541   193
31.5641   211
31.5741   212
31.5841   206
31.5941   233
31.6041   235
31.6141   240
31.6241   241
31.6341   184
31.6441   233
31.6541   206
31.6641   197
31.6741   209
31.6841   216
31.6941   216
31.7041   211
31.7141   234
31.7241   202
31.7341   202
31.7441   216
31.7541   200
31.7641   199
31.7741   194
31.7841   213
31.7941   224
31.8041   234
31.8141   219
31.8241   217
31.8341   192
31.8441   210
31.8541   234
31.8641   232
31.8741   226
31.8841   205
31.8941   229
31.9041   231
31.9141   199
31.9241   190
31.9341   216
31.9441   211
31.9541   194
31.9641   229
31.9741   220
31.9841   221
31.9941   204
32.0041   217
32.0141   199
32.0241   212
32.0341   195
32.0441   196
32.0541   210
32.0641   204
32.0741   188
32.0841   204
32.0941   223
32.1041   231
32.1141   218
32.1241   199
32.1341   204
32.1441   195
32.1541   212
32.1641   199
32.1741   211
32.1841   202
32.1941   202
32.2041   204
32.2141   203
32.2241   211
32.2341   195
32.2441   193
32.2541   163
32.2641   179
32.2741   206
32.2841   200
32.2941   221
32.3041   217
32.3141   198
32.3241   183
32.3341   211
32.3441   208
32.3541   206
32.3641   207
32.3741   187
32.3841   191
32.3941   187
32.4041   181
32.4141   192
32.4241   189
32.4341   198
32.4441   168
32.4541   200
32.4641   171
32.4741   188
32.4841   191
32.4941   202
32.5041   193
32.5141   199
32.5241   188
32.5341   177
32.5441   194
32.5541   176
32.5641   196
32.5741   182
32.5841   176
32.5941   168
32.6041   202
32.6141   173
32.6241   180
32.6341   183
32.6441   173
32.6541   144
32.6641   174
32.6741   171
32.6841   179
32.6941   166
32.7041   188
32.7141   158
32.7241   188
32.7341   176
32.7441   164
32.7541   168
32.7641   188
32.7741   185
32.7841   161
32.7941   176
32.8041   178
32.8141   168
32.8241   155
32.8341   168
32.8441   175
32.8541   151
32.8641   186
32.8741   188
32.8841   167
32.8941   155
32.9041   168
32.9141   169
32.9241   149
32.9341   169
32.9441   175
32.9541   178
32.9641   195
32.9741   175
32.9841   170
32.9941   168
33.0041   163
33.0141   157
33.0241   170
33.0341   163
33.0441   175
33.0541   174
33.0641   168
33.0741   173
33.0841   167
33.0941   185
33.1041   168
33.1141   187
33.1241   159
33.1341   153
33.1441   181
33.1541   186
33.1641   168
33.1741   167
33.1841   172
33.1941   141
33.2041   171
33.2141   139
33.2241   161
33.2341   183
33.2441   174
33.2541   166
33.2641   154
33.2741   168
33.2841   173
33.2941   156
33.3041   149
33.3141   161
33.3241   163
33.3341   169
33.3441   127
33.3541   145
33.3641   165
33.3741   145
33.3841   156
33.3941   145
33.4041   169
33.4141   164
33.4241   151
33.4341   178
33.4441   160
33.4541   146
33.4641   154
33.4741   154
33.4841   143
33.4941   146
33.5041   169
33.5141   164
33.5241   150
33.5341   154
33.5441   162
33.5541   149
33.5641   152
33.5741   145
33.5841   159
33.5941   154
33.6041   144
33.6141   159
33.6241   155
33.6341   131
33.6441   162
33.6541   162
33.6641   171
33.6741   163
33.6841   152
33.6941   154
33.7041   148
33.7141   150
33.7241   155
33.7341   166
33.7441   173
33.7541   154
33.7641   155
33.7741   155
33.7841   149
33.7941   153
33.8041   162
33.8141   157
33.8241   136
33.8341   167
33.8441   146
33.8541   152
33.8641   134
33.8741   162
33.8841   157
33.8941   153
33.9041   145
33.9141   141
33.9241   133
33.9341   147
33.9441   154
33.9541   142
33.9641   139
33.9741   131
33.9841   138
33.9941   143
34.0041   151
34.0141   130
34.0241   127
34.0341   163
34.0441   152
34.0541   162
34.0641   140
34.0741   156
34.0841   155
34.0941   136
34.1041   123
34.1141   124
34.1241   162
34.1341   131
34.1441   113
34.1541   146
34.1641   126
34.1741   139
34.1841   140
34.1941   155
34.2041   156
34.2141   115
34.2241   157
34.2341   148
34.2441   127
34.2541   124
34.2641   118
34.2741   165
34.2841   124
34.2941   144
34.3041   122
34.3141   121
34.3241   135
34.3341   129
34.3441   135
34.3541   155
34.3641   141
34.3741   136
34.3841   144
34.3941   123
34.4041   130
34.4141   128
34.4241   123
34.4341   138
34.4441   119
34.4541   140
34.4641   127
34.4741   129
34.4841   129
34.4941   142
34.5041   130
34.5141   126
34.5241   149
34.5341   139
34.5441   131
34.5541   124
34.5641   127
34.5741   136
34.5841   134
34.5941   128
34.6041   128
34.6141   124
34.6241   144
34.6341   132
34.6441   142
34.6541   136
34.6641   125
34.6741   130
34.6841   143
34.6941   126
34.7041   145
34.7141   138
34.7241   130
34.7341   124
34.7441   133
34.7541   132
34.7641   108
34.7741   126
34.7841   133
34.7941   151
34.8041   126
34.8141   132
34.8241   141
34.8341   119
34.8441   119
34.8541   118
34.8641   120
34.8741   111
34.8841   134
34.8941   113
34.9041   124
34.9141   125
34.9241   118
34.9341   120
34.9441   118
34.9541   121
34.9641   113
34.9741   120
34.9841   137
34.9941   113
35.0041   130
35.0141   128
35.0241   119
35.0341   114
35.0441   122
35.0541   119
35.0641   124
35.0741   110
35.0841   137
35.0941   118
35.1041   112
35.1141   114
35.1241   104
35.1341   119
35.1441   116
35.1541   140
35.1641   103
35.1741   119
35.1841   114
35.1941   111
35.2041   120
35.2141   119
35.2241    98
35.2341   107
35.2441   116
35.2541   110
35.2641   111
35.2741   110
35.2841   116
35.2941   125
35.3041   118
35.3141   103
35.3241   129
35.3341   115
35.3441   128
35.3541    98
35.3641   113
35.3741   106
35.3841   108
35.3941   117
35.4041   113
35.4141    99
35.4241   106
35.4341   105
35.4441    99
35.4541    95
35.4641   121
35.4741   107
35.4841   110
35.4941   117
35.5041   102
35.5141   111
35.5241   122
35.5341   103
35.5441   110
35.5541    92
35.5641   109
35.5741   100
35.5841   104
35.5941   102
35.6041   112
35.6141   103
35.6241    97
35.6341   117
35.6441   128
35.6541   114
35.6641    98
35.6741   103
35.6841   107
35.6941   116
35.7041   100
35.7141   115
35.7241   107
35.7341    99
35.7441   122
35.7541    93
35.7641   100
35.7741    83
35.7841    90
35.7941    94
35.8041    91
35.8141   121
35.8241   100
35.8341   101
35.8441   107
35.8541    92
35.8641    80
35.8741   103
35.8841   103
35.8941   107
35.9041    86
35.9141   111
35.9241    87
35.9341   107
35.9441    93
35.9541   107
35.9641    98
35.9741    98
35.9841    98
35.9941    90
36.0041    97
36.0141   105
36.0241    92
36.0341    90
36.0441    88
36.0541    95
36.0641   104
36.0741    99
36.0841    97
36.0941    97
36.1041   106
36.1141    88
36.1241    94
36.1341    87
36.1441    90
36.1541   101
36.1641    94
36.1741    88
36.1841    93
36.1941    94
36.2041   103
36.2141    83
36.2241    90
36.2341   105
36.2441    93
36.2541   104
36.2641    93
36.2741   105
36.2841    96
36.2941    87
36.3041    94
36.3141    87
36.3241    99
36.3341    87
36.3441    92
36.3541    86
36.3641    98
36.3741    99
36.3841    92
36.3941    94
36.4041    87
36.4141    82
36.4241    91
36.4341    83
36.4441    95
36.4541    87
36.4641    88
36.4741    75
36.4841    84
36.4941    78
36.5041   100
36.5141    90
36.5241    93
36.5341    89
36.5441    80
36.5541    98
36.5641    87
36.5741    89
36.5841    92
36.5941    82
36.6041    95
36.6141    88
36.6241    76
36.6341    77
36.6441    87
36.6541    88
36.6641    74
36.6741    89
36.6841    78
36.6941    77
36.7041    74
36.7141    74
36.7241    84
36.7341    85
36.7441    77
36.7541    76
36.7641    74
36.7741    83
36.7841    67
36.7941    75
36.8041    76
36.8141    82
36.8241    95
36.8341    79
36.8441    85
36.8541    72
36.8641    83
36.8741    82
36.8841    84
36.8941    76
36.9041    80
36.9141    79
36.9241    80
36.9341    75
36.9441    83
36.9541    55
36.9641    71
36.9741    63
36.9841   106
36.9941    85
37.0041    76
37.0141    73
37.0241    79
37.0341    70
37.0441    81
37.0541    76
37.0641    80
37.0741    78
37.0841    63
37.0941    65
37.1041    81
37.1141    75
37.1241    67
37.1341    65
37.1441    81
37.1541    69
37.1641    66
37.1741    57
37.1841    77
37.1941    60
37.2041    78
37.2141    60
37.2241    82
37.2341    74
37.2441    81
37.2541    72
37.2641    75
37.2741    91
37.2841    80
37.2941    75
37.3041    64
37.3141    74
37.3241    58
37.3341    64
37.3441    69
37.3541    68
37.3641    68
37.3741    68
37.3841    73
37.3941    64
37.4041    67
37.4141    81
37.4241    79
37.4341    59
37.4441    81
37.4541    80
37.4641    61
37.4741    68
37.4841    62
37.4941    74
37.5041    79
37.5141    81
37.5241    55
37.5341    56
37.5441    61
37.5541    66
37.5641    79
37.5741    57
37.5841    66
37.5941    77
37.6041    58
37.6141    64
37.6241    61
37.6341    46
37.6441    49
37.6541    73
37.6641    61
37.6741    70
37.6841    71
37.6941    65
37.7041    57
37.7141    64
37.7241    57
37.7341    54
37.7441    70
37.7541    53
37.7641    61
37.7741    56
37.7841    59
37.7941    63
37.8041    66
37.8141    65
37.8241    71
37.8341    57
37.8441    65
37.8541    62
37.8641    62
37.8741    69
37.8841    58
37.8941    54
37.9041    65
37.9141    66
37.9241    60
37.9341    61
37.9441    59
37.9541    65
37.9641    52
37.9741    65
37.9841    57
37.9941    74
38.0041    52
38.0141    55
38.0241    42
38.0341    42
38.0441    75
38.0541    65
38.0641    67
38.0741    57
38.0841    67
38.0941    48
38.1041    59
38.1141    63
38.1241    58
38.1341    56
38.1441    62
38.1541    55
38.1641    51
38.1741    57
38.1841    69
38.1941    74
38.2041    49
38.2141    50
38.2241    42
38.2341    49
38.2441    44
38.2541    61
38.2641    56
38.2741    44
38.2841    53
38.2941    55
38.3041    63
38.3141    57
38.3241    64
38.3341    51
38.3441    43
38.3541    54
38.3641    52
38.3741    48
38.3841    59
38.3941    44
38.4041    58
38.4141    57
38.4241    54
38.4341    51
38.4441    54
38.4541    39
38.4641    55
38.4741    52
38.4841    47
38.4941    53
38.5041    60
38.5141    57
38.5241    44
38.5341    59
38.5441    57
38.5541    61
38.5641    46
38.5741    52
38.5841    51
38.5941    57
38.6041    50
38.6141    43
38.6241    50
38.6341    52
38.6441    36
38.6541    46
38.6641    57
38.6741    48
38.6841    38
38.6941    44
38.7041    46
38.7141    56
38.7241    49
38.7341    53
38.7441    48
38.7541    39
38.7641    49
38.7741    51
38.7841    42
38.7941    63
38.8041    41
38.8141    63
38.8241    50
38.8341    50
38.8441    44
38.8541    41
38.8641    49
38.8741    50
38.8841    39
38.8941    51
38.9041    42
38.9141    41
38.9241    42
38.9341    59
38.9441    50
38.9541    44
38.9641    36
38.9741    34
38.9841    47
38.9941    31
39.0041    41
39.0141    53
39.0241    42
39.0341    36
39.0441    46
39.0541    52
39.0641    47
39.0741    46
39.0841    45
39.0941    48
39.1041    47
39.1141    49
39.1241    41
39.1341    46
39.1441    43
39.1541    46
39.1641    41
39.1741    41
39.1841    37
39.1941    52
39.2041    42
39.2141    45
39.2241    49
39.2341    44
39.2441    44
39.2541    46
39.2641    50
39.2741    39
39.2841    38
39.2941    39
39.3041    44
39.3141    34
39.3241    45
39.3341    33
39.3441    31
39.3541    43
39.3641    31
39.3741    36
39.3841    54
39.3941    41
39.4041    42
39.4141    33
39.4241    33
39.4341    45
39.4441    38
39.4541    28
39.4641    40
39.4741    30
39.4841    41
39.4941    33
39.5041    40
39.5141    34
39.5241    43
39.5341    37
39.5441    30
39.5541    33
39.5641    29
39.5741    38
39.5841    38
39.5941    40
39.6041    40
39.6141    38
39.6241    35
39.6341    39
39.6441    32
39.6541    45
39.6641    31
39.6741    43
39.6841    33
39.6941    33
39.7041    29
39.7141    36
39.7241    35
39.7341    31
39.7441    34
39.7541    51
39.7641    25
39.7741    35
39.7841    38
39.7941    38
39.8041    28
39.8141    29
39.8241    30
39.8341    31
39.8441    41
39.8541    38
39.8641    30
39.8741    39
39.8841    33
39.8941    26
39.9041    38
39.9141    40
39.9241    35
39.9341    44
39.9441    39
39.9541    28
39.9641    35
39.9741    36
39.9841    26
39.9941    28
