Bruker Nano GmbH Berlin, Germany
Esprit 1.9

Date: 5/14/2021 1:38:46 PM
Real time: 15122
Life time: 14134
Pulse density: 98753


Detector type: XFlash 430
Window type: Custom type
Detector thickness: 0.45
Si dead layer:0.029

Calibration, lin.: 10
Calibration, abs.: -955.9
Mn FWHM: 137.05
Fano factor: 0.121
Channels: 4095

Energy Counts
-0.9559     0
-0.9459     0
-0.9359     0
-0.9259     0
-0.9159     0
-0.9059     0
-0.8959     0
-0.8859     0
-0.8759     0
-0.8659     0
-0.8559     0
-0.8459     0
-0.8359     0
-0.8259     0
-0.8159     0
-0.8059     0
-0.7959     0
-0.7859     0
-0.7759     0
-0.7659     0
-0.7559     0
-0.7459     0
-0.7359     0
-0.7259     0
-0.7159     0
-0.7059     0
-0.6959     0
-0.6859     0
-0.6759     0
-0.6659     0
-0.6559     0
-0.6459     0
-0.6359     0
-0.6259     0
-0.6159     0
-0.6059     0
-0.5959     0
-0.5859     0
-0.5759     0
-0.5659     0
-0.5559     0
-0.5459     0
-0.5359     0
-0.5259     0
-0.5159     0
-0.5059     0
-0.4959     0
-0.4859     0
-0.4759     0
-0.4659     0
-0.4559     0
-0.4459     0
-0.4359     0
-0.4259     0
-0.4159     0
-0.4059     0
-0.3959     0
-0.3859     0
-0.3759     0
-0.3659     0
-0.3559     0
-0.3459     0
-0.3359     0
-0.3259     0
-0.3159     0
-0.3059     0
-0.2959     0
-0.2859     0
-0.2759     0
-0.2659     0
-0.2559     0
-0.2459     0
-0.2359     0
-0.2259     0
-0.2159     0
-0.2059     0
-0.1959     0
-0.1859     0
-0.1759     0
-0.1659     0
-0.1559     0
-0.1459     0
-0.1359     0
-0.1259     2
-0.1159     0
-0.1059     9
-0.0959    34
-0.0859   135
-0.0759   559
-0.0659  1587
-0.0559  3975
-0.0459  9087
-0.0359 16871
-0.0259 26867
-0.0159 36806
-0.0059 43279
 0.0041 43381
 0.0141 37466
 0.0241 28058
 0.0341 17429
 0.0441  9609
 0.0541  4483
 0.0641  1760
 0.0741   588
 0.0841   185
 0.0941    44
 0.1041    14
 0.1141     9
 0.1241    10
 0.1341     6
 0.1441     1
 0.1541     8
 0.1641     3
 0.1741     9
 0.1841   110
 0.1941   243
 0.2041   192
 0.2141   188
 0.2241   195
 0.2341   180
 0.2441   203
 0.2541   184
 0.2641   191
 0.2741   186
 0.2841   200
 0.2941   200
 0.3041   208
 0.3141   194
 0.3241   180
 0.3341   199
 0.3441   182
 0.3541   166
 0.3641   182
 0.3741   170
 0.3841   175
 0.3941   198
 0.4041   174
 0.4141   177
 0.4241   174
 0.4341   158
 0.4441   178
 0.4541   183
 0.4641   177
 0.4741   167
 0.4841   167
 0.4941   171
 0.5041   186
 0.5141   169
 0.5241   151
 0.5341   164
 0.5441   162
 0.5541   162
 0.5641   164
 0.5741   166
 0.5841   162
 0.5941   145
 0.6041   153
 0.6141   169
 0.6241   160
 0.6341   148
 0.6441   155
 0.6541   152
 0.6641   147
 0.6741   145
 0.6841   146
 0.6941   153
 0.7041   163
 0.7141   146
 0.7241   136
 0.7341   152
 0.7441   155
 0.7541   149
 0.7641   142
 0.7741   134
 0.7841   146
 0.7941   142
 0.8041   128
 0.8141   146
 0.8241   138
 0.8341   145
 0.8441   148
 0.8541   136
 0.8641   154
 0.8741   149
 0.8841   148
 0.8941   129
 0.9041   121
 0.9141   123
 0.9241   117
 0.9341   139
 0.9441   131
 0.9541   116
 0.9641   130
 0.9741   122
 0.9841   108
 0.9941   126
 1.0041   122
 1.0141   140
 1.0241   119
 1.0341   116
 1.0441   122
 1.0541   130
 1.0641   116
 1.0741   115
 1.0841   116
 1.0941   118
 1.1041   121
 1.1141   129
 1.1241   147
 1.1341   135
 1.1441   127
 1.1541   128
 1.1641   120
 1.1741   124
 1.1841   134
 1.1941   136
 1.2041   122
 1.2141   138
 1.2241   119
 1.2341   116
 1.2441   115
 1.2541   128
 1.2641   125
 1.2741   131
 1.2841   108
 1.2941   118
 1.3041   137
 1.3141   111
 1.3241   126
 1.3341   136
 1.3441   119
 1.3541   125
 1.3641   127
 1.3741   111
 1.3841    98
 1.3941   108
 1.4041   135
 1.4141   104
 1.4241   114
 1.4341   106
 1.4441   124
 1.4541   131
 1.4641   133
 1.4741   129
 1.4841   122
 1.4941   127
 1.5041   120
 1.5141   118
 1.5241   106
 1.5341   110
 1.5441   104
 1.5541   100
 1.5641   106
 1.5741   127
 1.5841   108
 1.5941   114
 1.6041   105
 1.6141   105
 1.6241   136
 1.6341   118
 1.6441   137
 1.6541   137
 1.6641   168
 1.6741   208
 1.6841   274
 1.6941   361
 1.7041   431
 1.7141   470
 1.7241   524
 1.7341   574
 1.7441   561
 1.7541   520
 1.7641   459
 1.7741   396
 1.7841   359
 1.7941   252
 1.8041   225
 1.8141   186
 1.8241   175
 1.8341   149
 1.8441   162
 1.8541   151
 1.8641   161
 1.8741   142
 1.8841   108
 1.8941   110
 1.9041   124
 1.9141   124
 1.9241   116
 1.9341   114
 1.9441   107
 1.9541   127
 1.9641   120
 1.9741   124
 1.9841   133
 1.9941   136
 2.0041   150
 2.0141   152
 2.0241   134
 2.0341   134
 2.0441   137
 2.0541   123
 2.0641   113
 2.0741   134
 2.0841   114
 2.0941   117
 2.1041   111
 2.1141    99
 2.1241   119
 2.1341   117
 2.1441   113
 2.1541   112
 2.1641   106
 2.1741   119
 2.1841   100
 2.1941    98
 2.2041   102
 2.2141    90
 2.2241   106
 2.2341   106
 2.2441    95
 2.2541    97
 2.2641   108
 2.2741    92
 2.2841    89
 2.2941    99
 2.3041    97
 2.3141   100
 2.3241   112
 2.3341   103
 2.3441   112
 2.3541    88
 2.3641   100
 2.3741    85
 2.3841    98
 2.3941    90
 2.4041   106
 2.4141   106
 2.4241    90
 2.4341    91
 2.4441    88
 2.4541    95
 2.4641   102
 2.4741    96
 2.4841    98
 2.4941   102
 2.5041    81
 2.5141    94
 2.5241    77
 2.5341    98
 2.5441    76
 2.5541    97
 2.5641    86
 2.5741    82
 2.5841    86
 2.5941    84
 2.6041    99
 2.6141    97
 2.6241    83
 2.6341    95
 2.6441   101
 2.6541    91
 2.6641    97
 2.6741    84
 2.6841    99
 2.6941   100
 2.7041    87
 2.7141    73
 2.7241    88
 2.7341    75
 2.7441    98
 2.7541    97
 2.7641    84
 2.7741    99
 2.7841   110
 2.7941    95
 2.8041    96
 2.8141    92
 2.8241   105
 2.8341   102
 2.8441    99
 2.8541    98
 2.8641    92
 2.8741    94
 2.8841    63
 2.8941    96
 2.9041    94
 2.9141    84
 2.9241    85
 2.9341    82
 2.9441    95
 2.9541    78
 2.9641    88
 2.9741    80
 2.9841   100
 2.9941    95
 3.0041    70
 3.0141    88
 3.0241    81
 3.0341    75
 3.0441    80
 3.0541    81
 3.0641   102
 3.0741    75
 3.0841    73
 3.0941    65
 3.1041    62
 3.1141    85
 3.1241    68
 3.1341    68
 3.1441    72
 3.1541    84
 3.1641    74
 3.1741    75
 3.1841    79
 3.1941    96
 3.2041    88
 3.2141    91
 3.2241   113
 3.2341   114
 3.2441   127
 3.2541   160
 3.2641   173
 3.2741   198
 3.2841   205
 3.2941   240
 3.3041   249
 3.3141   252
 3.3241   248
 3.3341   242
 3.3441   229
 3.3541   212
 3.3641   181
 3.3741   163
 3.3841   119
 3.3941   107
 3.4041    75
 3.4141    82
 3.4241    68
 3.4341    70
 3.4441    68
 3.4541    66
 3.4641    62
 3.4741    63
 3.4841    65
 3.4941    71
 3.5041    77
 3.5141    78
 3.5241    94
 3.5341   111
 3.5441   110
 3.5541   126
 3.5641   143
 3.5741   169
 3.5841   193
 3.5941   252
 3.6041   301
 3.6141   393
 3.6241   448
 3.6341   558
 3.6441   692
 3.6541   757
 3.6641   967
 3.6741  1012
 3.6841  1028
 3.6941  1034
 3.7041   930
 3.7141   889
 3.7241   790
 3.7341   688
 3.7441   581
 3.7541   451
 3.7641   354
 3.7741   250
 3.7841   208
 3.7941   148
 3.8041   117
 3.8141    97
 3.8241    84
 3.8341    64
 3.8441    65
 3.8541    61
 3.8641    51
 3.8741    54
 3.8841    73
 3.8941    61
 3.9041    74
 3.9141    75
 3.9241   107
 3.9341   123
 3.9441   138
 3.9541   119
 3.9641   163
 3.9741   179
 3.9841   190
 3.9941   178
 4.0041   208
 4.0141   216
 4.0241   199
 4.0341   198
 4.0441   181
 4.0541   173
 4.0641   153
 4.0741   141
 4.0841   125
 4.0941    91
 4.1041    91
 4.1141    77
 4.1241    66
 4.1341    67
 4.1441    74
 4.1541    61
 4.1641    55
 4.1741    53
 4.1841    56
 4.1941    65
 4.2041    64
 4.2141    60
 4.2241    48
 4.2341    58
 4.2441    52
 4.2541    39
 4.2641    62
 4.2741    54
 4.2841    59
 4.2941    52
 4.3041    64
 4.3141    52
 4.3241    43
 4.3341    63
 4.3441    49
 4.3541    62
 4.3641    53
 4.3741    82
 4.3841    88
 4.3941    82
 4.4041   116
 4.4141   124
 4.4241   163
 4.4341   181
 4.4441   212
 4.4541   238
 4.4641   290
 4.4741   334
 4.4841   343
 4.4941   347
 4.5041   375
 4.5141   351
 4.5241   363
 4.5341   378
 4.5441   295
 4.5541   267
 4.5641   231
 4.5741   210
 4.5841   178
 4.5941   153
 4.6041   124
 4.6141   101
 4.6241   109
 4.6341    76
 4.6441    82
 4.6541    77
 4.6641    91
 4.6741    55
 4.6841    81
 4.6941    62
 4.7041    75
 4.7141    60
 4.7241    54
 4.7341    62
 4.7441    55
 4.7541    80
 4.7641    65
 4.7741    85
 4.7841    71
 4.7941    70
 4.8041    84
 4.8141    98
 4.8241   115
 4.8341   109
 4.8441   116
 4.8541   122
 4.8641   102
 4.8741   109
 4.8841   123
 4.8941   134
 4.9041   123
 4.9141   121
 4.9241   139
 4.9341   135
 4.9441   140
 4.9541   126
 4.9641   132
 4.9741   116
 4.9841   121
 4.9941   113
 5.0041    96
 5.0141    92
 5.0241    83
 5.0341    88
 5.0441    85
 5.0541    83
 5.0641    74
 5.0741    82
 5.0841    78
 5.0941    76
 5.1041    98
 5.1141    70
 5.1241    62
 5.1341    66
 5.1441    89
 5.1541    82
 5.1641    72
 5.1741    74
 5.1841    67
 5.1941    75
 5.2041    77
 5.2141    81
 5.2241    69
 5.2341    75
 5.2441    78
 5.2541    81
 5.2641    77
 5.2741    79
 5.2841   101
 5.2941    77
 5.3041    88
 5.3141   100
 5.3241   106
 5.3341   102
 5.3441   137
 5.3541   155
 5.3641   147
 5.3741   137
 5.3841   166
 5.3941   173
 5.4041   158
 5.4141   173
 5.4241   183
 5.4341   152
 5.4441   144
 5.4541   127
 5.4641   150
 5.4741   132
 5.4841   113
 5.4941   107
 5.5041   102
 5.5141    82
 5.5241    92
 5.5341    94
 5.5441    76
 5.5541    70
 5.5641    78
 5.5741    95
 5.5841    83
 5.5941    81
 5.6041   100
 5.6141    76
 5.6241    79
 5.6341    78
 5.6441    84
 5.6541    86
 5.6641    78
 5.6741    76
 5.6841    85
 5.6941    89
 5.7041   100
 5.7141    96
 5.7241    96
 5.7341    74
 5.7441   100
 5.7541    94
 5.7641   112
 5.7741   118
 5.7841   125
 5.7941   137
 5.8041   151
 5.8141   156
 5.8241   213
 5.8341   224
 5.8441   241
 5.8541   267
 5.8641   295
 5.8741   325
 5.8841   335
 5.8941   338
 5.9041   350
 5.9141   297
 5.9241   304
 5.9341   294
 5.9441   255
 5.9541   224
 5.9641   227
 5.9741   206
 5.9841   183
 5.9941   157
 6.0041   153
 6.0141   122
 6.0241   135
 6.0341   115
 6.0441   114
 6.0541   113
 6.0641   115
 6.0741   126
 6.0841   128
 6.0941   127
 6.1041   152
 6.1141   123
 6.1241   133
 6.1341   116
 6.1441   140
 6.1541   164
 6.1641   194
 6.1741   210
 6.1841   241
 6.1941   303
 6.2041   403
 6.2141   481
 6.2241   695
 6.2341   880
 6.2441  1283
 6.2541  1778
 6.2641  2577
 6.2741  3398
 6.2841  4670
 6.2941  6239
 6.3041  8155
 6.3141 10043
 6.3241 12509
 6.3341 14956
 6.3441 17349
 6.3541 19830
 6.3641 22339
 6.3741 23751
 6.3841 25416
 6.3941 26062
 6.4041 25904
 6.4141 24950
 6.4241 23638
 6.4341 21881
 6.4441 19388
 6.4541 16830
 6.4641 14154
 6.4741 11621
 6.4841  9442
 6.4941  7298
 6.5041  5585
 6.5141  4141
 6.5241  2967
 6.5341  2131
 6.5441  1463
 6.5541  1039
 6.5641   696
 6.5741   532
 6.5841   388
 6.5941   323
 6.6041   239
 6.6141   172
 6.6241   193
 6.6341   168
 6.6441   172
 6.6541   157
 6.6641   153
 6.6741   143
 6.6841   153
 6.6941   138
 6.7041   137
 6.7141   137
 6.7241   152
 6.7341   151
 6.7441   159
 6.7541   161
 6.7641   159
 6.7741   134
 6.7841   161
 6.7941   146
 6.8041   181
 6.8141   202
 6.8241   210
 6.8341   213
 6.8441   224
 6.8541   231
 6.8641   285
 6.8741   300
 6.8841   362
 6.8941   427
 6.9041   496
 6.9141   613
 6.9241   802
 6.9341   975
 6.9441  1223
 6.9541  1462
 6.9641  1847
 6.9741  2152
 6.9841  2633
 6.9941  2925
 7.0041  3299
 7.0141  3701
 7.0241  4078
 7.0341  4221
 7.0441  4451
 7.0541  4430
 7.0641  4371
 7.0741  4108
 7.0841  3950
 7.0941  3722
 7.1041  3196
 7.1141  2770
 7.1241  2490
 7.1341  2017
 7.1441  1664
 7.1541  1330
 7.1641  1056
 7.1741   790
 7.1841   659
 7.1941   489
 7.2041   370
 7.2141   310
 7.2241   242
 7.2341   198
 7.2441   186
 7.2541   166
 7.2641   163
 7.2741   164
 7.2841   133
 7.2941   152
 7.3041   168
 7.3141   174
 7.3241   196
 7.3341   205
 7.3441   188
 7.3541   188
 7.3641   194
 7.3741   217
 7.3841   245
 7.3941   250
 7.4041   279
 7.4141   278
 7.4241   335
 7.4341   314
 7.4441   299
 7.4541   339
 7.4641   308
 7.4741   327
 7.4841   353
 7.4941   283
 7.5041   311
 7.5141   260
 7.5241   273
 7.5341   246
 7.5441   224
 7.5541   197
 7.5641   209
 7.5741   195
 7.5841   192
 7.5941   171
 7.6041   178
 7.6141   156
 7.6241   158
 7.6341   135
 7.6441   151
 7.6541   154
 7.6641   173
 7.6741   144
 7.6841   179
 7.6941   167
 7.7041   161
 7.7141   147
 7.7241   175
 7.7341   144
 7.7441   165
 7.7541   175
 7.7641   165
 7.7741   171
 7.7841   191
 7.7941   207
 7.8041   208
 7.8141   218
 7.8241   196
 7.8341   199
 7.8441   221
 7.8541   180
 7.8641   214
 7.8741   259
 7.8841   227
 7.8941   272
 7.9041   272
 7.9141   260
 7.9241   288
 7.9341   313
 7.9441   294
 7.9541   320
 7.9641   342
 7.9741   364
 7.9841   397
 7.9941   414
 8.0041   445
 8.0141   495
 8.0241   494
 8.0341   536
 8.0441   604
 8.0541   635
 8.0641   681
 8.0741   729
 8.0841   735
 8.0941   789
 8.1041   865
 8.1141   855
 8.1241   912
 8.1341   993
 8.1441   980
 8.1541  1026
 8.1641  1059
 8.1741   999
 8.1841  1046
 8.1941  1026
 8.2041   978
 8.2141  1034
 8.2241  1081
 8.2341  1127
 8.2441  1151
 8.2541  1198
 8.2641  1193
 8.2741  1286
 8.2841  1436
 8.2941  1453
 8.3041  1604
 8.3141  1710
 8.3241  1866
 8.3341  2044
 8.3441  2175
 8.3541  2329
 8.3641  2342
 8.3741  2427
 8.3841  2479
 8.3941  2464
 8.4041  2354
 8.4141  2338
 8.4241  2209
 8.4341  2061
 8.4441  1877
 8.4541  1679
 8.4641  1469
 8.4741  1292
 8.4841  1175
 8.4941   989
 8.5041   836
 8.5141   704
 8.5241   581
 8.5341   481
 8.5441   421
 8.5541   377
 8.5641   371
 8.5741   306
 8.5841   298
 8.5941   312
 8.6041   292
 8.6141   270
 8.6241   278
 8.6341   347
 8.6441   288
 8.6541   298
 8.6641   278
 8.6741   276
 8.6841   259
 8.6941   268
 8.7041   282
 8.7141   275
 8.7241   246
 8.7341   271
 8.7441   237
 8.7541   232
 8.7641   245
 8.7741   232
 8.7841   247
 8.7941   220
 8.8041   235
 8.8141   221
 8.8241   228
 8.8341   206
 8.8441   239
 8.8541   231
 8.8641   211
 8.8741   228
 8.8841   224
 8.8941   233
 8.9041   214
 8.9141   249
 8.9241   238
 8.9341   261
 8.9441   305
 8.9541   298
 8.9641   264
 8.9741   233
 8.9841   266
 8.9941   246
 9.0041   275
 9.0141   277
 9.0241   297
 9.0341   292
 9.0441   296
 9.0541   301
 9.0641   302
 9.0741   307
 9.0841   340
 9.0941   338
 9.1041   351
 9.1141   376
 9.1241   368
 9.1341   384
 9.1441   420
 9.1541   467
 9.1641   475
 9.1741   466
 9.1841   508
 9.1941   520
 9.2041   536
 9.2141   551
 9.2241   596
 9.2341   636
 9.2441   647
 9.2541   673
 9.2641   733
 9.2741   723
 9.2841   794
 9.2941   811
 9.3041   835
 9.3141   868
 9.3241   903
 9.3341   903
 9.3441   900
 9.3541   990
 9.3641   966
 9.3741   961
 9.3841   962
 9.3941   946
 9.4041   977
 9.4141   999
 9.4241  1000
 9.4341  1025
 9.4441  1068
 9.4541  1062
 9.4641  1058
 9.4741  1096
 9.4841  1139
 9.4941  1106
 9.5041  1170
 9.5141  1136
 9.5241  1274
 9.5341  1266
 9.5441  1305
 9.5541  1421
 9.5641  1459
 9.5741  1523
 9.5841  1664
 9.5941  1767
 9.6041  1843
 9.6141  1984
 9.6241  2015
 9.6341  2127
 9.6441  2137
 9.6541  2195
 9.6641  2192
 9.6741  2208
 9.6841  2185
 9.6941  2162
 9.7041  2051
 9.7141  1998
 9.7241  1868
 9.7341  1749
 9.7441  1600
 9.7541  1452
 9.7641  1394
 9.7741  1255
 9.7841  1174
 9.7941  1068
 9.8041  1016
 9.8141   942
 9.8241   887
 9.8341   826
 9.8441   863
 9.8541   864
 9.8641   878
 9.8741   834
 9.8841   894
 9.8941   833
 9.9041   896
 9.9141   932
 9.9241   920
 9.9341   950
 9.9441   928
 9.9541   905
 9.9641   880
 9.9741   924
 9.9841   864
 9.9941   832
10.0041   797
10.0141   711
10.0241   655
10.0341   550
10.0441   584
10.0541   522
10.0641   453
10.0741   382
10.0841   357
10.0941   346
10.1041   300
10.1141   270
10.1241   253
10.1341   243
10.1441   215
10.1541   206
10.1641   191
10.1741   158
10.1841   182
10.1941   178
10.2041   175
10.2141   181
10.2241   169
10.2341   167
10.2441   141
10.2541   123
10.2641   130
10.2741   143
10.2841   134
10.2941   116
10.3041   127
10.3141   136
10.3241   122
10.3341   112
10.3441   122
10.3541   126
10.3641   110
10.3741   112
10.3841   110
10.3941   107
10.4041   111
10.4141   113
10.4241   117
10.4341   122
10.4441   126
10.4541   122
10.4641   134
10.4741   136
10.4841   142
10.4941   126
10.5041   127
10.5141   127
10.5241   138
10.5341   150
10.5441   142
10.5541   154
10.5641   148
10.5741   134
10.5841   139
10.5941   137
10.6041   140
10.6141   141
10.6241   145
10.6341   155
10.6441   157
10.6541   170
10.6641   162
10.6741   168
10.6841   153
10.6941   151
10.7041   177
10.7141   163
10.7241   164
10.7341   162
10.7441   186
10.7541   171
10.7641   158
10.7741   190
10.7841   198
10.7941   193
10.8041   179
10.8141   188
10.8241   193
10.8341   199
10.8441   193
10.8541   223
10.8641   224
10.8741   218
10.8841   228
10.8941   238
10.9041   225
10.9141   218
10.9241   219
10.9341   208
10.9441   207
10.9541   215
10.9641   215
10.9741   213
10.9841   218
10.9941   190
11.0041   191
11.0141   207
11.0241   187
11.0341   191
11.0441   182
11.0541   192
11.0641   184
11.0741   214
11.0841   209
11.0941   188
11.1041   187
11.1141   189
11.1241   197
11.1341   182
11.1441   209
11.1541   206
11.1641   198
11.1741   195
11.1841   224
11.1941   240
11.2041   254
11.2141   249
11.2241   273
11.2341   283
11.2441   294
11.2541   293
11.2641   293
11.2741   304
11.2841   330
11.2941   311
11.3041   305
11.3141   293
11.3241   291
11.3341   265
11.3441   256
11.3541   238
11.3641   238
11.3741   228
11.3841   218
11.3941   186
11.4041   187
11.4141   177
11.4241   168
11.4341   158
11.4441   149
11.4541   157
11.4641   154
11.4741   164
11.4841   150
11.4941   139
11.5041   143
11.5141   146
11.5241   147
11.5341   148
11.5441   148
11.5541   145
11.5641   168
11.5741   184
11.5841   154
11.5941   158
11.6041   164
11.6141   163
11.6241   169
11.6341   154
11.6441   162
11.6541   160
11.6641   169
11.6741   167
11.6841   155
11.6941   150
11.7041   162
11.7141   167
11.7241   148
11.7341   131
11.7441   133
11.7541   144
11.7641   123
11.7741   114
11.7841   127
11.7941   123
11.8041   130
11.8141   119
11.8241   121
11.8341   104
11.8441   117
11.8541   120
11.8641   109
11.8741   102
11.8841   114
11.8941   126
11.9041   118
11.9141   127
11.9241   108
11.9341    93
11.9441   106
11.9541   126
11.9641   131
11.9741   117
11.9841   109
11.9941   105
12.0041   124
12.0141   127
12.0241   114
12.0341   122
12.0441   124
12.0541   121
12.0641   120
12.0741   112
12.0841   117
12.0941   117
12.1041   126
12.1141   111
12.1241   109
12.1341   112
12.1441   109
12.1541   105
12.1641   102
12.1741   101
12.1841   108
12.1941   112
12.2041   106
12.2141   111
12.2241   110
12.2341   105
12.2441   107
12.2541   107
12.2641   102
12.2741   114
12.2841   106
12.2941    96
12.3041   104
12.3141   107
12.3241   114
12.3341   115
12.3441   108
12.3541    97
12.3641   105
12.3741   116
12.3841   108
12.3941    97
12.4041   104
12.4141   105
12.4241   113
12.4341   115
12.4441   104
12.4541   111
12.4641   119
12.4741   118
12.4841   109
12.4941   110
12.5041   101
12.5141   111
12.5241   106
12.5341   103
12.5441   114
12.5541   115
12.5641   122
12.5741   130
12.5841   140
12.5941   126
12.6041   112
12.6141   126
12.6241   131
12.6341   128
12.6441   131
12.6541   129
12.6641   127
12.6741   125
12.6841   119
12.6941   116
12.7041   116
12.7141   115
12.7241   120
12.7341   123
12.7441   118
12.7541   114
12.7641   113
12.7741   114
12.7841   121
12.7941   127
12.8041   133
12.8141   138
12.8241   136
12.8341   131
12.8441   125
12.8541   124
12.8641   127
12.8741   123
12.8841   122
12.8941   125
12.9041   125
12.9141   124
12.9241   127
12.9341   130
12.9441   134
12.9541   136
12.9641   135
12.9741   134
12.9841   132
12.9941   123
13.0041   137
13.0141   142
13.0241   134
13.0341   137
13.0441   141
13.0541   140
13.0641   134
13.0741   130
13.0841   125
13.0941   132
13.1041   129
13.1141   127
13.1241   141
13.1341   142
13.1441   134
13.1541   143
13.1641   145
13.1741   131
13.1841   147
13.1941   157
13.2041   152
13.2141   150
13.2241   150
13.2341   171
13.2441   164
13.2541   168
13.2641   181
13.2741   199
13.2841   230
13.2941   229
13.3041   222
13.3141   226
13.3241   235
13.3341   245
13.3441   245
13.3541   246
13.3641   257
13.3741   268
13.3841   265
13.3941   256
13.4041   254
13.4141   252
13.4241   240
13.4341   228
13.4441   217
13.4541   204
13.4641   198
13.4741   206
13.4841   211
13.4941   200
13.5041   186
13.5141   179
13.5241   174
13.5341   163
13.5441   154
13.5541   151
13.5641   154
13.5741   154
13.5841   146
13.5941   140
13.6041   143
13.6141   150
13.6241   157
13.6341   153
13.6441   143
13.6541   138
13.6641   143
13.6741   144
13.6841   134
13.6941   144
13.7041   161
13.7141   155
13.7241   159
13.7341   157
13.7441   147
13.7541   148
13.7641   149
13.7741   148
13.7841   142
13.7941   146
13.8041   151
13.8141   147
13.8241   145
13.8341   148
13.8441   152
13.8541   144
13.8641   143
13.8741   149
13.8841   151
13.8941   151
13.9041   157
13.9141   166
13.9241   171
13.9341   171
13.9441   174
13.9541   184
13.9641   197
13.9741   207
13.9841   209
13.9941   214
14.0041   222
14.0141   230
14.0241   245
14.0341   266
14.0441   281
14.0541   285
14.0641   289
14.0741   301
14.0841   314
14.0941   318
14.1041   327
14.1141   343
14.1241   353
14.1341   350
14.1441   341
14.1541   343
14.1641   347
14.1741   335
14.1841   320
14.1941   327
14.2041   335
14.2141   306
14.2241   291
14.2341   287
14.2441   263
14.2541   247
14.2641   239
14.2741   240
14.2841   227
14.2941   208
14.3041   206
14.3141   190
14.3241   185
14.3341   203
14.3441   191
14.3541   180
14.3641   185
14.3741   181
14.3841   170
14.3941   158
14.4041   160
14.4141   166
14.4241   168
14.4341   160
14.4441   153
14.4541   168
14.4641   158
14.4741   164
14.4841   170
14.4941   154
14.5041   172
14.5141   175
14.5241   175
14.5341   187
14.5441   169
14.5541   162
14.5641   160
14.5741   167
14.5841   167
14.5941   167
14.6041   170
14.6141   161
14.6241   158
14.6341   171
14.6441   179
14.6541   171
14.6641   151
14.6741   156
14.6841   171
14.6941   161
14.7041   169
14.7141   174
14.7241   171
14.7341   181
14.7441   175
14.7541   179
14.7641   188
14.7741   196
14.7841   212
14.7941   205
14.8041   197
14.8141   214
14.8241   228
14.8341   230
14.8441   236
14.8541   244
14.8641   236
14.8741   240
14.8841   232
14.8941   241
14.9041   262
14.9141   260
14.9241   253
14.9341   261
14.9441   265
14.9541   262
14.9641   242
14.9741   242
14.9841   256
14.9941   257
15.0041   260
15.0141   243
15.0241   233
15.0341   239
15.0441   215
15.0541   213
15.0641   207
15.0741   200
15.0841   203
15.0941   188
15.1041   200
15.1141   201
15.1241   198
15.1341   205
15.1441   196
15.1541   192
15.1641   188
15.1741   207
15.1841   205
15.1941   196
15.2041   172
15.2141   168
15.2241   182
15.2341   185
15.2441   174
15.2541   179
15.2641   207
15.2741   194
15.2841   176
15.2941   199
15.3041   204
15.3141   183
15.3241   187
15.3341   185
15.3441   187
15.3541   190
15.3641   197
15.3741   198
15.3841   194
15.3941   200
15.4041   192
15.4141   198
15.4241   210
15.4341   217
15.4441   219
15.4541   197
15.4641   186
15.4741   195
15.4841   204
15.4941   196
15.5041   210
15.5141   231
15.5241   212
15.5341   217
15.5441   231
15.5541   241
15.5641   233
15.5741   245
15.5841   261
15.5941   257
15.6041   277
15.6141   287
15.6241   293
15.6341   308
15.6441   341
15.6541   362
15.6641   357
15.6741   394
15.6841   405
15.6941   416
15.7041   427
15.7141   429
15.7241   430
15.7341   446
15.7441   453
15.7541   438
15.7641   433
15.7741   450
15.7841   468
15.7941   454
15.8041   440
15.8141   408
15.8241   404
15.8341   398
15.8441   388
15.8541   362
15.8641   352
15.8741   322
15.8841   307
15.8941   298
15.9041   290
15.9141   275
15.9241   273
15.9341   268
15.9441   268
15.9541   264
15.9641   251
15.9741   241
15.9841   242
15.9941   218
16.0041   224
16.0141   234
16.0241   216
16.0341   208
16.0441   215
16.0541   222
16.0641   219
16.0741   216
16.0841   217
16.0941   240
16.1041   228
16.1141   241
16.1241   231
16.1341   220
16.1441   211
16.1541   217
16.1641   234
16.1741   237
16.1841   244
16.1941   240
16.2041   260
16.2141   255
16.2241   248
16.2341   253
16.2441   264
16.2541   249
16.2641   221
16.2741   215
16.2841   212
16.2941   221
16.3041   224
16.3141   225
16.3241   229
16.3341   213
16.3441   240
16.3541   238
16.3641   232
16.3741   247
16.3841   234
16.3941   214
16.4041   214
16.4141   235
16.4241   233
16.4341   229
16.4441   234
16.4541   232
16.4641   230
16.4741   245
16.4841   229
16.4941   237
16.5041   263
16.5141   234
16.5241   239
16.5341   229
16.5441   218
16.5541   235
16.5641   247
16.5741   255
16.5841   229
16.5941   236
16.6041   241
16.6141   236
16.6241   272
16.6341   277
16.6441   256
16.6541   259
16.6641   258
16.6741   258
16.6841   273
16.6941   260
16.7041   256
16.7141   247
16.7241   245
16.7341   262
16.7441   247
16.7541   239
16.7641   248
16.7741   261
16.7841   246
16.7941   236
16.8041   241
16.8141   258
16.8241   261
16.8341   258
16.8441   229
16.8541   254
16.8641   243
16.8741   238
16.8841   242
16.8941   250
16.9041   240
16.9141   248
16.9241   251
16.9341   254
16.9441   256
16.9541   268
16.9641   260
16.9741   259
16.9841   251
16.9941   247
17.0041   258
17.0141   241
17.0241   241
17.0341   259
17.0441   274
17.0541   262
17.0641   262
17.0741   254
17.0841   261
17.0941   254
17.1041   249
17.1141   255
17.1241   264
17.1341   287
17.1441   254
17.1541   256
17.1641   267
17.1741   258
17.1841   250
17.1941   253
17.2041   250
17.2141   262
17.2241   236
17.2341   257
17.2441   265
17.2541   243
17.2641   249
17.2741   273
17.2841   284
17.2941   265
17.3041   250
17.3141   254
17.3241   259
17.3341   263
17.3441   250
17.3541   277
17.3641   274
17.3741   274
17.3841   293
17.3941   295
17.4041   261
17.4141   271
17.4241   284
17.4341   317
17.4441   309
17.4541   292
17.4641   277
17.4741   293
17.4841   289
17.4941   275
17.5041   291
17.5141   295
17.5241   318
17.5341   285
17.5441   288
17.5541   299
17.5641   288
17.5741   290
17.5841   309
17.5941   292
17.6041   279
17.6141   281
17.6241   292
17.6341   310
17.6441   322
17.6541   312
17.6641   320
17.6741   309
17.6841   302
17.6941   299
17.7041   291
17.7141   288
17.7241   311
17.7341   314
17.7441   309
17.7541   294
17.7641   286
17.7741   297
17.7841   298
17.7941   301
17.8041   298
17.8141   320
17.8241   295
17.8341   280
17.8441   277
17.8541   285
17.8641   275
17.8741   277
17.8841   301
17.8941   305
17.9041   284
17.9141   300
17.9241   291
17.9341   285
17.9441   293
17.9541   300
17.9641   279
17.9741   266
17.9841   286
17.9941   314
18.0041   300
18.0141   282
18.0241   301
18.0341   331
18.0441   321
18.0541   289
18.0641   274
18.0741   307
18.0841   288
18.0941   296
18.1041   290
18.1141   288
18.1241   292
18.1341   291
18.1441   282
18.1541   275
18.1641   309
18.1741   300
18.1841   320
18.1941   314
18.2041   293
18.2141   300
18.2241   279
18.2341   289
18.2441   272
18.2541   276
18.2641   290
18.2741   303
18.2841   285
18.2941   288
18.3041   334
18.3141   296
18.3241   292
18.3341   281
18.3441   292
18.3541   291
18.3641   284
18.3741   282
18.3841   312
18.3941   311
18.4041   281
18.4141   260
18.4241   307
18.4341   308
18.4441   319
18.4541   296
18.4641   294
18.4741   289
18.4841   315
18.4941   316
18.5041   316
18.5141   308
18.5241   316
18.5341   317
18.5441   328
18.5541   309
18.5641   306
18.5741   292
18.5841   298
18.5941   312
18.6041   311
18.6141   297
18.6241   286
18.6341   297
18.6441   320
18.6541   316
18.6641   335
18.6741   301
18.6841   290
18.6941   305
18.7041   303
18.7141   304
18.7241   314
18.7341   320
18.7441   309
18.7541   323
18.7641   324
18.7741   308
18.7841   312
18.7941   313
18.8041   307
18.8141   321
18.8241   337
18.8341   315
18.8441   313
18.8541   321
18.8641   315
18.8741   308
18.8841   303
18.8941   294
18.9041   308
18.9141   323
18.9241   310
18.9341   297
18.9441   301
18.9541   319
18.9641   340
18.9741   368
18.9841   334
18.9941   322
19.0041   331
19.0141   325
19.0241   330
19.0341   316
19.0441   325
19.0541   333
19.0641   332
19.0741   316
19.0841   334
19.0941   321
19.1041   323
19.1141   327
19.1241   316
19.1341   326
19.1441   330
19.1541   315
19.1641   335
19.1741   330
19.1841   311
19.1941   325
19.2041   307
19.2141   301
19.2241   325
19.2341   340
19.2441   339
19.2541   315
19.2641   331
19.2741   334
19.2841   338
19.2941   325
19.3041   336
19.3141   325
19.3241   344
19.3341   319
19.3441   309
19.3541   341
19.3641   327
19.3741   323
19.3841   334
19.3941   331
19.4041   326
19.4141   336
19.4241   341
19.4341   330
19.4441   338
19.4541   330
19.4641   311
19.4741   320
19.4841   375
19.4941   321
19.5041   354
19.5141   316
19.5241   343
19.5341   335
19.5441   325
19.5541   348
19.5641   329
19.5741   314
19.5841   320
19.5941   355
19.6041   363
19.6141   337
19.6241   336
19.6341   326
19.6441   311
19.6541   339
19.6641   329
19.6741   332
19.6841   323
19.6941   330
19.7041   351
19.7141   361
19.7241   337
19.7341   332
19.7441   329
19.7541   324
19.7641   331
19.7741   355
19.7841   315
19.7941   327
19.8041   312
19.8141   333
19.8241   346
19.8341   341
19.8441   343
19.8541   343
19.8641   362
19.8741   355
19.8841   335
19.8941   342
19.9041   333
19.9141   322
19.9241   328
19.9341   361
19.9441   329
19.9541   316
19.9641   307
19.9741   341
19.9841   335
19.9941   341
20.0041   330
20.0141   331
20.0241   321
20.0341   327
20.0441   349
20.0541   336
20.0641   313
20.0741   319
20.0841   342
20.0941   341
20.1041   325
20.1141   348
20.1241   328
20.1341   336
20.1441   352
20.1541   332
20.1641   353
20.1741   375
20.1841   352
20.1941   351
20.2041   307
20.2141   331
20.2241   336
20.2341   371
20.2441   332
20.2541   346
20.2641   343
20.2741   349
20.2841   331
20.2941   368
20.3041   340
20.3141   359
20.3241   360
20.3341   338
20.3441   354
20.3541   328
20.3641   349
20.3741   349
20.3841   375
20.3941   345
20.4041   386
20.4141   351
20.4241   314
20.4341   351
20.4441   315
20.4541   335
20.4641   327
20.4741   312
20.4841   339
20.4941   370
20.5041   379
20.5141   371
20.5241   359
20.5341   337
20.5441   330
20.5541   349
20.5641   350
20.5741   364
20.5841   351
20.5941   341
20.6041   369
20.6141   356
20.6241   359
20.6341   343
20.6441   335
20.6541   342
20.6641   366
20.6741   376
20.6841   361
20.6941   347
20.7041   330
20.7141   364
20.7241   382
20.7341   369
20.7441   347
20.7541   363
20.7641   372
20.7741   401
20.7841   343
20.7941   352
20.8041   355
20.8141   343
20.8241   379
20.8341   367
20.8441   388
20.8541   402
20.8641   389
20.8741   404
20.8841   417
20.8941   394
20.9041   407
20.9141   400
20.9241   401
20.9341   416
20.9441   432
20.9541   403
20.9641   424
20.9741   427
20.9841   419
20.9941   490
21.0041   469
21.0141   493
21.0241   467
21.0341   500
21.0441   503
21.0541   512
21.0641   536
21.0741   551
21.0841   511
21.0941   521
21.1041   484
21.1141   532
21.1241   537
21.1341   534
21.1441   544
21.1541   553
21.1641   579
21.1741   532
21.1841   523
21.1941   480
21.2041   511
21.2141   501
21.2241   463
21.2341   448
21.2441   495
21.2541   492
21.2641   491
21.2741   452
21.2841   428
21.2941   433
21.3041   421
21.3141   438
21.3241   430
21.3341   402
21.3441   388
21.3541   391
21.3641   363
21.3741   359
21.3841   332
21.3941   358
21.4041   357
21.4141   402
21.4241   376
21.4341   370
21.4441   347
21.4541   354
21.4641   360
21.4741   364
21.4841   334
21.4941   367
21.5041   386
21.5141   354
21.5241   348
21.5341   388
21.5441   331
21.5541   342
21.5641   370
21.5741   349
21.5841   338
21.5941   367
21.6041   343
21.6141   350
21.6241   360
21.6341   381
21.6441   376
21.6541   359
21.6641   338
21.6741   350
21.6841   355
21.6941   330
21.7041   379
21.7141   351
21.7241   344
21.7341   366
21.7441   368
21.7541   355
21.7641   366
21.7741   332
21.7841   356
21.7941   331
21.8041   322
21.8141   342
21.8241   369
21.8341   337
21.8441   351
21.8541   349
21.8641   369
21.8741   356
21.8841   373
21.8941   349
21.9041   368
21.9141   350
21.9241   373
21.9341   351
21.9441   393
21.9541   366
21.9641   376
21.9741   348
21.9841   360
21.9941   376
22.0041   365
22.0141   366
22.0241   366
22.0341   400
22.0441   365
22.0541   380
22.0641   365
22.0741   365
22.0841   381
22.0941   353
22.1041   337
22.1141   370
22.1241   351
22.1341   343
22.1441   358
22.1541   341
22.1641   353
22.1741   339
22.1841   363
22.1941   376
22.2041   380
22.2141   340
22.2241   357
22.2341   335
22.2441   363
22.2541   341
22.2641   377
22.2741   358
22.2841   342
22.2941   347
22.3041   354
22.3141   378
22.3241   349
22.3341   377
22.3441   363
22.3541   351
22.3641   356
22.3741   395
22.3841   341
22.3941   349
22.4041   371
22.4141   339
22.4241   364
22.4341   344
22.4441   369
22.4541   341
22.4641   377
22.4741   335
22.4841   329
22.4941   346
22.5041   353
22.5141   362
22.5241   315
22.5341   378
22.5441   362
22.5541   343
22.5641   351
22.5741   359
22.5841   369
22.5941   349
22.6041   378
22.6141   360
22.6241   364
22.6341   370
22.6441   361
22.6541   372
22.6641   341
22.6741   370
22.6841   346
22.6941   343
22.7041   376
22.7141   320
22.7241   360
22.7341   370
22.7441   376
22.7541   346
22.7641   362
22.7741   330
22.7841   358
22.7941   307
22.8041   355
22.8141   345
22.8241   354
22.8341   383
22.8441   350
22.8541   345
22.8641   370
22.8741   345
22.8841   331
22.8941   357
22.9041   357
22.9141   320
22.9241   342
22.9341   378
22.9441   360
22.9541   321
22.9641   359
22.9741   355
22.9841   342
22.9941   364
23.0041   334
23.0141   330
23.0241   359
23.0341   355
23.0441   357
23.0541   324
23.0641   350
23.0741   368
23.0841   351
23.0941   346
23.1041   330
23.1141   332
23.1241   344
23.1341   364
23.1441   356
23.1541   374
23.1641   335
23.1741   324
23.1841   348
23.1941   327
23.2041   359
23.2141   335
23.2241   378
23.2341   359
23.2441   350
23.2541   343
23.2641   360
23.2741   359
23.2841   350
23.2941   356
23.3041   367
23.3141   328
23.3241   338
23.3341   335
23.3441   352
23.3541   370
23.3641   372
23.3741   322
23.3841   376
23.3941   339
23.4041   328
23.4141   351
23.4241   343
23.4341   347
23.4441   331
23.4541   313
23.4641   338
23.4741   339
23.4841   320
23.4941   338
23.5041   376
23.5141   324
23.5241   356
23.5341   329
23.5441   316
23.5541   333
23.5641   354
23.5741   332
23.5841   326
23.5941   343
23.6041   352
23.6141   360
23.6241   354
23.6341   330
23.6441   359
23.6541   341
23.6641   343
23.6741   338
23.6841   328
23.6941   332
23.7041   322
23.7141   396
23.7241   376
23.7341   373
23.7441   387
23.7541   338
23.7641   401
23.7741   417
23.7841   363
23.7941   377
23.8041   367
23.8141   393
23.8241   378
23.8341   351
23.8441   378
23.8541   376
23.8641   359
23.8741   335
23.8841   370
23.8941   330
23.9041   358
23.9141   355
23.9241   374
23.9341   350
23.9441   349
23.9541   363
23.9641   337
23.9741   350
23.9841   341
23.9941   355
24.0041   327
24.0141   326
24.0241   321
24.0341   345
24.0441   293
24.0541   338
24.0641   331
24.0741   369
24.0841   322
24.0941   325
24.1041   310
24.1141   338
24.1241   337
24.1341   345
24.1441   362
24.1541   369
24.1641   320
24.1741   336
24.1841   345
24.1941   331
24.2041   345
24.2141   315
24.2241   318
24.2341   355
24.2441   335
24.2541   355
24.2641   329
24.2741   317
24.2841   317
24.2941   313
24.3041   358
24.3141   323
24.3241   327
24.3341   318
24.3441   350
24.3541   335
24.3641   334
24.3741   317
24.3841   331
24.3941   290
24.4041   336
24.4141   342
24.4241   282
24.4341   310
24.4441   342
24.4541   318
24.4641   317
24.4741   325
24.4841   333
24.4941   311
24.5041   343
24.5141   327
24.5241   321
24.5341   329
24.5441   314
24.5541   299
24.5641   298
24.5741   317
24.5841   312
24.5941   327
24.6041   348
24.6141   312
24.6241   312
24.6341   308
24.6441   347
24.6541   328
24.6641   323
24.6741   301
24.6841   299
24.6941   333
24.7041   314
24.7141   345
24.7241   315
24.7341   299
24.7441   327
24.7541   299
24.7641   329
24.7741   287
24.7841   308
24.7941   335
24.8041   351
24.8141   330
24.8241   344
24.8341   311
24.8441   320
24.8541   335
24.8641   341
24.8741   310
24.8841   328
24.8941   335
24.9041   324
24.9141   300
24.9241   323
24.9341   303
24.9441   316
24.9541   308
24.9641   321
24.9741   318
24.9841   316
24.9941   316
25.0041   341
25.0141   298
25.0241   302
25.0341   324
25.0441   325
25.0541   323
25.0641   346
25.0741   309
25.0841   304
25.0941   306
25.1041   323
25.1141   356
25.1241   323
25.1341   336
25.1441   304
25.1541   344
25.1641   329
25.1741   315
25.1841   294
25.1941   314
25.2041   306
25.2141   330
25.2241   328
25.2341   302
25.2441   319
25.2541   311
25.2641   311
25.2741   332
25.2841   316
25.2941   304
25.3041   306
25.3141   312
25.3241   331
25.3341   348
25.3441   327
25.3541   325
25.3641   317
25.3741   312
25.3841   296
25.3941   296
25.4041   313
25.4141   289
25.4241   296
25.4341   312
25.4441   308
25.4541   296
25.4641   282
25.4741   299
25.4841   326
25.4941   313
25.5041   308
25.5141   318
25.5241   326
25.5341   313
25.5441   292
25.5541   295
25.5641   287
25.5741   283
25.5841   274
25.5941   277
25.6041   279
25.6141   297
25.6241   305
25.6341   313
25.6441   290
25.6541   296
25.6641   257
25.6741   290
25.6841   333
25.6941   324
25.7041   334
25.7141   307
25.7241   307
25.7341   303
25.7441   309
25.7541   295
25.7641   276
25.7741   278
25.7841   307
25.7941   298
25.8041   309
25.8141   253
25.8241   308
25.8341   300
25.8441   290
25.8541   289
25.8641   271
25.8741   289
25.8841   288
25.8941   295
25.9041   271
25.9141   310
25.9241   302
25.9341   282
25.9441   265
25.9541   295
25.9641   304
25.9741   288
25.9841   316
25.9941   314
26.0041   291
26.0141   308
26.0241   287
26.0341   295
26.0441   295
26.0541   261
26.0641   261
26.0741   283
26.0841   297
26.0941   297
26.1041   287
26.1141   285
26.1241   302
26.1341   270
26.1441   296
26.1541   263
26.1641   279
26.1741   300
26.1841   293
26.1941   279
26.2041   298
26.2141   284
26.2241   289
26.2341   273
26.2441   292
26.2541   295
26.2641   280
26.2741   304
26.2841   299
26.2941   308
26.3041   304
26.3141   263
26.3241   271
26.3341   264
26.3441   274
26.3541   287
26.3641   303
26.3741   286
26.3841   293
26.3941   265
26.4041   272
26.4141   279
26.4241   299
26.4341   311
26.4441   304
26.4541   283
26.4641   297
26.4741   297
26.4841   307
26.4941   263
26.5041   287
26.5141   263
26.5241   270
26.5341   251
26.5441   273
26.5541   254
26.5641   266
26.5741   272
26.5841   294
26.5941   288
26.6041   252
26.6141   273
26.6241   253
26.6341   276
26.6441   281
26.6541   256
26.6641   282
26.6741   298
26.6841   263
26.6941   259
26.7041   251
26.7141   295
26.7241   271
26.7341   276
26.7441   272
26.7541   270
26.7641   262
26.7741   283
26.7841   289
26.7941   272
26.8041   280
26.8141   243
26.8241   275
26.8341   264
26.8441   273
26.8541   261
26.8641   266
26.8741   263
26.8841   271
26.8941   249
26.9041   301
26.9141   272
26.9241   270
26.9341   262
26.9441   261
26.9541   255
26.9641   255
26.9741   272
26.9841   266
26.9941   275
27.0041   269
27.0141   262
27.0241   259
27.0341   245
27.0441   267
27.0541   272
27.0641   248
27.0741   255
27.0841   245
27.0941   270
27.1041   281
27.1141   222
27.1241   255
27.1341   271
27.1441   289
27.1541   265
27.1641   261
27.1741   254
27.1841   262
27.1941   267
27.2041   252
27.2141   257
27.2241   257
27.2341   266
27.2441   238
27.2541   234
27.2641   240
27.2741   276
27.2841   245
27.2941   280
27.3041   284
27.3141   261
27.3241   246
27.3341   247
27.3441   267
27.3541   263
27.3641   279
27.3741   241
27.3841   263
27.3941   255
27.4041   258
27.4141   284
27.4241   253
27.4341   270
27.4441   256
27.4541   261
27.4641   277
27.4741   253
27.4841   247
27.4941   264
27.5041   249
27.5141   253
27.5241   267
27.5341   249
27.5441   253
27.5541   235
27.5641   286
27.5741   264
27.5841   247
27.5941   247
27.6041   229
27.6141   235
27.6241   252
27.6341   253
27.6441   220
27.6541   264
27.6641   257
27.6741   257
27.6841   241
27.6941   247
27.7041   256
27.7141   244
27.7241   253
27.7341   234
27.7441   237
27.7541   241
27.7641   235
27.7741   232
27.7841   235
27.7941   225
27.8041   216
27.8141   225
27.8241   256
27.8341   252
27.8441   259
27.8541   250
27.8641   250
27.8741   260
27.8841   202
27.8941   235
27.9041   236
27.9141   218
27.9241   210
27.9341   238
27.9441   217
27.9541   231
27.9641   241
27.9741   244
27.9841   214
27.9941   233
28.0041   228
28.0141   241
28.0241   220
28.0341   257
28.0441   232
28.0541   239
28.0641   245
28.0741   229
28.0841   224
28.0941   223
28.1041   234
28.1141   235
28.1241   242
28.1341   237
28.1441   225
28.1541   223
28.1641   217
28.1741   223
28.1841   203
28.1941   230
28.2041   229
28.2141   220
28.2241   250
28.2341   241
28.2441   237
28.2541   224
28.2641   221
28.2741   242
28.2841   216
28.2941   210
28.3041   229
28.3141   211
28.3241   226
28.3341   228
28.3441   238
28.3541   231
28.3641   213
28.3741   218
28.3841   231
28.3941   230
28.4041   229
28.4141   235
28.4241   224
28.4341   247
28.4441   236
28.4541   221
28.4641   192
28.4741   209
28.4841   231
28.4941   236
28.5041   241
28.5141   219
28.5241   249
28.5341   230
28.5441   226
28.5541   213
28.5641   190
28.5741   218
28.5841   220
28.5941   222
28.6041   234
28.6141   221
28.6241   242
28.6341   222
28.6441   238
28.6541   217
28.6641   228
28.6741   222
28.6841   228
28.6941   200
28.7041   217
28.7141   208
28.7241   220
28.7341   197
28.7441   214
28.7541   204
28.7641   195
28.7741   194
28.7841   208
28.7941   219
28.8041   219
28.8141   227
28.8241   194
28.8341   195
28.8441   205
28.8541   216
28.8641   222
28.8741   230
28.8841   212
28.8941   192
28.9041   212
28.9141   213
28.9241   216
28.9341   215
28.9441   210
28.9541   230
28.9641   199
28.9741   214
28.9841   226
28.9941   204
29.0041   205
29.0141   208
29.0241   193
29.0341   216
29.0441   235
29.0541   207
29.0641   192
29.0741   189
29.0841   196
29.0941   224
29.1041   219
29.1141   215
29.1241   217
29.1341   194
29.1441   218
29.1541   199
29.1641   174
29.1741   186
29.1841   206
29.1941   195
29.2041   195
29.2141   215
29.2241   197
29.2341   220
29.2441   210
29.2541   184
29.2641   194
29.2741   202
29.2841   209
29.2941   222
29.3041   217
29.3141   174
29.3241   214
29.3341   205
29.3441   220
29.3541   208
29.3641   195
29.3741   210
29.3841   196
29.3941   187
29.4041   199
29.4141   189
29.4241   210
29.4341   199
29.4441   191
29.4541   177
29.4641   190
29.4741   177
29.4841   200
29.4941   196
29.5041   181
29.5141   182
29.5241   181
29.5341   181
29.5441   186
29.5541   196
29.5641   184
29.5741   194
29.5841   186
29.5941   180
29.6041   201
29.6141   158
29.6241   176
29.6341   172
29.6441   166
29.6541   198
29.6641   198
29.6741   201
29.6841   196
29.6941   171
29.7041   182
29.7141   200
29.7241   189
29.7341   182
29.7441   194
29.7541   207
29.7641   182
29.7741   184
29.7841   185
29.7941   184
29.8041   181
29.8141   195
29.8241   170
29.8341   179
29.8441   179
29.8541   167
29.8641   195
29.8741   198
29.8841   181
29.8941   195
29.9041   206
29.9141   191
29.9241   192
29.9341   173
29.9441   184
29.9541   177
29.9641   164
29.9741   180
29.9841   174
29.9941   195
30.0041   178
30.0141   165
30.0241   190
30.0341   228
30.0441   181
30.0541   175
30.0641   191
30.0741   186
30.0841   188
30.0941   179
30.1041   184
30.1141   167
30.1241   171
30.1341   176
30.1441   182
30.1541   196
30.1641   169
30.1741   165
30.1841   153
30.1941   181
30.2041   177
30.2141   186
30.2241   162
30.2341   176
30.2441   173
30.2541   180
30.2641   167
30.2741   157
30.2841   175
30.2941   170
30.3041   181
30.3141   146
30.3241   179
30.3341   169
30.3441   166
30.3541   184
30.3641   182
30.3741   161
30.3841   185
30.3941   156
30.4041   164
30.4141   165
30.4241   154
30.4341   181
30.4441   183
30.4541   174
30.4641   175
30.4741   190
30.4841   170
30.4941   168
30.5041   179
30.5141   161
30.5241   167
30.5341   161
30.5441   172
30.5541   180
30.5641   171
30.5741   161
30.5841   174
30.5941   151
30.6041   149
30.6141   179
30.6241   172
30.6341   170
30.6441   171
30.6541   167
30.6641   168
30.6741   169
30.6841   160
30.6941   154
30.7041   179
30.7141   170
30.7241   158
30.7341   193
30.7441   161
30.7541   164
30.7641   187
30.7741   174
30.7841   186
30.7941   151
30.8041   175
30.8141   179
30.8241   166
30.8341   171
30.8441   166
30.8541   158
30.8641   159
30.8741   166
30.8841   180
30.8941   163
30.9041   142
30.9141   179
30.9241   158
30.9341   158
30.9441   142
30.9541   166
30.9641   155
30.9741   153
30.9841   165
30.9941   168
31.0041   165
31.0141   165
31.0241   143
31.0341   140
31.0441   145
31.0541   151
31.0641   147
31.0741   153
31.0841   165
31.0941   149
31.1041   149
31.1141   161
31.1241   150
31.1341   170
31.1441   151
31.1541   146
31.1641   147
31.1741   139
31.1841   165
31.1941   160
31.2041   162
31.2141   165
31.2241   146
31.2341   168
31.2441   174
31.2541   164
31.2641   158
31.2741   141
31.2841   181
31.2941   150
31.3041   149
31.3141   161
31.3241   139
31.3341   156
31.3441   135
31.3541   132
31.3641   134
31.3741   164
31.3841   162
31.3941   128
31.4041   130
31.4141   133
31.4241   147
31.4341   150
31.4441   148
31.4541   164
31.4641   139
31.4741   152
31.4841   146
31.4941   139
31.5041   135
31.5141   144
31.5241   155
31.5341   155
31.5441   142
31.5541   164
31.5641   153
31.5741   152
31.5841   162
31.5941   147
31.6041   148
31.6141   148
31.6241   158
31.6341   158
31.6441   171
31.6541   141
31.6641   127
31.6741   146
31.6841   151
31.6941   146
31.7041   149
31.7141   137
31.7241   161
31.7341   141
31.7441   147
31.7541   153
31.7641   165
31.7741   131
31.7841   127
31.7941   131
31.8041   157
31.8141   138
31.8241   156
31.8341   157
31.8441   145
31.8541   141
31.8641   148
31.8741   147
31.8841   147
31.8941   153
31.9041   160
31.9141   134
31.9241   145
31.9341   153
31.9441   133
31.9541   142
31.9641   130
31.9741   133
31.9841   143
31.9941   158
32.0041   155
32.0141   150
32.0241   144
32.0341   127
32.0441   149
32.0541   137
32.0641   147
32.0741   140
32.0841   136
32.0941   142
32.1041   160
32.1141   151
32.1241   125
32.1341   147
32.1441   140
32.1541   131
32.1641   147
32.1741   121
32.1841   150
32.1941   167
32.2041   132
32.2141   137
32.2241   135
32.2341   123
32.2441   152
32.2541   115
32.2641   128
32.2741   168
32.2841   143
32.2941   126
32.3041   133
32.3141   138
32.3241   122
32.3341   139
32.3441   129
32.3541   131
32.3641   130
32.3741   126
32.3841   125
32.3941   142
32.4041   141
32.4141   153
32.4241   135
32.4341   147
32.4441   129
32.4541   134
32.4641   130
32.4741   117
32.4841   129
32.4941   129
32.5041   115
32.5141   124
32.5241   125
32.5341   129
32.5441   140
32.5541   110
32.5641   132
32.5741   147
32.5841   143
32.5941   128
32.6041   140
32.6141    95
32.6241   110
32.6341   108
32.6441   126
32.6541   117
32.6641   130
32.6741    94
32.6841   131
32.6941   115
32.7041   113
32.7141   126
32.7241   123
32.7341   133
32.7441   118
32.7541   112
32.7641   105
32.7741   136
32.7841   127
32.7941   120
32.8041   118
32.8141   109
32.8241   107
32.8341   117
32.8441   124
32.8541   108
32.8641   117
32.8741    96
32.8841   116
32.8941   125
32.9041   120
32.9141   121
32.9241   110
32.9341   127
32.9441   111
32.9541    99
32.9641   148
32.9741   116
32.9841   110
32.9941   129
33.0041   105
33.0141   101
33.0241   102
33.0341   119
33.0441   108
33.0541   117
33.0641   107
33.0741   119
33.0841   123
33.0941   128
33.1041   126
33.1141   107
33.1241   128
33.1341   100
33.1441   117
33.1541   126
33.1641   118
33.1741   116
33.1841   107
33.1941   108
33.2041   100
33.2141    96
33.2241   116
33.2341   117
33.2441   125
33.2541   127
33.2641   118
33.2741   107
33.2841   106
33.2941   106
33.3041   112
33.3141   105
33.3241   106
33.3341    99
33.3441   124
33.3541   109
33.3641   118
33.3741   110
33.3841   119
33.3941   111
33.4041   114
33.4141   121
33.4241   105
33.4341   109
33.4441   111
33.4541   114
33.4641   102
33.4741   111
33.4841   111
33.4941   120
33.5041   129
33.5141   125
33.5241    98
33.5341    98
33.5441   110
33.5541    98
33.5641   108
33.5741   125
33.5841    90
33.5941   110
33.6041   100
33.6141   114
33.6241   127
33.6341   100
33.6441    92
33.6541   102
33.6641   105
33.6741    93
33.6841   106
33.6941    97
33.7041   102
33.7141    90
33.7241   109
33.7341   119
33.7441   103
33.7541   110
33.7641   106
33.7741   111
33.7841    99
33.7941    92
33.8041    93
33.8141   101
33.8241    92
33.8341   105
33.8441   117
33.8541    90
33.8641    88
33.8741    94
33.8841   104
33.8941   104
33.9041   110
33.9141   108
33.9241    95
33.9341   109
33.9441    91
33.9541   101
33.9641   106
33.9741    97
33.9841    95
33.9941   105
34.0041    93
34.0141    91
34.0241   103
34.0341    98
34.0441    97
34.0541    90
34.0641    79
34.0741   102
34.0841    73
34.0941   103
34.1041   111
34.1141   100
34.1241   109
34.1341    90
34.1441    79
34.1541    86
34.1641   100
34.1741    90
34.1841    92
34.1941    94
34.2041   102
34.2141    99
34.2241    87
34.2341    81
34.2441    90
34.2541    95
34.2641   115
34.2741    84
34.2841    93
34.2941    88
34.3041    76
34.3141    98
34.3241    82
34.3341    83
34.3441    77
34.3541    88
34.3641    84
34.3741    86
34.3841   107
34.3941    87
34.4041    95
34.4141    75
34.4241   100
34.4341    74
34.4441    96
34.4541    84
34.4641    85
34.4741    97
34.4841    70
34.4941    87
34.5041    90
34.5141    98
34.5241    76
34.5341    92
34.5441    98
34.5541    70
34.5641    93
34.5741    83
34.5841    99
34.5941    94
34.6041    89
34.6141    93
34.6241    80
34.6341    79
34.6441    82
34.6541   100
34.6641    73
34.6741    91
34.6841    85
34.6941    94
34.7041    86
34.7141    90
34.7241    86
34.7341    88
34.7441    81
34.7541    78
34.7641    77
34.7741    76
34.7841    87
34.7941    87
34.8041    84
34.8141    78
34.8241    82
34.8341    78
34.8441    81
34.8541    76
34.8641    83
34.8741    69
34.8841    86
34.8941    85
34.9041    78
34.9141    86
34.9241    76
34.9341    67
34.9441    87
34.9541    89
34.9641    74
34.9741    77
34.9841    81
34.9941    74
35.0041    62
35.0141    65
35.0241    73
35.0341    89
35.0441    84
35.0541    88
35.0641    84
35.0741    79
35.0841    67
35.0941    79
35.1041    74
35.1141    70
35.1241    60
35.1341    72
35.1441    81
35.1541    72
35.1641    68
35.1741    74
35.1841    82
35.1941    86
35.2041    73
35.2141    80
35.2241    73
35.2341    72
35.2441    80
35.2541    68
35.2641    60
35.2741    71
35.2841    76
35.2941    73
35.3041    83
35.3141    73
35.3241    66
35.3341    76
35.3441    76
35.3541    69
35.3641    82
35.3741    71
35.3841    72
35.3941    96
35.4041    70
35.4141    73
35.4241    75
35.4341    63
35.4441    67
35.4541    71
35.4641    55
35.4741    73
35.4841    79
35.4941    76
35.5041    80
35.5141    74
35.5241    72
35.5341    62
35.5441    63
35.5541    67
35.5641    73
35.5741    59
35.5841    55
35.5941    68
35.6041    74
35.6141    62
35.6241    63
35.6341    63
35.6441    70
35.6541    65
35.6641    66
35.6741    79
35.6841    67
35.6941    60
35.7041    74
35.7141    63
35.7241    54
35.7341    58
35.7441    55
35.7541    74
35.7641    58
35.7741    59
35.7841    56
35.7941    69
35.8041    64
35.8141    60
35.8241    53
35.8341    52
35.8441    60
35.8541    53
35.8641    64
35.8741    55
35.8841    77
35.8941    65
35.9041    48
35.9141    62
35.9241    67
35.9341    64
35.9441    60
35.9541    65
35.9641    71
35.9741    70
35.9841    61
35.9941    62
36.0041    58
36.0141    68
36.0241    60
36.0341    67
36.0441    57
36.0541    62
36.0641    76
36.0741    61
36.0841    68
36.0941    56
36.1041    65
36.1141    61
36.1241    65
36.1341    83
36.1441    73
36.1541    59
36.1641    67
36.1741    71
36.1841    58
36.1941    64
36.2041    55
36.2141    74
36.2241    59
36.2341    74
36.2441    69
36.2541    69
36.2641    79
36.2741    74
36.2841    69
36.2941    70
36.3041    56
36.3141    58
36.3241    52
36.3341    47
36.3441    58
36.3541    58
36.3641    58
36.3741    54
36.3841    57
36.3941    58
36.4041    66
36.4141    74
36.4241    66
36.4341    61
36.4441    61
36.4541    60
36.4641    67
36.4741    62
36.4841    57
36.4941    50
36.5041    52
36.5141    49
36.5241    63
36.5341    55
36.5441    50
36.5541    61
36.5641    57
36.5741    51
36.5841    59
36.5941    61
36.6041    70
36.6141    62
36.6241    59
36.6341    66
36.6441    58
36.6541    59
36.6641    48
36.6741    46
36.6841    35
36.6941    58
36.7041    70
36.7141    65
36.7241    51
36.7341    55
36.7441    55
36.7541    52
36.7641    58
36.7741    50
36.7841    59
36.7941    57
36.8041    43
36.8141    44
36.8241    50
36.8341    51
36.8441    54
36.8541    43
36.8641    64
36.8741    62
36.8841    60
36.8941    67
36.9041    51
36.9141    53
36.9241    54
36.9341    57
36.9441    65
36.9541    39
36.9641    45
36.9741    52
36.9841    35
36.9941    45
37.0041    56
37.0141    61
37.0241    50
37.0341    46
37.0441    68
37.0541    44
37.0641    55
37.0741    50
37.0841    39
37.0941    51
37.1041    57
37.1141    43
37.1241    48
37.1341    56
37.1441    53
37.1541    41
37.1641    39
37.1741    45
37.1841    47
37.1941    48
37.2041    54
37.2141    44
37.2241    49
37.2341    46
37.2441    48
37.2541    48
37.2641    39
37.2741    53
37.2841    50
37.2941    51
37.3041    44
37.3141    41
37.3241    44
37.3341    49
37.3441    46
37.3541    40
37.3641    46
37.3741    48
37.3841    43
37.3941    40
37.4041    36
37.4141    42
37.4241    50
37.4341    52
37.4441    49
37.4541    38
37.4641    25
37.4741    44
37.4841    50
37.4941    43
37.5041    50
37.5141    46
37.5241    44
37.5341    46
37.5441    43
37.5541    54
37.5641    50
37.5741    37
37.5841    44
37.5941    37
37.6041    55
37.6141    40
37.6241    42
37.6341    40
37.6441    29
37.6541    49
37.6641    44
37.6741    43
37.6841    51
37.6941    40
37.7041    42
37.7141    36
37.7241    48
37.7341    38
37.7441    52
37.7541    50
37.7641    38
37.7741    46
37.7841    41
37.7941    45
37.8041    42
37.8141    33
37.8241    46
37.8341    32
37.8441    43
37.8541    38
37.8641    39
37.8741    34
37.8841    48
37.8941    45
37.9041    50
37.9141    44
37.9241    54
37.9341    42
37.9441    51
37.9541    50
37.9641    40
37.9741    42
37.9841    42
37.9941    39
38.0041    52
38.0141    31
38.0241    32
38.0341    47
38.0441    37
38.0541    35
38.0641    36
38.0741    34
38.0841    40
38.0941    47
38.1041    37
38.1141    42
38.1241    42
38.1341    35
38.1441    33
38.1541    39
38.1641    31
38.1741    35
38.1841    41
38.1941    38
38.2041    32
38.2141    29
38.2241    38
38.2341    41
38.2441    36
38.2541    29
38.2641    42
38.2741    38
38.2841    55
38.2941    42
38.3041    33
38.3141    35
38.3241    38
38.3341    41
38.3441    43
38.3541    35
38.3641    33
38.3741    26
38.3841    36
38.3941    40
38.4041    36
38.4141    32
38.4241    37
38.4341    27
38.4441    42
38.4541    39
38.4641    38
38.4741    26
38.4841    35
38.4941    32
38.5041    46
38.5141    35
38.5241    31
38.5341    28
38.5441    40
38.5541    30
38.5641    30
38.5741    32
38.5841    38
38.5941    35
38.6041    35
38.6141    26
38.6241    28
38.6341    31
38.6441    34
38.6541    33
38.6641    34
38.6741    34
38.6841    27
38.6941    33
38.7041    31
38.7141    27
38.7241    34
38.7341    36
38.7441    33
38.7541    30
38.7641    41
38.7741    29
38.7841    26
38.7941    29
38.8041    23
38.8141    26
38.8241    29
38.8341    20
38.8441    32
38.8541    33
38.8641    34
38.8741    28
38.8841    26
38.8941    39
38.9041    29
38.9141    33
38.9241    27
38.9341    24
38.9441    31
38.9541    25
38.9641    35
38.9741    27
38.9841    32
38.9941    32
39.0041    34
39.0141    18
39.0241    28
39.0341    39
39.0441    24
39.0541    29
39.0641    35
39.0741    34
39.0841    29
39.0941    32
39.1041    20
39.1141    18
39.1241    29
39.1341    28
39.1441    28
39.1541    22
39.1641    22
39.1741    23
39.1841    26
39.1941    25
39.2041    26
39.2141    18
39.2241    36
39.2341    24
39.2441    28
39.2541    35
39.2641    25
39.2741    27
39.2841    27
39.2941    23
39.3041    35
39.3141    24
39.3241    24
39.3341    23
39.3441    14
39.3541    20
39.3641    20
39.3741    22
39.3841    23
39.3941    23
39.4041    25
39.4141    30
39.4241    27
39.4341    20
39.4441    30
39.4541    29
39.4641    25
39.4741    21
39.4841    29
39.4941    29
39.5041    19
39.5141    25
39.5241    26
39.5341    18
39.5441    24
39.5541    27
39.5641    27
39.5741    29
39.5841    22
39.5941    29
39.6041    24
39.6141    26
39.6241    26
39.6341    21
39.6441    28
39.6541    26
39.6641    18
39.6741    18
39.6841    13
39.6941    26
39.7041    28
39.7141    22
39.7241    25
39.7341    23
39.7441    23
39.7541    35
39.7641    22
39.7741    22
39.7841    24
39.7941    22
39.8041    19
39.8141    28
39.8241    19
39.8341    17
39.8441    18
39.8541    23
39.8641    25
39.8741    15
39.8841    16
39.8941    19
39.9041    23
39.9141    17
39.9241    17
39.9341    18
39.9441    20
39.9541    24
39.9641    22
39.9741    22
39.9841    13
