Bruker Nano GmbH Berlin, Germany
Esprit 1.9

Date: 4/21/2021 2:28:21 PM
Real time: 16652
Life time: 15419
Pulse density: 112210


Detector type: XFlash 430
Window type: Custom type
Detector thickness: 0.45
Si dead layer:0.029

Calibration, lin.: 10
Calibration, abs.: -955.9
Mn FWHM: 137.05
Fano factor: 0.121
Channels: 4095

Energy Counts
-0.9559     0
-0.9459     0
-0.9359     0
-0.9259     0
-0.9159     0
-0.9059     0
-0.8959     0
-0.8859     0
-0.8759     0
-0.8659     0
-0.8559     0
-0.8459     0
-0.8359     0
-0.8259     0
-0.8159     0
-0.8059     0
-0.7959     0
-0.7859     0
-0.7759     0
-0.7659     0
-0.7559     0
-0.7459     0
-0.7359     0
-0.7259     0
-0.7159     0
-0.7059     0
-0.6959     0
-0.6859     0
-0.6759     0
-0.6659     0
-0.6559     0
-0.6459     0
-0.6359     0
-0.6259     0
-0.6159     0
-0.6059     0
-0.5959     0
-0.5859     0
-0.5759     0
-0.5659     0
-0.5559     0
-0.5459     0
-0.5359     0
-0.5259     0
-0.5159     0
-0.5059     0
-0.4959     0
-0.4859     0
-0.4759     0
-0.4659     0
-0.4559     0
-0.4459     0
-0.4359     0
-0.4259     0
-0.4159     0
-0.4059     0
-0.3959     0
-0.3859     0
-0.3759     0
-0.3659     0
-0.3559     0
-0.3459     0
-0.3359     0
-0.3259     0
-0.3159     0
-0.3059     0
-0.2959     0
-0.2859     0
-0.2759     0
-0.2659     0
-0.2559     0
-0.2459     0
-0.2359     0
-0.2259     0
-0.2159     0
-0.2059     0
-0.1959     0
-0.1859     0
-0.1759     0
-0.1659     0
-0.1559     0
-0.1459     0
-0.1359     0
-0.1259     0
-0.1159     1
-0.1059     7
-0.0959    33
-0.0859   188
-0.0759   584
-0.0659  1770
-0.0559  4472
-0.0459  9754
-0.0359 18605
-0.0259 29292
-0.0159 39974
-0.0059 47197
 0.0041 47362
 0.0141 40885
 0.0241 30221
 0.0341 19375
 0.0441 10390
 0.0541  4944
 0.0641  1931
 0.0741   671
 0.0841   204
 0.0941    60
 0.1041    20
 0.1141     7
 0.1241     5
 0.1341     9
 0.1441     7
 0.1541     3
 0.1641     3
 0.1741    19
 0.1841   172
 0.1941   291
 0.2041   288
 0.2141   266
 0.2241   263
 0.2341   274
 0.2441   261
 0.2541   249
 0.2641   291
 0.2741   255
 0.2841   255
 0.2941   259
 0.3041   273
 0.3141   250
 0.3241   238
 0.3341   266
 0.3441   243
 0.3541   245
 0.3641   240
 0.3741   251
 0.3841   229
 0.3941   248
 0.4041   237
 0.4141   234
 0.4241   239
 0.4341   242
 0.4441   238
 0.4541   229
 0.4641   223
 0.4741   224
 0.4841   206
 0.4941   224
 0.5041   232
 0.5141   221
 0.5241   237
 0.5341   221
 0.5441   235
 0.5541   240
 0.5641   226
 0.5741   220
 0.5841   215
 0.5941   212
 0.6041   203
 0.6141   198
 0.6241   211
 0.6341   214
 0.6441   209
 0.6541   202
 0.6641   193
 0.6741   199
 0.6841   208
 0.6941   203
 0.7041   200
 0.7141   197
 0.7241   204
 0.7341   210
 0.7441   201
 0.7541   209
 0.7641   206
 0.7741   200
 0.7841   202
 0.7941   196
 0.8041   184
 0.8141   180
 0.8241   184
 0.8341   195
 0.8441   196
 0.8541   181
 0.8641   180
 0.8741   188
 0.8841   196
 0.8941   192
 0.9041   192
 0.9141   194
 0.9241   196
 0.9341   201
 0.9441   171
 0.9541   175
 0.9641   174
 0.9741   189
 0.9841   168
 0.9941   169
 1.0041   169
 1.0141   167
 1.0241   194
 1.0341   186
 1.0441   173
 1.0541   182
 1.0641   178
 1.0741   167
 1.0841   166
 1.0941   163
 1.1041   167
 1.1141   170
 1.1241   150
 1.1341   159
 1.1441   174
 1.1541   170
 1.1641   152
 1.1741   173
 1.1841   182
 1.1941   186
 1.2041   155
 1.2141   163
 1.2241   162
 1.2341   165
 1.2441   167
 1.2541   165
 1.2641   163
 1.2741   151
 1.2841   171
 1.2941   157
 1.3041   137
 1.3141   157
 1.3241   165
 1.3341   156
 1.3441   175
 1.3541   146
 1.3641   158
 1.3741   144
 1.3841   137
 1.3941   160
 1.4041   150
 1.4141   154
 1.4241   176
 1.4341   162
 1.4441   161
 1.4541   157
 1.4641   168
 1.4741   164
 1.4841   166
 1.4941   169
 1.5041   155
 1.5141   164
 1.5241   159
 1.5341   172
 1.5441   144
 1.5541   151
 1.5641   146
 1.5741   165
 1.5841   157
 1.5941   150
 1.6041   133
 1.6141   157
 1.6241   167
 1.6341   161
 1.6441   161
 1.6541   177
 1.6641   205
 1.6741   274
 1.6841   342
 1.6941   403
 1.7041   455
 1.7141   509
 1.7241   609
 1.7341   620
 1.7441   645
 1.7541   647
 1.7641   531
 1.7741   430
 1.7841   397
 1.7941   327
 1.8041   269
 1.8141   215
 1.8241   210
 1.8341   227
 1.8441   185
 1.8541   152
 1.8641   179
 1.8741   164
 1.8841   160
 1.8941   156
 1.9041   172
 1.9141   157
 1.9241   152
 1.9341   163
 1.9441   170
 1.9541   169
 1.9641   144
 1.9741   165
 1.9841   175
 1.9941   172
 2.0041   198
 2.0141   187
 2.0241   178
 2.0341   171
 2.0441   195
 2.0541   158
 2.0641   159
 2.0741   156
 2.0841   145
 2.0941   165
 2.1041   136
 2.1141   142
 2.1241   138
 2.1341   137
 2.1441   158
 2.1541   145
 2.1641   161
 2.1741   146
 2.1841   152
 2.1941   139
 2.2041   127
 2.2141   129
 2.2241   149
 2.2341   154
 2.2441   136
 2.2541   128
 2.2641   135
 2.2741   130
 2.2841   132
 2.2941   128
 2.3041   110
 2.3141   125
 2.3241   136
 2.3341   143
 2.3441   144
 2.3541   134
 2.3641   140
 2.3741   125
 2.3841   137
 2.3941   140
 2.4041   136
 2.4141   128
 2.4241   135
 2.4341   141
 2.4441   114
 2.4541   127
 2.4641   127
 2.4741   124
 2.4841   110
 2.4941   132
 2.5041   147
 2.5141   151
 2.5241   131
 2.5341   137
 2.5441   116
 2.5541   117
 2.5641   135
 2.5741   133
 2.5841   117
 2.5941   134
 2.6041   131
 2.6141   130
 2.6241   100
 2.6341   123
 2.6441   113
 2.6541   117
 2.6641   134
 2.6741   106
 2.6841   111
 2.6941   127
 2.7041   128
 2.7141   104
 2.7241   113
 2.7341   124
 2.7441   104
 2.7541   124
 2.7641   121
 2.7741   119
 2.7841   122
 2.7941   116
 2.8041   152
 2.8141   120
 2.8241   103
 2.8341   147
 2.8441   107
 2.8541   112
 2.8641   124
 2.8741   121
 2.8841    94
 2.8941   108
 2.9041    97
 2.9141   128
 2.9241   112
 2.9341   116
 2.9441   110
 2.9541   117
 2.9641   119
 2.9741   119
 2.9841   112
 2.9941   121
 3.0041   103
 3.0141   100
 3.0241   106
 3.0341   121
 3.0441   107
 3.0541   105
 3.0641   115
 3.0741   105
 3.0841   111
 3.0941    96
 3.1041   106
 3.1141   108
 3.1241   111
 3.1341   102
 3.1441    99
 3.1541   126
 3.1641   100
 3.1741   103
 3.1841    90
 3.1941   105
 3.2041   102
 3.2141   105
 3.2241   111
 3.2341   114
 3.2441    97
 3.2541   119
 3.2641   119
 3.2741   127
 3.2841   142
 3.2941   150
 3.3041   157
 3.3141   151
 3.3241   145
 3.3341   147
 3.3441   132
 3.3541   132
 3.3641   125
 3.3741   115
 3.3841   116
 3.3941   106
 3.4041    94
 3.4141    84
 3.4241    94
 3.4341   107
 3.4441    96
 3.4541    79
 3.4641    91
 3.4741    83
 3.4841    86
 3.4941    87
 3.5041    75
 3.5141   103
 3.5241   110
 3.5341    90
 3.5441   109
 3.5541   106
 3.5641   131
 3.5741   139
 3.5841   166
 3.5941   262
 3.6041   310
 3.6141   368
 3.6241   451
 3.6341   585
 3.6441   626
 3.6541   732
 3.6641   864
 3.6741   953
 3.6841  1018
 3.6941  1003
 3.7041   905
 3.7141   900
 3.7241   758
 3.7341   658
 3.7441   571
 3.7541   450
 3.7641   332
 3.7741   279
 3.7841   200
 3.7941   151
 3.8041   119
 3.8141   114
 3.8241   108
 3.8341    99
 3.8441    95
 3.8541    85
 3.8641    87
 3.8741    83
 3.8841    96
 3.8941    88
 3.9041    83
 3.9141   101
 3.9241    98
 3.9341   124
 3.9441   124
 3.9541   157
 3.9641   152
 3.9741   171
 3.9841   194
 3.9941   195
 4.0041   189
 4.0141   198
 4.0241   190
 4.0341   215
 4.0441   189
 4.0541   158
 4.0641   139
 4.0741   134
 4.0841   103
 4.0941   110
 4.1041    86
 4.1141    96
 4.1241    84
 4.1341    88
 4.1441    86
 4.1541    79
 4.1641    72
 4.1741    69
 4.1841    53
 4.1941    71
 4.2041    66
 4.2141    69
 4.2241    60
 4.2341    67
 4.2441    61
 4.2541    64
 4.2641    70
 4.2741    72
 4.2841    69
 4.2941    53
 4.3041    64
 4.3141    75
 4.3241    72
 4.3341    58
 4.3441    60
 4.3541    67
 4.3641    70
 4.3741    82
 4.3841    90
 4.3941    89
 4.4041   110
 4.4141   117
 4.4241   146
 4.4341   172
 4.4441   193
 4.4541   203
 4.4641   252
 4.4741   296
 4.4841   315
 4.4941   290
 4.5041   332
 4.5141   330
 4.5241   288
 4.5341   276
 4.5441   283
 4.5541   269
 4.5641   227
 4.5741   183
 4.5841   165
 4.5941   155
 4.6041   109
 4.6141    99
 4.6241   106
 4.6341   110
 4.6441    98
 4.6541    95
 4.6641    90
 4.6741   105
 4.6841    91
 4.6941    90
 4.7041    65
 4.7141    68
 4.7241    81
 4.7341    66
 4.7441    82
 4.7541    79
 4.7641    78
 4.7741    79
 4.7841    63
 4.7941    78
 4.8041   102
 4.8141    93
 4.8241    90
 4.8341   104
 4.8441    99
 4.8541    92
 4.8641    90
 4.8741   120
 4.8841   110
 4.8941   138
 4.9041   143
 4.9141   139
 4.9241   149
 4.9341   114
 4.9441   117
 4.9541   108
 4.9641   124
 4.9741   115
 4.9841   136
 4.9941   123
 5.0041    92
 5.0141   100
 5.0241    92
 5.0341    92
 5.0441    79
 5.0541    90
 5.0641    87
 5.0741    90
 5.0841    71
 5.0941    79
 5.1041    68
 5.1141    75
 5.1241    86
 5.1341    73
 5.1441    70
 5.1541    99
 5.1641    97
 5.1741    81
 5.1841    92
 5.1941    92
 5.2041    87
 5.2141    96
 5.2241    99
 5.2341    87
 5.2441   105
 5.2541    89
 5.2641    94
 5.2741    77
 5.2841    93
 5.2941    84
 5.3041    92
 5.3141   121
 5.3241   119
 5.3341   140
 5.3441   132
 5.3541   146
 5.3641   154
 5.3741   165
 5.3841   168
 5.3941   158
 5.4041   180
 5.4141   175
 5.4241   199
 5.4341   201
 5.4441   200
 5.4541   148
 5.4641   132
 5.4741   156
 5.4841   157
 5.4941   114
 5.5041   112
 5.5141   106
 5.5241    87
 5.5341    95
 5.5441    86
 5.5541    94
 5.5641    86
 5.5741    79
 5.5841    92
 5.5941    89
 5.6041    76
 5.6141    96
 5.6241    84
 5.6341    92
 5.6441    89
 5.6541    89
 5.6641    94
 5.6741    93
 5.6841   113
 5.6941   101
 5.7041   115
 5.7141   116
 5.7241   131
 5.7341   158
 5.7441   175
 5.7541   203
 5.7641   274
 5.7741   342
 5.7841   423
 5.7941   562
 5.8041   687
 5.8141   888
 5.8241  1040
 5.8341  1289
 5.8441  1499
 5.8541  1672
 5.8641  1827
 5.8741  1988
 5.8841  2125
 5.8941  2061
 5.9041  2067
 5.9141  1957
 5.9241  1790
 5.9341  1712
 5.9441  1493
 5.9541  1243
 5.9641  1078
 5.9741   934
 5.9841   699
 5.9941   580
 6.0041   477
 6.0141   342
 6.0241   260
 6.0341   233
 6.0441   203
 6.0541   168
 6.0641   134
 6.0741   156
 6.0841   137
 6.0941   144
 6.1041   131
 6.1141   183
 6.1241   158
 6.1341   144
 6.1441   191
 6.1541   191
 6.1641   211
 6.1741   226
 6.1841   264
 6.1941   323
 6.2041   408
 6.2141   503
 6.2241   764
 6.2341  1046
 6.2441  1441
 6.2541  2019
 6.2641  2788
 6.2741  3707
 6.2841  5241
 6.2941  6877
 6.3041  8783
 6.3141 11175
 6.3241 13837
 6.3341 16747
 6.3441 19725
 6.3541 22889
 6.3641 24804
 6.3741 26889
 6.3841 28643
 6.3941 28963
 6.4041 29164
 6.4141 28414
 6.4241 26653
 6.4341 24671
 6.4441 22063
 6.4541 19480
 6.4641 16349
 6.4741 13582
 6.4841 10870
 6.4941  8626
 6.5041  6606
 6.5141  4931
 6.5241  3679
 6.5341  2730
 6.5441  1968
 6.5541  1365
 6.5641   927
 6.5741   672
 6.5841   494
 6.5941   385
 6.6041   310
 6.6141   261
 6.6241   204
 6.6341   173
 6.6441   200
 6.6541   166
 6.6641   181
 6.6741   164
 6.6841   163
 6.6941   137
 6.7041   149
 6.7141   178
 6.7241   142
 6.7341   167
 6.7441   163
 6.7541   184
 6.7641   195
 6.7741   174
 6.7841   182
 6.7941   207
 6.8041   216
 6.8141   222
 6.8241   231
 6.8341   255
 6.8441   277
 6.8541   255
 6.8641   323
 6.8741   383
 6.8841   454
 6.8941   501
 6.9041   597
 6.9141   806
 6.9241   857
 6.9341  1125
 6.9441  1366
 6.9541  1664
 6.9641  2062
 6.9741  2439
 6.9841  2876
 6.9941  3316
 7.0041  3674
 7.0141  4168
 7.0241  4625
 7.0341  4734
 7.0441  4909
 7.0541  4799
 7.0641  4832
 7.0741  4606
 7.0841  4435
 7.0941  4049
 7.1041  3618
 7.1141  3217
 7.1241  2757
 7.1341  2275
 7.1441  1798
 7.1541  1508
 7.1641  1177
 7.1741   975
 7.1841   783
 7.1941   587
 7.2041   466
 7.2141   364
 7.2241   282
 7.2341   267
 7.2441   224
 7.2541   194
 7.2641   187
 7.2741   199
 7.2841   193
 7.2941   171
 7.3041   194
 7.3141   193
 7.3241   210
 7.3341   191
 7.3441   219
 7.3541   241
 7.3641   215
 7.3741   256
 7.3841   276
 7.3941   275
 7.4041   349
 7.4141   310
 7.4241   347
 7.4341   353
 7.4441   342
 7.4541   379
 7.4641   370
 7.4741   370
 7.4841   333
 7.4941   337
 7.5041   332
 7.5141   291
 7.5241   285
 7.5341   266
 7.5441   232
 7.5541   243
 7.5641   221
 7.5741   222
 7.5841   189
 7.5941   171
 7.6041   165
 7.6141   198
 7.6241   159
 7.6341   201
 7.6441   189
 7.6541   182
 7.6641   150
 7.6741   178
 7.6841   195
 7.6941   185
 7.7041   171
 7.7141   177
 7.7241   211
 7.7341   165
 7.7441   192
 7.7541   188
 7.7641   193
 7.7741   193
 7.7841   191
 7.7941   198
 7.8041   224
 7.8141   205
 7.8241   240
 7.8341   229
 7.8441   223
 7.8541   240
 7.8641   255
 7.8741   232
 7.8841   254
 7.8941   269
 7.9041   300
 7.9141   263
 7.9241   309
 7.9341   301
 7.9441   338
 7.9541   369
 7.9641   418
 7.9741   423
 7.9841   438
 7.9941   437
 8.0041   482
 8.0141   523
 8.0241   557
 8.0341   598
 8.0441   646
 8.0541   717
 8.0641   717
 8.0741   794
 8.0841   838
 8.0941   866
 8.1041   934
 8.1141   923
 8.1241   987
 8.1341   972
 8.1441  1030
 8.1541  1092
 8.1641  1226
 8.1741  1142
 8.1841  1145
 8.1941  1195
 8.2041  1176
 8.2141  1202
 8.2241  1246
 8.2341  1240
 8.2441  1256
 8.2541  1322
 8.2641  1403
 8.2741  1491
 8.2841  1525
 8.2941  1649
 8.3041  1730
 8.3141  1807
 8.3241  2041
 8.3341  2262
 8.3441  2289
 8.3541  2431
 8.3641  2617
 8.3741  2573
 8.3841  2531
 8.3941  2594
 8.4041  2528
 8.4141  2511
 8.4241  2350
 8.4341  2160
 8.4441  1958
 8.4541  1773
 8.4641  1644
 8.4741  1441
 8.4841  1216
 8.4941  1096
 8.5041  1001
 8.5141   831
 8.5241   735
 8.5341   729
 8.5441   694
 8.5541   682
 8.5641   651
 8.5741   697
 8.5841   718
 8.5941   777
 8.6041   801
 8.6141   819
 8.6241   815
 8.6341   797
 8.6441   821
 8.6541   772
 8.6641   725
 8.6741   695
 8.6841   620
 8.6941   624
 8.7041   632
 8.7141   523
 8.7241   504
 8.7341   403
 8.7441   407
 8.7541   338
 8.7641   370
 8.7741   329
 8.7841   317
 8.7941   300
 8.8041   282
 8.8141   283
 8.8241   261
 8.8341   278
 8.8441   273
 8.8541   278
 8.8641   264
 8.8741   288
 8.8841   247
 8.8941   257
 8.9041   266
 8.9141   258
 8.9241   278
 8.9341   292
 8.9441   301
 8.9541   313
 8.9641   272
 8.9741   260
 8.9841   296
 8.9941   303
 9.0041   311
 9.0141   314
 9.0241   334
 9.0341   331
 9.0441   324
 9.0541   335
 9.0641   329
 9.0741   355
 9.0841   383
 9.0941   389
 9.1041   410
 9.1141   414
 9.1241   377
 9.1341   426
 9.1441   465
 9.1541   483
 9.1641   509
 9.1741   506
 9.1841   538
 9.1941   572
 9.2041   575
 9.2141   645
 9.2241   651
 9.2341   634
 9.2441   707
 9.2541   752
 9.2641   792
 9.2741   832
 9.2841   812
 9.2941   865
 9.3041   894
 9.3141   937
 9.3241   980
 9.3341   999
 9.3441   999
 9.3541  1068
 9.3641  1082
 9.3741  1104
 9.3841  1045
 9.3941  1116
 9.4041  1171
 9.4141  1172
 9.4241  1169
 9.4341  1192
 9.4441  1197
 9.4541  1253
 9.4641  1259
 9.4741  1302
 9.4841  1324
 9.4941  1392
 9.5041  1388
 9.5141  1379
 9.5241  1454
 9.5341  1494
 9.5441  1586
 9.5541  1622
 9.5641  1678
 9.5741  1894
 9.5841  1933
 9.5941  2023
 9.6041  2132
 9.6141  2235
 9.6241  2339
 9.6341  2403
 9.6441  2523
 9.6541  2457
 9.6641  2479
 9.6741  2494
 9.6841  2404
 9.6941  2325
 9.7041  2233
 9.7141  2187
 9.7241  2088
 9.7341  1894
 9.7441  1762
 9.7541  1684
 9.7641  1480
 9.7741  1392
 9.7841  1298
 9.7941  1254
 9.8041  1113
 9.8141  1078
 9.8241  1081
 9.8341   994
 9.8441  1012
 9.8541  1015
 9.8641   992
 9.8741  1008
 9.8841  1066
 9.8941  1039
 9.9041  1078
 9.9141  1054
 9.9241  1117
 9.9341  1192
 9.9441  1167
 9.9541  1155
 9.9641  1096
 9.9741  1123
 9.9841  1049
 9.9941  1000
10.0041   944
10.0141   915
10.0241   843
10.0341   802
10.0441   714
10.0541   634
10.0641   567
10.0741   494
10.0841   438
10.0941   384
10.1041   372
10.1141   321
10.1241   314
10.1341   271
10.1441   253
10.1541   258
10.1641   231
10.1741   227
10.1841   206
10.1941   192
10.2041   189
10.2141   187
10.2241   183
10.2341   195
10.2441   188
10.2541   173
10.2641   152
10.2741   148
10.2841   142
10.2941   163
10.3041   158
10.3141   170
10.3241   142
10.3341   133
10.3441   134
10.3541   146
10.3641   162
10.3741   156
10.3841   149
10.3941   152
10.4041   150
10.4141   145
10.4241   153
10.4341   159
10.4441   167
10.4541   159
10.4641   158
10.4741   158
10.4841   178
10.4941   165
10.5041   173
10.5141   175
10.5241   184
10.5341   173
10.5441   178
10.5541   176
10.5641   189
10.5741   181
10.5841   166
10.5941   172
10.6041   180
10.6141   160
10.6241   168
10.6341   187
10.6441   184
10.6541   194
10.6641   173
10.6741   187
10.6841   181
10.6941   159
10.7041   164
10.7141   170
10.7241   185
10.7341   193
10.7441   200
10.7541   202
10.7641   195
10.7741   189
10.7841   199
10.7941   198
10.8041   208
10.8141   201
10.8241   225
10.8341   233
10.8441   247
10.8541   254
10.8641   255
10.8741   251
10.8841   255
10.8941   245
10.9041   252
10.9141   237
10.9241   231
10.9341   234
10.9441   250
10.9541   231
10.9641   227
10.9741   223
10.9841   244
10.9941   259
11.0041   253
11.0141   237
11.0241   231
11.0341   223
11.0441   234
11.0541   224
11.0641   206
11.0741   229
11.0841   220
11.0941   229
11.1041   220
11.1141   198
11.1241   204
11.1341   215
11.1441   225
11.1541   262
11.1641   218
11.1741   254
11.1841   272
11.1941   271
11.2041   291
11.2141   321
11.2241   329
11.2341   308
11.2441   316
11.2541   332
11.2641   336
11.2741   346
11.2841   358
11.2941   356
11.3041   350
11.3141   318
11.3241   298
11.3341   307
11.3441   298
11.3541   285
11.3641   287
11.3741   249
11.3841   245
11.3941   235
11.4041   214
11.4141   195
11.4241   185
11.4341   186
11.4441   188
11.4541   176
11.4641   184
11.4741   179
11.4841   171
11.4941   179
11.5041   173
11.5141   171
11.5241   176
11.5341   165
11.5441   158
11.5541   175
11.5641   185
11.5741   180
11.5841   184
11.5941   193
11.6041   177
11.6141   183
11.6241   186
11.6341   201
11.6441   208
11.6541   182
11.6641   183
11.6741   182
11.6841   190
11.6941   176
11.7041   153
11.7141   141
11.7241   156
11.7341   170
11.7441   176
11.7541   170
11.7641   160
11.7741   162
11.7841   152
11.7941   143
11.8041   141
11.8141   132
11.8241   129
11.8341   148
11.8441   157
11.8541   152
11.8641   141
11.8741   154
11.8841   173
11.8941   148
11.9041   146
11.9141   144
11.9241   137
11.9341   149
11.9441   156
11.9541   154
11.9641   153
11.9741   151
11.9841   149
11.9941   153
12.0041   146
12.0141   141
12.0241   147
12.0341   143
12.0441   155
12.0541   147
12.0641   145
12.0741   133
12.0841   132
12.0941   136
12.1041   146
12.1141   127
12.1241   120
12.1341   129
12.1441   132
12.1541   123
12.1641   115
12.1741   123
12.1841   143
12.1941   137
12.2041   125
12.2141   119
12.2241   120
12.2341   125
12.2441   125
12.2541   135
12.2641   124
12.2741   127
12.2841   127
12.2941   128
12.3041   123
12.3141   119
12.3241   120
12.3341   134
12.3441   124
12.3541   123
12.3641   136
12.3741   137
12.3841   134
12.3941   136
12.4041   134
12.4141   121
12.4241   124
12.4341   123
12.4441   121
12.4541   128
12.4641   129
12.4741   123
12.4841   125
12.4941   124
12.5041   130
12.5141   136
12.5241   143
12.5341   143
12.5441   150
12.5541   145
12.5641   152
12.5741   159
12.5841   142
12.5941   134
12.6041   157
12.6141   157
12.6241   137
12.6341   132
12.6441   137
12.6541   140
12.6641   140
12.6741   143
12.6841   145
12.6941   142
12.7041   136
12.7141   132
12.7241   134
12.7341   140
12.7441   141
12.7541   138
12.7641   139
12.7741   145
12.7841   157
12.7941   160
12.8041   155
12.8141   151
12.8241   144
12.8341   136
12.8441   137
12.8541   144
12.8641   148
12.8741   149
12.8841   149
12.8941   145
12.9041   138
12.9141   140
12.9241   148
12.9341   151
12.9441   157
12.9541   165
12.9641   163
12.9741   152
12.9841   136
12.9941   138
13.0041   146
13.0141   140
13.0241   140
13.0341   151
13.0441   142
13.0541   156
13.0641   175
13.0741   162
13.0841   152
13.0941   163
13.1041   170
13.1141   157
13.1241   155
13.1341   155
13.1441   152
13.1541   154
13.1641   155
13.1741   145
13.1841   158
13.1941   166
13.2041   167
13.2141   164
13.2241   153
13.2341   154
13.2441   161
13.2541   160
13.2641   165
13.2741   163
13.2841   170
13.2941   158
13.3041   154
13.3141   171
13.3241   175
13.3341   176
13.3441   180
13.3541   181
13.3641   176
13.3741   175
13.3841   180
13.3941   187
13.4041   186
13.4141   182
13.4241   183
13.4341   187
13.4441   184
13.4541   178
13.4641   177
13.4741   177
13.4841   173
13.4941   172
13.5041   181
13.5141   189
13.5241   185
13.5341   175
13.5441   170
13.5541   170
13.5641   166
13.5741   165
13.5841   171
13.5941   172
13.6041   169
13.6141   173
13.6241   175
13.6341   170
13.6441   168
13.6541   154
13.6641   165
13.6741   191
13.6841   172
13.6941   159
13.7041   171
13.7141   168
13.7241   160
13.7341   169
13.7441   176
13.7541   181
13.7641   182
13.7741   181
13.7841   183
13.7941   166
13.8041   167
13.8141   182
13.8241   181
13.8341   180
13.8441   177
13.8541   183
13.8641   186
13.8741   188
13.8841   187
13.8941   170
13.9041   171
13.9141   195
13.9241   196
13.9341   184
13.9441   184
13.9541   193
13.9641   193
13.9741   179
13.9841   182
13.9941   183
14.0041   170
14.0141   181
14.0241   205
14.0341   208
14.0441   207
14.0541   197
14.0641   194
14.0741   201
14.0841   196
14.0941   198
14.1041   216
14.1141   228
14.1241   223
14.1341   209
14.1441   194
14.1541   190
14.1641   198
14.1741   212
14.1841   227
14.1941   218
14.2041   215
14.2141   224
14.2241   202
14.2341   199
14.2441   212
14.2541   203
14.2641   185
14.2741   187
14.2841   202
14.2941   199
14.3041   201
14.3141   205
14.3241   195
14.3341   211
14.3441   215
14.3541   195
14.3641   199
14.3741   189
14.3841   190
14.3941   205
14.4041   204
14.4141   209
14.4241   220
14.4341   200
14.4441   192
14.4541   198
14.4641   197
14.4741   207
14.4841   210
14.4941   207
14.5041   196
14.5141   201
14.5241   213
14.5341   217
14.5441   208
14.5541   200
14.5641   208
14.5741   212
14.5841   201
14.5941   207
14.6041   215
14.6141   213
14.6241   202
14.6341   198
14.6441   218
14.6541   217
14.6641   206
14.6741   212
14.6841   216
14.6941   217
14.7041   217
14.7141   217
14.7241   228
14.7341   227
14.7441   222
14.7541   216
14.7641   213
14.7741   225
14.7841   233
14.7941   219
14.8041   215
14.8141   233
14.8241   239
14.8341   237
14.8441   233
14.8541   235
14.8641   239
14.8741   233
14.8841   255
14.8941   261
14.9041   241
14.9141   234
14.9241   244
14.9341   245
14.9441   240
14.9541   258
14.9641   258
14.9741   268
14.9841   273
14.9941   246
15.0041   232
15.0141   242
15.0241   234
15.0341   243
15.0441   252
15.0541   239
15.0641   247
15.0741   245
15.0841   246
15.0941   246
15.1041   230
15.1141   239
15.1241   237
15.1341   239
15.1441   242
15.1541   230
15.1641   232
15.1741   238
15.1841   238
15.1941   227
15.2041   221
15.2141   226
15.2241   226
15.2341   222
15.2441   224
15.2541   230
15.2641   215
15.2741   235
15.2841   252
15.2941   237
15.3041   243
15.3141   236
15.3241   223
15.3341   217
15.3441   228
15.3541   239
15.3641   230
15.3741   242
15.3841   248
15.3941   240
15.4041   258
15.4141   249
15.4241   252
15.4341   232
15.4441   236
15.4541   257
15.4641   240
15.4741   247
15.4841   241
15.4941   244
15.5041   265
15.5141   260
15.5241   255
15.5341   244
15.5441   250
15.5541   267
15.5641   263
15.5741   264
15.5841   274
15.5941   274
15.6041   294
15.6141   310
15.6241   303
15.6341   286
15.6441   299
15.6541   336
15.6641   335
15.6741   334
15.6841   331
15.6941   340
15.7041   366
15.7141   385
15.7241   389
15.7341   333
15.7441   338
15.7541   361
15.7641   333
15.7741   341
15.7841   355
15.7941   365
15.8041   379
15.8141   357
15.8241   344
15.8341   327
15.8441   340
15.8541   344
15.8641   327
15.8741   309
15.8841   293
15.8941   318
15.9041   314
15.9141   301
15.9241   283
15.9341   287
15.9441   290
15.9541   287
15.9641   280
15.9741   283
15.9841   290
15.9941   286
16.0041   274
16.0141   282
16.0241   264
16.0341   263
16.0441   268
16.0541   268
16.0641   268
16.0741   292
16.0841   299
16.0941   275
16.1041   273
16.1141   275
16.1241   270
16.1341   302
16.1441   281
16.1541   262
16.1641   269
16.1741   279
16.1841   280
16.1941   269
16.2041   290
16.2141   291
16.2241   291
16.2341   304
16.2441   285
16.2541   287
16.2641   291
16.2741   251
16.2841   259
16.2941   286
16.3041   276
16.3141   281
16.3241   306
16.3341   299
16.3441   273
16.3541   267
16.3641   265
16.3741   276
16.3841   290
16.3941   298
16.4041   290
16.4141   278
16.4241   300
16.4341   319
16.4441   304
16.4541   304
16.4641   277
16.4741   290
16.4841   299
16.4941   296
16.5041   296
16.5141   309
16.5241   304
16.5341   287
16.5441   295
16.5541   290
16.5641   286
16.5741   306
16.5841   324
16.5941   302
16.6041   317
16.6141   331
16.6241   330
16.6341   341
16.6441   337
16.6541   333
16.6641   316
16.6741   302
16.6841   306
16.6941   314
16.7041   332
16.7141   321
16.7241   335
16.7341   318
16.7441   310
16.7541   327
16.7641   326
16.7741   297
16.7841   303
16.7941   304
16.8041   304
16.8141   307
16.8241   310
16.8341   311
16.8441   326
16.8541   323
16.8641   323
16.8741   317
16.8841   316
16.8941   297
16.9041   294
16.9141   328
16.9241   343
16.9341   311
16.9441   317
16.9541   311
16.9641   317
16.9741   302
16.9841   347
16.9941   330
17.0041   331
17.0141   342
17.0241   362
17.0341   355
17.0441   346
17.0541   338
17.0641   315
17.0741   298
17.0841   320
17.0941   328
17.1041   318
17.1141   348
17.1241   323
17.1341   339
17.1441   334
17.1541   354
17.1641   358
17.1741   332
17.1841   316
17.1941   322
17.2041   353
17.2141   373
17.2241   366
17.2341   335
17.2441   337
17.2541   344
17.2641   337
17.2741   335
17.2841   336
17.2941   327
17.3041   349
17.3141   371
17.3241   383
17.3341   346
17.3441   356
17.3541   377
17.3641   390
17.3741   356
17.3841   352
17.3941   359
17.4041   348
17.4141   340
17.4241   357
17.4341   356
17.4441   367
17.4541   364
17.4641   355
17.4741   325
17.4841   347
17.4941   367
17.5041   392
17.5141   359
17.5241   379
17.5341   375
17.5441   342
17.5541   357
17.5641   379
17.5741   388
17.5841   357
17.5941   358
17.6041   387
17.6141   375
17.6241   373
17.6341   373
17.6441   375
17.6541   361
17.6641   366
17.6741   367
17.6841   372
17.6941   370
17.7041   379
17.7141   408
17.7241   382
17.7341   376
17.7441   390
17.7541   373
17.7641   375
17.7741   377
17.7841   389
17.7941   381
17.8041   341
17.8141   373
17.8241   385
17.8341   372
17.8441   367
17.8541   391
17.8641   370
17.8741   368
17.8841   379
17.8941   397
17.9041   377
17.9141   364
17.9241   356
17.9341   374
17.9441   366
17.9541   365
17.9641   375
17.9741   375
17.9841   372
17.9941   385
18.0041   397
18.0141   386
18.0241   379
18.0341   364
18.0441   384
18.0541   392
18.0641   368
18.0741   351
18.0841   366
18.0941   411
18.1041   386
18.1141   389
18.1241   398
18.1341   404
18.1441   429
18.1541   408
18.1641   390
18.1741   425
18.1841   383
18.1941   371
18.2041   394
18.2141   368
18.2241   366
18.2341   398
18.2441   412
18.2541   401
18.2641   371
18.2741   387
18.2841   393
18.2941   433
18.3041   404
18.3141   420
18.3241   398
18.3341   404
18.3441   431
18.3541   403
18.3641   409
18.3741   412
18.3841   414
18.3941   428
18.4041   397
18.4141   384
18.4241   375
18.4341   377
18.4441   415
18.4541   412
18.4641   403
18.4741   416
18.4841   416
18.4941   408
18.5041   402
18.5141   399
18.5241   411
18.5341   402
18.5441   411
18.5541   399
18.5641   403
18.5741   404
18.5841   378
18.5941   414
18.6041   423
18.6141   425
18.6241   427
18.6341   424
18.6441   413
18.6541   377
18.6641   373
18.6741   416
18.6841   430
18.6941   419
18.7041   425
18.7141   400
18.7241   392
18.7341   404
18.7441   413
18.7541   416
18.7641   448
18.7741   443
18.7841   396
18.7941   411
18.8041   400
18.8141   394
18.8241   398
18.8341   410
18.8441   423
18.8541   418
18.8641   433
18.8741   425
18.8841   442
18.8941   433
18.9041   433
18.9141   421
18.9241   436
18.9341   450
18.9441   443
18.9541   452
18.9641   424
18.9741   459
18.9841   425
18.9941   446
19.0041   426
19.0141   423
19.0241   443
19.0341   451
19.0441   423
19.0541   427
19.0641   413
19.0741   408
19.0841   429
19.0941   449
19.1041   457
19.1141   422
19.1241   460
19.1341   426
19.1441   442
19.1541   451
19.1641   436
19.1741   421
19.1841   426
19.1941   446
19.2041   418
19.2141   436
19.2241   415
19.2341   424
19.2441   418
19.2541   417
19.2641   447
19.2741   430
19.2841   424
19.2941   434
19.3041   453
19.3141   454
19.3241   456
19.3341   458
19.3441   452
19.3541   436
19.3641   439
19.3741   455
19.3841   443
19.3941   433
19.4041   428
19.4141   429
19.4241   411
19.4341   416
19.4441   440
19.4541   394
19.4641   427
19.4741   430
19.4841   445
19.4941   446
19.5041   435
19.5141   470
19.5241   431
19.5341   421
19.5441   451
19.5541   477
19.5641   508
19.5741   457
19.5841   430
19.5941   443
19.6041   440
19.6141   467
19.6241   442
19.6341   451
19.6441   452
19.6541   467
19.6641   439
19.6741   457
19.6841   428
19.6941   482
19.7041   465
19.7141   450
19.7241   463
19.7341   442
19.7441   442
19.7541   448
19.7641   480
19.7741   437
19.7841   441
19.7941   437
19.8041   432
19.8141   465
19.8241   500
19.8341   460
19.8441   443
19.8541   476
19.8641   454
19.8741   441
19.8841   477
19.8941   487
19.9041   483
19.9141   467
19.9241   494
19.9341   474
19.9441   472
19.9541   442
19.9641   469
19.9741   449
19.9841   456
19.9941   456
20.0041   449
20.0141   450
20.0241   482
20.0341   458
20.0441   437
20.0541   472
20.0641   486
20.0741   479
20.0841   463
20.0941   447
20.1041   492
20.1141   435
20.1241   449
20.1341   457
20.1441   435
20.1541   467
20.1641   451
20.1741   495
20.1841   485
20.1941   445
20.2041   473
20.2141   456
20.2241   460
20.2341   452
20.2441   448
20.2541   460
20.2641   495
20.2741   487
20.2841   494
20.2941   510
20.3041   476
20.3141   457
20.3241   478
20.3341   476
20.3441   494
20.3541   473
20.3641   485
20.3741   508
20.3841   464
20.3941   477
20.4041   472
20.4141   471
20.4241   507
20.4341   520
20.4441   485
20.4541   473
20.4641   432
20.4741   473
20.4841   466
20.4941   466
20.5041   476
20.5141   457
20.5241   421
20.5341   488
20.5441   437
20.5541   468
20.5641   479
20.5741   497
20.5841   500
20.5941   468
20.6041   495
20.6141   497
20.6241   487
20.6341   466
20.6441   460
20.6541   458
20.6641   485
20.6741   466
20.6841   478
20.6941   448
20.7041   477
20.7141   463
20.7241   500
20.7341   501
20.7441   489
20.7541   457
20.7641   458
20.7741   448
20.7841   481
20.7941   469
20.8041   545
20.8141   504
20.8241   533
20.8341   552
20.8441   496
20.8541   488
20.8641   507
20.8741   505
20.8841   540
20.8941   562
20.9041   559
20.9141   592
20.9241   608
20.9341   623
20.9441   588
20.9541   632
20.9641   611
20.9741   630
20.9841   645
20.9941   622
21.0041   630
21.0141   674
21.0241   664
21.0341   677
21.0441   678
21.0541   708
21.0641   764
21.0741   690
21.0841   760
21.0941   722
21.1041   774
21.1141   787
21.1241   738
21.1341   776
21.1441   750
21.1541   754
21.1641   732
21.1741   733
21.1841   703
21.1941   670
21.2041   701
21.2141   720
21.2241   677
21.2341   654
21.2441   616
21.2541   626
21.2641   631
21.2741   670
21.2841   622
21.2941   565
21.3041   559
21.3141   614
21.3241   592
21.3341   543
21.3441   564
21.3541   555
21.3641   539
21.3741   489
21.3841   512
21.3941   519
21.4041   492
21.4141   483
21.4241   483
21.4341   461
21.4441   507
21.4541   504
21.4641   486
21.4741   516
21.4841   485
21.4941   487
21.5041   518
21.5141   496
21.5241   476
21.5341   481
21.5441   483
21.5541   497
21.5641   556
21.5741   471
21.5841   490
21.5941   467
21.6041   475
21.6141   481
21.6241   527
21.6341   496
21.6441   499
21.6541   473
21.6641   486
21.6741   503
21.6841   476
21.6941   471
21.7041   518
21.7141   458
21.7241   480
21.7341   469
21.7441   463
21.7541   478
21.7641   469
21.7741   472
21.7841   518
21.7941   466
21.8041   476
21.8141   495
21.8241   481
21.8341   456
21.8441   489
21.8541   499
21.8641   478
21.8741   482
21.8841   514
21.8941   505
21.9041   490
21.9141   460
21.9241   453
21.9341   501
21.9441   488
21.9541   475
21.9641   495
21.9741   521
21.9841   518
21.9941   480
22.0041   453
22.0141   506
22.0241   465
22.0341   479
22.0441   540
22.0541   478
22.0641   530
22.0741   501
22.0841   496
22.0941   462
22.1041   502
22.1141   530
22.1241   463
22.1341   502
22.1441   517
22.1541   481
22.1641   493
22.1741   495
22.1841   445
22.1941   462
22.2041   486
22.2141   469
22.2241   459
22.2341   495
22.2441   487
22.2541   488
22.2641   469
22.2741   509
22.2841   509
22.2941   537
22.3041   544
22.3141   500
22.3241   479
22.3341   463
22.3441   492
22.3541   539
22.3641   512
22.3741   461
22.3841   457
22.3941   463
22.4041   479
22.4141   471
22.4241   475
22.4341   502
22.4441   484
22.4541   500
22.4641   463
22.4741   486
22.4841   523
22.4941   430
22.5041   496
22.5141   499
22.5241   492
22.5341   503
22.5441   489
22.5541   487
22.5641   444
22.5741   436
22.5841   481
22.5941   450
22.6041   484
22.6141   520
22.6241   507
22.6341   503
22.6441   498
22.6541   548
22.6641   468
22.6741   502
22.6841   481
22.6941   479
22.7041   476
22.7141   465
22.7241   515
22.7341   565
22.7441   510
22.7541   474
22.7641   509
22.7741   490
22.7841   504
22.7941   481
22.8041   463
22.8141   467
22.8241   452
22.8341   466
22.8441   459
22.8541   483
22.8641   465
22.8741   472
22.8841   479
22.8941   463
22.9041   499
22.9141   482
22.9241   478
22.9341   480
22.9441   497
22.9541   466
22.9641   461
22.9741   472
22.9841   482
22.9941   448
23.0041   500
23.0141   485
23.0241   501
23.0341   480
23.0441   440
23.0541   477
23.0641   480
23.0741   492
23.0841   495
23.0941   474
23.1041   471
23.1141   472
23.1241   519
23.1341   501
23.1441   475
23.1541   491
23.1641   492
23.1741   475
23.1841   520
23.1941   520
23.2041   488
23.2141   492
23.2241   457
23.2341   520
23.2441   487
23.2541   505
23.2641   497
23.2741   489
23.2841   503
23.2941   481
23.3041   450
23.3141   504
23.3241   458
23.3341   451
23.3441   492
23.3541   457
23.3641   464
23.3741   504
23.3841   465
23.3941   489
23.4041   456
23.4141   468
23.4241   447
23.4341   449
23.4441   436
23.4541   472
23.4641   459
23.4741   515
23.4841   477
23.4941   476
23.5041   458
23.5141   499
23.5241   440
23.5341   485
23.5441   422
23.5541   473
23.5641   474
23.5741   476
23.5841   461
23.5941   462
23.6041   452
23.6141   503
23.6241   460
23.6341   461
23.6441   479
23.6541   475
23.6641   532
23.6741   517
23.6841   470
23.6941   487
23.7041   493
23.7141   513
23.7241   475
23.7341   480
23.7441   515
23.7541   531
23.7641   517
23.7741   510
23.7841   475
23.7941   501
23.8041   536
23.8141   558
23.8241   562
23.8341   540
23.8441   560
23.8541   528
23.8641   510
23.8741   510
23.8841   475
23.8941   520
23.9041   467
23.9141   466
23.9241   479
23.9341   465
23.9441   485
23.9541   500
23.9641   476
23.9741   485
23.9841   442
23.9941   484
24.0041   500
24.0141   450
24.0241   478
24.0341   448
24.0441   479
24.0541   443
24.0641   454
24.0741   461
24.0841   429
24.0941   455
24.1041   444
24.1141   444
24.1241   462
24.1341   460
24.1441   454
24.1541   486
24.1641   419
24.1741   450
24.1841   454
24.1941   443
24.2041   477
24.2141   473
24.2241   490
24.2341   444
24.2441   478
24.2541   467
24.2641   468
24.2741   498
24.2841   469
24.2941   461
24.3041   470
24.3141   421
24.3241   453
24.3341   469
24.3441   473
24.3541   462
24.3641   468
24.3741   474
24.3841   452
24.3941   444
24.4041   478
24.4141   471
24.4241   407
24.4341   455
24.4441   456
24.4541   474
24.4641   437
24.4741   438
24.4841   477
24.4941   465
24.5041   458
24.5141   459
24.5241   436
24.5341   409
24.5441   408
24.5541   441
24.5641   426
24.5741   437
24.5841   450
24.5941   470
24.6041   468
24.6141   448
24.6241   439
24.6341   473
24.6441   458
24.6541   451
24.6641   427
24.6741   456
24.6841   426
24.6941   462
24.7041   416
24.7141   422
24.7241   425
24.7341   463
24.7441   466
24.7541   461
24.7641   466
24.7741   434
24.7841   445
24.7941   403
24.8041   446
24.8141   435
24.8241   476
24.8341   433
24.8441   441
24.8541   434
24.8641   440
24.8741   479
24.8841   438
24.8941   459
24.9041   455
24.9141   436
24.9241   432
24.9341   429
24.9441   455
24.9541   459
24.9641   444
24.9741   434
24.9841   460
24.9941   433
25.0041   444
25.0141   510
25.0241   508
25.0341   449
25.0441   432
25.0541   473
25.0641   462
25.0741   441
25.0841   494
25.0941   447
25.1041   474
25.1141   463
25.1241   442
25.1341   463
25.1441   462
25.1541   465
25.1641   449
25.1741   451
25.1841   453
25.1941   422
25.2041   454
25.2141   409
25.2241   425
25.2341   432
25.2441   417
25.2541   459
25.2641   432
25.2741   432
25.2841   448
25.2941   423
25.3041   453
25.3141   467
25.3241   423
25.3341   466
25.3441   446
25.3541   437
25.3641   405
25.3741   453
25.3841   465
25.3941   438
25.4041   433
25.4141   428
25.4241   406
25.4341   432
25.4441   418
25.4541   405
25.4641   414
25.4741   450
25.4841   461
25.4941   416
25.5041   396
25.5141   385
25.5241   440
25.5341   427
25.5441   392
25.5541   421
25.5641   410
25.5741   412
25.5841   415
25.5941   423
25.6041   400
25.6141   378
25.6241   408
25.6341   384
25.6441   402
25.6541   396
25.6641   414
25.6741   397
25.6841   432
25.6941   408
25.7041   422
25.7141   412
25.7241   445
25.7341   409
25.7441   388
25.7541   406
25.7641   389
25.7741   385
25.7841   432
25.7941   411
25.8041   402
25.8141   427
25.8241   418
25.8341   405
25.8441   426
25.8541   423
25.8641   400
25.8741   436
25.8841   368
25.8941   413
25.9041   372
25.9141   411
25.9241   405
25.9341   421
25.9441   427
25.9541   401
25.9641   401
25.9741   409
25.9841   411
25.9941   396
26.0041   381
26.0141   445
26.0241   360
26.0341   386
26.0441   418
26.0541   392
26.0641   375
26.0741   420
26.0841   354
26.0941   391
26.1041   416
26.1141   392
26.1241   400
26.1341   392
26.1441   378
26.1541   422
26.1641   409
26.1741   434
26.1841   422
26.1941   405
26.2041   427
26.2141   412
26.2241   399
26.2341   398
26.2441   454
26.2541   424
26.2641   403
26.2741   416
26.2841   438
26.2941   388
26.3041   390
26.3141   396
26.3241   399
26.3341   386
26.3441   386
26.3541   381
26.3641   400
26.3741   387
26.3841   409
26.3941   375
26.4041   384
26.4141   388
26.4241   371
26.4341   391
26.4441   375
26.4541   376
26.4641   414
26.4741   375
26.4841   432
26.4941   383
26.5041   361
26.5141   382
26.5241   378
26.5341   396
26.5441   388
26.5541   419
26.5641   368
26.5741   403
26.5841   407
26.5941   386
26.6041   406
26.6141   375
26.6241   365
26.6341   366
26.6441   406
26.6541   386
26.6641   386
26.6741   370
26.6841   378
26.6941   391
26.7041   375
26.7141   361
26.7241   362
26.7341   367
26.7441   344
26.7541   387
26.7641   385
26.7741   392
26.7841   383
26.7941   405
26.8041   353
26.8141   350
26.8241   389
26.8341   380
26.8441   389
26.8541   379
26.8641   372
26.8741   388
26.8841   373
26.8941   359
26.9041   387
26.9141   392
26.9241   391
26.9341   384
26.9441   360
26.9541   379
26.9641   377
26.9741   360
26.9841   355
26.9941   388
27.0041   388
27.0141   401
27.0241   385
27.0341   339
27.0441   343
27.0541   347
27.0641   351
27.0741   387
27.0841   360
27.0941   348
27.1041   367
27.1141   359
27.1241   370
27.1341   342
27.1441   374
27.1541   391
27.1641   359
27.1741   357
27.1841   339
27.1941   369
27.2041   374
27.2141   382
27.2241   363
27.2341   352
27.2441   334
27.2541   367
27.2641   358
27.2741   353
27.2841   355
27.2941   359
27.3041   374
27.3141   337
27.3241   356
27.3341   342
27.3441   370
27.3541   353
27.3641   370
27.3741   343
27.3841   359
27.3941   379
27.4041   358
27.4141   335
27.4241   358
27.4341   349
27.4441   353
27.4541   353
27.4641   381
27.4741   358
27.4841   368
27.4941   358
27.5041   341
27.5141   356
27.5241   349
27.5341   372
27.5441   368
27.5541   336
27.5641   357
27.5741   337
27.5841   382
27.5941   354
27.6041   341
27.6141   365
27.6241   369
27.6341   316
27.6441   340
27.6541   340
27.6641   346
27.6741   338
27.6841   341
27.6941   346
27.7041   341
27.7141   335
27.7241   333
27.7341   353
27.7441   324
27.7541   318
27.7641   325
27.7741   302
27.7841   321
27.7941   318
27.8041   323
27.8141   322
27.8241   313
27.8341   329
27.8441   319
27.8541   348
27.8641   333
27.8741   344
27.8841   327
27.8941   358
27.9041   355
27.9141   356
27.9241   328
27.9341   301
27.9441   310
27.9541   352
27.9641   324
27.9741   313
27.9841   322
27.9941   323
28.0041   310
28.0141   314
28.0241   324
28.0341   349
28.0441   339
28.0541   342
28.0641   343
28.0741   348
28.0841   361
28.0941   341
28.1041   330
28.1141   333
28.1241   302
28.1341   335
28.1441   304
28.1541   311
28.1641   319
28.1741   314
28.1841   293
28.1941   308
28.2041   337
28.2141   306
28.2241   337
28.2341   305
28.2441   318
28.2541   301
28.2641   310
28.2741   317
28.2841   318
28.2941   310
28.3041   339
28.3141   312
28.3241   358
28.3341   354
28.3441   296
28.3541   272
28.3641   334
28.3741   327
28.3841   310
28.3941   295
28.4041   326
28.4141   332
28.4241   326
28.4341   312
28.4441   327
28.4541   318
28.4641   320
28.4741   326
28.4841   316
28.4941   308
28.5041   298
28.5141   290
28.5241   325
28.5341   325
28.5441   314
28.5541   319
28.5641   324
28.5741   326
28.5841   323
28.5941   338
28.6041   302
28.6141   300
28.6241   334
28.6341   310
28.6441   304
28.6541   280
28.6641   326
28.6741   320
28.6841   310
28.6941   297
28.7041   301
28.7141   291
28.7241   288
28.7341   316
28.7441   333
28.7541   324
28.7641   277
28.7741   313
28.7841   277
28.7941   318
28.8041   290
28.8141   299
28.8241   307
28.8341   301
28.8441   317
28.8541   299
28.8641   285
28.8741   294
28.8841   300
28.8941   278
28.9041   291
28.9141   308
28.9241   288
28.9341   299
28.9441   291
28.9541   295
28.9641   275
28.9741   277
28.9841   285
28.9941   325
29.0041   289
29.0141   297
29.0241   277
29.0341   287
29.0441   319
29.0541   303
29.0641   313
29.0741   292
29.0841   282
29.0941   303
29.1041   282
29.1141   273
29.1241   296
29.1341   283
29.1441   290
29.1541   279
29.1641   257
29.1741   301
29.1841   275
29.1941   296
29.2041   294
29.2141   275
29.2241   281
29.2341   276
29.2441   312
29.2541   285
29.2641   291
29.2741   281
29.2841   281
29.2941   288
29.3041   308
29.3141   279
29.3241   280
29.3341   283
29.3441   247
29.3541   277
29.3641   271
29.3741   269
29.3841   286
29.3941   262
29.4041   282
29.4141   258
29.4241   253
29.4341   283
29.4441   303
29.4541   245
29.4641   282
29.4741   303
29.4841   304
29.4941   293
29.5041   272
29.5141   271
29.5241   284
29.5341   293
29.5441   281
29.5541   253
29.5641   291
29.5741   273
29.5841   284
29.5941   287
29.6041   258
29.6141   287
29.6241   246
29.6341   275
29.6441   278
29.6541   271
29.6641   260
29.6741   276
29.6841   253
29.6941   275
29.7041   289
29.7141   260
29.7241   262
29.7341   278
29.7441   270
29.7541   267
29.7641   279
29.7741   279
29.7841   267
29.7941   267
29.8041   275
29.8141   284
29.8241   250
29.8341   259
29.8441   276
29.8541   251
29.8641   257
29.8741   270
29.8841   255
29.8941   261
29.9041   286
29.9141   262
29.9241   308
29.9341   261
29.9441   247
29.9541   226
29.9641   237
29.9741   253
29.9841   239
29.9941   258
30.0041   262
30.0141   226
30.0241   258
30.0341   284
30.0441   263
30.0541   240
30.0641   250
30.0741   250
30.0841   260
30.0941   222
30.1041   241
30.1141   241
30.1241   246
30.1341   304
30.1441   283
30.1541   254
30.1641   268
30.1741   264
30.1841   241
30.1941   235
30.2041   255
30.2141   260
30.2241   255
30.2341   269
30.2441   251
30.2541   237
30.2641   243
30.2741   240
30.2841   252
30.2941   243
30.3041   244
30.3141   214
30.3241   246
30.3341   226
30.3441   222
30.3541   243
30.3641   239
30.3741   256
30.3841   230
30.3941   250
30.4041   253
30.4141   242
30.4241   239
30.4341   230
30.4441   222
30.4541   211
30.4641   246
30.4741   232
30.4841   245
30.4941   233
30.5041   238
30.5141   267
30.5241   267
30.5341   243
30.5441   250
30.5541   245
30.5641   243
30.5741   232
30.5841   231
30.5941   231
30.6041   220
30.6141   236
30.6241   221
30.6341   254
30.6441   246
30.6541   221
30.6641   257
30.6741   244
30.6841   223
30.6941   248
30.7041   233
30.7141   216
30.7241   254
30.7341   254
30.7441   222
30.7541   226
30.7641   247
30.7741   234
30.7841   253
30.7941   213
30.8041   214
30.8141   221
30.8241   235
30.8341   217
30.8441   207
30.8541   225
30.8641   231
30.8741   246
30.8841   217
30.8941   207
30.9041   232
30.9141   199
30.9241   207
30.9341   216
30.9441   213
30.9541   238
30.9641   219
30.9741   223
30.9841   235
30.9941   216
31.0041   216
31.0141   231
31.0241   226
31.0341   217
31.0441   217
31.0541   204
31.0641   215
31.0741   238
31.0841   194
31.0941   214
31.1041   228
31.1141   208
31.1241   233
31.1341   222
31.1441   223
31.1541   228
31.1641   225
31.1741   190
31.1841   215
31.1941   224
31.2041   215
31.2141   214
31.2241   216
31.2341   211
31.2441   204
31.2541   218
31.2641   214
31.2741   218
31.2841   218
31.2941   200
31.3041   224
31.3141   202
31.3241   196
31.3341   203
31.3441   230
31.3541   214
31.3641   202
31.3741   234
31.3841   228
31.3941   235
31.4041   224
31.4141   229
31.4241   227
31.4341   200
31.4441   190
31.4541   217
31.4641   189
31.4741   222
31.4841   202
31.4941   195
31.5041   194
31.5141   220
31.5241   199
31.5341   188
31.5441   220
31.5541   207
31.5641   199
31.5741   172
31.5841   211
31.5941   210
31.6041   203
31.6141   213
31.6241   224
31.6341   208
31.6441   189
31.6541   192
31.6641   205
31.6741   242
31.6841   213
31.6941   210
31.7041   199
31.7141   205
31.7241   201
31.7341   197
31.7441   213
31.7541   208
31.7641   189
31.7741   191
31.7841   209
31.7941   208
31.8041   187
31.8141   199
31.8241   165
31.8341   185
31.8441   200
31.8541   209
31.8641   213
31.8741   184
31.8841   195
31.8941   211
31.9041   192
31.9141   183
31.9241   210
31.9341   191
31.9441   208
31.9541   183
31.9641   197
31.9741   190
31.9841   195
31.9941   199
32.0041   188
32.0141   161
32.0241   194
32.0341   185
32.0441   175
32.0541   177
32.0641   188
32.0741   210
32.0841   203
32.0941   186
32.1041   191
32.1141   204
32.1241   196
32.1341   187
32.1441   184
32.1541   202
32.1641   185
32.1741   184
32.1841   196
32.1941   192
32.2041   201
32.2141   202
32.2241   180
32.2341   199
32.2441   188
32.2541   183
32.2641   198
32.2741   192
32.2841   183
32.2941   172
32.3041   187
32.3141   195
32.3241   179
32.3341   193
32.3441   180
32.3541   190
32.3641   166
32.3741   214
32.3841   177
32.3941   160
32.4041   173
32.4141   179
32.4241   190
32.4341   180
32.4441   157
32.4541   180
32.4641   182
32.4741   159
32.4841   175
32.4941   179
32.5041   177
32.5141   191
32.5241   173
32.5341   183
32.5441   166
32.5541   185
32.5641   188
32.5741   171
32.5841   172
32.5941   176
32.6041   182
32.6141   151
32.6241   160
32.6341   174
32.6441   183
32.6541   185
32.6641   186
32.6741   155
32.6841   157
32.6941   176
32.7041   169
32.7141   173
32.7241   163
32.7341   166
32.7441   177
32.7541   166
32.7641   165
32.7741   182
32.7841   174
32.7941   151
32.8041   166
32.8141   164
32.8241   171
32.8341   155
32.8441   170
32.8541   150
32.8641   154
32.8741   172
32.8841   165
32.8941   163
32.9041   174
32.9141   162
32.9241   171
32.9341   163
32.9441   173
32.9541   158
32.9641   174
32.9741   176
32.9841   181
32.9941   159
33.0041   182
33.0141   195
33.0241   181
33.0341   182
33.0441   158
33.0541   147
33.0641   154
33.0741   167
33.0841   153
33.0941   167
33.1041   157
33.1141   168
33.1241   150
33.1341   172
33.1441   179
33.1541   179
33.1641   156
33.1741   161
33.1841   164
33.1941   173
33.2041   146
33.2141   152
33.2241   139
33.2341   169
33.2441   173
33.2541   170
33.2641   159
33.2741   168
33.2841   144
33.2941   181
33.3041   162
33.3141   126
33.3241   157
33.3341   157
33.3441   157
33.3541   151
33.3641   151
33.3741   161
33.3841   138
33.3941   145
33.4041   142
33.4141   140
33.4241   169
33.4341   145
33.4441   138
33.4541   149
33.4641   137
33.4741   150
33.4841   146
33.4941   147
33.5041   138
33.5141   125
33.5241   140
33.5341   161
33.5441   147
33.5541   142
33.5641   155
33.5741   154
33.5841   142
33.5941   140
33.6041   145
33.6141   154
33.6241   153
33.6341   155
33.6441   134
33.6541   143
33.6641   145
33.6741   164
33.6841   133
33.6941   132
33.7041   143
33.7141   144
33.7241   134
33.7341   151
33.7441   128
33.7541   138
33.7641   150
33.7741   148
33.7841   139
33.7941   130
33.8041   128
33.8141   154
33.8241   126
33.8341   110
33.8441   158
33.8541   137
33.8641   119
33.8741   162
33.8841   140
33.8941   139
33.9041   119
33.9141   137
33.9241   116
33.9341   154
33.9441   123
33.9541   132
33.9641   110
33.9741   116
33.9841   124
33.9941   138
34.0041   136
34.0141   142
34.0241   130
34.0341   132
34.0441   140
34.0541   135
34.0641   132
34.0741   150
34.0841   126
34.0941   132
34.1041   125
34.1141   147
34.1241   137
34.1341   119
34.1441   114
34.1541   133
34.1641   130
34.1741   117
34.1841   127
34.1941   105
34.2041   115
34.2141   130
34.2241   136
34.2341   129
34.2441   142
34.2541   134
34.2641   111
34.2741   118
34.2841   116
34.2941   120
34.3041   135
34.3141   132
34.3241   125
34.3341   132
34.3441   131
34.3541   126
34.3641   125
34.3741   121
34.3841   128
34.3941   123
34.4041   120
34.4141   122
34.4241   116
34.4341   124
34.4441   129
34.4541   121
34.4641   117
34.4741   123
34.4841   135
34.4941   121
34.5041   100
34.5141   119
34.5241   100
34.5341   135
34.5441   116
34.5541   127
34.5641   144
34.5741   121
34.5841   124
34.5941   102
34.6041    98
34.6141   125
34.6241   106
34.6341   110
34.6441   131
34.6541   118
34.6641   147
34.6741   127
34.6841   121
34.6941   130
34.7041   116
34.7141   121
34.7241   136
34.7341   110
34.7441    95
34.7541   106
34.7641   119
34.7741   116
34.7841   122
34.7941   132
34.8041   113
34.8141   115
34.8241   107
34.8341   112
34.8441   120
34.8541   130
34.8641    94
34.8741   124
34.8841   113
34.8941   112
34.9041   112
34.9141   140
34.9241   128
34.9341   119
34.9441   104
34.9541    93
34.9641   115
34.9741   122
34.9841   116
34.9941   103
35.0041    97
35.0141   112
35.0241    94
35.0341   109
35.0441   113
35.0541   104
35.0641   109
35.0741   135
35.0841   100
35.0941   124
35.1041   121
35.1141   110
35.1241    99
35.1341   101
35.1441   115
35.1541   122
35.1641   112
35.1741   129
35.1841   108
35.1941    98
35.2041   124
35.2141   123
35.2241   111
35.2341    94
35.2441    85
35.2541   101
35.2641   113
35.2741    87
35.2841   106
35.2941   104
35.3041   105
35.3141   111
35.3241   112
35.3341   113
35.3441   105
35.3541    97
35.3641   104
35.3741    88
35.3841   114
35.3941   117
35.4041   108
35.4141   107
35.4241    94
35.4341    96
35.4441   101
35.4541    98
35.4641   107
35.4741   108
35.4841   115
35.4941    88
35.5041   104
35.5141   105
35.5241    94
35.5341   100
35.5441    98
35.5541    94
35.5641   103
35.5741    77
35.5841    95
35.5941   103
35.6041    93
35.6141   104
35.6241    91
35.6341    80
35.6441   102
35.6541   108
35.6641   105
35.6741    86
35.6841   112
35.6941    90
35.7041    89
35.7141    98
35.7241    88
35.7341    78
35.7441    97
35.7541    89
35.7641    98
35.7741    94
35.7841   101
35.7941    87
35.8041    88
35.8141    93
35.8241   103
35.8341   100
35.8441   100
35.8541    97
35.8641    96
35.8741   101
35.8841    73
35.8941    92
35.9041    92
35.9141    92
35.9241    85
35.9341    91
35.9441    87
35.9541    84
35.9641   104
35.9741   101
35.9841   104
35.9941    95
36.0041    80
36.0141    92
36.0241    80
36.0341    94
36.0441    95
36.0541    96
36.0641    75
36.0741    87
36.0841   102
36.0941    68
36.1041    87
36.1141    92
36.1241    80
36.1341    73
36.1441    87
36.1541   111
36.1641    98
36.1741    95
36.1841    94
36.1941    72
36.2041    94
36.2141    93
36.2241   114
36.2341   100
36.2441    83
36.2541    81
36.2641    85
36.2741    88
36.2841    83
36.2941    97
36.3041    76
36.3141    86
36.3241    78
36.3341    86
36.3441    77
36.3541    84
36.3641    90
36.3741    82
36.3841    71
36.3941    76
36.4041    97
36.4141    75
36.4241    70
36.4341    91
36.4441    68
36.4541    89
36.4641    87
36.4741    97
36.4841    69
36.4941    77
36.5041    90
36.5141    85
36.5241    72
36.5341    89
36.5441    63
36.5541    79
36.5641    81
36.5741    82
36.5841    76
36.5941    79
36.6041    69
36.6141    81
36.6241    93
36.6341    75
36.6441    92
36.6541    80
36.6641    89
36.6741    66
36.6841    83
36.6941    91
36.7041    73
36.7141    74
36.7241    71
36.7341    79
36.7441    69
36.7541    81
36.7641    71
36.7741    78
36.7841    83
36.7941    80
36.8041    71
36.8141    82
36.8241    75
36.8341    76
36.8441    72
36.8541    61
36.8641    76
36.8741    70
36.8841    49
36.8941    76
36.9041   103
36.9141    73
36.9241    64
36.9341    82
36.9441    73
36.9541    67
36.9641    73
36.9741    62
36.9841    75
36.9941    80
37.0041    64
37.0141    73
37.0241    75
37.0341    97
37.0441    63
37.0541    74
37.0641    76
37.0741    65
37.0841    77
37.0941    76
37.1041    79
37.1141    59
37.1241    51
37.1341    77
37.1441    69
37.1541    71
37.1641    75
37.1741    70
37.1841    71
37.1941    63
37.2041    76
37.2141    58
37.2241    64
37.2341    54
37.2441    65
37.2541    49
37.2641    68
37.2741    73
37.2841    69
37.2941    67
37.3041    61
37.3141    61
37.3241    75
37.3341    68
37.3441    72
37.3541    64
37.3641    65
37.3741    64
37.3841    60
37.3941    60
37.4041    79
37.4141    61
37.4241    71
37.4341    51
37.4441    54
37.4541    58
37.4641    62
37.4741    60
37.4841    56
37.4941    60
37.5041    54
37.5141    64
37.5241    67
37.5341    64
37.5441    41
37.5541    57
37.5641    62
37.5741    67
37.5841    65
37.5941    61
37.6041    63
37.6141    65
37.6241    50
37.6341    51
37.6441    68
37.6541    59
37.6641    65
37.6741    66
37.6841    63
37.6941    71
37.7041    51
37.7141    64
37.7241    58
37.7341    50
37.7441    54
37.7541    56
37.7641    67
37.7741    61
37.7841    61
37.7941    57
37.8041    47
37.8141    53
37.8241    76
37.8341    57
37.8441    58
37.8541    57
37.8641    57
37.8741    59
37.8841    71
37.8941    70
37.9041    58
37.9141    56
37.9241    51
37.9341    57
37.9441    54
37.9541    51
37.9641    59
37.9741    56
37.9841    56
37.9941    55
38.0041    61
38.0141    61
38.0241    69
38.0341    61
38.0441    43
38.0541    49
38.0641    55
38.0741    55
38.0841    60
38.0941    58
38.1041    52
38.1141    43
38.1241    48
38.1341    53
38.1441    51
38.1541    39
38.1641    57
38.1741    58
38.1841    48
38.1941    66
38.2041    45
38.2141    64
38.2241    57
38.2341    52
38.2441    60
38.2541    55
38.2641    62
38.2741    61
38.2841    44
38.2941    56
38.3041    42
38.3141    53
38.3241    59
38.3341    48
38.3441    45
38.3541    59
38.3641    47
38.3741    40
38.3841    48
38.3941    41
38.4041    41
38.4141    53
38.4241    55
38.4341    46
38.4441    46
38.4541    43
38.4641    52
38.4741    49
38.4841    51
38.4941    47
38.5041    48
38.5141    48
38.5241    47
38.5341    47
38.5441    46
38.5541    44
38.5641    54
38.5741    55
38.5841    50
38.5941    41
38.6041    43
38.6141    46
38.6241    37
38.6341    46
38.6441    49
38.6541    54
38.6641    47
38.6741    42
38.6841    35
38.6941    37
38.7041    55
38.7141    47
38.7241    36
38.7341    43
38.7441    53
38.7541    32
38.7641    36
38.7741    48
38.7841    52
38.7941    46
38.8041    43
38.8141    47
38.8241    41
38.8341    44
38.8441    33
38.8541    47
38.8641    50
38.8741    49
38.8841    51
38.8941    44
38.9041    49
38.9141    30
38.9241    44
38.9341    32
38.9441    39
38.9541    46
38.9641    41
38.9741    38
38.9841    27
38.9941    47
39.0041    36
39.0141    35
39.0241    42
39.0341    51
39.0441    33
39.0541    34
39.0641    46
39.0741    37
39.0841    31
39.0941    38
39.1041    36
39.1141    33
39.1241    41
39.1341    46
39.1441    50
39.1541    47
39.1641    44
39.1741    36
39.1841    54
39.1941    39
39.2041    40
39.2141    44
39.2241    37
39.2341    42
39.2441    40
39.2541    44
39.2641    45
39.2741    31
39.2841    34
39.2941    45
39.3041    34
39.3141    41
39.3241    26
39.3341    30
39.3441    36
39.3541    33
39.3641    28
39.3741    36
39.3841    30
39.3941    41
39.4041    39
39.4141    49
39.4241    27
39.4341    42
39.4441    47
39.4541    29
39.4641    25
39.4741    32
39.4841    33
39.4941    35
39.5041    28
39.5141    49
39.5241    39
39.5341    37
39.5441    34
39.5541    43
39.5641    32
39.5741    26
39.5841    28
39.5941    32
39.6041    33
39.6141    29
39.6241    32
39.6341    39
39.6441    30
39.6541    34
39.6641    33
39.6741    22
39.6841    26
39.6941    40
39.7041    32
39.7141    41
39.7241    23
39.7341    41
39.7441    27
39.7541    32
39.7641    36
39.7741    27
39.7841    35
39.7941    20
39.8041    32
39.8141    26
39.8241    32
39.8341    38
39.8441    30
39.8541    34
39.8641    28
39.8741    35
39.8841    30
39.8941    48
39.9041    30
39.9141    32
39.9241    40
39.9341    24
39.9441    15
39.9541    33
39.9641    39
39.9741    34
39.9841    36
