Bruker Nano GmbH Berlin, Germany
Esprit 1.9

Date: 4/1/2021 4:49:10 PM
Real time: 17151
Life time: 15972
Pulse density: 104293


Detector type: XFlash 430
Window type: Custom type
Detector thickness: 0.45
Si dead layer:0.029

Calibration, lin.: 10
Calibration, abs.: -955.9
Mn FWHM: 137.05
Fano factor: 0.121
Channels: 4095

Energy Counts
-0.9559     0
-0.9459     0
-0.9359     0
-0.9259     0
-0.9159     0
-0.9059     0
-0.8959     0
-0.8859     0
-0.8759     0
-0.8659     0
-0.8559     0
-0.8459     0
-0.8359     0
-0.8259     0
-0.8159     0
-0.8059     0
-0.7959     0
-0.7859     0
-0.7759     0
-0.7659     0
-0.7559     0
-0.7459     0
-0.7359     0
-0.7259     0
-0.7159     0
-0.7059     0
-0.6959     0
-0.6859     0
-0.6759     0
-0.6659     0
-0.6559     0
-0.6459     0
-0.6359     0
-0.6259     0
-0.6159     0
-0.6059     0
-0.5959     0
-0.5859     0
-0.5759     0
-0.5659     0
-0.5559     0
-0.5459     0
-0.5359     0
-0.5259     0
-0.5159     0
-0.5059     0
-0.4959     0
-0.4859     0
-0.4759     0
-0.4659     0
-0.4559     0
-0.4459     0
-0.4359     0
-0.4259     0
-0.4159     0
-0.4059     0
-0.3959     0
-0.3859     0
-0.3759     0
-0.3659     0
-0.3559     0
-0.3459     0
-0.3359     0
-0.3259     0
-0.3159     0
-0.3059     0
-0.2959     0
-0.2859     0
-0.2759     0
-0.2659     0
-0.2559     0
-0.2459     0
-0.2359     0
-0.2259     0
-0.2159     0
-0.2059     0
-0.1959     0
-0.1859     0
-0.1759     0
-0.1659     0
-0.1559     0
-0.1459     0
-0.1359     0
-0.1259     1
-0.1159     3
-0.1059    10
-0.0959    49
-0.0859   166
-0.0759   610
-0.0659  1775
-0.0559  4576
-0.0459 10146
-0.0359 18869
-0.0259 30467
-0.0159 42005
-0.0059 49133
 0.0041 49258
 0.0141 42606
 0.0241 31235
 0.0341 19472
 0.0441 10723
 0.0541  4895
 0.0641  2040
 0.0741   729
 0.0841   210
 0.0941    52
 0.1041    12
 0.1141     8
 0.1241     8
 0.1341     9
 0.1441     3
 0.1541     1
 0.1641     1
 0.1741    15
 0.1841   130
 0.1941   284
 0.2041   233
 0.2141   232
 0.2241   222
 0.2341   235
 0.2441   238
 0.2541   225
 0.2641   202
 0.2741   239
 0.2841   230
 0.2941   224
 0.3041   220
 0.3141   224
 0.3241   230
 0.3341   205
 0.3441   212
 0.3541   215
 0.3641   203
 0.3741   207
 0.3841   204
 0.3941   199
 0.4041   193
 0.4141   217
 0.4241   203
 0.4341   219
 0.4441   200
 0.4541   205
 0.4641   200
 0.4741   181
 0.4841   182
 0.4941   185
 0.5041   183
 0.5141   197
 0.5241   206
 0.5341   205
 0.5441   201
 0.5541   193
 0.5641   178
 0.5741   184
 0.5841   194
 0.5941   179
 0.6041   186
 0.6141   194
 0.6241   187
 0.6341   190
 0.6441   171
 0.6541   171
 0.6641   184
 0.6741   170
 0.6841   169
 0.6941   175
 0.7041   167
 0.7141   169
 0.7241   168
 0.7341   167
 0.7441   167
 0.7541   164
 0.7641   166
 0.7741   168
 0.7841   163
 0.7941   166
 0.8041   160
 0.8141   151
 0.8241   155
 0.8341   157
 0.8441   159
 0.8541   172
 0.8641   172
 0.8741   160
 0.8841   151
 0.8941   150
 0.9041   158
 0.9141   175
 0.9241   157
 0.9341   160
 0.9441   153
 0.9541   157
 0.9641   158
 0.9741   161
 0.9841   140
 0.9941   162
 1.0041   155
 1.0141   159
 1.0241   159
 1.0341   171
 1.0441   147
 1.0541   138
 1.0641   145
 1.0741   155
 1.0841   145
 1.0941   134
 1.1041   155
 1.1141   159
 1.1241   142
 1.1341   122
 1.1441   159
 1.1541   158
 1.1641   133
 1.1741   141
 1.1841   138
 1.1941   160
 1.2041   149
 1.2141   137
 1.2241   132
 1.2341   122
 1.2441   134
 1.2541   149
 1.2641   147
 1.2741   156
 1.2841   145
 1.2941   133
 1.3041   139
 1.3141   135
 1.3241   126
 1.3341   121
 1.3441   116
 1.3541   139
 1.3641   146
 1.3741   131
 1.3841   134
 1.3941   122
 1.4041   131
 1.4141   130
 1.4241   151
 1.4341   158
 1.4441   147
 1.4541   126
 1.4641   134
 1.4741   144
 1.4841   138
 1.4941   131
 1.5041   144
 1.5141   149
 1.5241   131
 1.5341   105
 1.5441   115
 1.5541   148
 1.5641   145
 1.5741   136
 1.5841   149
 1.5941   131
 1.6041   137
 1.6141   138
 1.6241   134
 1.6341   138
 1.6441   149
 1.6541   184
 1.6641   211
 1.6741   228
 1.6841   315
 1.6941   394
 1.7041   504
 1.7141   580
 1.7241   630
 1.7341   633
 1.7441   661
 1.7541   577
 1.7641   546
 1.7741   487
 1.7841   378
 1.7941   326
 1.8041   251
 1.8141   227
 1.8241   192
 1.8341   178
 1.8441   146
 1.8541   156
 1.8641   151
 1.8741   159
 1.8841   141
 1.8941   147
 1.9041   130
 1.9141   125
 1.9241   122
 1.9341   129
 1.9441   144
 1.9541   152
 1.9641   153
 1.9741   142
 1.9841   138
 1.9941   176
 2.0041   184
 2.0141   177
 2.0241   182
 2.0341   156
 2.0441   182
 2.0541   146
 2.0641   154
 2.0741   149
 2.0841   123
 2.0941   118
 2.1041   110
 2.1141   123
 2.1241   136
 2.1341   148
 2.1441   124
 2.1541   149
 2.1641   122
 2.1741   117
 2.1841   112
 2.1941    95
 2.2041   133
 2.2141   116
 2.2241   129
 2.2341   128
 2.2441   126
 2.2541   119
 2.2641   125
 2.2741   107
 2.2841    88
 2.2941   118
 2.3041   122
 2.3141   112
 2.3241   115
 2.3341    98
 2.3441   101
 2.3541   109
 2.3641   129
 2.3741   100
 2.3841    97
 2.3941   110
 2.4041    98
 2.4141   122
 2.4241   121
 2.4341   105
 2.4441   120
 2.4541   117
 2.4641    86
 2.4741   114
 2.4841   111
 2.4941   104
 2.5041   107
 2.5141   112
 2.5241   105
 2.5341   116
 2.5441   105
 2.5541   107
 2.5641   106
 2.5741   102
 2.5841   102
 2.5941   115
 2.6041    95
 2.6141    93
 2.6241   103
 2.6341    90
 2.6441   102
 2.6541    97
 2.6641    98
 2.6741    91
 2.6841    90
 2.6941   107
 2.7041   107
 2.7141    70
 2.7241   100
 2.7341    95
 2.7441    99
 2.7541   127
 2.7641    97
 2.7741    91
 2.7841   114
 2.7941   107
 2.8041   113
 2.8141   110
 2.8241   109
 2.8341   100
 2.8441   113
 2.8541   118
 2.8641    90
 2.8741    88
 2.8841   105
 2.8941    98
 2.9041    81
 2.9141   100
 2.9241   102
 2.9341   100
 2.9441   102
 2.9541    93
 2.9641    96
 2.9741    87
 2.9841   100
 2.9941   100
 3.0041   104
 3.0141   103
 3.0241    84
 3.0341    89
 3.0441    86
 3.0541    80
 3.0641    75
 3.0741    84
 3.0841    99
 3.0941    84
 3.1041    85
 3.1141    75
 3.1241    99
 3.1341    73
 3.1441    82
 3.1541    70
 3.1641    88
 3.1741    62
 3.1841    88
 3.1941    74
 3.2041    83
 3.2141    90
 3.2241   108
 3.2341   104
 3.2441   142
 3.2541   120
 3.2641   166
 3.2741   159
 3.2841   161
 3.2941   180
 3.3041   205
 3.3141   176
 3.3241   166
 3.3341   143
 3.3441   179
 3.3541   144
 3.3641   140
 3.3741   124
 3.3841   128
 3.3941    97
 3.4041    91
 3.4141   103
 3.4241    91
 3.4341    79
 3.4441    89
 3.4541    78
 3.4641    87
 3.4741    76
 3.4841    77
 3.4941    94
 3.5041    85
 3.5141    84
 3.5241   111
 3.5341    98
 3.5441   123
 3.5541   137
 3.5641   151
 3.5741   192
 3.5841   225
 3.5941   277
 3.6041   346
 3.6141   491
 3.6241   606
 3.6341   740
 3.6441   902
 3.6541  1042
 3.6641  1134
 3.6741  1281
 3.6841  1316
 3.6941  1279
 3.7041  1221
 3.7141  1209
 3.7241  1030
 3.7341   891
 3.7441   714
 3.7541   589
 3.7641   458
 3.7741   332
 3.7841   244
 3.7941   186
 3.8041   147
 3.8141   134
 3.8241    93
 3.8341    82
 3.8441    71
 3.8541    68
 3.8641    73
 3.8741    73
 3.8841    79
 3.8941    86
 3.9041    98
 3.9141   110
 3.9241   108
 3.9341   127
 3.9441   150
 3.9541   173
 3.9641   194
 3.9741   232
 3.9841   247
 3.9941   253
 4.0041   243
 4.0141   258
 4.0241   256
 4.0341   239
 4.0441   214
 4.0541   195
 4.0641   195
 4.0741   139
 4.0841   111
 4.0941   103
 4.1041    96
 4.1141    74
 4.1241    76
 4.1341    61
 4.1441    62
 4.1541    62
 4.1641    65
 4.1741    66
 4.1841    68
 4.1941    71
 4.2041    63
 4.2141    59
 4.2241    64
 4.2341    70
 4.2441    72
 4.2541    63
 4.2641    46
 4.2741    62
 4.2841    60
 4.2941    61
 4.3041    64
 4.3141    58
 4.3241    56
 4.3341    75
 4.3441    76
 4.3541    70
 4.3641    71
 4.3741    84
 4.3841   115
 4.3941   160
 4.4041   165
 4.4141   202
 4.4241   282
 4.4341   292
 4.4441   367
 4.4541   448
 4.4641   570
 4.4741   623
 4.4841   602
 4.4941   666
 4.5041   663
 4.5141   684
 4.5241   671
 4.5341   590
 4.5441   533
 4.5541   456
 4.5641   403
 4.5741   336
 4.5841   282
 4.5941   235
 4.6041   181
 4.6141   158
 4.6241   118
 4.6341    98
 4.6441   103
 4.6541    87
 4.6641    90
 4.6741    88
 4.6841    85
 4.6941   101
 4.7041    73
 4.7141    79
 4.7241    70
 4.7341    66
 4.7441    79
 4.7541    70
 4.7641    81
 4.7741    80
 4.7841   100
 4.7941   119
 4.8041    84
 4.8141   111
 4.8241   120
 4.8341   131
 4.8441   149
 4.8541   155
 4.8641   166
 4.8741   149
 4.8841   160
 4.8941   204
 4.9041   200
 4.9141   218
 4.9241   200
 4.9341   204
 4.9441   195
 4.9541   206
 4.9641   195
 4.9741   170
 4.9841   173
 4.9941   142
 5.0041   127
 5.0141   122
 5.0241   134
 5.0341    94
 5.0441    95
 5.0541    79
 5.0641    83
 5.0741    78
 5.0841    77
 5.0941    73
 5.1041    82
 5.1141    87
 5.1241    93
 5.1341    74
 5.1441    85
 5.1541   101
 5.1641    77
 5.1741    73
 5.1841    87
 5.1941    79
 5.2041    84
 5.2141    91
 5.2241    74
 5.2341   101
 5.2441    92
 5.2541    84
 5.2641   101
 5.2741   113
 5.2841   122
 5.2941   141
 5.3041   182
 5.3141   220
 5.3241   235
 5.3341   294
 5.3441   375
 5.3541   420
 5.3641   447
 5.3741   562
 5.3841   585
 5.3941   618
 5.4041   607
 5.4141   608
 5.4241   590
 5.4341   588
 5.4441   542
 5.4541   475
 5.4641   412
 5.4741   372
 5.4841   313
 5.4941   248
 5.5041   218
 5.5141   189
 5.5241   161
 5.5341   123
 5.5441   126
 5.5541   111
 5.5641    99
 5.5741   105
 5.5841    93
 5.5941    85
 5.6041    94
 5.6141    90
 5.6241    85
 5.6341    78
 5.6441    78
 5.6541    84
 5.6641    93
 5.6741    86
 5.6841    83
 5.6941   102
 5.7041    93
 5.7141    82
 5.7241    99
 5.7341   132
 5.7441   110
 5.7541   114
 5.7641   147
 5.7741   167
 5.7841   163
 5.7941   205
 5.8041   254
 5.8141   295
 5.8241   330
 5.8341   389
 5.8441   441
 5.8541   500
 5.8641   541
 5.8741   568
 5.8841   578
 5.8941   588
 5.9041   634
 5.9141   601
 5.9241   614
 5.9341   598
 5.9441   504
 5.9541   421
 5.9641   413
 5.9741   366
 5.9841   283
 5.9941   274
 6.0041   228
 6.0141   184
 6.0241   185
 6.0341   160
 6.0441   154
 6.0541   129
 6.0641   129
 6.0741   135
 6.0841   132
 6.0941   129
 6.1041   141
 6.1141   144
 6.1241   173
 6.1341   170
 6.1441   166
 6.1541   180
 6.1641   194
 6.1741   229
 6.1841   239
 6.1941   335
 6.2041   437
 6.2141   562
 6.2241   775
 6.2341  1029
 6.2441  1569
 6.2541  2195
 6.2641  2926
 6.2741  4104
 6.2841  5515
 6.2941  7203
 6.3041  9232
 6.3141 11712
 6.3241 14733
 6.3341 17580
 6.3441 20527
 6.3541 23307
 6.3641 25920
 6.3741 28027
 6.3841 29484
 6.3941 30197
 6.4041 29898
 6.4141 29280
 6.4241 27028
 6.4341 25021
 6.4441 22452
 6.4541 19434
 6.4641 16379
 6.4741 13537
 6.4841 10718
 6.4941  8465
 6.5041  6298
 6.5141  4613
 6.5241  3454
 6.5341  2425
 6.5441  1701
 6.5541  1225
 6.5641   809
 6.5741   573
 6.5841   402
 6.5941   375
 6.6041   272
 6.6141   201
 6.6241   196
 6.6341   167
 6.6441   179
 6.6541   155
 6.6641   145
 6.6741   153
 6.6841   179
 6.6941   177
 6.7041   144
 6.7141   181
 6.7241   173
 6.7341   133
 6.7441   170
 6.7541   184
 6.7641   156
 6.7741   164
 6.7841   170
 6.7941   214
 6.8041   229
 6.8141   216
 6.8241   210
 6.8341   242
 6.8441   233
 6.8541   305
 6.8641   324
 6.8741   387
 6.8841   435
 6.8941   520
 6.9041   643
 6.9141   813
 6.9241   967
 6.9341  1192
 6.9441  1455
 6.9541  1878
 6.9641  2254
 6.9741  2619
 6.9841  3080
 6.9941  3469
 7.0041  4119
 7.0141  4425
 7.0241  4792
 7.0341  5010
 7.0441  5252
 7.0541  5242
 7.0641  5114
 7.0741  4980
 7.0841  4660
 7.0941  4320
 7.1041  3762
 7.1141  3339
 7.1241  2803
 7.1341  2351
 7.1441  1988
 7.1541  1614
 7.1641  1264
 7.1741   979
 7.1841   781
 7.1941   561
 7.2041   438
 7.2141   352
 7.2241   300
 7.2341   225
 7.2441   225
 7.2541   205
 7.2641   184
 7.2741   184
 7.2841   175
 7.2941   194
 7.3041   233
 7.3141   251
 7.3241   258
 7.3341   308
 7.3441   364
 7.3541   416
 7.3641   458
 7.3741   556
 7.3841   638
 7.3941   713
 7.4041   812
 7.4141   985
 7.4241  1022
 7.4341  1139
 7.4441  1145
 7.4541  1262
 7.4641  1226
 7.4741  1210
 7.4841  1227
 7.4941  1182
 7.5041  1041
 7.5141   902
 7.5241   867
 7.5341   763
 7.5441   705
 7.5541   586
 7.5641   509
 7.5741   450
 7.5841   337
 7.5941   328
 7.6041   265
 7.6141   242
 7.6241   240
 7.6341   225
 7.6441   209
 7.6541   168
 7.6641   180
 7.6741   173
 7.6841   190
 7.6941   174
 7.7041   192
 7.7141   174
 7.7241   160
 7.7341   178
 7.7441   170
 7.7541   175
 7.7641   206
 7.7741   212
 7.7841   209
 7.7941   193
 7.8041   246
 7.8141   226
 7.8241   213
 7.8341   235
 7.8441   220
 7.8541   244
 7.8641   225
 7.8741   219
 7.8841   258
 7.8941   264
 7.9041   291
 7.9141   287
 7.9241   302
 7.9341   308
 7.9441   320
 7.9541   346
 7.9641   366
 7.9741   411
 7.9841   420
 7.9941   455
 8.0041   518
 8.0141   540
 8.0241   582
 8.0341   634
 8.0441   693
 8.0541   706
 8.0641   744
 8.0741   779
 8.0841   779
 8.0941   875
 8.1041   982
 8.1141   989
 8.1241   952
 8.1341  1000
 8.1441  1082
 8.1541  1099
 8.1641  1129
 8.1741  1164
 8.1841  1116
 8.1941  1252
 8.2041  1179
 8.2141  1274
 8.2241  1323
 8.2341  1347
 8.2441  1334
 8.2541  1415
 8.2641  1451
 8.2741  1583
 8.2841  1619
 8.2941  1757
 8.3041  1729
 8.3141  1953
 8.3241  2055
 8.3341  2136
 8.3441  2331
 8.3541  2468
 8.3641  2547
 8.3741  2632
 8.3841  2568
 8.3941  2580
 8.4041  2520
 8.4141  2456
 8.4241  2312
 8.4341  2132
 8.4441  1889
 8.4541  1731
 8.4641  1541
 8.4741  1360
 8.4841  1142
 8.4941   991
 8.5041   819
 8.5141   707
 8.5241   617
 8.5341   528
 8.5441   433
 8.5541   403
 8.5641   400
 8.5741   372
 8.5841   341
 8.5941   341
 8.6041   332
 8.6141   345
 8.6241   308
 8.6341   321
 8.6441   324
 8.6541   335
 8.6641   296
 8.6741   292
 8.6841   321
 8.6941   308
 8.7041   279
 8.7141   272
 8.7241   266
 8.7341   266
 8.7441   268
 8.7541   284
 8.7641   256
 8.7741   260
 8.7841   221
 8.7941   245
 8.8041   224
 8.8141   237
 8.8241   244
 8.8341   236
 8.8441   245
 8.8541   250
 8.8641   216
 8.8741   241
 8.8841   244
 8.8941   260
 8.9041   231
 8.9141   241
 8.9241   239
 8.9341   242
 8.9441   269
 8.9541   275
 8.9641   270
 8.9741   271
 8.9841   292
 8.9941   292
 9.0041   276
 9.0141   277
 9.0241   265
 9.0341   282
 9.0441   289
 9.0541   315
 9.0641   311
 9.0741   312
 9.0841   337
 9.0941   328
 9.1041   325
 9.1141   374
 9.1241   407
 9.1341   408
 9.1441   425
 9.1541   467
 9.1641   461
 9.1741   496
 9.1841   564
 9.1941   563
 9.2041   550
 9.2141   573
 9.2241   598
 9.2341   631
 9.2441   655
 9.2541   698
 9.2641   756
 9.2741   770
 9.2841   779
 9.2941   788
 9.3041   806
 9.3141   895
 9.3241   929
 9.3341   964
 9.3441   987
 9.3541   958
 9.3641  1033
 9.3741  1054
 9.3841  1046
 9.3941  1083
 9.4041  1048
 9.4141  1046
 9.4241  1062
 9.4341  1103
 9.4441  1088
 9.4541  1098
 9.4641  1125
 9.4741  1109
 9.4841  1179
 9.4941  1163
 9.5041  1237
 9.5141  1266
 9.5241  1309
 9.5341  1270
 9.5441  1392
 9.5541  1477
 9.5641  1552
 9.5741  1609
 9.5841  1670
 9.5941  1854
 9.6041  1909
 9.6141  1977
 9.6241  2067
 9.6341  2137
 9.6441  2238
 9.6541  2219
 9.6641  2273
 9.6741  2299
 9.6841  2283
 9.6941  2212
 9.7041  2110
 9.7141  2013
 9.7241  1814
 9.7341  1793
 9.7441  1662
 9.7541  1514
 9.7641  1400
 9.7741  1314
 9.7841  1228
 9.7941  1142
 9.8041  1067
 9.8141  1024
 9.8241   940
 9.8341   970
 9.8441   908
 9.8541   924
 9.8641   947
 9.8741   878
 9.8841   926
 9.8941   937
 9.9041   922
 9.9141   954
 9.9241  1013
 9.9341  1011
 9.9441  1019
 9.9541   965
 9.9641   985
 9.9741  1007
 9.9841   951
 9.9941   866
10.0041   863
10.0141   819
10.0241   738
10.0341   640
10.0441   561
10.0541   526
10.0641   489
10.0741   408
10.0841   399
10.0941   363
10.1041   337
10.1141   299
10.1241   253
10.1341   251
10.1441   230
10.1541   218
10.1641   207
10.1741   172
10.1841   188
10.1941   199
10.2041   187
10.2141   167
10.2241   170
10.2341   162
10.2441   159
10.2541   147
10.2641   145
10.2741   142
10.2841   142
10.2941   132
10.3041   132
10.3141   129
10.3241   122
10.3341   112
10.3441   125
10.3541   130
10.3641   127
10.3741   136
10.3841   127
10.3941   141
10.4041   139
10.4141   132
10.4241   134
10.4341   129
10.4441   133
10.4541   138
10.4641   150
10.4741   137
10.4841   142
10.4941   147
10.5041   145
10.5141   150
10.5241   126
10.5341   144
10.5441   151
10.5541   139
10.5641   136
10.5741   155
10.5841   145
10.5941   146
10.6041   146
10.6141   143
10.6241   135
10.6341   151
10.6441   155
10.6541   144
10.6641   149
10.6741   138
10.6841   154
10.6941   158
10.7041   153
10.7141   165
10.7241   177
10.7341   169
10.7441   183
10.7541   186
10.7641   191
10.7741   179
10.7841   191
10.7941   194
10.8041   202
10.8141   203
10.8241   204
10.8341   207
10.8441   224
10.8541   235
10.8641   201
10.8741   181
10.8841   227
10.8941   240
10.9041   244
10.9141   213
10.9241   209
10.9341   214
10.9441   224
10.9541   237
10.9641   228
10.9741   221
10.9841   220
10.9941   224
11.0041   207
11.0141   208
11.0241   199
11.0341   198
11.0441   200
11.0541   209
11.0641   196
11.0741   197
11.0841   204
11.0941   192
11.1041   192
11.1141   200
11.1241   224
11.1341   220
11.1441   199
11.1541   188
11.1641   200
11.1741   236
11.1841   233
11.1941   240
11.2041   276
11.2141   304
11.2241   286
11.2341   284
11.2441   340
11.2541   336
11.2641   317
11.2741   332
11.2841   308
11.2941   326
11.3041   325
11.3141   309
11.3241   310
11.3341   292
11.3441   276
11.3541   264
11.3641   259
11.3741   235
11.3841   222
11.3941   208
11.4041   198
11.4141   186
11.4241   206
11.4341   199
11.4441   171
11.4541   146
11.4641   155
11.4741   154
11.4841   158
11.4941   155
11.5041   149
11.5141   149
11.5241   163
11.5341   159
11.5441   149
11.5541   174
11.5641   174
11.5741   173
11.5841   178
11.5941   176
11.6041   172
11.6141   184
11.6241   187
11.6341   172
11.6441   177
11.6541   182
11.6641   171
11.6741   159
11.6841   159
11.6941   161
11.7041   158
11.7141   159
11.7241   149
11.7341   139
11.7441   130
11.7541   133
11.7641   146
11.7741   148
11.7841   136
11.7941   137
11.8041   136
11.8141   131
11.8241   112
11.8341   119
11.8441   127
11.8541   121
11.8641   119
11.8741   124
11.8841   120
11.8941   116
11.9041   110
11.9141   108
11.9241   112
11.9341   114
11.9441   117
11.9541   119
11.9641   123
11.9741   125
11.9841   120
11.9941   128
12.0041   106
12.0141   104
12.0241   115
12.0341   141
12.0441   147
12.0541   136
12.0641   123
12.0741   142
12.0841   131
12.0941   124
12.1041   123
12.1141   118
12.1241   123
12.1341   128
12.1441   139
12.1541   133
12.1641   113
12.1741   108
12.1841   117
12.1941   116
12.2041   115
12.2141   115
12.2241   113
12.2341   118
12.2441   113
12.2541   123
12.2641   120
12.2741   118
12.2841   115
12.2941   114
12.3041   114
12.3141   113
12.3241   107
12.3341   108
12.3441   122
12.3541   117
12.3641   124
12.3741   122
12.3841   118
12.3941   133
12.4041   136
12.4141   113
12.4241   115
12.4341   128
12.4441   128
12.4541   131
12.4641   142
12.4741   128
12.4841   121
12.4941   120
12.5041   119
12.5141   129
12.5241   125
12.5341   121
12.5441   129
12.5541   137
12.5641   130
12.5741   127
12.5841   130
12.5941   138
12.6041   128
12.6141   129
12.6241   124
12.6341   121
12.6441   127
12.6541   130
12.6641   130
12.6741   128
12.6841   125
12.6941   128
12.7041   133
12.7141   132
12.7241   131
12.7341   135
12.7441   136
12.7541   133
12.7641   129
12.7741   125
12.7841   127
12.7941   134
12.8041   141
12.8141   145
12.8241   145
12.8341   143
12.8441   136
12.8541   128
12.8641   126
12.8741   130
12.8841   131
12.8941   131
12.9041   135
12.9141   141
12.9241   144
12.9341   140
12.9441   144
12.9541   159
12.9641   162
12.9741   145
12.9841   134
12.9941   137
13.0041   143
13.0141   143
13.0241   145
13.0341   135
13.0441   127
13.0541   135
13.0641   138
13.0741   142
13.0841   133
13.0941   132
13.1041   154
13.1141   151
13.1241   143
13.1341   145
13.1441   157
13.1541   159
13.1641   160
13.1741   157
13.1841   163
13.1941   171
13.2041   161
13.2141   161
13.2241   171
13.2341   162
13.2441   149
13.2541   167
13.2641   179
13.2741   182
13.2841   170
13.2941   162
13.3041   173
13.3141   185
13.3241   198
13.3341   207
13.3441   208
13.3541   211
13.3641   218
13.3741   216
13.3841   214
13.3941   213
13.4041   204
13.4141   194
13.4241   200
13.4341   213
13.4441   215
13.4541   209
13.4641   202
13.4741   196
13.4841   191
13.4941   185
13.5041   184
13.5141   189
13.5241   190
13.5341   186
13.5441   175
13.5541   160
13.5641   155
13.5741   160
13.5841   162
13.5941   160
13.6041   161
13.6141   161
13.6241   166
13.6341   175
13.6441   177
13.6541   190
13.6641   187
13.6741   174
13.6841   173
13.6941   181
13.7041   179
13.7141   157
13.7241   158
13.7341   163
13.7441   170
13.7541   175
13.7641   168
13.7741   166
13.7841   158
13.7941   160
13.8041   167
13.8141   172
13.8241   180
13.8341   168
13.8441   174
13.8541   184
13.8641   193
13.8741   197
13.8841   174
13.8941   166
13.9041   180
13.9141   194
13.9241   206
13.9341   216
13.9441   219
13.9541   220
13.9641   224
13.9741   244
13.9841   268
13.9941   280
14.0041   293
14.0141   311
14.0241   332
14.0341   358
14.0441   379
14.0541   395
14.0641   416
14.0741   441
14.0841   458
14.0941   467
14.1041   495
14.1141   535
14.1241   553
14.1341   543
14.1441   519
14.1541   511
14.1641   522
14.1741   518
14.1841   496
14.1941   472
14.2041   448
14.2141   427
14.2241   407
14.2341   391
14.2441   379
14.2541   357
14.2641   330
14.2741   312
14.2841   298
14.2941   294
14.3041   254
14.3141   239
14.3241   247
14.3341   230
14.3441   243
14.3541   222
14.3641   208
14.3741   213
14.3841   206
14.3941   197
14.4041   198
14.4141   195
14.4241   193
14.4341   197
14.4441   191
14.4541   201
14.4641   195
14.4741   179
14.4841   197
14.4941   197
14.5041   183
14.5141   194
14.5241   194
14.5341   219
14.5441   230
14.5541   209
14.5641   221
14.5741   217
14.5841   199
14.5941   201
14.6041   207
14.6141   204
14.6241   200
14.6341   222
14.6441   223
14.6541   198
14.6641   203
14.6741   206
14.6841   204
14.6941   210
14.7041   211
14.7141   213
14.7241   205
14.7341   206
14.7441   226
14.7541   211
14.7641   195
14.7741   197
14.7841   200
14.7941   230
14.8041   241
14.8141   225
14.8241   216
14.8341   212
14.8441   227
14.8541   240
14.8641   238
14.8741   235
14.8841   259
14.8941   267
14.9041   256
14.9141   268
14.9241   268
14.9341   262
14.9441   258
14.9541   240
14.9641   251
14.9741   261
14.9841   245
14.9941   243
15.0041   252
15.0141   252
15.0241   225
15.0341   245
15.0441   256
15.0541   232
15.0641   238
15.0741   255
15.0841   237
15.0941   237
15.1041   241
15.1141   219
15.1241   229
15.1341   246
15.1441   234
15.1541   223
15.1641   232
15.1741   237
15.1841   231
15.1941   236
15.2041   235
15.2141   248
15.2241   237
15.2341   237
15.2441   241
15.2541   256
15.2641   254
15.2741   248
15.2841   265
15.2941   259
15.3041   252
15.3141   259
15.3241   266
15.3341   242
15.3441   237
15.3541   255
15.3641   272
15.3741   261
15.3841   241
15.3941   234
15.4041   235
15.4141   239
15.4241   249
15.4341   236
15.4441   243
15.4541   264
15.4641   261
15.4741   249
15.4841   251
15.4941   250
15.5041   257
15.5141   271
15.5241   255
15.5341   253
15.5441   267
15.5541   263
15.5641   268
15.5741   272
15.5841   299
15.5941   323
15.6041   338
15.6141   340
15.6241   350
15.6341   312
15.6441   339
15.6541   358
15.6641   366
15.6741   404
15.6841   407
15.6941   407
15.7041   399
15.7141   420
15.7241   420
15.7341   439
15.7441   463
15.7541   434
15.7641   427
15.7741   422
15.7841   447
15.7941   424
15.8041   419
15.8141   460
15.8241   446
15.8341   427
15.8441   431
15.8541   404
15.8641   366
15.8741   366
15.8841   367
15.8941   358
15.9041   350
15.9141   325
15.9241   320
15.9341   294
15.9441   312
15.9541   316
15.9641   314
15.9741   317
15.9841   305
15.9941   319
16.0041   304
16.0141   290
16.0241   300
16.0341   296
16.0441   288
16.0541   291
16.0641   291
16.0741   291
16.0841   291
16.0941   298
16.1041   300
16.1141   297
16.1241   294
16.1341   303
16.1441   317
16.1541   297
16.1641   275
16.1741   279
16.1841   292
16.1941   284
16.2041   272
16.2141   277
16.2241   310
16.2341   311
16.2441   284
16.2541   309
16.2641   305
16.2741   297
16.2841   307
16.2941   298
16.3041   298
16.3141   296
16.3241   267
16.3341   279
16.3441   302
16.3541   318
16.3641   284
16.3741   293
16.3841   299
16.3941   307
16.4041   296
16.4141   298
16.4241   309
16.4341   320
16.4441   321
16.4541   320
16.4641   323
16.4741   319
16.4841   289
16.4941   278
16.5041   336
16.5141   331
16.5241   315
16.5341   296
16.5441   290
16.5541   294
16.5641   315
16.5741   336
16.5841   341
16.5941   358
16.6041   321
16.6141   307
16.6241   303
16.6341   304
16.6441   322
16.6541   337
16.6641   317
16.6741   307
16.6841   345
16.6941   303
16.7041   338
16.7141   328
16.7241   330
16.7341   358
16.7441   348
16.7541   341
16.7641   351
16.7741   332
16.7841   320
16.7941   309
16.8041   318
16.8141   319
16.8241   332
16.8341   336
16.8441   344
16.8541   342
16.8641   334
16.8741   306
16.8841   321
16.8941   323
16.9041   320
16.9141   329
16.9241   344
16.9341   351
16.9441   351
16.9541   333
16.9641   348
16.9741   347
16.9841   354
16.9941   351
17.0041   333
17.0141   328
17.0241   314
17.0341   339
17.0441   361
17.0541   335
17.0641   339
17.0741   334
17.0841   335
17.0941   322
17.1041   304
17.1141   315
17.1241   351
17.1341   338
17.1441   310
17.1541   342
17.1641   336
17.1741   337
17.1841   367
17.1941   369
17.2041   350
17.2141   379
17.2241   394
17.2341   385
17.2441   369
17.2541   370
17.2641   411
17.2741   394
17.2841   386
17.2941   387
17.3041   382
17.3141   398
17.3241   427
17.3341   430
17.3441   410
17.3541   413
17.3641   415
17.3741   414
17.3841   409
17.3941   415
17.4041   418
17.4141   446
17.4241   449
17.4341   422
17.4441   439
17.4541   455
17.4641   443
17.4741   469
17.4841   463
17.4941   497
17.5041   433
17.5141   439
17.5241   432
17.5341   411
17.5441   429
17.5541   456
17.5641   446
17.5741   444
17.5841   445
17.5941   413
17.6041   413
17.6141   398
17.6241   413
17.6341   433
17.6441   416
17.6541   409
17.6641   413
17.6741   429
17.6841   441
17.6941   398
17.7041   371
17.7141   396
17.7241   413
17.7341   427
17.7441   393
17.7541   375
17.7641   387
17.7741   369
17.7841   394
17.7941   413
17.8041   386
17.8141   386
17.8241   382
17.8341   392
17.8441   375
17.8541   362
17.8641   376
17.8741   376
17.8841   373
17.8941   388
17.9041   396
17.9141   388
17.9241   387
17.9341   409
17.9441   415
17.9541   376
17.9641   385
17.9741   398
17.9841   403
17.9941   419
18.0041   381
18.0141   377
18.0241   390
18.0341   409
18.0441   398
18.0541   372
18.0641   415
18.0741   388
18.0841   408
18.0941   377
18.1041   402
18.1141   400
18.1241   377
18.1341   380
18.1441   384
18.1541   378
18.1641   396
18.1741   406
18.1841   412
18.1941   419
18.2041   399
18.2141   399
18.2241   370
18.2341   352
18.2441   396
18.2541   432
18.2641   401
18.2741   390
18.2841   395
18.2941   401
18.3041   430
18.3141   419
18.3241   426
18.3341   421
18.3441   399
18.3541   403
18.3641   393
18.3741   404
18.3841   403
18.3941   429
18.4041   403
18.4141   416
18.4241   411
18.4341   445
18.4441   407
18.4541   419
18.4641   428
18.4741   429
18.4841   390
18.4941   411
18.5041   410
18.5141   424
18.5241   430
18.5341   428
18.5441   405
18.5541   433
18.5641   437
18.5741   420
18.5841   424
18.5941   439
18.6041   445
18.6141   423
18.6241   410
18.6341   404
18.6441   409
18.6541   417
18.6641   409
18.6741   397
18.6841   405
18.6941   403
18.7041   412
18.7141   430
18.7241   452
18.7341   446
18.7441   421
18.7541   415
18.7641   426
18.7741   380
18.7841   390
18.7941   408
18.8041   410
18.8141   407
18.8241   407
18.8341   438
18.8441   436
18.8541   415
18.8641   415
18.8741   435
18.8841   405
18.8941   434
18.9041   420
18.9141   396
18.9241   397
18.9341   409
18.9441   452
18.9541   439
18.9641   428
18.9741   439
18.9841   445
18.9941   424
19.0041   435
19.0141   409
19.0241   447
19.0341   466
19.0441   424
19.0541   414
19.0641   446
19.0741   428
19.0841   411
19.0941   414
19.1041   411
19.1141   408
19.1241   441
19.1341   439
19.1441   421
19.1541   439
19.1641   436
19.1741   431
19.1841   454
19.1941   444
19.2041   423
19.2141   421
19.2241   443
19.2341   429
19.2441   444
19.2541   408
19.2641   418
19.2741   448
19.2841   434
19.2941   448
19.3041   461
19.3141   434
19.3241   432
19.3341   436
19.3441   453
19.3541   427
19.3641   440
19.3741   433
19.3841   464
19.3941   429
19.4041   448
19.4141   427
19.4241   425
19.4341   432
19.4441   420
19.4541   429
19.4641   443
19.4741   446
19.4841   445
19.4941   456
19.5041   442
19.5141   405
19.5241   438
19.5341   446
19.5441   420
19.5541   467
19.5641   456
19.5741   465
19.5841   453
19.5941   444
19.6041   494
19.6141   437
19.6241   461
19.6341   459
19.6441   472
19.6541   469
19.6641   459
19.6741   466
19.6841   455
19.6941   464
19.7041   457
19.7141   469
19.7241   472
19.7341   462
19.7441   477
19.7541   446
19.7641   438
19.7741   467
19.7841   449
19.7941   470
19.8041   457
19.8141   451
19.8241   472
19.8341   445
19.8441   463
19.8541   456
19.8641   428
19.8741   465
19.8841   450
19.8941   419
19.9041   443
19.9141   446
19.9241   449
19.9341   476
19.9441   436
19.9541   446
19.9641   473
19.9741   457
19.9841   478
19.9941   435
20.0041   434
20.0141   455
20.0241   432
20.0341   425
20.0441   503
20.0541   426
20.0641   451
20.0741   469
20.0841   451
20.0941   454
20.1041   438
20.1141   471
20.1241   447
20.1341   477
20.1441   448
20.1541   436
20.1641   442
20.1741   482
20.1841   441
20.1941   443
20.2041   443
20.2141   438
20.2241   432
20.2341   440
20.2441   446
20.2541   441
20.2641   418
20.2741   437
20.2841   421
20.2941   475
20.3041   459
20.3141   466
20.3241   444
20.3341   455
20.3441   404
20.3541   469
20.3641   472
20.3741   468
20.3841   442
20.3941   479
20.4041   474
20.4141   469
20.4241   475
20.4341   443
20.4441   431
20.4541   454
20.4641   464
20.4741   462
20.4841   459
20.4941   449
20.5041   443
20.5141   456
20.5241   445
20.5341   483
20.5441   420
20.5541   474
20.5641   462
20.5741   447
20.5841   461
20.5941   468
20.6041   472
20.6141   505
20.6241   490
20.6341   493
20.6441   460
20.6541   457
20.6641   445
20.6741   467
20.6841   466
20.6941   453
20.7041   456
20.7141   457
20.7241   464
20.7341   459
20.7441   487
20.7541   468
20.7641   453
20.7741   479
20.7841   465
20.7941   429
20.8041   450
20.8141   450
20.8241   419
20.8341   487
20.8441   444
20.8541   462
20.8641   476
20.8741   500
20.8841   517
20.8941   503
20.9041   529
20.9141   549
20.9241   531
20.9341   526
20.9441   585
20.9541   535
20.9641   574
20.9741   559
20.9841   538
20.9941   579
21.0041   558
21.0141   615
21.0241   632
21.0341   606
21.0441   632
21.0541   620
21.0641   633
21.0741   643
21.0841   634
21.0941   665
21.1041   650
21.1141   639
21.1241   679
21.1341   642
21.1441   676
21.1541   642
21.1641   659
21.1741   641
21.1841   613
21.1941   652
21.2041   654
21.2141   610
21.2241   670
21.2341   623
21.2441   590
21.2541   587
21.2641   563
21.2741   513
21.2841   558
21.2941   525
21.3041   566
21.3141   529
21.3241   537
21.3341   521
21.3441   470
21.3541   497
21.3641   492
21.3741   472
21.3841   483
21.3941   440
21.4041   452
21.4141   487
21.4241   459
21.4341   445
21.4441   486
21.4541   456
21.4641   480
21.4741   458
21.4841   471
21.4941   492
21.5041   492
21.5141   450
21.5241   444
21.5341   456
21.5441   473
21.5541   469
21.5641   467
21.5741   476
21.5841   413
21.5941   456
21.6041   455
21.6141   432
21.6241   454
21.6341   470
21.6441   472
21.6541   470
21.6641   507
21.6741   450
21.6841   461
21.6941   460
21.7041   420
21.7141   461
21.7241   434
21.7341   473
21.7441   487
21.7541   435
21.7641   448
21.7741   448
21.7841   454
21.7941   463
21.8041   437
21.8141   471
21.8241   434
21.8341   453
21.8441   456
21.8541   439
21.8641   426
21.8741   461
21.8841   445
21.8941   432
21.9041   461
21.9141   449
21.9241   439
21.9341   472
21.9441   465
21.9541   474
21.9641   469
21.9741   461
21.9841   451
21.9941   496
22.0041   434
22.0141   472
22.0241   459
22.0341   424
22.0441   464
22.0541   471
22.0641   434
22.0741   472
22.0841   451
22.0941   404
22.1041   454
22.1141   463
22.1241   486
22.1341   438
22.1441   461
22.1541   446
22.1641   455
22.1741   425
22.1841   458
22.1941   430
22.2041   449
22.2141   461
22.2241   448
22.2341   459
22.2441   462
22.2541   416
22.2641   446
22.2741   457
22.2841   444
22.2941   449
22.3041   456
22.3141   448
22.3241   439
22.3341   494
22.3441   493
22.3541   456
22.3641   441
22.3741   412
22.3841   471
22.3941   469
22.4041   451
22.4141   475
22.4241   462
22.4341   467
22.4441   431
22.4541   459
22.4641   440
22.4741   444
22.4841   423
22.4941   412
22.5041   409
22.5141   464
22.5241   442
22.5341   442
22.5441   414
22.5541   425
22.5641   451
22.5741   487
22.5841   445
22.5941   468
22.6041   481
22.6141   446
22.6241   424
22.6341   459
22.6441   467
22.6541   446
22.6641   440
22.6741   431
22.6841   408
22.6941   444
22.7041   454
22.7141   432
22.7241   423
22.7341   447
22.7441   454
22.7541   456
22.7641   443
22.7741   451
22.7841   424
22.7941   434
22.8041   442
22.8141   459
22.8241   386
22.8341   422
22.8441   464
22.8541   430
22.8641   464
22.8741   480
22.8841   468
22.8941   443
22.9041   460
22.9141   430
22.9241   448
22.9341   427
22.9441   424
22.9541   450
22.9641   443
22.9741   471
22.9841   425
22.9941   415
23.0041   415
23.0141   417
23.0241   422
23.0341   456
23.0441   430
23.0541   440
23.0641   443
23.0741   470
23.0841   430
23.0941   431
23.1041   457
23.1141   421
23.1241   415
23.1341   435
23.1441   416
23.1541   438
23.1641   423
23.1741   441
23.1841   426
23.1941   426
23.2041   457
23.2141   419
23.2241   456
23.2341   403
23.2441   435
23.2541   451
23.2641   404
23.2741   449
23.2841   429
23.2941   445
23.3041   404
23.3141   468
23.3241   442
23.3341   427
23.3441   459
23.3541   452
23.3641   425
23.3741   410
23.3841   426
23.3941   434
23.4041   447
23.4141   441
23.4241   401
23.4341   404
23.4441   405
23.4541   413
23.4641   431
23.4741   433
23.4841   408
23.4941   421
23.5041   434
23.5141   434
23.5241   439
23.5341   428
23.5441   427
23.5541   411
23.5641   436
23.5741   410
23.5841   410
23.5941   424
23.6041   439
23.6141   390
23.6241   395
23.6341   438
23.6441   423
23.6541   429
23.6641   431
23.6741   419
23.6841   401
23.6941   441
23.7041   400
23.7141   440
23.7241   465
23.7341   426
23.7441   450
23.7541   439
23.7641   436
23.7741   464
23.7841   432
23.7941   456
23.8041   446
23.8141   475
23.8241   461
23.8341   432
23.8441   455
23.8541   453
23.8641   454
23.8741   448
23.8841   444
23.8941   469
23.9041   452
23.9141   443
23.9241   425
23.9341   475
23.9441   425
23.9541   445
23.9641   429
23.9741   433
23.9841   439
23.9941   459
24.0041   416
24.0141   413
24.0241   383
24.0341   425
24.0441   415
24.0541   410
24.0641   413
24.0741   423
24.0841   410
24.0941   381
24.1041   408
24.1141   386
24.1241   450
24.1341   419
24.1441   416
24.1541   403
24.1641   408
24.1741   408
24.1841   430
24.1941   407
24.2041   368
24.2141   411
24.2241   441
24.2341   391
24.2441   425
24.2541   400
24.2641   443
24.2741   441
24.2841   399
24.2941   394
24.3041   403
24.3141   416
24.3241   388
24.3341   437
24.3441   419
24.3541   404
24.3641   378
24.3741   420
24.3841   405
24.3941   423
24.4041   384
24.4141   406
24.4241   422
24.4341   365
24.4441   393
24.4541   417
24.4641   428
24.4741   427
24.4841   402
24.4941   413
24.5041   418
24.5141   374
24.5241   459
24.5341   352
24.5441   397
24.5541   388
24.5641   380
24.5741   415
24.5841   421
24.5941   402
24.6041   402
24.6141   390
24.6241   377
24.6341   347
24.6441   428
24.6541   369
24.6641   396
24.6741   391
24.6841   343
24.6941   378
24.7041   390
24.7141   382
24.7241   407
24.7341   354
24.7441   379
24.7541   396
24.7641   402
24.7741   436
24.7841   410
24.7941   403
24.8041   383
24.8141   397
24.8241   369
24.8341   398
24.8441   400
24.8541   358
24.8641   407
24.8741   415
24.8841   417
24.8941   353
24.9041   429
24.9141   386
24.9241   377
24.9341   389
24.9441   400
24.9541   425
24.9641   370
24.9741   409
24.9841   386
24.9941   401
25.0041   402
25.0141   404
25.0241   405
25.0341   365
25.0441   366
25.0541   383
25.0641   392
25.0741   375
25.0841   373
25.0941   411
25.1041   405
25.1141   377
25.1241   403
25.1341   375
25.1441   419
25.1541   391
25.1641   397
25.1741   412
25.1841   392
25.1941   413
25.2041   389
25.2141   396
25.2241   404
25.2341   400
25.2441   401
25.2541   405
25.2641   372
25.2741   380
25.2841   374
25.2941   361
25.3041   382
25.3141   396
25.3241   368
25.3341   379
25.3441   367
25.3541   402
25.3641   416
25.3741   382
25.3841   380
25.3941   366
25.4041   350
25.4141   399
25.4241   407
25.4341   364
25.4441   333
25.4541   326
25.4641   373
25.4741   335
25.4841   352
25.4941   375
25.5041   376
25.5141   363
25.5241   365
25.5341   357
25.5441   380
25.5541   356
25.5641   374
25.5741   362
25.5841   360
25.5941   340
25.6041   358
25.6141   367
25.6241   367
25.6341   407
25.6441   323
25.6541   349
25.6641   347
25.6741   385
25.6841   341
25.6941   358
25.7041   356
25.7141   368
25.7241   344
25.7341   373
25.7441   354
25.7541   348
25.7641   361
25.7741   338
25.7841   371
25.7941   366
25.8041   367
25.8141   374
25.8241   351
25.8341   339
25.8441   371
25.8541   379
25.8641   377
25.8741   333
25.8841   349
25.8941   368
25.9041   355
25.9141   360
25.9241   375
25.9341   364
25.9441   367
25.9541   358
25.9641   377
25.9741   346
25.9841   366
25.9941   351
26.0041   356
26.0141   328
26.0241   303
26.0341   334
26.0441   371
26.0541   350
26.0641   369
26.0741   366
26.0841   322
26.0941   353
26.1041   362
26.1141   345
26.1241   334
26.1341   347
26.1441   316
26.1541   361
26.1641   348
26.1741   338
26.1841   351
26.1941   341
26.2041   361
26.2141   331
26.2241   358
26.2341   374
26.2441   354
26.2541   355
26.2641   369
26.2741   334
26.2841   340
26.2941   369
26.3041   357
26.3141   343
26.3241   312
26.3341   362
26.3441   352
26.3541   320
26.3641   360
26.3741   350
26.3841   380
26.3941   332
26.4041   351
26.4141   326
26.4241   324
26.4341   354
26.4441   326
26.4541   368
26.4641   349
26.4741   349
26.4841   329
26.4941   334
26.5041   343
26.5141   342
26.5241   337
26.5341   327
26.5441   322
26.5541   348
26.5641   328
26.5741   311
26.5841   344
26.5941   314
26.6041   317
26.6141   355
26.6241   337
26.6341   343
26.6441   368
26.6541   315
26.6641   358
26.6741   338
26.6841   316
26.6941   333
26.7041   336
26.7141   349
26.7241   307
26.7341   317
26.7441   298
26.7541   327
26.7641   315
26.7741   330
26.7841   301
26.7941   315
26.8041   320
26.8141   327
26.8241   300
26.8341   319
26.8441   314
26.8541   342
26.8641   345
26.8741   295
26.8841   276
26.8941   294
26.9041   286
26.9141   318
26.9241   296
26.9341   337
26.9441   314
26.9541   297
26.9641   341
26.9741   307
26.9841   348
26.9941   343
27.0041   322
27.0141   343
27.0241   319
27.0341   294
27.0441   267
27.0541   327
27.0641   316
27.0741   294
27.0841   337
27.0941   307
27.1041   298
27.1141   315
27.1241   318
27.1341   282
27.1441   307
27.1541   321
27.1641   339
27.1741   301
27.1841   309
27.1941   315
27.2041   308
27.2141   310
27.2241   332
27.2341   341
27.2441   298
27.2541   306
27.2641   307
27.2741   302
27.2841   298
27.2941   312
27.3041   292
27.3141   303
27.3241   305
27.3341   306
27.3441   297
27.3541   303
27.3641   291
27.3741   323
27.3841   322
27.3941   329
27.4041   296
27.4141   337
27.4241   315
27.4341   311
27.4441   290
27.4541   312
27.4641   285
27.4741   324
27.4841   319
27.4941   304
27.5041   323
27.5141   292
27.5241   284
27.5341   276
27.5441   288
27.5541   305
27.5641   288
27.5741   295
27.5841   289
27.5941   267
27.6041   286
27.6141   292
27.6241   295
27.6341   263
27.6441   306
27.6541   279
27.6641   296
27.6741   285
27.6841   290
27.6941   292
27.7041   264
27.7141   282
27.7241   272
27.7341   281
27.7441   309
27.7541   291
27.7641   288
27.7741   294
27.7841   307
27.7941   302
27.8041   256
27.8141   286
27.8241   292
27.8341   306
27.8441   294
27.8541   289
27.8641   296
27.8741   284
27.8841   299
27.8941   274
27.9041   257
27.9141   291
27.9241   278
27.9341   259
27.9441   266
27.9541   285
27.9641   263
27.9741   279
27.9841   253
27.9941   283
28.0041   277
28.0141   266
28.0241   292
28.0341   280
28.0441   279
28.0541   266
28.0641   270
28.0741   274
28.0841   278
28.0941   273
28.1041   266
28.1141   285
28.1241   270
28.1341   303
28.1441   264
28.1541   269
28.1641   256
28.1741   281
28.1841   266
28.1941   248
28.2041   261
28.2141   267
28.2241   277
28.2341   283
28.2441   271
28.2541   248
28.2641   269
28.2741   248
28.2841   291
28.2941   277
28.3041   273
28.3141   282
28.3241   307
28.3341   258
28.3441   264
28.3541   264
28.3641   280
28.3741   264
28.3841   233
28.3941   260
28.4041   257
28.4141   271
28.4241   289
28.4341   265
28.4441   288
28.4541   260
28.4641   247
28.4741   269
28.4841   250
28.4941   282
28.5041   268
28.5141   265
28.5241   246
28.5341   276
28.5441   265
28.5541   276
28.5641   271
28.5741   268
28.5841   265
28.5941   254
28.6041   263
28.6141   262
28.6241   260
28.6341   248
28.6441   266
28.6541   272
28.6641   259
28.6741   267
28.6841   235
28.6941   268
28.7041   254
28.7141   268
28.7241   251
28.7341   246
28.7441   245
28.7541   247
28.7641   258
28.7741   268
28.7841   279
28.7941   261
28.8041   249
28.8141   264
28.8241   274
28.8341   257
28.8441   253
28.8541   237
28.8641   243
28.8741   243
28.8841   276
28.8941   243
28.9041   216
28.9141   244
28.9241   273
28.9341   239
28.9441   227
28.9541   275
28.9641   251
28.9741   229
28.9841   235
28.9941   245
29.0041   245
29.0141   218
29.0241   230
29.0341   270
29.0441   253
29.0541   247
29.0641   246
29.0741   238
29.0841   230
29.0941   246
29.1041   243
29.1141   255
29.1241   253
29.1341   224
29.1441   226
29.1541   212
29.1641   231
29.1741   213
29.1841   243
29.1941   253
29.2041   244
29.2141   248
29.2241   244
29.2341   241
29.2441   245
29.2541   253
29.2641   250
29.2741   243
29.2841   229
29.2941   237
29.3041   236
29.3141   225
29.3241   227
29.3341   249
29.3441   211
29.3541   241
29.3641   225
29.3741   241
29.3841   230
29.3941   221
29.4041   206
29.4141   222
29.4241   228
29.4341   251
29.4441   241
29.4541   244
29.4641   221
29.4741   212
29.4841   227
29.4941   233
29.5041   232
29.5141   229
29.5241   228
29.5341   247
29.5441   218
29.5541   236
29.5641   220
29.5741   239
29.5841   206
29.5941   229
29.6041   254
29.6141   222
29.6241   229
29.6341   229
29.6441   213
29.6541   209
29.6641   213
29.6741   214
29.6841   220
29.6941   205
29.7041   218
29.7141   218
29.7241   235
29.7341   227
29.7441   221
29.7541   200
29.7641   231
29.7741   224
29.7841   194
29.7941   213
29.8041   212
29.8141   211
29.8241   214
29.8341   207
29.8441   216
29.8541   222
29.8641   239
29.8741   189
29.8841   212
29.8941   233
29.9041   236
29.9141   203
29.9241   211
29.9341   220
29.9441   209
29.9541   207
29.9641   220
29.9741   233
29.9841   184
29.9941   199
30.0041   226
30.0141   216
30.0241   202
30.0341   204
30.0441   224
30.0541   206
30.0641   208
30.0741   191
30.0841   191
30.0941   204
30.1041   212
30.1141   204
30.1241   251
30.1341   201
30.1441   180
30.1541   199
30.1641   204
30.1741   200
30.1841   180
30.1941   212
30.2041   197
30.2141   223
30.2241   220
30.2341   190
30.2441   202
30.2541   205
30.2641   204
30.2741   210
30.2841   216
30.2941   251
30.3041   233
30.3141   184
30.3241   188
30.3341   196
30.3441   203
30.3541   220
30.3641   182
30.3741   164
30.3841   214
30.3941   187
30.4041   193
30.4141   229
30.4241   195
30.4341   184
30.4441   187
30.4541   175
30.4641   202
30.4741   166
30.4841   210
30.4941   210
30.5041   206
30.5141   199
30.5241   215
30.5341   197
30.5441   199
30.5541   202
30.5641   201
30.5741   180
30.5841   225
30.5941   204
30.6041   183
30.6141   178
30.6241   176
30.6341   192
30.6441   202
30.6541   190
30.6641   182
30.6741   170
30.6841   188
30.6941   186
30.7041   191
30.7141   205
30.7241   196
30.7341   174
30.7441   187
30.7541   152
30.7641   176
30.7741   184
30.7841   195
30.7941   185
30.8041   182
30.8141   182
30.8241   175
30.8341   206
30.8441   172
30.8541   183
30.8641   170
30.8741   186
30.8841   175
30.8941   170
30.9041   195
30.9141   181
30.9241   186
30.9341   176
30.9441   167
30.9541   210
30.9641   182
30.9741   194
30.9841   178
30.9941   178
31.0041   143
31.0141   156
31.0241   160
31.0341   181
31.0441   202
31.0541   177
31.0641   173
31.0741   179
31.0841   193
31.0941   164
31.1041   196
31.1141   190
31.1241   192
31.1341   173
31.1441   164
31.1541   175
31.1641   174
31.1741   171
31.1841   167
31.1941   185
31.2041   166
31.2141   197
31.2241   187
31.2341   180
31.2441   188
31.2541   161
31.2641   151
31.2741   193
31.2841   187
31.2941   176
31.3041   192
31.3141   155
31.3241   162
31.3341   161
31.3441   155
31.3541   170
31.3641   166
31.3741   165
31.3841   173
31.3941   173
31.4041   173
31.4141   167
31.4241   192
31.4341   173
31.4441   152
31.4541   152
31.4641   159
31.4741   177
31.4841   166
31.4941   150
31.5041   189
31.5141   170
31.5241   158
31.5341   171
31.5441   162
31.5541   177
31.5641   172
31.5741   158
31.5841   188
31.5941   176
31.6041   166
31.6141   176
31.6241   154
31.6341   184
31.6441   177
31.6541   174
31.6641   158
31.6741   151
31.6841   153
31.6941   173
31.7041   169
31.7141   172
31.7241   180
31.7341   157
31.7441   174
31.7541   166
31.7641   153
31.7741   160
31.7841   202
31.7941   154
31.8041   170
31.8141   169
31.8241   175
31.8341   163
31.8441   165
31.8541   162
31.8641   163
31.8741   172
31.8841   162
31.8941   150
31.9041   153
31.9141   148
31.9241   137
31.9341   154
31.9441   173
31.9541   156
31.9641   141
31.9741   155
31.9841   187
31.9941   173
32.0041   170
32.0141   160
32.0241   174
32.0341   164
32.0441   149
32.0541   156
32.0641   184
32.0741   174
32.0841   155
32.0941   177
32.1041   180
32.1141   173
32.1241   161
32.1341   165
32.1441   155
32.1541   153
32.1641   179
32.1741   175
32.1841   189
32.1941   168
32.2041   181
32.2141   169
32.2241   165
32.2341   167
32.2441   140
32.2541   176
32.2641   165
32.2741   151
32.2841   154
32.2941   161
32.3041   155
32.3141   168
32.3241   156
32.3341   177
32.3441   160
32.3541   142
32.3641   168
32.3741   152
32.3841   166
32.3941   153
32.4041   149
32.4141   162
32.4241   138
32.4341   156
32.4441   166
32.4541   159
32.4641   150
32.4741   139
32.4841   147
32.4941   139
32.5041   126
32.5141   131
32.5241   128
32.5341   140
32.5441   137
32.5541   138
32.5641   150
32.5741   142
32.5841   161
32.5941   134
32.6041   109
32.6141   116
32.6241   135
32.6341   128
32.6441   129
32.6541   135
32.6641   147
32.6741   115
32.6841   128
32.6941   133
32.7041   129
32.7141   125
32.7241   133
32.7341   149
32.7441   117
32.7541   119
32.7641   116
32.7741   138
32.7841   146
32.7941   127
32.8041   141
32.8141   139
32.8241   116
32.8341   137
32.8441   124
32.8541   137
32.8641   128
32.8741   141
32.8841   128
32.8941   135
32.9041   126
32.9141   140
32.9241   112
32.9341   121
32.9441   133
32.9541   110
32.9641   120
32.9741   116
32.9841   125
32.9941   137
33.0041   124
33.0141   115
33.0241   126
33.0341   113
33.0441   117
33.0541   144
33.0641   137
33.0741   128
33.0841   117
33.0941   136
33.1041   105
33.1141   101
33.1241   112
33.1341   124
33.1441   105
33.1541   126
33.1641   116
33.1741   132
33.1841   128
33.1941   131
33.2041   105
33.2141   115
33.2241   127
33.2341   129
33.2441   124
33.2541   142
33.2641   115
33.2741   144
33.2841   115
33.2941   128
33.3041   131
33.3141   120
33.3241   122
33.3341   124
33.3441   121
33.3541   129
33.3641   121
33.3741   116
33.3841   114
33.3941   128
33.4041   133
33.4141   112
33.4241   112
33.4341   122
33.4441   122
33.4541   128
33.4641   115
33.4741   127
33.4841   112
33.4941   118
33.5041   116
33.5141   111
33.5241   125
33.5341   123
33.5441   118
33.5541    95
33.5641   104
33.5741   111
33.5841   119
33.5941   112
33.6041   122
33.6141   120
33.6241   112
33.6341   115
33.6441   114
33.6541   113
33.6641   112
33.6741   102
33.6841   112
33.6941   105
33.7041   130
33.7141   115
33.7241   130
33.7341   116
33.7441   100
33.7541   118
33.7641   110
33.7741   114
33.7841   107
33.7941   101
33.8041   106
33.8141   106
33.8241    88
33.8341   109
33.8441   118
33.8541   111
33.8641    94
33.8741   109
33.8841   121
33.8941   100
33.9041   121
33.9141   119
33.9241   109
33.9341   118
33.9441    94
33.9541    82
33.9641    97
33.9741    93
33.9841    98
33.9941   120
34.0041   105
34.0141   117
34.0241   100
34.0341   101
34.0441    98
34.0541    99
34.0641   124
34.0741    82
34.0841   108
34.0941   118
34.1041   106
34.1141   104
34.1241   102
34.1341    89
34.1441   102
34.1541    86
34.1641   110
34.1741   103
34.1841    99
34.1941   106
34.2041    93
34.2141   115
34.2241    93
34.2341   110
34.2441   103
34.2541   114
34.2641   113
34.2741    98
34.2841    99
34.2941   123
34.3041   102
34.3141   103
34.3241    86
34.3341   109
34.3441    98
34.3541   109
34.3641    93
34.3741    88
34.3841    91
34.3941   108
34.4041    94
34.4141    86
34.4241    99
34.4341    89
34.4441    97
34.4541    78
34.4641    87
34.4741    91
34.4841    90
34.4941    96
34.5041    95
34.5141   103
34.5241    86
34.5341    95
34.5441    86
34.5541    81
34.5641    82
34.5741    99
34.5841    83
34.5941    94
34.6041   108
34.6141    79
34.6241    95
34.6341    85
34.6441    83
34.6541    82
34.6641    88
34.6741    88
34.6841    91
34.6941    95
34.7041    85
34.7141   111
34.7241   110
34.7341    96
34.7441    84
34.7541   107
34.7641    87
34.7741    92
34.7841    89
34.7941   116
34.8041    93
34.8141    94
34.8241    99
34.8341    99
34.8441    89
34.8541    99
34.8641    90
34.8741    79
34.8841   108
34.8941    82
34.9041    91
34.9141    91
34.9241   100
34.9341    93
34.9441    79
34.9541    77
34.9641    94
34.9741    79
34.9841    82
34.9941    92
35.0041    82
35.0141    88
35.0241    81
35.0341    80
35.0441    83
35.0541    85
35.0641    78
35.0741    74
35.0841    92
35.0941    96
35.1041    95
35.1141    90
35.1241    81
35.1341    80
35.1441    93
35.1541    81
35.1641    82
35.1741    88
35.1841    91
35.1941    87
35.2041    75
35.2141    82
35.2241    85
35.2341    60
35.2441    81
35.2541    74
35.2641    92
35.2741    84
35.2841    86
35.2941    83
35.3041    72
35.3141    81
35.3241    83
35.3341    78
35.3441    72
35.3541    83
35.3641    77
35.3741    69
35.3841    79
35.3941    81
35.4041    74
35.4141    79
35.4241    84
35.4341    86
35.4441    68
35.4541    72
35.4641    81
35.4741    94
35.4841    93
35.4941    77
35.5041    82
35.5141    62
35.5241    76
35.5341    79
35.5441    94
35.5541    86
35.5641    69
35.5741    88
35.5841    77
35.5941    66
35.6041    79
35.6141    92
35.6241    74
35.6341    69
35.6441    67
35.6541    70
35.6641    67
35.6741    79
35.6841    81
35.6941    65
35.7041    81
35.7141    66
35.7241    81
35.7341    76
35.7441    70
35.7541    69
35.7641    64
35.7741    80
35.7841    73
35.7941    72
35.8041    80
35.8141    79
35.8241    66
35.8341    78
35.8441    74
35.8541    80
35.8641    67
35.8741    66
35.8841    84
35.8941    76
35.9041    78
35.9141    68
35.9241    72
35.9341    77
35.9441    63
35.9541    70
35.9641    80
35.9741    82
35.9841    68
35.9941    83
36.0041    78
36.0141    65
36.0241    74
36.0341    83
36.0441    86
36.0541    63
36.0641    71
36.0741    80
36.0841    74
36.0941    63
36.1041    72
36.1141    56
36.1241    81
36.1341    73
36.1441    74
36.1541    75
36.1641    67
36.1741    65
36.1841    75
36.1941    77
36.2041    67
36.2141    76
36.2241    66
36.2341    71
36.2441    59
36.2541    68
36.2641    65
36.2741    75
36.2841    76
36.2941    71
36.3041    80
36.3141    61
36.3241    62
36.3341    81
36.3441    73
36.3541    72
36.3641    59
36.3741    54
36.3841    63
36.3941    69
36.4041    80
36.4141    59
36.4241    56
36.4341    65
36.4441    69
36.4541    55
36.4641    56
36.4741    80
36.4841    71
36.4941    80
36.5041    65
36.5141    67
36.5241    47
36.5341    63
36.5441    66
36.5541    65
36.5641    57
36.5741    73
36.5841    61
36.5941    52
36.6041    64
36.6141    43
36.6241    43
36.6341    58
36.6441    62
36.6541    65
36.6641    51
36.6741    58
36.6841    70
36.6941    66
36.7041    52
36.7141    49
36.7241    55
36.7341    56
36.7441    74
36.7541    50
36.7641    69
36.7741    60
36.7841    57
36.7941    57
36.8041    67
36.8141    57
36.8241    56
36.8341    63
36.8441    48
36.8541    68
36.8641    70
36.8741    58
36.8841    62
36.8941    60
36.9041    68
36.9141    55
36.9241    63
36.9341    51
36.9441    46
36.9541    58
36.9641    62
36.9741    53
36.9841    47
36.9941    47
37.0041    60
37.0141    69
37.0241    47
37.0341    42
37.0441    76
37.0541    57
37.0641    52
37.0741    53
37.0841    52
37.0941    55
37.1041    47
37.1141    55
37.1241    48
37.1341    62
37.1441    45
37.1541    55
37.1641    60
37.1741    51
37.1841    56
37.1941    46
37.2041    39
37.2141    48
37.2241    55
37.2341    55
37.2441    47
37.2541    59
37.2641    52
37.2741    57
37.2841    59
37.2941    49
37.3041    54
37.3141    50
37.3241    59
37.3341    40
37.3441    48
37.3541    49
37.3641    52
37.3741    47
37.3841    46
37.3941    39
37.4041    55
37.4141    63
37.4241    47
37.4341    43
37.4441    57
37.4541    41
37.4641    43
37.4741    47
37.4841    57
37.4941    57
37.5041    63
37.5141    51
37.5241    44
37.5341    38
37.5441    45
37.5541    50
37.5641    54
37.5741    35
37.5841    61
37.5941    51
37.6041    43
37.6141    43
37.6241    52
37.6341    49
37.6441    46
37.6541    47
37.6641    49
37.6741    56
37.6841    45
37.6941    42
37.7041    46
37.7141    50
37.7241    46
37.7341    48
37.7441    54
37.7541    43
37.7641    40
37.7741    44
37.7841    51
37.7941    50
37.8041    35
37.8141    41
37.8241    47
37.8341    33
37.8441    38
37.8541    45
37.8641    40
37.8741    31
37.8841    41
37.8941    44
37.9041    37
37.9141    46
37.9241    49
37.9341    53
37.9441    43
37.9541    45
37.9641    37
37.9741    49
37.9841    33
37.9941    44
38.0041    45
38.0141    45
38.0241    51
38.0341    40
38.0441    44
38.0541    57
38.0641    51
38.0741    50
38.0841    49
38.0941    44
38.1041    39
38.1141    46
38.1241    46
38.1341    51
38.1441    44
38.1541    40
38.1641    33
38.1741    51
38.1841    44
38.1941    39
38.2041    39
38.2141    39
38.2241    44
38.2341    49
38.2441    56
38.2541    47
38.2641    37
38.2741    31
38.2841    29
38.2941    32
38.3041    41
38.3141    41
38.3241    42
38.3341    49
38.3441    39
38.3541    35
38.3641    44
38.3741    39
38.3841    29
38.3941    37
38.4041    51
38.4141    37
38.4241    33
38.4341    36
38.4441    42
38.4541    36
38.4641    37
38.4741    37
38.4841    31
38.4941    42
38.5041    28
38.5141    28
38.5241    38
38.5341    47
38.5441    39
38.5541    29
38.5641    43
38.5741    33
38.5841    37
38.5941    32
38.6041    37
38.6141    32
38.6241    33
38.6341    43
38.6441    35
38.6541    31
38.6641    25
38.6741    60
38.6841    25
38.6941    40
38.7041    26
38.7141    31
38.7241    41
38.7341    26
38.7441    34
38.7541    43
38.7641    26
38.7741    24
38.7841    31
38.7941    43
38.8041    42
38.8141    35
38.8241    31
38.8341    37
38.8441    41
38.8541    40
38.8641    38
38.8741    33
38.8841    32
38.8941    39
38.9041    25
38.9141    36
38.9241    29
38.9341    31
38.9441    34
38.9541    22
38.9641    30
38.9741    33
38.9841    26
38.9941    29
39.0041    24
39.0141    29
39.0241    40
39.0341    36
39.0441    43
39.0541    31
39.0641    30
39.0741    36
39.0841    33
39.0941    22
39.1041    32
39.1141    28
39.1241    34
39.1341    31
39.1441    26
39.1541    20
39.1641    30
39.1741    34
39.1841    27
39.1941    24
39.2041    26
39.2141    33
39.2241    19
39.2341    34
39.2441    32
39.2541    32
39.2641    41
39.2741    29
39.2841    38
39.2941    31
39.3041    25
39.3141    29
39.3241    20
39.3341    28
39.3441    22
39.3541    30
39.3641    22
39.3741    26
39.3841    32
39.3941    24
39.4041    26
39.4141    25
39.4241    23
39.4341    29
39.4441    14
39.4541    28
39.4641    26
39.4741    21
39.4841    30
39.4941    22
39.5041    27
39.5141    26
39.5241    35
39.5341    37
39.5441    29
39.5541    29
39.5641    37
39.5741    33
39.5841    26
39.5941    24
39.6041    17
39.6141    26
39.6241    27
39.6341    23
39.6441    17
39.6541    24
39.6641    22
39.6741    14
39.6841    23
39.6941    24
39.7041    23
39.7141    36
39.7241    20
39.7341    32
39.7441    33
39.7541    20
39.7641    25
39.7741    23
39.7841    27
39.7941    28
39.8041    23
39.8141    22
39.8241    20
39.8341    19
39.8441    23
39.8541    26
39.8641    28
39.8741    31
39.8841    22
39.8941    23
39.9041    27
39.9141    33
39.9241    31
39.9341    29
39.9441    29
39.9541    29
39.9641    32
39.9741    27
39.9841    22
